timestamps,TP9,AF7,AF8,TP10,Right AUX,Marker0
152078.317,15.137,47.363,35.156,40.039,-30.273,0
152078.321,49.805,49.316,25.391,50.781,-6.836,0
152078.325,58.105,41.016,24.902,46.875,58.594,0
152078.329,41.016,35.645,40.039,41.016,64.941,0
152078.332,21.973,40.527,40.527,36.621,-23.438,0
152078.336,24.902,38.574,26.367,31.250,-64.453,0
152078.340,49.805,39.062,28.809,41.016,30.762,0
152078.344,63.477,45.410,41.992,47.852,60.547,0
152078.348,43.945,47.852,28.320,34.180,-41.992,0
152078.352,18.066,45.898,14.160,20.996,-6.836,0
152078.356,36.133,45.898,26.855,36.133,105.957,0
152078.360,44.434,45.410,35.645,39.551,90.820,0
152078.378,30.273,43.945,30.273,29.785,17.578,0
152078.382,29.297,45.410,18.066,41.016,-23.438,0
152078.386,53.223,46.875,16.602,46.875,21.973,0
152078.390,65.430,42.480,36.133,34.668,94.238,0
152078.394,30.273,29.297,48.340,21.973,90.332,0
152078.398,6.348,25.391,39.062,24.414,5.371,0
152078.401,37.109,42.969,31.250,40.039,31.738,0
152078.405,51.270,48.828,27.832,30.273,81.543,0
152078.409,32.227,42.969,23.926,11.719,37.109,0
152078.413,4.883,40.039,32.227,13.672,5.371,0
152078.417,7.812,36.133,32.227,24.902,39.062,0
152078.421,47.363,36.621,18.066,36.133,76.660,0
152078.407,62.012,43.945,26.367,46.387,53.223,0
152078.411,17.578,42.969,34.668,40.039,1.953,0
152078.415,2.441,39.551,27.832,25.879,-41.016,0
152078.418,44.922,38.086,1.953,38.086,18.555,0
152078.422,61.523,34.180,-31.738,45.410,61.035,0
152078.426,23.438,39.551,4.395,46.875,-12.695,0
152078.430,1.465,40.039,61.523,49.316,-26.367,0
152078.434,28.809,37.598,65.918,31.250,24.902,0
152078.438,46.387,41.016,52.734,25.391,57.129,0
152078.442,40.527,43.457,47.363,32.227,30.762,0
152078.446,26.367,41.992,39.062,25.879,-16.602,0
152078.450,31.250,39.551,29.297,33.691,-9.766,0
152078.467,39.062,43.945,31.250,36.621,61.523,1
152078.471,39.551,35.156,34.180,30.273,77.148,0
152078.475,35.156,26.855,26.367,36.621,-14.648,0
152078.479,31.738,51.758,19.043,49.805,-23.926,0
152078.483,43.945,57.129,17.090,50.781,43.457,0
152078.487,39.062,41.016,21.484,30.762,60.059,0
152078.491,20.020,39.551,23.926,27.344,22.461,0
152078.495,14.160,47.363,21.973,29.297,-5.371,0
152078.498,45.898,52.246,20.996,34.668,43.945,0
152078.502,56.641,45.898,24.902,37.109,63.965,0
152078.506,35.156,40.527,31.738,25.391,3.418,0
152078.510,42.480,40.039,22.949,32.715,-55.664,0
152078.497,52.734,39.551,11.719,44.922,24.414,0
152078.501,43.945,34.180,26.855,46.875,94.238,0
152078.505,41.504,32.227,40.039,40.527,46.387,0
152078.508,27.344,33.691,29.785,30.762,-7.812,0
152078.512,25.391,37.598,22.949,39.551,31.738,0
152078.516,44.922,42.480,34.180,42.969,105.469,0
152078.520,32.715,37.109,44.922,18.555,70.312,0
152078.524,21.973,33.203,25.879,12.207,-32.227,0
152078.528,23.438,34.668,6.836,24.414,-39.062,0
152078.532,15.625,38.086,19.531,17.090,8.301,0
152078.536,36.621,42.480,28.809,11.230,19.531,0
152078.540,22.949,44.434,28.809,22.461,-20.996,0
152078.542,0.488,35.156,31.738,21.484,-23.438,0
152078.546,34.668,27.344,29.785,26.855,44.434,0
152078.549,55.176,24.414,23.926,41.016,80.566,0
152078.553,36.621,21.973,20.508,42.969,28.809,0
152078.557,15.137,22.949,19.531,33.203,-14.160,0
152078.561,28.320,34.668,27.344,27.832,23.438,0
152078.565,39.062,38.574,31.250,25.391,66.895,0
152078.569,13.672,34.668,30.273,21.973,46.387,0
152078.573,2.441,34.668,29.297,26.367,14.160,0
152078.577,24.414,35.156,28.809,27.344,20.508,0
152078.581,54.688,33.203,23.926,30.273,83.008,0
152078.585,55.176,34.180,15.137,33.203,123.535,0
152078.588,16.602,36.621,9.766,34.180,33.203,0
152078.592,8.301,33.691,27.344,31.738,8.789,0
152078.596,40.039,34.180,35.645,36.133,73.730,0
152078.600,54.199,30.762,28.320,38.574,54.688,0
152078.604,41.992,20.508,34.668,42.480,-0.977,0
152078.608,24.902,32.715,33.203,44.434,-41.992,0
152078.611,39.551,47.363,23.926,36.133,24.902,0
152078.615,61.035,42.969,18.066,40.039,90.820,0
152078.619,54.199,41.504,20.508,40.527,72.266,0
152078.623,18.555,37.598,28.320,31.738,33.203,0
152078.627,32.715,28.320,30.762,33.203,55.176,0
152078.631,51.270,28.320,28.809,36.621,86.914,0
152078.647,19.531,32.715,28.320,31.738,85.938,0
152078.651,1.465,34.180,28.320,32.227,6.836,0
152078.655,10.254,33.691,27.832,32.227,-0.977,0
152078.659,41.992,33.691,21.973,32.715,100.586,0
152078.662,47.363,35.156,17.090,28.320,87.402,0
152078.666,26.855,34.668,20.996,25.879,27.832,0
152078.670,21.973,30.273,20.020,39.551,16.113,0
152078.674,59.570,30.273,15.625,60.059,80.078,0
152078.678,58.594,33.203,16.113,59.082,121.094,0
152078.682,17.578,30.273,20.508,44.922,57.617,0
152078.686,41.016,30.762,26.367,50.781,-9.766,0
152078.690,69.336,34.180,27.344,62.012,26.855,0
152078.692,58.105,34.180,23.926,66.895,60.059,0
152078.696,36.133,34.180,20.996,59.082,16.113,0
152078.700,41.504,30.273,14.160,59.570,-28.809,0
152078.703,52.734,27.832,10.254,65.918,19.531,0
152078.707,46.875,33.203,17.090,65.430,73.242,0
152078.711,54.688,38.574,31.738,53.223,65.918,0
152078.715,60.547,34.180,42.480,40.527,23.438,0
152078.719,41.992,29.785,41.504,49.316,9.766,0
152078.723,33.203,34.668,24.902,54.688,21.973,0
152078.727,54.199,36.621,12.695,57.617,22.949,0
152078.731,43.457,33.691,33.203,59.570,14.160,0
152078.735,27.832,27.344,40.039,50.781,3.418,0
152078.737,48.828,29.297,30.762,48.828,48.828,0
152078.741,63.965,27.344,31.250,50.293,96.680,0
152078.745,32.227,21.484,29.785,41.016,94.727,0
152078.749,18.066,32.715,31.738,35.645,43.945,0
152078.753,39.062,33.203,33.203,41.504,34.668,0
152078.757,52.246,31.250,17.578,43.945,85.449,0
152078.760,35.645,36.621,0.977,36.133,92.285,0
152078.764,22.949,32.227,18.066,34.180,20.996,0
152078.768,39.551,30.762,43.945,38.086,20.996,0
152078.772,60.547,34.180,38.086,42.969,105.469,0
152078.776,35.156,25.879,21.973,38.574,87.402,0
152078.780,-4.395,22.461,26.367,32.227,-24.414,0
152078.798,10.254,31.250,34.668,32.227,-41.992,0
152078.802,39.551,33.691,36.133,34.180,48.340,0
152078.806,49.805,28.320,34.180,38.574,71.777,0
152078.810,29.785,28.320,29.785,37.598,25.391,0
152078.814,17.090,30.762,20.996,33.691,44.922,0
152078.818,48.340,32.715,29.297,44.922,34.668,0
152078.821,56.152,33.203,41.504,50.293,-5.859,0
152078.825,31.250,30.762,36.133,39.551,-27.832,0
152078.829,23.438,28.320,42.480,46.875,-70.312,0
152078.833,33.203,27.832,45.898,46.875,-3.906,0
152078.837,47.852,36.621,34.180,36.133,55.176,0
152078.841,41.992,39.062,27.832,39.062,20.996,0
152078.828,30.273,32.227,30.762,35.156,-15.625,0
152078.832,51.758,32.715,33.691,41.504,18.555,0
152078.836,62.012,31.250,33.691,48.828,75.195,0
152078.840,47.363,25.391,31.738,41.504,54.688,0
152078.844,26.367,36.621,24.414,41.016,-11.719,0
152078.848,24.902,43.457,26.855,44.434,-20.996,0
152078.851,45.410,37.109,43.457,41.504,32.227,0
152078.855,46.875,31.738,47.852,30.273,60.547,0
152078.859,35.645,36.621,42.969,30.273,22.949,0
152078.863,24.902,41.016,34.180,35.156,-15.625,0
152078.867,38.086,35.645,30.762,30.762,19.043,0
152078.871,44.434,37.109,36.133,21.484,9.766,0
152078.872,36.621,37.598,34.668,14.160,-7.812,0
152078.876,15.625,35.645,30.762,17.090,-15.137,0
152078.880,19.043,35.156,28.320,26.855,-10.254,0
152078.884,37.109,33.203,32.227,31.250,36.133,0
152078.887,26.855,36.621,22.949,33.203,62.012,0
152078.891,15.137,40.527,19.043,19.531,30.273,0
152078.895,21.484,36.133,42.969,21.973,-35.645,0
152078.899,41.992,32.227,52.734,34.180,1.953,0
152078.903,33.691,35.156,38.574,11.719,64.453,0
152078.907,16.113,35.645,28.809,8.301,5.371,0
152078.911,30.273,32.227,34.180,29.785,-7.324,0
152078.915,46.875,27.832,35.156,37.598,39.062,0
152078.917,29.297,17.090,33.203,28.809,40.527,0
152078.921,21.484,24.902,36.133,26.855,16.113,0
152078.925,18.066,42.969,38.574,31.738,-7.324,0
152078.928,28.809,39.551,34.180,38.086,37.109,0
152078.932,47.363,32.715,27.344,42.969,92.773,0
152078.936,28.809,33.691,43.457,31.738,44.922,0
152078.940,3.906,34.180,59.082,24.414,-19.043,0
152078.944,17.090,35.156,59.082,42.969,12.695,0
152078.948,44.434,39.062,60.059,51.270,76.660,0
152078.952,45.410,38.086,52.734,41.016,30.762,0
152078.956,8.301,32.227,42.480,32.227,-15.625,0
152078.960,8.301,34.668,44.922,36.621,33.691,0
152078.977,40.527,34.668,50.293,42.480,134.766,0
152078.981,40.527,33.203,49.316,40.039,140.137,0
152078.985,10.742,36.133,45.410,42.480,51.758,0
152078.989,0.000,34.180,44.434,39.062,19.531,0
152078.992,32.715,30.273,43.457,29.785,83.008,0
152078.996,52.246,31.738,39.062,33.203,80.078,0
152079.000,31.250,37.598,26.855,29.785,-4.395,0
152079.004,11.719,36.133,22.949,32.227,-43.945,0
152079.008,37.598,36.621,42.480,41.992,0.977,0
152079.012,57.129,37.598,50.293,39.062,39.062,0
152079.016,28.320,25.879,50.293,32.715,17.578,0
152079.020,12.695,31.738,49.805,34.668,-23.438,0
152079.022,30.762,44.922,41.504,44.434,10.254,0
152079.026,51.758,45.410,36.133,54.688,102.051,0
152079.030,57.617,51.270,40.527,47.852,136.230,0
152079.033,49.805,42.480,51.270,29.785,60.059,0
152079.037,22.461,31.738,51.270,29.785,0.488,2
152079.041,28.809,34.180,34.668,34.668,34.668,0
152079.045,56.152,40.039,39.551,38.086,40.527,0
152079.049,28.320,40.527,51.758,35.156,-3.418,0
152079.053,22.461,36.621,49.805,24.902,-23.926,0
152079.057,45.898,37.598,41.016,24.414,5.371,0
152079.061,43.945,43.457,27.832,33.203,56.641,0
152079.065,45.898,41.992,39.551,32.227,44.434,0
152079.067,31.250,31.738,39.551,25.879,0.000,0
152079.071,30.762,31.250,33.691,28.809,1.953,0
152079.075,50.293,36.621,49.316,31.738,45.898,0
152079.078,42.480,41.016,56.641,25.391,15.137,0
152079.082,21.484,40.527,53.711,25.391,-40.039,0
152079.086,42.969,41.992,37.598,35.156,-18.066,0
152079.090,58.105,35.156,26.367,34.180,64.453,0
152079.094,30.762,25.391,32.715,34.180,72.754,0
152079.098,28.809,39.062,43.945,20.508,21.973,0
152079.102,30.762,45.898,51.270,18.066,-8.789,0
152079.106,28.809,37.598,48.828,34.668,44.922,0
152079.110,39.551,32.715,43.457,31.250,81.055,0
152079.113,25.391,34.180,41.504,21.973,12.207,0
152079.117,18.066,35.156,29.785,28.809,-8.301,0
152079.121,47.852,38.086,21.973,42.969,38.574,0
152079.125,54.199,37.598,30.762,40.039,62.012,0
152079.129,22.461,39.062,45.410,28.320,12.207,0
152079.133,11.230,42.480,52.734,32.227,-37.109,0
152079.136,48.340,42.480,47.363,43.945,66.406,0
152079.140,70.312,39.062,44.922,50.293,122.559,0
152079.144,44.922,35.645,54.199,46.387,28.809,0
152079.148,21.484,34.180,60.059,34.180,-25.391,0
152079.152,30.762,32.715,58.594,40.039,17.090,0
152079.156,47.852,30.273,54.688,34.180,73.242,0
152079.157,37.109,32.227,50.293,21.484,76.660,0
152079.161,28.320,37.109,48.340,28.320,27.344,0
152079.165,30.762,38.574,42.969,23.926,-13.184,0
152079.168,50.781,29.297,44.434,28.320,44.922,0
152079.172,61.035,36.621,47.363,41.504,89.844,0
152079.176,46.875,53.223,28.809,31.738,26.855,0
152079.180,26.855,46.387,22.949,32.715,-14.648,0
152079.184,27.344,32.227,41.016,37.109,-22.949,0
152079.188,44.434,31.738,59.570,37.109,-3.418,0
152079.192,45.410,38.574,58.105,38.086,14.648,0
152079.196,30.762,39.062,48.828,26.855,-42.480,0
152079.200,23.926,38.086,49.805,28.809,-25.879,0
152079.202,36.133,37.109,47.852,38.086,74.219,0
152079.206,36.621,37.109,39.062,31.738,70.312,0
152079.210,26.367,34.668,41.504,11.719,-13.184,0
152079.214,8.301,28.320,48.340,12.695,-22.949,0
152079.217,26.367,28.320,46.875,27.832,63.965,0
152079.221,36.621,33.203,48.340,36.133,79.590,0
152079.225,20.020,34.668,47.852,37.598,-10.742,0
152079.229,32.227,34.668,39.551,44.922,-57.129,0
152079.233,46.387,32.227,30.273,47.363,27.344,0
152079.237,40.527,33.203,43.945,38.574,92.773,0
152079.241,21.484,33.203,62.012,31.738,20.508,0
152079.245,13.184,32.227,64.453,33.691,0.000,0
152079.247,35.156,29.785,61.523,41.016,73.242,0
152079.251,82.031,27.344,56.641,46.387,100.098,0
152079.255,42.480,33.203,59.082,47.363,73.242,0
152079.258,4.395,35.156,55.664,41.504,15.625,0
152079.262,36.621,26.855,51.758,48.340,58.105,0
152079.266,44.922,28.320,52.734,59.082,105.469,0
152079.270,48.828,41.992,34.180,47.852,60.547,0
152079.274,36.133,39.551,23.926,35.156,5.859,0
152079.278,36.621,36.133,51.270,45.410,-2.441,0
152079.282,55.176,36.621,65.918,49.805,65.430,0
152079.286,73.730,36.133,59.570,46.875,77.637,0
152079.290,36.133,35.156,50.293,33.203,35.156,0
152079.308,11.230,33.691,45.410,22.949,44.434,0
152079.312,50.293,33.203,45.898,41.016,62.988,0
152079.316,61.035,35.645,41.504,47.363,67.871,0
152079.319,51.270,40.039,33.691,36.621,22.461,0
152079.323,28.320,34.668,41.992,40.039,-19.531,0
152079.327,59.082,29.785,54.688,66.895,29.785,0
152079.331,86.426,35.156,55.664,54.688,63.965,0
152079.335,35.645,37.109,51.758,31.250,46.875,0
152079.339,21.973,34.668,46.387,31.250,3.418,0
152079.343,50.781,34.180,41.504,38.086,5.371,0
152079.347,68.359,33.203,41.016,50.293,78.125,0
152079.351,57.129,32.227,38.086,47.363,55.664,0
152079.353,47.363,39.062,31.250,42.480,-23.926,0
152079.357,45.898,47.363,38.574,50.293,-25.879,0
152079.361,33.203,42.480,43.457,53.711,20.020,0
152079.365,38.574,36.621,41.504,48.340,39.551,0
152079.369,31.738,36.133,41.504,44.922,-6.836,0
152079.373,27.832,30.273,36.133,50.293,-36.133,0
152079.377,44.434,29.297,33.203,51.270,13.672,0
152079.380,58.105,37.109,41.992,48.828,53.223,0
152079.384,49.316,38.574,41.992,49.316,21.484,0
152079.388,31.250,31.738,32.715,47.852,-32.715,0
152079.392,44.434,29.785,35.645,50.781,-7.324,0
152079.396,64.453,34.180,42.969,57.129,68.359,0
152079.397,52.734,36.133,47.852,52.246,47.363,0
152079.401,40.039,32.227,49.316,45.410,-10.742,0
152079.405,38.086,31.738,47.852,53.711,22.461,0
152079.408,54.688,20.508,41.992,61.035,88.379,0
152079.412,67.383,21.484,41.016,56.152,54.688,0
152079.416,29.785,40.039,41.992,54.199,-2.930,0
152079.420,17.090,46.387,42.480,51.758,10.254,0
152079.424,43.945,47.363,43.457,52.734,61.523,0
152079.428,47.363,38.086,42.969,49.805,104.980,0
152079.432,29.297,31.738,42.480,44.922,33.691,0
152079.436,12.207,33.203,42.969,36.621,23.926,0
152079.440,29.785,33.203,44.922,31.250,135.742,0
152079.442,49.316,33.691,35.156,34.668,128.906,0
152079.446,15.137,33.203,25.391,26.855,55.664,0
152079.450,10.254,26.367,34.180,22.461,10.742,0
152079.453,31.250,29.785,44.922,20.020,9.766,0
152079.457,28.320,33.691,48.340,26.855,25.879,0
152079.461,24.902,31.250,45.898,32.227,17.090,0
152079.465,16.113,34.668,40.039,26.367,-3.906,0
152079.469,20.020,35.645,31.738,22.949,-2.930,0
152079.473,45.410,37.109,27.832,32.227,33.691,0
152079.477,36.621,37.109,35.156,31.250,25.391,0
152079.481,3.906,32.715,44.434,27.344,-17.090,0
152079.485,9.277,30.273,43.945,31.738,-6.836,0
152079.487,31.738,27.832,41.016,34.668,86.426,0
152079.491,36.621,27.832,44.922,38.086,98.633,0
152079.495,30.762,27.832,35.645,31.738,27.832,0
152079.499,21.973,23.926,19.531,25.879,-1.465,0
152079.502,18.066,24.414,28.320,38.086,47.852,0
152079.506,34.180,25.879,41.992,27.344,83.496,0
152079.510,14.160,29.297,44.922,14.160,54.199,0
152079.514,-2.441,25.391,46.875,18.066,-4.395,0
152079.518,25.391,24.902,48.340,29.785,16.113,0
152079.522,40.039,28.809,44.434,32.715,108.398,0
152079.526,30.762,31.250,36.133,22.461,87.891,0
152079.530,15.625,31.738,36.621,20.508,-3.418,0
152079.532,14.648,20.020,36.621,22.461,-11.230,0
152079.536,37.598,21.484,33.691,32.227,70.312,0
152079.540,40.039,36.621,36.133,28.809,102.539,0
152079.543,17.090,40.039,37.109,25.391,39.062,0
152079.547,12.695,39.062,34.668,28.320,-3.418,0
152079.551,32.715,35.156,31.738,33.691,32.715,0
152079.555,45.410,28.320,33.203,40.527,65.430,0
152079.559,47.363,30.273,35.156,26.367,54.688,0
152079.563,17.578,34.180,33.691,15.625,-0.977,0
152079.567,5.859,30.273,22.461,21.484,47.363,0
152079.571,26.855,26.367,12.695,21.973,102.539,0
152079.575,19.531,28.320,15.137,22.461,62.012,0
152079.592,8.789,31.250,26.855,21.973,3.906,0
152079.596,14.160,28.809,36.621,22.949,-15.137,0
152079.600,37.109,28.320,40.039,30.273,48.828,0
152079.604,28.320,30.762,41.016,32.227,17.578,0
152079.608,1.953,32.227,37.598,25.879,-43.945,0
152079.612,13.184,34.180,23.926,25.879,-9.277,0
152079.616,42.480,32.715,16.113,31.250,46.387,0
152079.620,49.805,31.738,26.855,26.855,43.457,0
152079.624,22.949,32.227,36.133,22.461,25.879,0
152079.628,9.277,29.785,35.156,24.902,24.902,0
152079.631,26.855,32.227,29.785,29.297,38.086,0
152079.635,46.387,31.250,27.344,30.273,48.340,0
152079.622,30.273,29.297,31.250,23.926,14.648,0
152079.626,6.348,27.832,34.668,22.461,-3.418,0
152079.630,26.855,28.809,30.762,28.320,21.973,0
152079.633,38.086,27.344,27.832,27.344,51.758,0
152079.637,21.484,26.367,25.391,15.137,34.180,0
152079.641,6.836,30.762,22.461,12.695,-26.367,0
152079.645,21.484,27.832,31.738,25.879,-44.434,0
152079.649,44.434,35.156,35.156,29.785,35.645,0
152079.653,47.852,42.969,35.156,30.273,66.895,0
152079.657,20.996,32.227,33.203,23.926,15.137,0
152079.661,6.348,28.809,13.184,21.973,-36.133,0
152079.665,23.438,33.203,2.930,17.578,33.203,0
152079.667,22.949,33.691,35.156,17.090,107.422,0
152079.671,27.344,39.062,62.988,26.855,22.461,0
152079.675,25.391,33.203,57.617,15.625,-11.719,0
152079.678,20.508,27.832,47.852,14.160,83.496,0
152079.682,23.926,29.297,24.414,24.902,104.004,0
152079.686,28.809,33.203,14.160,24.414,36.621,0
152079.690,31.738,33.691,34.180,26.367,-24.902,0
152079.694,27.832,28.809,46.387,25.879,-14.160,0
152079.698,36.133,30.762,47.852,33.691,48.340,0
152079.702,33.691,29.297,46.875,30.273,38.086,0
152079.706,15.625,24.414,42.969,14.160,-26.367,0
152079.710,21.484,25.879,41.016,21.484,-18.555,0
152079.727,45.410,20.996,41.992,31.250,69.336,1
152079.731,45.898,25.391,38.574,35.156,93.750,0
152079.735,34.180,39.062,26.855,35.156,10.254,0
152079.739,10.254,36.621,21.484,29.297,8.301,0
152079.743,19.043,30.273,24.902,28.320,87.891,0
152079.746,32.715,24.902,32.715,29.785,94.727,0
152079.750,16.113,25.391,34.180,20.996,47.852,0
152079.754,12.695,26.855,27.832,24.414,20.508,0
152079.758,35.156,23.926,39.551,35.645,54.688,0
152079.762,50.781,25.879,37.109,34.668,86.426,0
152079.766,33.691,25.391,20.996,22.949,71.289,0
152079.770,17.090,26.855,29.297,15.625,28.320,0
152079.772,39.062,33.203,44.922,20.508,9.766,0
152079.776,48.828,34.180,45.410,26.855,10.254,0
152079.780,37.598,26.367,32.715,28.809,0.488,0
152079.784,34.668,25.391,31.738,27.832,6.348,0
152079.788,24.902,30.273,34.668,29.297,17.090,0
152079.792,38.086,29.297,31.738,36.133,76.172,0
152079.795,41.016,26.367,29.297,32.715,107.422,0
152079.799,20.020,24.902,23.926,25.391,62.988,0
152079.803,15.137,25.879,21.484,20.996,62.500,0
152079.807,30.273,24.902,27.344,25.879,90.332,0
152079.811,39.551,21.484,33.691,38.574,91.309,0
152079.815,38.574,24.902,37.109,38.086,42.480,0
152079.817,17.090,26.855,41.992,33.691,1.465,0
152079.821,24.902,27.344,41.504,47.852,36.621,0
152079.825,50.781,30.273,36.621,50.293,83.008,0
152079.828,48.828,31.738,33.691,33.203,46.875,0
152079.832,33.203,22.949,24.902,30.762,-16.602,0
152079.836,10.254,25.391,11.719,35.645,7.812,0
152079.840,20.020,38.574,20.020,29.785,85.449,0
152079.844,28.809,41.504,25.879,25.391,73.730,0
152079.848,13.672,38.574,23.926,21.484,-37.598,0
152079.852,13.184,33.203,42.480,22.461,-41.992,0
152079.856,38.086,30.762,49.316,29.297,56.152,0
152079.860,50.293,32.715,38.574,34.668,64.453,0
152079.862,34.180,33.691,35.156,31.250,3.418,0
152079.866,32.715,32.715,33.203,28.809,-12.695,0
152079.870,56.641,35.645,29.297,41.504,56.152,0
152079.874,63.477,36.621,36.133,41.504,70.801,0
152079.877,43.457,29.785,40.039,26.367,19.043,0
152079.881,6.348,28.320,38.574,16.602,-38.086,0
152079.885,8.789,30.762,40.039,20.020,-14.160,0
152079.889,40.527,30.273,30.273,21.484,51.270,0
152079.893,26.855,33.203,26.855,20.020,44.922,0
152079.897,12.207,35.156,33.691,20.996,28.809,0
152079.901,26.367,34.668,30.762,27.344,21.484,0
152079.905,50.293,30.273,37.109,37.598,58.594,0
152079.907,41.992,24.902,41.992,38.574,80.566,0
152079.911,7.812,26.855,41.992,25.391,63.477,0
152079.915,7.324,20.996,41.504,25.879,34.668,0
152079.918,28.320,20.508,39.551,23.438,42.969,0
152079.922,41.016,37.109,36.621,25.879,23.926,0
152079.926,30.762,41.504,18.066,36.133,-27.344,0
152079.930,19.043,36.621,23.438,28.809,-33.691,0
152079.934,41.992,24.902,48.828,29.785,11.230,0
152079.938,43.945,19.043,55.664,31.738,27.832,0
152079.942,17.578,20.508,52.734,23.926,16.113,0
152079.946,14.648,22.949,51.270,22.461,-20.020,0
152079.950,35.156,25.391,45.410,31.738,10.742,0
152079.952,38.574,25.879,37.109,34.668,81.055,0
152079.956,31.738,25.391,39.551,27.344,64.941,0
152079.960,19.531,28.809,39.551,25.879,9.277,0
152079.964,25.391,35.156,45.898,28.809,36.621,0
152079.967,50.781,35.156,49.316,38.086,105.469,0
152079.971,46.387,32.715,39.062,38.574,73.730,0
152079.975,18.555,31.738,36.621,30.762,24.902,0
152079.979,24.414,29.785,37.109,24.414,-24.902,0
152079.983,47.363,27.344,29.785,26.855,10.742,0
152079.987,39.062,29.785,27.832,33.203,61.523,0
152079.991,17.578,27.344,40.039,22.949,6.836,0
152079.995,14.160,15.137,42.969,17.090,-18.555,0
152079.997,25.391,29.297,33.203,20.508,60.547,0
152080.001,42.480,45.898,35.156,25.391,85.938,0
152080.005,37.109,43.457,44.922,26.367,22.461,0
152080.008,20.508,40.527,26.367,30.273,-13.672,0
152080.012,31.250,35.645,9.766,33.691,17.090,0
152080.016,44.922,31.738,25.879,30.273,81.055,0
152080.020,36.621,31.738,36.133,21.973,51.270,0
152080.024,25.391,30.273,40.527,15.137,-15.137,0
152080.028,20.508,32.227,43.457,19.531,32.227,0
152080.032,42.969,28.320,37.598,27.832,88.379,0
152080.036,50.781,26.367,31.738,21.973,64.941,0
152080.040,12.695,35.645,34.180,19.531,-12.695,0
152080.043,13.184,38.574,42.480,30.762,5.371,0
152080.047,41.016,38.086,46.387,35.156,80.078,0
152080.051,37.109,39.551,44.922,34.180,64.453,0
152080.055,29.785,38.574,38.574,33.691,12.695,0
152080.059,26.855,35.645,32.227,34.180,-0.488,0
152080.063,44.434,34.180,35.156,43.457,35.645,0
152080.067,59.082,37.109,40.039,45.410,40.527,0
152080.070,39.551,33.203,30.762,34.180,29.785,0
152080.074,14.648,32.227,25.879,32.715,-0.977,0
152080.078,37.109,24.902,26.855,39.551,-0.488,0
152080.082,62.012,20.508,27.832,37.109,88.379,0
152080.086,35.645,37.598,31.250,34.668,97.656,0
152080.102,16.113,41.992,28.320,32.227,41.016,0
152080.106,23.438,41.504,39.551,29.785,-10.254,0
152080.110,47.363,37.109,47.852,33.203,51.758,0
152080.114,52.246,31.738,48.828,35.156,61.035,0
152080.118,32.715,31.250,50.781,30.273,2.441,0
152080.122,30.762,31.250,45.898,35.156,-2.930,0
152080.126,51.270,30.762,41.016,40.527,48.828,0
152080.130,60.059,31.738,37.598,42.480,120.117,0
152080.133,41.504,32.715,30.762,41.016,73.730,0
152080.137,22.461,35.156,28.809,39.551,18.555,0
152080.141,39.062,35.645,32.227,46.387,50.781,0
152080.145,76.172,34.668,23.438,50.781,88.379,0
152080.147,43.457,31.738,19.043,46.875,56.152,0
152080.151,4.883,26.367,32.715,37.598,3.418,0
152080.155,19.531,27.344,43.945,37.109,27.344,0
152080.159,34.668,29.785,47.363,47.363,72.266,0
152080.162,40.039,23.438,44.434,43.457,45.898,0
152080.166,20.020,20.508,44.434,25.391,1.465,0
152080.170,15.137,26.855,44.922,29.785,-0.977,0
152080.174,29.785,27.344,33.203,34.180,83.984,0
152080.178,41.504,29.785,35.645,34.668,102.051,0
152080.182,18.555,26.855,40.039,28.320,-11.719,0
152080.186,7.324,22.949,32.227,17.578,-36.133,0
152080.190,24.902,22.461,33.203,24.414,54.688,0
152080.192,28.320,20.020,32.227,24.902,61.523,0
152080.196,15.137,27.832,29.785,17.090,19.043,0
152080.200,16.602,32.715,27.344,10.742,38.574,0
152080.203,22.461,33.691,25.879,19.531,99.121,0
152080.207,32.227,34.180,30.273,32.227,103.516,0
152080.211,29.297,30.273,37.109,27.832,45.410,0
152080.215,4.883,26.367,37.109,21.484,3.418,0
152080.219,13.672,27.344,33.203,29.785,14.648,0
152080.223,36.621,32.227,32.715,30.273,48.340,0
152080.227,39.551,35.645,28.320,23.926,37.109,0
152080.231,16.602,33.203,26.855,26.367,13.672,0
152080.235,17.090,27.832,30.762,32.227,21.484,0
152080.237,44.434,30.762,33.691,37.109,93.262,0
152080.241,50.293,34.668,39.062,28.809,95.703,0
152080.245,7.324,27.344,43.945,20.020,32.715,0
152080.249,-9.766,28.809,37.598,17.578,-8.789,0
152080.253,20.996,32.227,26.367,20.508,40.039,0
152080.257,37.109,21.484,31.250,24.902,86.914,0
152080.261,23.438,17.578,36.133,23.926,23.926,0
152080.265,6.836,34.180,28.809,21.973,-52.246,0
152080.269,36.621,43.457,31.250,29.297,-55.176,0
152080.273,43.945,39.551,39.551,32.227,22.461,0
152080.276,37.109,37.598,43.945,28.320,104.980,0
152080.280,13.184,37.109,40.527,24.414,70.312,0
152080.282,2.441,35.645,38.086,24.902,24.902,0
152080.286,40.527,36.621,42.969,36.621,83.496,0
152080.290,35.156,34.668,40.527,37.598,68.848,0
152080.293,5.859,30.762,31.250,36.621,1.953,0
152080.297,11.230,35.156,38.574,28.320,-33.691,0
152080.301,36.133,32.715,39.062,21.484,12.207,0
152080.305,54.199,30.762,23.438,22.949,67.871,0
152080.309,40.527,32.715,20.508,16.113,8.789,1
152080.313,3.906,32.227,34.180,19.531,-55.664,0
152080.317,19.043,32.227,45.410,32.227,0.977,0
152080.321,60.059,33.203,44.922,41.016,58.105,0
152080.325,57.129,30.273,40.527,35.156,32.715,0
152080.327,11.230,29.785,45.410,25.391,-23.438,0
152080.331,31.738,32.715,36.621,27.832,16.602,0
152080.335,55.664,32.227,31.738,28.809,94.238,0
152080.338,6.836,31.250,39.551,25.391,82.520,0
152080.342,-2.930,30.762,38.086,29.785,23.438,0
152080.346,9.766,30.273,31.738,26.367,-2.930,0
152080.350,29.297,34.668,34.180,25.879,38.574,0
152080.354,46.875,37.598,43.457,21.484,6.836,0
152080.358,17.578,23.438,35.645,5.859,-30.762,0
152080.362,-13.184,21.484,34.668,4.883,-26.367,0
152080.366,27.832,33.203,42.480,19.043,35.645,0
152080.370,51.270,38.574,38.574,20.508,96.680,0
152080.372,24.902,40.527,31.738,19.043,48.340,0
152080.376,2.441,36.133,25.391,25.879,5.371,0
152080.380,4.883,30.762,10.254,29.785,-1.953,0
152080.383,23.926,27.832,8.301,18.555,13.672,0
152080.387,23.438,22.461,28.809,11.719,45.410,0
152080.391,12.695,25.391,46.875,20.508,1.953,0
152080.395,19.043,30.273,53.223,23.438,-4.395,0
152080.399,41.016,31.250,45.898,24.414,36.621,0
152080.403,38.574,28.320,39.551,21.484,28.809,0
152080.407,6.836,26.367,39.551,23.926,2.441,0
152080.411,19.043,29.297,30.273,28.320,3.418,0
152080.415,33.691,28.320,21.484,28.320,41.016,0
152080.417,27.832,26.855,27.832,25.391,80.566,0
152080.421,19.531,26.855,38.086,23.438,35.156,0
152080.424,12.695,27.344,34.668,28.809,-5.371,0
152080.428,36.133,33.203,24.902,36.621,46.387,0
152080.432,48.828,23.926,32.227,35.156,73.242,0
152080.436,29.297,16.113,44.434,24.414,16.113,0
152080.440,20.996,30.273,35.156,18.066,-30.762,0
152080.444,27.344,33.691,31.738,22.949,6.836,0
152080.448,35.645,27.832,37.109,24.414,63.477,0
152080.452,24.902,28.320,30.762,30.273,83.008,0
152080.456,24.902,27.832,31.738,29.785,3.906,0
152080.460,28.809,29.785,33.691,25.391,-11.719,0
152080.477,25.391,34.180,30.762,32.227,28.320,0
152080.481,20.508,32.715,35.156,18.555,-8.301,0
152080.485,1.465,29.785,45.410,20.020,-34.180,0
152080.489,6.836,27.344,45.898,32.227,-26.367,0
152080.492,33.203,15.625,34.668,34.180,62.988,0
152080.496,43.945,16.602,41.016,31.250,103.516,0
152080.500,28.809,30.762,40.527,18.555,8.789,0
152080.504,13.184,29.785,24.902,19.531,-6.836,0
152080.508,30.273,26.855,30.273,29.785,63.965,0
152080.512,46.387,27.832,33.691,29.297,76.660,0
152080.516,24.902,29.785,35.156,25.879,36.621,0
152080.520,19.043,29.297,40.039,21.973,-2.441,0
152080.523,26.855,20.996,44.922,24.902,-14.648,0
152080.527,25.391,23.438,38.574,30.273,50.293,0
152080.531,18.066,36.133,23.438,26.855,72.754,0
152080.535,23.438,35.156,26.855,37.598,-1.465,0
152080.539,27.344,27.344,33.203,42.480,4.883,0
152080.543,33.691,26.367,35.156,32.715,87.891,0
152080.547,37.598,31.738,38.086,26.367,71.777,0
152080.550,11.230,32.715,39.062,20.996,-5.371,0
152080.554,2.930,32.715,42.969,32.715,-26.855,0
152080.558,43.945,34.668,45.410,42.480,3.906,0
152080.562,51.270,35.156,39.062,31.738,45.410,0
152080.566,11.719,37.109,39.551,24.902,27.832,0
152080.568,5.859,35.645,42.480,27.344,-30.762,0
152080.572,39.062,35.156,41.992,35.156,4.883,0
152080.576,50.293,36.621,39.551,37.109,62.012,0
152080.580,21.973,35.645,31.738,35.156,4.883,0
152080.584,8.789,33.691,31.738,27.832,-61.523,0
152080.588,23.438,32.715,35.156,29.297,-11.719,0
152080.592,52.246,33.203,34.668,39.551,53.223,0
152080.595,51.270,33.203,28.320,34.668,28.320,0
152080.599,14.160,31.738,22.949,22.461,-41.992,0
152080.603,19.531,34.668,34.180,35.156,-47.852,0
152080.607,38.574,33.203,41.016,40.527,66.895,0
152080.611,32.227,30.273,40.039,24.902,76.172,0
152080.612,24.902,29.785,46.875,18.555,-40.527,0
152080.616,15.625,29.785,47.852,26.367,-81.543,0
152080.620,33.203,28.809,42.480,36.621,11.719,0
152080.624,44.922,32.227,40.039,34.180,73.242,0
152080.628,30.762,32.715,39.062,30.273,12.207,0
152080.632,19.043,28.809,33.691,27.344,-25.391,0
152080.635,32.715,31.738,33.203,36.133,15.625,0
152080.639,50.781,32.715,38.086,38.086,37.598,0
152080.643,50.293,33.203,33.203,28.320,-0.977,0
152080.647,28.809,36.621,30.762,28.320,-8.789,0
152080.651,13.672,38.086,38.574,36.621,-4.883,0
152080.655,42.969,35.645,43.945,38.574,28.320,0
152080.657,46.875,29.785,40.039,33.203,66.406,0
152080.661,14.160,30.762,37.598,33.691,28.320,0
152080.665,19.531,33.203,40.039,33.203,5.859,0
152080.668,48.340,32.715,35.156,27.344,32.715,0
152080.672,52.246,30.273,24.902,20.508,50.293,0
152080.676,29.785,31.250,27.832,25.391,-12.695,0
152080.680,33.203,34.180,40.527,37.109,-49.316,0
152080.684,62.012,36.133,37.109,36.133,-10.254,0
152080.688,53.223,34.180,28.320,31.250,15.625,0
152080.692,18.555,25.391,30.273,32.715,16.602,0
152080.696,15.137,35.156,32.715,36.621,3.906,0
152080.700,35.645,45.898,36.133,37.598,11.230,0
152080.702,34.668,45.898,32.715,33.203,40.527,0
152080.706,25.391,41.016,20.996,31.738,57.129,0
152080.710,17.090,35.645,23.438,29.297,31.250,0
152080.713,29.785,32.715,39.551,46.875,20.508,0
152080.717,51.270,33.691,47.363,48.340,77.637,0
152080.721,49.316,37.598,38.086,28.809,108.887,0
152080.725,32.227,38.086,30.273,29.297,26.855,0
152080.729,16.602,36.133,41.504,32.715,6.348,0
152080.733,40.039,38.086,43.945,33.691,97.656,0
152080.737,62.012,40.527,38.574,29.785,108.887,0
152080.741,28.809,37.109,38.086,17.090,58.105,0
152080.745,2.930,40.039,38.086,17.090,10.254,0
152080.747,27.344,41.016,35.156,28.320,36.621,0
152080.751,43.457,34.180,29.297,29.785,74.219,0
152080.754,26.855,34.180,22.949,26.855,23.438,0
152080.758,15.137,34.668,25.391,20.020,-41.504,0
152080.762,23.926,34.180,32.227,27.344,-27.344,0
152080.766,63.965,31.738,33.691,39.551,57.617,0
152080.770,62.012,33.203,36.133,34.180,13.672,0
152080.774,5.371,34.180,27.832,25.391,-51.270,0
152080.778,10.254,35.156,23.438,30.762,-6.836,0
152080.782,42.480,33.203,35.645,41.016,56.152,0
152080.786,41.504,34.668,42.480,36.133,40.039,0
152080.790,18.555,37.109,34.668,25.391,-15.625,0
152080.793,20.996,34.668,30.273,26.367,-0.488,0
152080.797,45.410,32.715,32.715,37.109,27.344,0
152080.801,53.711,32.715,35.156,37.109,20.508,0
152080.805,28.809,34.180,41.504,23.438,-10.254,0
152080.809,20.508,33.691,48.340,26.855,-0.488,0
152080.813,52.734,23.926,50.781,38.086,27.832,0
152080.816,63.965,29.785,37.109,36.621,44.434,0
152080.820,54.688,44.434,26.367,23.926,70.801,0
152080.824,18.555,42.480,39.062,23.438,38.086,0
152080.828,22.461,40.527,39.551,36.621,8.789,0
152080.832,48.828,36.621,30.762,43.945,44.922,0
152080.836,35.156,30.273,36.133,39.551,40.039,0
152080.852,28.809,31.738,36.621,36.133,-1.953,0
152080.856,48.828,36.621,35.156,34.180,12.695,0
152080.860,62.012,40.039,39.062,47.363,35.645,0
152080.863,42.480,31.738,41.016,50.293,-6.836,0
152080.867,22.949,23.926,48.340,42.969,-10.742,0
152080.871,27.832,29.785,58.105,44.922,-20.996,0
152080.875,49.805,37.109,48.828,38.086,-9.277,0
152080.879,59.082,40.039,31.250,35.645,43.945,0
152080.883,38.574,36.621,29.297,39.062,25.391,0
152080.887,21.484,34.668,36.133,27.832,-8.301,0
152080.891,41.504,33.203,41.016,27.344,3.906,0
152080.895,61.523,32.227,45.898,28.809,60.059,0
152080.897,52.734,35.645,49.805,26.855,50.781,0
152080.901,25.879,39.551,45.898,32.227,-33.691,0
152080.905,28.320,35.645,39.551,35.645,-5.859,0
152080.909,35.156,36.133,35.645,32.715,46.875,1
152080.913,28.809,41.504,38.086,25.391,36.133,0
152080.917,18.066,36.133,32.715,23.438,3.906,0
152080.920,24.414,30.273,25.879,33.203,-15.625,0
152080.924,51.758,35.156,35.645,41.504,71.777,0
152080.928,56.152,28.809,43.945,35.156,79.590,0
152080.932,42.969,26.855,46.875,28.809,-31.250,0
152080.936,35.156,40.527,43.457,35.156,-27.832,0
152080.940,35.645,40.527,35.645,38.086,50.293,0
152080.942,32.227,41.016,41.504,33.203,72.266,0
152080.946,23.438,41.016,39.551,25.879,22.461,0
152080.950,7.324,38.086,27.832,20.508,-16.602,0
152080.954,5.371,31.250,31.738,32.715,28.320,0
152080.957,26.855,28.320,37.598,35.645,76.172,0
152080.961,27.832,27.344,31.250,19.043,31.250,0
152080.965,3.906,24.902,31.738,13.672,-11.230,0
152080.969,9.277,31.250,39.551,21.973,20.508,0
152080.973,55.176,38.086,37.598,37.109,38.574,0
152080.977,42.480,32.715,34.668,33.203,41.016,0
152080.981,8.789,33.203,32.227,20.996,36.133,0
152080.985,16.113,34.668,32.227,27.344,3.418,0
152080.987,26.367,28.320,38.574,33.203,40.039,0
152080.991,25.391,26.367,39.551,26.855,107.910,0
152080.995,19.531,25.879,40.039,21.973,65.918,0
152080.999,11.230,29.785,38.574,27.832,29.297,0
152081.002,17.090,34.180,34.668,34.668,89.844,0
152081.006,38.574,35.156,29.297,34.180,120.117,0
152081.010,41.016,40.527,29.785,37.598,66.406,0
152081.014,19.531,42.969,36.133,41.504,41.992,0
152081.018,36.621,37.598,35.156,47.852,17.090,0
152081.022,64.941,27.832,27.832,46.875,40.039,0
152081.026,32.715,32.715,31.250,32.715,60.059,0
152081.030,4.395,41.504,37.598,30.273,-7.324,0
152081.033,22.949,38.086,40.039,44.922,-16.602,0
152081.037,53.223,33.203,40.039,47.363,45.898,0
152081.041,55.176,34.180,38.574,39.062,44.922,0
152081.045,22.949,38.574,38.086,35.645,-1.953,0
152081.049,22.949,39.551,39.551,31.250,-2.441,0
152081.053,25.391,36.621,41.016,34.180,48.340,0
152081.056,24.902,34.180,44.922,34.668,52.734,0
152081.060,22.949,34.668,48.828,31.738,-33.203,0
152081.064,2.441,29.297,37.109,19.531,-58.105,0
152081.068,26.855,26.367,30.273,19.043,11.719,0
152081.072,49.316,33.203,33.691,23.926,57.617,0
152081.076,29.785,35.645,34.180,22.461,45.898,0
152081.077,11.719,34.668,29.297,28.320,8.301,0
152081.081,28.809,40.527,31.250,36.133,46.875,0
152081.085,60.547,39.062,35.156,41.016,98.633,0
152081.089,37.598,31.250,33.691,39.062,62.500,0
152081.092,0.488,33.203,40.039,27.832,-12.695,0
152081.096,20.996,36.621,44.434,30.273,-9.766,0
152081.100,43.457,34.180,34.668,34.180,67.383,0
152081.104,31.738,31.738,25.391,25.391,55.664,0
152081.108,7.812,32.227,28.320,18.066,15.625,0
152081.112,2.930,30.762,37.109,20.508,35.156,0
152081.116,32.227,28.320,38.574,27.832,75.195,0
152081.120,48.340,30.273,36.133,28.809,76.172,0
152081.122,20.020,36.621,37.109,28.809,25.391,0
152081.126,10.254,37.598,27.832,29.297,-15.625,0
152081.130,30.762,37.598,29.297,28.809,3.418,0
152081.133,49.805,36.133,39.551,26.367,66.895,0
152081.137,35.645,35.156,38.086,24.414,73.730,0
152081.141,27.832,39.062,28.809,26.367,7.324,0
152081.145,44.922,37.109,28.809,29.297,9.766,0
152081.149,47.852,33.691,37.109,36.133,55.176,0
152081.153,51.270,35.645,38.574,39.062,68.848,0
152081.157,33.691,38.086,39.062,26.367,-1.953,0
152081.161,13.184,34.180,34.668,22.461,-31.738,0
152081.165,35.645,27.832,31.250,32.227,87.891,0
152081.167,54.688,30.762,35.645,30.273,124.023,0
152081.171,21.973,33.691,36.133,25.391,69.824,0
152081.175,9.766,30.273,32.715,34.668,42.969,0
152081.178,44.922,30.762,31.738,42.480,76.172,0
152081.182,49.805,33.691,34.668,37.109,70.801,0
152081.186,40.527,36.133,37.598,36.133,11.719,0
152081.190,29.297,32.227,39.062,31.250,-39.062,0
152081.194,19.043,21.484,36.621,41.504,27.344,0
152081.198,50.781,32.227,31.738,54.688,110.352,0
152081.202,80.078,42.969,33.691,43.457,52.246,0
152081.206,42.480,37.109,33.203,34.180,10.742,0
152081.210,3.906,36.621,28.809,36.133,16.113,0
152081.227,21.484,35.645,22.461,28.320,65.918,0
152081.231,34.180,33.691,20.996,20.508,58.105,0
152081.235,20.020,32.227,30.762,29.297,4.395,0
152081.239,25.879,31.738,40.039,37.109,6.836,0
152081.243,51.758,34.180,43.457,51.758,64.941,0
152081.246,51.758,29.297,41.504,46.387,79.590,0
152081.250,42.480,33.691,31.250,35.156,43.457,0
152081.254,41.504,42.480,27.832,36.621,38.086,0
152081.258,38.086,37.109,35.645,48.828,96.680,0
152081.262,56.152,38.086,41.992,58.594,106.934,0
152081.266,45.898,41.016,34.668,43.945,49.805,0
152081.270,32.715,37.109,31.250,39.551,28.320,0
152081.272,52.734,36.133,32.227,48.828,37.598,0
152081.276,52.734,34.668,28.320,48.828,83.496,0
152081.280,34.180,33.691,31.250,44.922,38.574,0
152081.283,24.414,35.645,39.551,38.086,-12.695,0
152081.287,32.715,29.785,47.363,36.133,2.930,0
152081.291,44.922,28.320,45.410,40.039,46.875,0
152081.295,41.504,41.504,37.598,40.039,67.383,0
152081.299,24.414,41.016,35.156,38.086,39.062,0
152081.303,23.438,40.039,37.598,41.504,42.969,0
152081.307,50.781,41.504,41.504,42.969,70.312,0
152081.311,60.059,36.621,39.062,44.434,98.145,0
152081.315,36.133,31.250,35.645,51.270,40.039,0
152081.317,26.367,35.156,38.574,46.387,-9.277,0
152081.321,37.109,42.969,39.062,39.062,50.293,0
152081.325,41.992,38.574,33.203,35.645,97.656,0
152081.328,27.832,30.762,36.621,29.297,46.387,0
152081.332,5.859,28.809,40.527,22.461,-5.859,0
152081.336,26.855,31.738,41.016,27.832,22.461,0
152081.340,45.898,35.645,40.039,30.273,75.684,0
152081.344,12.695,37.598,33.691,19.531,61.523,0
152081.348,0.000,39.062,34.180,22.461,-25.391,0
152081.352,17.090,34.668,40.527,27.344,-29.785,0
152081.356,35.156,27.832,39.062,30.762,88.867,0
152081.360,36.133,34.180,35.645,34.180,104.980,0
152081.362,16.113,41.016,40.039,26.367,32.715,0
152081.366,9.766,34.668,46.387,34.668,53.711,0
152081.370,28.809,26.855,33.203,45.898,102.051,0
152081.374,40.527,38.574,25.391,33.691,81.055,0
152081.377,26.367,45.410,38.574,23.926,29.297,0
152081.381,28.320,40.039,41.016,25.879,-9.277,0
152081.385,30.273,34.180,32.227,22.461,33.691,0
152081.389,30.273,32.715,29.297,21.484,38.574,0
152081.393,23.926,34.668,30.273,20.020,-2.930,0
152081.397,-2.930,34.180,31.250,15.137,-45.898,0
152081.401,19.043,31.738,26.855,26.855,-18.555,0
152081.405,43.945,31.250,27.344,36.133,64.941,0
152081.407,39.062,30.273,35.645,34.180,40.527,0
152081.411,31.250,36.133,44.922,33.203,-23.438,0
152081.415,34.668,38.086,46.875,33.691,-26.367,0
152081.418,38.086,32.227,41.504,41.504,28.809,0
152081.422,42.969,32.227,41.016,45.898,60.059,0
152081.426,42.480,32.715,37.109,38.086,16.113,0
152081.430,29.785,29.785,28.320,32.227,-1.953,0
152081.434,46.875,34.180,34.668,40.527,50.293,0
152081.438,64.453,38.574,39.551,45.410,58.594,0
152081.442,32.227,33.203,36.133,41.016,28.320,0
152081.446,21.973,33.203,38.086,39.062,0.000,0
152081.450,42.969,37.109,40.039,48.340,20.508,0
152081.452,54.199,33.691,38.086,45.898,100.098,0
152081.456,45.410,34.180,36.133,36.133,76.660,0
152081.460,28.320,37.109,29.297,33.203,26.367,0
152081.463,46.387,35.156,24.902,35.645,43.457,0
152081.467,62.500,32.227,28.809,41.016,48.828,0
152081.471,45.898,33.203,28.320,30.273,59.570,0
152081.475,14.160,32.715,32.227,20.508,19.531,0
152081.479,-3.418,30.762,39.062,18.555,-39.062,0
152081.483,27.344,27.832,40.039,20.996,6.836,0
152081.487,32.715,28.320,36.133,19.043,90.820,0
152081.491,14.160,31.250,32.715,20.508,65.918,0
152081.495,0.000,32.227,32.227,24.414,15.625,1
152081.512,28.809,34.180,27.832,14.160,55.176,0
152081.516,48.828,33.691,27.344,19.043,105.469,0
152081.520,22.949,35.156,34.180,20.508,41.016,0
152081.524,12.207,40.039,29.297,16.602,-38.086,0
152081.528,32.227,43.457,26.367,25.391,0.488,0
152081.532,57.617,37.109,30.762,28.320,92.773,0
152081.536,30.762,31.738,33.691,20.996,63.477,0
152081.540,9.277,38.574,36.621,21.484,-5.371,0
152081.544,27.344,38.086,33.691,27.344,33.691,0
152081.548,46.875,30.762,32.715,34.180,114.258,0
152081.551,51.758,29.297,37.109,35.645,96.191,0
152081.555,21.484,31.250,40.527,31.738,2.930,0
152081.542,18.066,31.738,41.016,31.250,-1.953,0
152081.546,62.500,34.180,36.133,36.133,79.590,0
152081.550,42.480,36.133,28.809,35.156,69.336,0
152081.553,12.207,38.086,32.227,24.414,-19.531,0
152081.557,17.578,39.062,37.109,33.691,-35.156,0
152081.561,38.086,38.574,38.574,46.387,4.883,0
152081.565,55.664,32.227,31.250,37.109,37.598,0
152081.569,45.410,30.762,25.879,30.273,35.645,0
152081.573,39.551,40.039,32.715,25.391,19.043,0
152081.577,45.410,40.527,35.156,25.879,33.203,0
152081.581,63.965,41.016,33.203,31.738,60.059,0
152081.585,59.570,42.969,35.645,29.785,40.527,0
152081.602,27.344,41.992,37.598,29.297,-16.602,0
152081.606,25.391,43.457,40.527,33.691,-9.277,0
152081.610,46.387,43.457,38.086,40.527,43.945,0
152081.614,42.969,38.086,32.227,32.715,42.969,0
152081.618,12.207,33.691,37.109,18.555,-9.277,0
152081.621,7.324,31.738,30.273,13.184,-37.598,0
152081.625,30.273,29.785,26.367,21.484,19.043,0
152081.629,42.969,29.297,37.109,28.809,59.570,0
152081.633,31.250,33.691,44.434,34.668,26.367,0
152081.637,1.953,33.203,43.945,29.785,-33.203,0
152081.641,26.367,31.250,39.551,25.879,5.371,0
152081.645,53.711,30.762,39.551,37.109,97.656,0
152081.647,43.457,31.250,41.504,39.551,22.461,0
152081.651,15.625,34.180,41.992,35.645,-55.664,0
152081.655,23.926,40.039,34.668,38.574,26.855,0
152081.658,51.758,39.551,30.762,50.781,95.703,0
152081.662,43.945,32.227,38.574,41.016,54.688,0
152081.666,17.578,29.785,44.434,27.832,1.465,0
152081.670,8.301,28.809,41.504,34.668,0.488,0
152081.674,39.551,31.250,35.156,44.922,42.480,0
152081.678,46.875,32.715,34.668,44.434,91.309,0
152081.682,30.273,29.785,36.621,29.297,44.434,0
152081.686,30.273,34.668,26.855,24.414,-19.531,0
152081.690,33.203,36.133,25.879,28.809,37.109,0
152081.692,33.203,35.645,36.133,26.367,84.473,0
152081.696,22.949,34.180,41.504,18.555,29.785,0
152081.700,14.160,22.949,44.922,20.508,3.906,0
152081.704,19.531,22.949,45.898,37.598,54.688,0
152081.707,41.016,40.527,43.945,46.387,70.801,0
152081.711,39.551,46.387,40.527,23.438,35.156,0
152081.715,14.160,42.969,38.574,12.695,-16.113,0
152081.719,24.414,38.086,37.109,20.996,-8.789,0
152081.723,31.250,33.691,30.762,25.879,47.363,0
152081.727,20.508,35.156,25.879,29.297,53.711,0
152081.731,14.648,34.180,25.391,28.320,41.016,0
152081.735,10.742,29.297,29.297,29.297,22.949,0
152081.737,43.945,32.715,37.109,34.180,53.223,0
152081.741,47.363,37.109,41.016,29.297,76.660,0
152081.745,16.602,32.715,40.039,22.461,28.320,0
152081.749,18.066,33.203,36.621,25.879,24.902,0
152081.752,44.922,35.645,33.691,35.645,62.988,0
152081.756,59.082,36.621,33.203,41.504,83.984,0
152081.760,26.367,34.668,32.227,37.598,90.820,0
152081.764,6.836,36.133,33.691,29.297,59.082,0
152081.768,40.527,41.016,40.039,34.180,18.066,0
152081.772,51.758,33.691,38.574,27.344,25.391,0
152081.776,36.133,29.785,35.645,16.113,77.637,0
152081.780,15.137,34.668,33.691,15.137,41.016,0
152081.783,22.461,32.227,34.668,21.973,-14.160,0
152081.787,50.781,31.738,36.133,36.621,31.738,0
152081.791,62.012,40.527,32.227,31.738,49.805,0
152081.795,38.574,32.715,33.203,23.438,-4.883,0
152081.799,17.090,27.344,40.039,28.809,-30.762,0
152081.803,44.922,40.527,41.504,32.227,5.371,0
152081.806,56.641,42.969,40.039,31.738,7.812,0
152081.810,41.504,41.992,40.039,31.250,-67.383,0
152081.814,42.480,41.992,38.574,31.250,-69.336,0
152081.818,50.781,33.691,29.785,36.133,22.949,0
152081.822,45.898,33.691,23.926,37.109,43.457,0
152081.826,24.414,33.691,23.926,33.691,25.879,0
152081.827,21.973,32.227,29.785,35.156,-0.488,0
152081.831,34.668,32.227,33.691,29.785,-13.184,0
152081.835,52.246,33.203,33.203,29.297,5.859,0
152081.839,49.316,34.668,40.039,32.227,30.273,0
152081.842,14.648,31.250,43.457,37.109,13.672,0
152081.846,24.414,32.227,36.621,42.480,-17.090,0
152081.850,55.176,36.621,28.320,41.992,34.668,0
152081.854,58.105,38.574,35.645,37.109,49.805,0
152081.858,47.363,39.062,43.945,30.762,0.488,0
152081.862,33.203,36.133,35.156,33.691,9.277,0
152081.866,47.363,37.109,28.320,45.898,52.734,0
152081.870,58.594,37.598,33.691,48.828,82.031,0
152081.872,30.762,36.621,39.551,36.133,54.199,0
152081.876,14.648,39.062,39.062,20.996,28.320,0
152081.880,35.645,37.109,36.133,22.949,20.020,0
152081.884,62.988,34.180,36.133,29.297,53.711,0
152081.887,36.133,33.691,37.598,28.320,64.453,0
152081.891,5.859,31.250,40.527,26.855,37.598,0
152081.895,31.250,31.738,41.992,37.598,41.992,0
152081.899,53.711,36.621,31.738,44.922,59.570,0
152081.903,35.156,36.621,41.992,40.527,72.266,0
152081.907,20.020,37.598,70.312,40.527,46.875,0
152081.911,28.809,40.039,79.590,41.016,44.922,0
152081.915,51.758,39.551,78.613,49.805,73.242,0
152081.917,47.363,36.621,72.754,44.922,73.730,0
152081.921,24.902,31.250,70.312,40.527,28.320,0
152081.925,31.738,27.832,67.383,44.434,-5.859,0
152081.928,32.715,32.715,70.312,46.875,74.219,0
152081.932,30.273,34.668,70.312,43.457,120.117,0
152081.936,25.879,35.645,61.035,35.645,41.504,0
152081.940,13.672,39.062,60.547,28.809,-36.133,0
152081.944,30.762,37.109,61.035,33.691,-0.977,0
152081.948,44.922,33.691,58.594,37.109,94.727,0
152081.952,39.062,33.203,54.199,30.273,67.871,0
152081.956,29.297,35.645,52.246,30.762,0.977,0
152081.960,13.672,32.227,56.152,32.715,33.203,0
152081.963,20.020,30.273,60.547,34.180,83.984,0
152081.967,36.133,36.133,56.152,34.180,77.637,0
152081.971,23.438,36.133,46.875,27.344,36.621,0
152081.975,15.625,32.227,48.340,28.320,49.316,0
152081.979,49.805,31.738,52.246,35.156,106.934,0
152081.983,55.664,33.203,52.246,39.551,98.633,0
152081.987,30.273,33.691,49.805,31.250,45.898,0
152081.990,23.438,33.203,48.340,31.738,40.039,0
152081.994,19.531,31.738,49.316,39.551,68.359,0
152081.998,24.902,35.645,50.781,36.621,73.242,0
152082.002,20.020,35.156,52.246,39.551,43.457,0
152082.006,20.996,30.762,48.340,35.645,19.531,1
152082.022,34.668,29.785,42.480,40.039,26.855,0
152082.026,41.016,31.250,42.480,45.898,58.105,0
152082.030,45.410,30.762,42.480,38.574,68.848,0
152082.034,4.395,30.762,39.551,37.598,25.879,0
152082.037,0.000,33.203,42.480,31.250,-9.766,0
152082.041,24.414,34.180,47.363,35.645,46.387,0
152082.045,32.715,32.227,46.875,33.203,52.246,0
152082.049,28.809,34.180,43.945,31.250,-23.926,0
152082.053,18.066,33.691,42.969,36.621,-51.758,0
152082.057,44.922,32.227,48.828,34.668,-9.766,0
152082.061,46.387,33.691,52.734,35.645,41.016,0
152082.065,25.879,38.574,50.293,40.039,2.930,0
152082.067,27.832,41.992,44.922,34.668,-25.391,0
152082.071,25.879,35.645,37.598,33.691,15.625,0
152082.075,34.180,35.645,37.598,34.180,64.941,0
152082.079,41.016,42.480,35.645,29.297,54.688,0
152082.082,21.973,43.945,34.668,29.297,-22.461,0
152082.086,21.973,42.480,40.039,36.133,15.137,0
152082.090,53.711,38.574,43.945,37.109,89.355,0
152082.094,39.551,35.645,48.828,23.926,56.152,0
152082.098,6.836,33.203,49.316,20.020,-31.738,0
152082.102,19.043,33.691,43.457,32.227,-68.848,0
152082.106,44.922,35.156,37.598,39.062,25.391,0
152082.110,44.434,32.227,36.621,35.156,64.453,0
152082.112,27.832,31.738,33.691,27.344,-10.254,0
152082.116,30.762,34.668,32.227,27.832,-8.789,0
152082.120,52.246,33.691,32.715,39.062,68.848,0
152082.123,51.270,36.133,32.227,38.086,82.031,0
152082.127,15.625,34.668,34.668,26.855,45.898,0
152082.131,2.441,29.297,35.645,27.344,17.578,0
152082.135,32.227,32.227,37.598,34.180,69.824,0
152082.139,35.156,35.645,40.527,24.902,104.492,0
152082.143,17.578,37.598,38.086,17.090,51.270,0
152082.147,11.230,39.551,31.250,15.625,15.137,0
152082.151,29.297,39.062,31.738,20.996,20.508,0
152082.155,59.570,35.156,37.598,28.320,41.016,0
152082.157,47.852,36.133,31.738,29.297,27.344,0
152082.161,13.184,35.645,22.949,23.438,-32.715,0
152082.165,5.371,33.203,32.227,26.367,-13.184,0
152082.169,30.273,36.621,44.922,36.621,67.871,0
152082.172,33.203,34.180,47.363,32.715,62.988,0
152082.176,20.020,31.738,45.898,21.973,-0.488,0
152082.180,13.184,33.203,41.992,20.508,-36.133,0
152082.184,24.902,30.762,36.621,30.762,17.090,0
152082.188,59.570,32.715,36.621,31.738,71.289,0
152082.192,39.062,35.645,40.039,26.367,59.082,0
152082.196,-3.906,35.645,37.598,24.902,24.902,0
152082.200,21.484,36.621,33.203,26.367,29.297,0
152082.202,47.363,37.109,34.180,29.297,60.547,0
152082.206,34.668,36.621,32.715,29.785,49.316,0
152082.210,18.066,36.133,30.273,28.809,-9.766,0
152082.214,44.922,32.227,37.109,40.039,-1.953,0
152082.217,62.988,34.180,37.598,44.434,55.664,0
152082.221,35.156,42.969,31.250,33.691,67.871,0
152082.225,23.926,42.480,33.691,22.949,5.859,0
152082.229,8.789,38.086,32.227,17.578,-41.504,0
152082.233,6.836,38.574,27.344,20.508,39.551,0
152082.237,33.691,39.062,30.762,25.391,72.754,0
152082.241,21.484,35.645,31.738,24.902,0.488,0
152082.245,3.418,35.156,33.691,26.367,-32.715,0
152082.248,28.320,35.645,41.992,30.762,32.227,0
152082.252,47.852,35.645,43.945,28.809,84.961,0
152082.256,26.855,40.039,40.039,27.832,41.992,0
152082.260,10.254,36.621,38.574,28.809,11.230,0
152082.264,31.250,34.180,35.156,32.227,20.996,0
152082.268,47.852,36.621,31.250,35.156,79.102,0
152082.272,30.273,35.156,35.156,31.738,76.172,0
152082.275,13.672,34.668,41.504,29.785,9.277,0
152082.279,21.973,31.250,34.668,27.832,32.715,0
152082.283,40.527,27.344,31.738,22.949,85.938,0
152082.287,31.250,27.344,41.992,20.996,44.922,0
152082.291,21.973,31.738,46.875,20.996,-49.316,0
152082.322,22.461,35.156,41.016,26.367,-58.105,0
152082.326,24.414,34.180,34.668,34.180,36.133,0
152082.330,41.504,37.598,32.227,27.832,93.750,0
152082.334,26.855,37.598,32.715,21.484,21.484,0
152082.338,14.160,34.668,33.691,29.297,-13.672,0
152082.341,34.180,35.156,31.738,40.039,54.688,0
152082.345,33.691,37.109,32.715,33.691,66.406,0
152082.349,21.484,40.039,39.551,27.832,11.719,0
152082.353,20.508,40.527,45.898,34.668,11.719,0
152082.357,33.203,37.109,42.480,33.203,34.668,0
152082.361,47.852,35.645,34.668,36.133,68.359,0
152082.365,47.852,41.504,32.715,41.016,94.727,0
152082.338,27.832,42.480,32.715,34.180,48.340,0
152082.342,19.531,41.992,34.668,32.227,0.977,0
152082.346,41.016,42.480,39.062,39.551,78.125,0
152082.350,45.410,41.504,38.574,36.621,112.793,0
152082.354,29.297,42.969,36.621,26.855,37.109,0
152082.358,23.926,42.480,37.109,35.645,14.160,0
152082.362,44.434,41.504,37.109,39.062,59.082,0
152082.365,54.688,42.480,37.109,35.156,86.914,0
152082.369,45.898,44.434,35.645,30.762,82.031,0
152082.373,31.250,43.457,32.227,27.344,55.664,0
152082.377,56.152,42.969,34.180,40.527,94.727,0
152082.381,54.199,49.316,35.645,42.969,175.293,0
152082.397,11.230,44.434,38.086,29.297,96.680,0
152082.401,-1.465,37.109,46.875,23.926,-8.789,0
152082.405,18.555,41.504,45.898,33.691,6.836,0
152082.408,43.457,46.875,37.598,41.992,50.293,0
152082.412,34.180,44.434,34.180,37.109,0.977,0
152082.416,29.785,41.992,33.691,25.879,-39.551,0
152082.420,40.039,43.945,37.109,29.297,0.488,0
152082.424,33.691,42.969,38.086,40.527,62.988,0
152082.428,27.344,36.133,26.367,38.086,67.871,0
152082.432,23.926,36.133,26.367,34.180,-21.973,0
152082.436,33.691,42.480,40.039,34.668,-46.387,0
152082.440,44.434,46.387,41.992,26.367,23.926,0
152082.442,41.504,47.363,39.551,20.020,48.828,0
152082.446,19.043,44.922,38.574,16.602,-1.953,0
152082.450,-1.465,40.039,36.621,19.043,-26.367,0
152082.453,21.484,33.691,31.738,20.996,57.617,0
152082.457,49.316,35.645,29.297,22.461,119.629,0
152082.461,36.133,41.016,34.668,22.461,42.480,0
152082.465,2.930,40.039,36.133,18.555,6.836,0
152082.469,10.742,38.086,32.715,19.531,77.148,0
152082.473,27.832,33.691,34.668,24.414,108.398,0
152082.477,25.391,33.203,30.762,23.438,85.938,0
152082.481,16.602,37.109,25.879,21.973,41.992,0
152082.485,24.414,35.645,32.715,29.297,21.973,0
152082.487,47.363,35.645,40.039,38.574,64.941,0
152082.491,58.105,40.527,43.457,40.527,65.918,0
152082.495,43.457,41.992,45.898,33.691,11.230,0
152082.499,33.203,39.551,42.969,37.598,3.906,0
152082.503,70.801,38.086,39.062,47.852,38.086,0
152082.506,83.008,38.574,38.574,53.223,52.734,0
152082.510,26.855,36.621,36.621,50.781,31.738,0
152082.514,10.254,37.109,40.039,39.551,-11.230,0
152082.518,21.484,38.574,44.922,32.715,35.645,0
152082.522,26.367,37.109,40.527,36.133,105.957,0
152082.526,31.738,41.504,41.992,41.016,73.242,0
152082.530,28.809,44.434,39.062,32.227,19.043,0
152082.532,31.250,44.922,32.715,28.320,48.340,0
152082.536,56.641,43.457,35.645,32.715,123.047,0
152082.540,56.641,45.410,40.527,31.250,112.305,0
152082.543,8.789,47.363,34.668,24.414,25.391,0
152082.547,22.949,45.898,27.344,24.902,-9.277,0
152082.551,50.781,44.922,28.320,29.297,44.922,0
152082.555,37.109,38.574,25.879,33.691,74.707,0
152082.559,15.625,36.621,15.137,27.832,-1.953,0
152082.563,19.043,41.992,15.625,21.973,-75.195,0
152082.567,47.852,41.504,30.762,31.250,-13.672,0
152082.571,37.109,40.039,42.969,33.203,47.852,0
152082.575,31.738,40.527,36.621,31.250,5.859,0
152082.577,13.672,39.551,26.855,33.691,-40.527,0
152082.581,8.789,41.016,37.109,31.738,-15.625,0
152082.585,35.645,39.551,44.922,29.297,42.969,0
152082.589,32.227,37.598,41.016,28.809,23.438,0
152082.592,18.555,36.133,36.621,27.832,-69.824,0
152082.596,30.762,34.180,40.039,33.203,-57.617,0
152082.600,64.453,34.180,42.480,38.086,30.762,0
152082.604,62.988,37.109,32.715,33.691,10.254,0
152082.608,21.973,39.551,18.555,32.715,-23.438,0
152082.612,18.066,37.598,13.672,36.133,-18.555,0
152082.616,53.711,35.156,32.227,32.227,17.578,0
152082.620,55.664,38.086,50.781,30.762,64.453,0
152082.622,13.672,39.551,51.758,37.109,23.438,1
152082.626,9.277,38.574,51.270,38.574,-3.418,0
152082.630,34.668,39.551,41.016,33.203,46.875,0
152082.633,53.711,34.668,32.227,29.785,60.059,0
152082.637,39.551,37.109,34.180,34.668,17.578,0
152082.641,27.832,36.621,30.273,31.738,-23.438,0
152082.645,46.875,37.598,30.762,36.621,-21.484,0
152082.649,53.223,42.480,33.691,33.203,19.531,0
152082.653,41.992,40.527,33.203,18.555,28.809,0
152082.657,19.043,39.551,35.156,16.113,-39.551,0
152082.661,25.391,39.062,38.086,15.625,-68.848,0
152082.665,39.062,43.457,37.109,24.414,-16.113,0
152082.667,34.180,42.969,31.250,27.344,18.066,0
152082.671,29.297,41.504,26.855,20.996,-26.855,0
152082.675,40.039,41.992,29.785,27.832,-65.918,0
152082.678,43.945,36.621,33.691,34.180,13.672,0
152082.682,39.551,38.574,41.992,31.250,116.211,0
152082.686,34.180,43.945,47.852,31.738,62.012,0
152082.690,33.203,42.480,44.922,26.367,-22.461,0
152082.694,48.340,41.504,40.039,30.273,22.461,0
152082.698,46.387,40.527,38.086,34.180,92.773,0
152082.702,34.668,39.551,38.086,28.320,46.875,0
152082.706,25.879,41.504,32.227,31.250,11.719,0
152082.710,28.320,41.016,34.180,31.250,43.945,0
152082.713,49.316,38.086,42.969,28.809,64.941,0
152082.717,63.965,37.598,43.457,33.203,39.551,0
152082.721,33.691,40.039,43.945,28.320,-8.301,0
152082.725,23.926,41.992,36.133,26.367,12.207,0
152082.729,43.457,39.551,24.414,38.086,69.336,0
152082.733,35.156,40.527,33.203,36.133,54.199,0
152082.736,18.066,42.969,38.574,32.715,1.953,0
152082.740,31.738,37.598,37.598,33.691,36.621,0
152082.744,48.340,35.156,42.480,37.109,99.609,0
152082.748,40.527,38.086,46.875,41.504,97.168,0
152082.752,49.316,40.527,43.945,30.762,79.590,0
152082.756,22.949,39.062,41.992,22.949,59.082,0
152082.772,16.113,35.156,44.922,33.203,65.918,0
152082.776,51.270,35.645,41.016,42.969,91.309,0
152082.780,41.504,38.086,37.598,39.062,56.641,0
152082.784,23.926,39.062,39.551,36.133,-28.809,0
152082.787,33.203,36.133,38.574,33.203,1.953,0
152082.791,64.453,37.598,41.016,37.109,91.309,0
152082.795,68.848,40.039,42.969,43.945,82.031,0
152082.799,34.668,41.992,47.852,33.203,26.855,0
152082.803,30.273,40.039,49.316,36.621,-14.160,0
152082.807,41.016,32.715,40.039,42.480,23.438,0
152082.811,24.414,33.691,34.180,33.691,80.566,0
152082.815,9.766,35.156,25.391,33.691,30.273,0
152082.817,15.625,35.156,22.461,38.086,-7.812,0
152082.821,41.016,33.203,33.691,36.621,64.453,0
152082.825,53.711,33.203,38.574,33.691,125.488,0
152082.829,34.180,33.691,42.480,32.715,96.680,0
152082.832,22.949,35.156,41.504,35.156,36.621,0
152082.836,34.668,34.668,42.969,49.316,59.570,0
152082.840,51.758,29.785,43.945,48.340,88.379,0
152082.844,46.875,28.809,37.109,33.203,38.574,0
152082.848,5.859,32.227,31.250,27.832,7.324,0
152082.852,13.184,36.621,28.320,29.297,38.086,0
152082.856,44.434,33.691,30.273,33.203,58.594,0
152082.860,44.922,32.715,32.227,29.785,75.195,0
152082.877,23.438,38.574,34.180,24.414,48.828,0
152082.881,19.043,34.668,36.133,24.414,-8.301,0
152082.885,45.898,30.762,35.156,29.297,41.504,0
152082.889,41.504,34.180,33.203,32.715,79.590,0
152082.892,20.996,33.203,33.691,32.715,24.414,0
152082.896,14.648,28.809,29.785,31.738,-21.973,0
152082.900,10.254,23.926,29.297,33.203,44.434,0
152082.904,20.996,20.020,35.156,37.109,117.188,0
152082.908,11.719,20.508,33.691,35.645,25.879,0
152082.912,2.930,20.508,26.855,28.320,-45.898,0
152082.916,26.855,23.926,32.715,28.809,-8.301,0
152082.920,41.992,31.250,45.898,37.598,48.340,0
152082.907,32.227,35.645,46.875,37.598,36.133,0
152082.911,5.859,34.668,41.016,27.832,-10.742,0
152082.915,7.324,31.738,39.551,29.297,0.488,0
152082.919,40.039,28.809,34.668,36.133,63.477,0
152082.922,61.523,27.344,27.832,30.273,67.871,0
152082.926,35.156,25.879,26.367,21.484,24.902,0
152082.930,-4.395,29.297,30.273,30.762,-0.977,0
152082.934,21.973,30.762,34.668,40.527,16.602,0
152082.938,48.340,29.297,33.691,39.062,37.109,0
152082.942,29.297,29.297,38.574,27.344,-11.719,0
152082.946,7.324,26.855,35.156,23.438,-55.664,0
152082.950,29.785,26.367,30.762,29.785,-7.324,0
152082.952,39.551,29.785,42.480,31.250,44.922,0
152082.956,21.484,28.809,44.434,23.926,32.715,0
152082.960,6.836,27.832,41.016,20.508,18.555,0
152082.964,29.297,27.344,41.016,25.879,40.527,0
152082.967,41.504,27.832,40.527,26.855,47.852,0
152082.971,18.066,27.832,38.086,31.250,43.945,0
152082.975,-0.977,27.344,37.109,24.902,31.250,0
152082.979,6.836,28.809,33.691,18.555,11.719,0
152082.983,35.156,29.297,33.203,29.785,42.480,0
152082.987,46.387,35.645,38.574,40.039,46.387,0
152082.991,31.738,38.086,40.527,42.480,-17.578,0
152082.995,24.414,34.668,34.180,35.156,-36.133,0
152082.998,43.945,33.691,27.832,37.109,34.668,0
152083.002,57.129,34.180,30.273,44.922,87.891,0
152083.006,35.156,32.227,34.668,40.039,34.668,0
152083.010,28.809,30.762,37.109,37.598,-28.809,0
152083.014,44.922,31.738,38.086,46.875,15.625,0
152083.018,50.293,33.691,36.133,43.945,38.086,0
152083.022,48.340,40.039,40.527,31.250,8.301,0
152083.025,37.109,39.551,38.086,30.273,-23.926,0
152083.029,34.180,34.668,29.297,36.133,22.461,0
152083.033,34.180,31.250,25.391,36.133,88.867,0
152083.037,34.668,30.762,26.367,32.227,91.309,0
152083.041,33.203,32.715,35.645,31.250,32.227,0
152083.042,28.809,34.668,36.621,36.621,37.109,0
152083.046,38.086,34.668,30.273,42.969,58.105,0
152083.050,41.504,32.227,35.156,35.156,45.410,0
152083.054,35.156,25.879,35.645,18.066,37.109,0
152083.057,33.691,24.414,29.785,14.648,29.785,0
152083.061,27.832,27.344,31.250,29.297,81.055,0
152083.065,31.738,31.738,38.086,36.133,83.496,0
152083.069,25.391,35.156,41.016,30.762,0.488,0
152083.073,24.414,36.133,36.621,31.250,-48.828,0
152083.077,37.598,32.715,36.133,36.621,6.836,0
152083.081,46.875,26.855,33.691,33.691,68.848,0
152083.085,39.062,26.855,34.180,27.344,72.754,0
152083.102,26.367,26.367,41.504,31.738,11.230,0
152083.106,40.527,32.227,48.340,33.203,6.836,0
152083.110,46.875,33.691,49.805,30.273,48.828,0
152083.114,32.227,31.250,48.828,32.227,55.664,0
152083.118,10.742,31.738,48.828,32.227,27.832,0
152083.121,12.207,34.668,41.016,29.297,-30.762,0
152083.125,36.133,37.109,31.250,38.086,26.855,0
152083.129,47.852,36.621,31.738,41.504,95.215,0
152083.133,29.785,35.645,38.574,26.855,52.734,0
152083.137,9.766,39.551,40.039,24.902,-12.207,0
152083.141,38.086,36.621,38.574,30.273,6.836,0
152083.145,80.566,33.691,42.969,34.668,80.078,0
152083.147,28.809,41.504,42.480,31.738,64.453,0
152083.151,-8.301,41.992,39.062,23.926,20.020,0
152083.155,15.137,36.621,37.109,25.391,20.508,0
152083.159,46.875,34.668,35.645,37.109,71.777,0
152083.162,56.641,33.203,35.645,30.762,64.941,0
152083.166,25.391,32.715,37.109,28.809,5.371,0
152083.170,23.438,37.598,37.598,42.969,-4.395,0
152083.174,50.293,34.180,38.086,42.969,27.832,0
152083.178,60.547,31.738,42.969,40.527,40.039,0
152083.182,42.480,32.715,37.598,39.062,-14.160,0
152083.186,21.484,30.762,28.320,36.133,-12.695,0
152083.190,34.180,32.715,23.926,34.180,64.941,0
152083.192,46.387,33.691,22.461,39.551,74.219,0
152083.196,41.504,37.109,32.715,34.180,10.742,0
152083.200,24.902,39.551,44.922,32.227,-27.344,0
152083.203,27.832,37.109,46.875,39.062,13.672,0
152083.207,49.316,36.133,42.969,36.133,62.500,0
152083.211,43.945,34.180,34.180,26.855,40.039,0
152083.215,30.762,30.273,28.320,18.066,9.766,0
152083.219,38.086,31.738,32.227,22.461,44.922,0
152083.223,36.621,31.250,34.668,26.367,81.543,0
152083.227,32.715,31.738,34.668,30.273,40.527,0
152083.231,27.832,36.621,34.180,28.320,-4.883,0
152083.235,31.250,33.691,33.203,27.832,-0.977,0
152083.238,40.039,30.273,32.227,31.738,33.203,0
152083.242,47.852,37.109,32.715,29.785,57.617,0
152083.246,30.273,37.109,33.691,25.879,13.672,0
152083.250,12.695,31.738,37.109,29.297,-13.672,0
152083.254,25.879,29.297,40.527,31.250,15.137,0
152083.258,37.598,27.832,36.621,22.949,30.762,0
152083.261,32.227,32.227,30.762,22.461,19.043,0
152083.265,21.484,33.203,30.273,27.832,-33.203,0
152083.269,31.738,33.691,35.156,40.527,-2.441,0
152083.273,53.223,34.668,35.645,37.598,56.152,0
152083.277,45.410,31.738,30.762,27.344,41.016,0
152083.281,30.762,36.133,30.273,25.879,10.254,0
152083.282,46.387,39.551,29.785,33.203,30.273,0
152083.286,55.176,36.133,32.227,40.527,85.938,0
152083.290,28.809,33.203,35.156,30.762,68.359,0
152083.294,11.719,34.180,33.691,20.996,-12.695,0
152083.298,21.484,36.621,29.785,28.320,-35.645,0
152083.301,49.316,35.645,30.762,33.203,14.160,0
152083.305,57.617,40.527,40.527,39.062,41.016,0
152083.309,27.344,42.969,41.992,31.738,-21.973,0
152083.313,12.207,33.691,37.598,24.414,-71.289,0
152083.317,42.969,32.715,38.574,29.785,39.551,0
152083.321,66.406,38.574,39.551,33.691,89.844,2
152083.325,29.297,39.551,36.621,31.250,36.133,0
152083.327,5.371,37.598,33.203,21.973,-13.672,0
152083.331,37.109,40.527,31.250,30.762,24.414,0
152083.335,52.734,39.551,25.391,36.133,90.820,0
152083.339,32.227,36.621,25.879,30.762,61.523,0
152083.342,20.020,35.156,40.039,29.297,12.695,0
152083.346,35.645,29.785,45.898,38.574,30.273,0
152083.350,62.988,34.668,37.109,48.828,90.332,0
152083.354,57.617,43.457,27.832,30.273,62.988,0
152083.358,33.691,46.387,27.344,20.508,24.902,0
152083.362,38.086,42.480,30.273,26.367,30.273,0
152083.366,37.109,38.086,33.203,37.598,67.871,0
152083.370,30.273,32.227,32.715,48.340,83.008,0
152083.372,22.949,28.809,29.785,43.457,48.828,0
152083.376,10.742,35.156,32.227,35.156,27.344,0
152083.380,32.227,37.109,33.203,36.133,40.527,0
152083.383,49.316,34.180,33.203,35.645,98.633,0
152083.387,31.738,34.180,34.180,31.738,105.469,0
152083.391,20.508,35.156,36.621,33.203,50.781,0
152083.395,36.133,33.203,36.621,39.551,27.344,0
152083.399,50.293,28.809,34.668,38.086,42.969,0
152083.403,46.387,25.391,32.227,31.250,55.176,0
152083.407,36.133,27.832,29.785,27.344,4.395,0
152083.411,24.902,33.691,28.809,34.180,12.695,0
152083.415,32.227,31.250,28.320,40.527,81.055,0
152083.417,35.645,27.832,28.320,28.320,111.816,0
152083.421,17.090,32.715,30.762,20.508,64.453,0
152083.425,5.859,32.715,30.762,22.949,58.105,0
152083.428,30.273,29.785,27.344,23.926,99.609,0
152083.432,46.875,31.250,28.320,32.227,68.848,0
152083.436,32.227,31.250,30.273,33.691,37.109,0
152083.440,30.273,33.691,32.227,26.367,-13.672,0
152083.444,49.805,39.062,30.273,28.320,-1.953,0
152083.448,46.875,35.156,26.855,27.344,65.918,0
152083.452,18.066,33.691,31.250,23.438,37.109,0
152083.456,12.695,37.598,30.273,25.391,-11.230,0
152083.460,33.691,34.668,25.879,29.785,4.395,0
152083.463,48.828,32.715,25.879,38.086,59.570,0
152083.467,45.898,33.691,27.344,34.668,41.016,0
152083.471,22.949,30.762,30.762,27.344,-3.906,0
152083.475,18.066,30.273,34.668,36.133,-0.977,0
152083.479,61.035,32.715,31.250,47.363,86.914,0
152083.483,52.246,31.738,33.203,41.504,118.164,0
152083.486,13.184,28.809,38.574,29.297,23.926,0
152083.490,7.324,28.320,36.621,40.039,0.000,0
152083.494,35.645,28.809,37.109,43.457,65.918,0
152083.498,45.410,30.273,39.062,37.109,78.125,0
152083.502,32.227,35.156,35.645,34.668,33.691,0
152083.506,29.297,32.715,32.715,41.992,-23.438,0
152083.522,44.434,31.250,39.062,53.711,12.695,0
152083.526,69.336,29.785,40.039,49.805,87.402,0
152083.530,70.801,26.367,35.156,39.551,87.891,0
152083.534,24.414,27.344,36.133,34.180,39.062,0
152083.538,16.602,33.203,36.621,40.527,48.340,0
152083.541,55.176,35.645,37.598,42.480,91.797,0
152083.545,48.828,31.738,30.762,35.156,67.871,0
152083.549,23.438,28.809,27.344,29.297,25.391,0
152083.553,26.367,28.320,34.668,34.668,26.367,0
152083.557,44.434,30.273,31.738,39.551,70.801,0
152083.561,58.105,35.645,34.180,32.715,92.285,0
152083.565,37.109,40.039,43.457,34.668,57.617,0
152083.567,21.973,35.156,44.434,37.598,23.926,0
152083.571,39.551,31.738,43.945,34.180,74.707,0
152083.575,42.480,34.180,42.969,26.367,101.562,0
152083.579,23.438,36.133,35.156,18.066,41.992,0
152083.582,15.625,30.273,33.203,19.531,6.348,0
152083.586,42.969,28.320,31.250,20.996,69.336,0
152083.590,80.566,34.668,22.949,35.156,116.699,0
152083.594,69.336,33.691,27.832,47.363,79.102,0
152083.598,5.859,32.715,39.062,25.879,26.855,0
152083.602,14.160,34.180,38.574,17.090,11.719,0
152083.606,49.316,32.227,40.039,26.367,69.336,0
152083.610,43.457,32.227,42.480,24.902,55.176,0
152083.612,26.367,33.691,41.504,25.879,-61.523,0
152083.616,25.879,34.668,34.668,33.691,-63.477,0
152083.620,43.945,30.273,26.367,37.598,41.504,0
152083.624,43.945,25.391,35.156,36.133,66.895,0
152083.627,23.926,28.809,48.340,29.297,-3.906,0
152083.631,14.160,29.785,54.199,28.809,-34.668,0
152083.635,29.297,26.367,55.664,34.180,38.086,0
152083.639,42.480,24.902,51.758,35.156,81.543,0
152083.643,27.344,32.715,45.410,30.762,10.742,0
152083.647,11.230,26.855,38.574,27.832,-52.734,0
152083.651,26.855,20.996,36.621,33.691,28.320,0
152083.655,62.988,25.391,44.434,46.387,92.773,0
152083.657,62.500,28.320,44.922,44.922,60.547,0
152083.661,15.137,31.250,39.551,38.086,21.973,0
152083.665,10.742,31.250,38.574,41.016,0.488,0
152083.669,41.016,32.715,37.598,43.945,37.598,0
152083.672,41.016,35.156,35.645,41.016,35.645,0
152083.676,22.461,35.156,34.180,31.738,-17.090,0
152083.680,28.809,32.227,33.691,31.738,-12.695,0
152083.684,41.992,30.273,34.180,37.109,41.992,0
152083.688,40.039,33.203,39.062,34.180,50.781,0
152083.692,25.391,33.203,41.016,31.250,-11.719,0
152083.696,11.230,29.785,41.504,32.715,-39.551,0
152083.700,27.344,27.832,41.016,33.691,41.016,0
152083.703,41.504,27.344,37.109,35.156,60.547,0
152083.707,25.879,29.785,36.133,28.320,24.414,0
152083.711,14.648,30.273,35.156,21.973,9.766,0
152083.715,15.137,30.762,33.691,31.738,25.879,0
152083.719,35.645,33.203,29.785,31.738,67.871,0
152083.723,38.574,32.227,32.227,24.902,53.223,0
152083.727,4.395,26.367,37.598,18.555,-3.906,0
152083.731,3.906,25.879,43.457,14.648,-12.695,0
152083.734,31.738,32.227,43.945,20.020,56.152,0
152083.738,18.066,35.645,41.992,19.531,100.098,0
152083.742,-3.418,32.227,38.574,14.648,30.762,0
152083.746,12.207,35.156,31.250,16.602,-29.785,0
152083.747,30.273,39.062,25.391,19.531,29.297,0
152083.751,34.668,34.180,30.273,25.879,50.781,0
152083.755,25.879,36.133,32.715,23.926,20.020,0
152083.759,20.508,37.598,26.367,17.090,9.277,0
152083.763,24.414,33.691,29.297,18.555,29.785,0
152083.766,31.250,30.762,40.527,29.785,69.824,0
152083.770,32.227,25.879,47.363,31.738,41.016,0
152083.774,2.441,27.832,41.016,20.996,-15.625,0
152083.778,8.301,30.762,34.668,23.438,18.555,0
152083.782,52.734,26.855,31.250,27.832,94.238,0
152083.786,40.527,28.320,34.668,24.902,35.156,0
152083.790,8.301,33.691,32.715,28.320,-47.363,0
152083.792,17.578,27.832,25.391,31.250,-20.996,0
152083.796,36.621,22.461,33.691,37.109,10.254,0
152083.800,42.480,24.414,32.715,31.738,30.273,0
152083.803,18.066,31.738,34.180,21.484,13.672,0
152083.807,22.461,33.203,42.480,26.367,-41.016,0
152083.811,56.641,30.762,38.574,34.180,10.742,0
152083.815,50.293,27.344,33.203,34.668,57.617,0
152083.819,32.227,26.855,33.203,31.738,13.184,0
152083.823,20.020,30.762,35.156,32.227,-19.043,0
152083.827,28.809,31.250,39.062,34.180,-4.883,0
152083.831,58.105,33.203,40.039,32.715,70.801,0
152083.835,46.387,31.250,34.180,26.367,83.984,0
152083.852,7.812,34.668,32.227,21.973,-0.488,0
152083.856,23.926,38.086,36.621,27.832,-7.324,0
152083.860,57.129,33.691,42.480,36.133,52.246,0
152083.864,38.086,26.367,41.016,32.227,62.012,0
152083.867,16.113,29.297,34.180,32.715,46.387,0
152083.871,21.484,37.598,24.902,36.133,29.297,0
152083.875,36.621,34.180,24.414,30.273,89.844,0
152083.879,44.922,33.691,31.250,27.832,131.836,0
152083.883,35.645,39.062,32.227,24.414,48.828,0
152083.887,29.297,39.062,31.738,18.066,-6.348,0
152083.891,37.598,37.598,26.367,27.832,36.133,0
152083.895,40.039,34.668,24.414,37.598,60.547,0
152083.897,31.738,33.203,36.133,26.855,19.043,0
152083.901,28.320,35.156,41.504,27.344,-1.465,0
152083.905,41.992,35.156,47.852,39.551,41.016,0
152083.909,40.527,35.156,58.105,45.410,107.422,0
152083.912,27.832,33.691,59.082,44.434,85.938,0
152083.916,14.648,31.250,53.223,35.645,2.441,0
152083.920,17.090,31.738,40.527,37.109,22.949,0
152083.924,42.969,32.227,41.504,32.227,85.449,0
152083.928,45.898,36.621,41.992,27.832,87.891,0
152083.932,26.367,39.062,34.180,25.879,24.414,0
152083.936,17.090,35.156,33.691,28.320,18.066,0
152083.940,53.711,33.203,38.086,39.551,59.082,0
152083.942,52.246,32.715,42.969,36.133,34.180,0
152083.946,8.301,31.738,48.340,29.297,-13.672,0
152083.950,8.789,29.297,43.945,23.438,-16.602,0
152083.953,37.598,37.109,32.715,36.133,59.570,2
152083.957,45.898,41.992,36.133,42.969,110.352,0
152083.961,28.320,34.180,40.039,33.203,39.062,0
152083.965,15.137,37.109,41.016,32.715,-47.363,0
152083.969,37.109,40.039,41.992,36.621,8.789,0
152083.973,62.500,34.668,24.902,46.387,65.918,0
152083.977,31.250,36.133,12.695,42.480,34.180,0
152083.981,-3.418,37.109,32.715,25.879,13.672,0
152083.985,2.930,33.203,53.711,30.273,39.062,0
152083.987,37.109,31.250,56.641,39.551,96.191,0
152083.991,39.551,30.762,49.805,30.762,86.914,0
152083.995,21.484,33.203,44.922,25.391,37.109,0
152083.999,13.672,36.133,43.945,33.691,51.758,0
152084.003,34.668,36.621,41.504,38.086,86.914,0
152084.006,51.270,33.691,37.109,30.273,79.102,0
152084.010,29.785,32.227,33.691,25.391,39.062,0
152084.014,27.344,32.715,31.250,25.391,-2.930,0
152084.018,41.016,34.180,31.250,30.273,15.137,0
152084.022,39.551,33.203,28.809,28.320,95.215,0
152084.026,36.621,31.250,27.832,21.973,73.730,0
152084.030,1.465,37.109,32.227,19.531,-15.137,0
152084.032,-2.441,39.551,31.250,22.949,2.441,0
152084.036,31.250,32.227,30.273,29.297,56.641,0
152084.040,33.691,26.367,28.809,19.531,70.312,0
152084.044,18.555,29.785,26.855,9.766,60.547,0
152084.047,10.742,32.227,29.785,16.602,59.570,0
152084.051,44.434,34.180,33.203,25.391,77.148,0
152084.055,53.223,32.715,37.598,28.809,87.891,0
152084.059,3.906,31.738,41.992,25.879,20.996,0
152084.063,-6.348,29.785,45.410,14.160,-49.805,0
152084.067,26.855,24.414,42.480,20.508,14.160,0
152084.071,41.504,27.344,36.133,36.621,61.523,0
152084.075,20.508,32.715,34.180,30.273,4.395,0
152084.077,13.672,33.691,39.062,21.484,-34.668,0
152084.081,33.203,34.668,46.387,33.691,21.484,0
152084.085,45.410,31.250,41.016,44.434,91.309,0
152084.089,43.945,28.320,40.039,35.156,59.570,0
152084.093,22.461,33.691,47.852,28.320,-30.273,0
152084.096,20.508,30.762,41.504,26.855,-36.133,0
152084.100,42.969,25.391,38.574,28.809,25.391,0
152084.104,46.387,30.762,40.039,22.949,24.902,0
152084.108,16.113,33.203,39.551,9.277,-21.973,0
152084.112,1.465,31.738,40.527,16.113,12.695,0
152084.116,27.344,36.621,38.086,24.902,51.758,0
152084.120,40.527,39.062,39.062,26.367,48.828,0
152084.122,27.832,33.691,40.527,23.926,21.973,0
152084.126,17.090,27.832,37.598,19.043,-27.832,0
152084.130,30.273,29.297,33.691,26.367,24.902,0
152084.134,50.293,33.203,36.621,33.691,74.707,0
152084.137,32.715,34.180,40.527,31.738,6.836,0
152084.141,39.062,30.762,36.621,29.785,-22.949,0
152084.145,49.316,30.273,36.621,36.621,-23.926,0
152084.149,33.203,30.273,34.180,39.551,29.785,0
152084.153,27.832,28.809,27.832,31.738,86.914,0
152084.157,13.184,30.273,28.809,32.227,23.926,0
152084.161,17.090,32.227,23.438,37.598,1.465,0
152084.165,41.016,31.250,18.066,38.086,36.621,0
152084.168,55.664,33.203,20.508,34.180,43.457,0
152084.172,33.691,36.133,26.855,30.762,21.973,0
152084.176,27.344,36.621,38.574,30.762,4.883,0
152084.180,44.434,31.250,42.969,40.039,73.730,0
152084.184,38.574,30.273,43.457,38.574,112.305,0
152084.188,31.250,34.180,42.480,27.344,9.766,0
152084.192,20.020,33.691,34.668,26.855,-72.266,0
152084.196,28.809,29.297,29.785,31.738,-15.625,0
152084.199,48.340,24.414,26.367,34.668,65.918,0
152084.203,47.363,27.832,26.367,39.062,3.906,0
152084.207,30.762,28.809,29.297,35.156,-73.242,0
152084.211,43.945,25.391,26.367,37.598,-15.625,0
152084.213,61.523,26.367,24.902,45.898,73.242,0
152084.217,55.176,25.879,30.273,40.039,46.387,0
152084.221,27.832,29.297,39.062,37.598,-21.973,0
152084.225,19.531,35.156,39.551,45.898,18.066,0
152084.229,45.410,36.621,34.668,52.734,85.449,0
152084.233,56.641,37.598,33.691,46.387,57.129,0
152084.237,36.621,41.504,37.109,36.621,-1.953,0
152084.241,13.672,39.062,32.715,36.621,-16.113,0
152084.244,33.203,35.156,20.508,40.527,32.227,0
152084.248,62.012,36.133,27.344,33.691,61.523,0
152084.252,45.410,34.180,41.504,23.438,31.738,0
152084.256,12.207,34.668,40.527,22.949,8.789,0
152084.272,26.367,34.180,37.598,25.391,47.363,0
152084.276,42.969,31.738,42.480,32.715,110.840,0
152084.280,38.574,34.668,42.480,35.645,72.754,0
152084.284,22.461,35.156,35.645,33.203,6.348,0
152084.288,28.320,31.250,30.762,34.668,34.180,0
152084.292,54.199,30.762,25.391,35.645,55.176,0
152084.296,58.105,38.574,22.949,26.367,33.691,0
152084.300,38.086,41.016,32.715,23.926,20.508,0
152084.304,35.645,33.691,34.180,38.086,11.719,0
152084.308,61.523,27.344,34.668,50.781,58.594,0
152084.311,57.129,29.297,40.527,50.293,63.477,0
152084.315,29.297,39.551,39.551,47.852,-3.418,0
152084.317,26.367,42.480,40.039,45.410,-30.273,0
152084.321,43.945,38.574,38.574,48.340,57.617,0
152084.325,48.340,36.621,37.109,47.852,109.863,0
152084.329,35.156,36.621,35.645,42.969,36.621,0
152084.332,23.438,39.062,35.156,36.621,-4.395,0
152084.336,33.691,39.551,38.574,34.180,19.043,0
152084.340,44.922,42.480,35.645,36.621,59.082,0
152084.344,31.738,42.480,34.180,34.668,55.664,0
152084.348,10.254,36.621,41.504,27.832,-50.293,0
152084.352,19.043,32.715,35.156,30.762,-67.871,0
152084.356,41.016,32.227,20.996,37.598,35.645,0
152084.360,29.785,35.645,25.879,26.367,71.289,0
152084.362,1.465,33.691,41.016,12.207,17.578,0
152084.366,9.277,28.320,51.758,20.508,13.184,0
152084.370,51.758,33.691,47.363,27.832,63.477,0
152084.374,41.016,35.645,39.551,26.367,83.984,0
152084.377,-2.930,30.273,33.203,29.297,51.270,0
152084.381,-2.441,25.879,22.949,32.227,-14.648,0
152084.385,19.531,27.344,31.738,34.180,32.715,0
152084.389,42.969,33.691,44.434,36.133,79.590,0
152084.393,29.785,36.621,38.086,30.762,24.902,0
152084.397,6.836,34.180,35.645,34.180,-24.902,0
152084.401,22.949,33.203,42.480,38.086,19.531,0
152084.405,55.176,34.668,41.992,36.621,92.285,0
152084.408,47.363,35.156,32.715,30.273,58.105,0
152084.412,-0.977,35.156,29.297,26.855,11.230,0
152084.416,10.742,33.203,33.203,37.109,27.832,0
152084.419,45.410,33.203,31.250,37.598,74.219,0
152084.423,39.062,34.180,28.809,28.809,87.402,0
152084.427,16.113,34.668,32.715,24.414,19.531,0
152084.431,13.672,29.297,23.438,22.949,3.418,0
152084.435,39.551,29.785,22.461,28.320,79.590,0
152084.439,50.781,33.203,35.645,31.250,114.258,0
152084.443,21.973,29.297,35.645,22.949,82.520,0
152084.447,6.836,27.344,34.668,20.508,29.785,0
152084.451,26.855,31.738,32.715,27.344,62.500,0
152084.453,44.434,36.621,35.645,32.227,99.609,0
152084.457,34.180,30.762,34.668,30.273,65.430,0
152084.461,18.066,28.809,29.297,28.809,30.762,0
152084.465,31.250,30.273,26.855,33.203,26.367,0
152084.469,44.434,27.832,21.973,30.762,98.633,0
152084.473,46.875,32.227,23.926,33.691,94.727,0
152084.477,41.504,36.133,30.762,39.062,10.742,0
152084.481,21.484,33.203,41.016,36.133,2.930,0
152084.484,32.715,31.738,40.527,31.738,72.266,0
152084.488,44.434,27.344,41.504,34.668,113.770,0
152084.492,18.066,25.879,45.898,32.227,23.926,0
152084.496,16.602,26.367,39.062,32.227,-21.484,0
152084.497,41.504,25.391,36.133,40.039,68.848,0
152084.501,48.828,28.320,45.410,35.645,113.281,0
152084.505,33.691,30.273,52.246,30.762,49.805,0
152084.509,16.113,24.902,48.828,27.832,-16.602,0
152084.513,42.480,22.949,44.922,35.156,30.273,0
152084.517,54.688,23.438,42.480,41.992,105.957,0
152084.520,29.785,24.414,41.504,36.621,72.266,0
152084.524,9.766,33.203,30.273,19.531,-19.531,0
152084.528,12.695,39.551,25.879,14.160,41.992,0
152084.532,44.922,38.574,27.344,29.297,144.531,0
152084.536,42.480,38.086,35.156,26.367,109.375,0
152084.540,17.090,33.691,46.875,19.043,37.598,0
152084.542,20.508,31.738,43.945,25.879,7.324,0
152084.546,41.504,33.203,40.527,31.738,32.715,0
152084.550,49.805,33.203,39.551,30.762,35.645,0
152084.554,35.645,32.715,36.621,29.785,-33.203,0
152084.557,27.344,33.203,37.109,28.320,-50.781,0
152084.561,44.434,36.621,39.551,36.133,-0.977,0
152084.565,54.199,35.645,39.062,40.039,36.621,0
152084.569,45.898,33.203,36.133,35.645,7.324,0
152084.573,46.387,32.227,36.621,38.574,-25.879,0
152084.577,54.199,35.156,40.527,51.758,10.254,0
152084.581,60.547,33.691,40.527,50.781,61.035,0
152084.585,50.781,32.227,46.875,41.016,77.148,0
152084.602,11.230,32.227,54.199,43.945,44.922,0
152084.606,20.996,24.414,50.293,39.062,33.203,0
152084.610,48.828,22.949,49.316,40.527,65.918,0
152084.614,39.551,31.738,48.828,42.969,59.570,0
152084.617,20.508,33.691,41.504,35.156,-29.297,1
152084.621,26.855,29.297,35.156,34.668,-70.312,0
152084.625,44.922,25.879,39.551,45.410,15.625,0
152084.629,45.898,25.879,42.480,39.551,55.664,0
152084.633,30.273,30.762,36.133,27.832,7.324,0
152084.637,41.504,32.227,35.645,33.691,-37.598,0
152084.641,56.152,35.645,32.715,39.551,21.484,0
152084.645,50.293,35.645,36.621,39.551,97.656,0
152084.647,30.762,36.133,38.574,31.738,34.668,0
152084.651,33.203,38.086,30.273,27.344,-12.695,0
152084.655,51.270,36.133,36.621,39.062,39.062,0
152084.659,41.504,32.715,44.922,47.363,102.539,0
152084.662,39.062,32.227,45.410,42.969,103.516,0
152084.666,28.320,39.551,38.086,39.551,14.160,0
152084.670,24.902,40.039,21.484,44.434,-11.230,0
152084.674,50.781,33.203,25.879,44.434,56.641,0
152084.678,46.875,31.250,44.922,41.016,63.477,0
152084.682,24.902,33.691,42.480,41.504,-35.156,0
152084.686,28.809,32.227,43.457,39.551,-37.109,0
152084.690,49.316,27.832,48.828,39.551,68.848,0
152084.692,39.551,28.809,44.922,33.691,55.176,0
152084.696,18.555,34.180,45.898,34.180,-2.441,0
152084.700,14.648,38.086,43.457,36.133,5.371,0
152084.704,25.391,34.180,33.691,33.691,30.273,0
152084.707,41.016,32.227,29.297,39.062,63.477,0
152084.711,27.344,36.133,31.250,32.227,50.293,0
152084.715,10.254,38.574,33.691,21.973,15.625,0
152084.719,27.344,37.598,36.133,26.855,51.758,0
152084.723,47.852,33.203,37.598,30.762,63.477,0
152084.727,41.504,35.156,43.457,28.320,15.137,0
152084.731,41.504,37.109,42.480,24.902,-2.441,0
152084.735,23.926,30.762,33.691,27.832,22.949,0
152084.737,12.207,27.344,33.203,30.273,76.172,0
152084.741,28.809,29.785,37.109,22.949,36.133,0
152084.745,13.184,26.855,41.504,24.414,-18.066,0
152084.749,9.277,20.508,42.480,26.855,-12.207,0
152084.752,41.016,29.297,41.992,30.273,41.016,0
152084.756,53.223,38.086,46.875,36.621,49.805,0
152084.760,23.438,35.156,47.363,34.668,4.883,0
152084.764,13.184,38.086,48.828,34.180,4.395,0
152084.768,33.691,38.086,50.781,37.598,8.789,0
152084.772,45.898,32.715,45.898,39.551,9.766,0
152084.776,41.504,33.203,28.320,40.527,20.996,0
152084.780,15.137,36.621,15.137,35.156,-6.836,0
152084.782,30.273,39.551,32.715,35.156,23.926,0
152084.786,55.664,36.133,60.059,34.668,101.074,0
152084.790,27.344,30.273,59.570,26.855,83.008,0
152084.794,22.461,36.621,46.387,20.020,1.953,0
152084.798,35.156,41.504,47.363,24.414,1.465,0
152084.801,47.363,39.062,38.086,27.344,70.801,0
152084.805,50.293,35.645,27.832,19.043,55.176,0
152084.809,26.367,34.668,40.527,11.719,-38.574,0
152084.813,18.066,35.645,44.434,13.184,-81.055,0
152084.817,40.527,31.738,33.203,18.555,24.414,0
152084.821,61.523,34.668,36.133,23.926,97.656,0
152084.825,44.922,41.504,41.504,26.855,19.043,0
152084.827,13.672,39.551,43.945,16.113,-14.160,0
152084.831,15.625,35.156,46.875,16.113,6.348,0
152084.835,41.504,36.621,51.758,32.227,29.297,0
152084.839,37.109,37.598,53.223,25.879,8.301,0
152084.842,16.602,35.156,46.875,16.113,-13.184,0
152084.846,21.484,32.715,42.969,28.809,24.414,0
152084.850,39.062,31.738,40.527,39.062,64.453,0
152084.854,34.180,32.715,36.621,28.320,41.992,0
152084.858,19.043,31.250,41.992,30.762,10.254,0
152084.862,20.996,28.809,43.945,37.598,-6.348,0
152084.866,52.246,27.832,40.527,38.574,51.270,0
152084.870,61.035,25.391,50.781,38.574,79.590,0
152084.872,21.484,24.902,56.152,28.809,42.969,0
152084.876,6.836,28.320,52.246,23.438,-5.859,0
152084.880,38.574,31.738,49.805,29.785,18.555,0
152084.884,39.062,31.738,40.039,30.762,87.402,0
152084.887,7.812,26.367,34.180,22.461,50.781,0
152084.891,3.906,24.902,38.086,18.555,0.000,0
152084.895,21.484,31.250,32.715,28.320,33.691,0
152084.899,38.086,34.668,28.320,31.250,58.594,0
152084.903,27.344,33.691,36.621,24.902,55.176,0
152084.907,8.789,30.762,49.805,26.367,-14.648,0
152084.911,27.344,30.762,51.270,37.598,-29.297,0
152084.915,51.270,31.738,42.480,44.434,49.316,0
152084.918,34.180,26.367,47.852,41.016,36.133,0
152084.922,9.277,25.879,50.781,28.809,3.418,0
152084.926,17.578,27.832,47.852,28.320,6.836,0
152084.930,39.551,29.297,44.922,37.109,40.039,0
152084.934,33.691,32.715,42.480,38.086,84.961,0
152084.938,16.113,31.738,36.621,33.691,39.062,0
152084.942,12.695,31.738,32.715,37.598,3.906,0
152084.946,45.898,34.668,38.574,41.992,85.938,0
152084.949,60.547,35.645,44.434,42.480,124.023,0
152084.953,30.273,36.133,44.434,38.086,75.684,0
152084.957,20.020,36.621,41.504,30.762,19.531,0
152084.961,41.504,31.250,39.062,36.133,13.672,0
152084.977,55.664,32.227,42.969,41.992,90.332,0
152084.981,39.551,35.156,41.504,36.133,95.215,0
152084.985,24.902,33.691,35.156,26.855,12.207,0
152084.989,29.785,36.621,25.879,32.227,19.531,0
152084.993,51.270,34.668,22.949,35.156,91.309,0
152084.996,41.016,35.156,32.715,21.973,54.199,0
152085.000,11.230,37.109,38.086,19.531,-48.340,0
152085.004,11.719,30.273,35.645,21.484,-70.801,0
152085.008,37.109,28.320,29.785,24.902,22.461,0
152085.012,35.645,30.273,36.133,29.297,63.477,0
152085.016,10.742,28.320,43.457,27.344,11.719,0
152085.020,5.371,27.344,40.527,18.555,4.395,0
152085.022,26.855,32.227,41.992,20.508,41.504,0
152085.026,47.852,34.180,46.387,24.902,50.781,0
152085.030,27.832,31.250,39.062,17.578,35.156,0
152085.034,-6.348,28.809,32.715,13.184,20.020,0
152085.037,9.277,27.832,37.109,16.113,24.414,0
152085.041,45.410,30.273,36.621,21.484,39.551,0
152085.045,25.391,33.691,32.227,21.484,17.090,0
152085.049,-6.348,28.809,31.250,13.184,-42.480,0
152085.053,4.395,23.438,35.156,18.555,-41.504,0
152085.057,45.410,26.367,35.645,25.391,-24.414,0
152085.061,50.293,31.738,32.227,27.344,10.742,0
152085.065,14.160,32.227,29.297,27.344,5.859,0
152085.083,6.836,32.715,28.809,24.902,-25.879,0
152085.086,36.133,33.691,30.762,30.762,31.738,0
152085.090,43.945,32.715,37.598,33.203,61.523,0
152085.094,19.043,32.715,42.480,26.855,3.418,0
152085.098,6.836,29.785,42.480,22.461,-29.297,0
152085.102,32.227,21.484,43.457,24.902,10.742,0
152085.106,59.570,22.461,41.504,27.832,33.691,0
152085.110,26.855,31.250,34.668,26.855,27.832,0
152085.114,6.836,37.598,35.645,23.438,4.883,0
152085.118,19.531,37.598,40.527,22.461,9.766,0
152085.122,38.086,33.691,41.504,24.414,62.012,0
152085.126,44.922,32.715,44.434,33.203,59.082,0
152085.112,26.855,33.691,44.922,31.738,21.484,0
152085.116,27.832,35.156,42.969,23.438,14.648,0
152085.120,48.828,35.645,36.133,29.297,52.734,0
152085.124,52.246,40.039,23.926,33.203,90.332,0
152085.127,34.180,41.504,23.926,27.344,48.340,0
152085.131,43.945,40.527,35.156,31.250,-27.344,0
152085.135,58.105,35.156,41.016,39.551,40.527,0
152085.139,45.898,28.320,43.945,36.133,139.160,0
152085.143,29.785,32.227,36.621,34.180,84.961,0
152085.147,10.254,36.621,39.062,38.086,2.441,0
152085.151,33.691,33.691,52.734,35.156,30.762,0
152085.155,65.918,32.715,57.129,37.109,52.246,0
152085.157,45.898,34.180,53.711,37.109,-0.488,0
152085.161,7.324,30.273,43.945,26.855,-24.414,0
152085.165,15.625,27.832,37.109,33.203,42.969,0
152085.169,45.410,31.250,31.738,41.016,121.094,0
152085.172,40.527,34.668,29.785,35.156,86.426,0
152085.176,24.414,35.156,37.109,31.250,-10.742,0
152085.180,24.902,34.180,45.898,40.039,-22.949,1
152085.184,54.688,32.715,49.316,43.945,25.391,0
152085.188,66.406,32.715,47.852,39.551,21.973,0
152085.192,40.039,34.180,45.898,35.645,-1.953,0
152085.196,27.832,27.832,34.180,37.109,-21.484,0
152085.200,33.203,26.855,27.344,35.645,34.668,0
152085.202,49.316,37.598,41.016,34.180,108.398,0
152085.206,38.574,33.691,43.457,34.668,71.777,0
152085.210,22.461,23.926,43.945,32.227,-9.277,0
152085.214,36.133,31.738,47.852,34.180,9.766,0
152085.217,45.410,34.668,42.969,32.715,82.520,0
152085.221,35.645,30.273,44.922,30.762,79.102,0
152085.225,23.926,31.738,47.363,27.832,-4.883,0
152085.229,41.992,32.715,41.016,28.809,-41.016,0
152085.233,53.223,31.250,39.551,36.621,49.316,0
152085.237,40.527,27.344,34.180,32.227,93.262,0
152085.241,18.066,25.879,29.297,26.367,33.691,0
152085.245,11.719,26.855,38.574,30.273,3.906,0
152085.247,37.598,29.297,44.434,37.598,42.969,0
152085.251,46.875,30.762,38.086,38.086,76.660,0
152085.255,31.738,32.715,37.109,33.691,33.691,0
152085.259,21.484,34.180,41.504,29.785,-17.578,0
152085.262,45.410,33.691,44.434,35.156,33.691,0
152085.266,57.617,28.809,43.945,39.062,117.676,0
152085.270,28.809,25.391,28.320,25.879,45.410,0
152085.274,36.133,34.180,24.414,19.531,-33.203,0
152085.278,38.086,35.156,31.738,22.949,53.223,0
152085.282,23.926,26.855,38.086,29.785,104.492,0
152085.286,32.715,29.297,36.621,29.297,49.316,0
152085.290,20.020,33.203,30.762,23.438,-1.953,0
152085.307,21.973,30.762,35.645,31.738,16.602,0
152085.311,44.434,29.785,36.133,41.504,71.777,0
152085.315,40.527,30.762,31.738,38.086,81.543,0
152085.319,13.184,26.855,38.086,25.879,23.926,0
152085.322,12.695,25.391,42.969,29.785,-22.949,0
152085.326,38.086,27.344,38.574,42.969,41.504,0
152085.330,46.387,29.297,35.645,39.062,84.473,0
152085.334,40.527,29.785,30.762,23.926,27.832,0
152085.338,23.926,26.855,30.762,27.344,23.438,0
152085.342,31.738,27.832,31.738,38.086,41.504,0
152085.346,64.453,35.645,33.691,38.086,48.828,0
152085.350,39.551,37.109,41.992,30.273,26.367,0
152085.352,14.160,34.180,45.898,24.902,15.625,0
152085.356,38.574,32.227,41.016,30.273,28.809,0
152085.360,53.711,29.297,38.086,36.133,55.664,0
152085.364,42.480,26.367,36.621,38.086,48.828,0
152085.367,31.250,31.250,29.785,33.691,-5.371,0
152085.371,28.320,35.645,33.691,37.598,-16.602,0
152085.375,38.086,33.691,45.898,50.293,28.320,0
152085.379,41.016,35.156,51.270,46.387,55.664,0
152085.383,32.715,32.715,44.434,40.039,16.113,0
152085.387,19.043,32.715,40.527,40.527,-27.832,0
152085.391,32.227,34.668,35.156,36.621,37.598,0
152085.395,45.410,35.156,32.227,36.621,128.418,0
152085.397,23.926,37.598,39.062,33.691,66.895,0
152085.401,24.902,38.086,44.434,33.203,-43.457,0
152085.405,42.480,36.133,45.410,46.875,-7.812,0
152085.409,45.898,33.203,41.504,48.340,105.469,0
152085.412,37.109,26.367,39.062,40.039,72.266,0
152085.416,25.879,25.879,40.039,34.180,-13.184,0
152085.420,38.086,37.109,37.598,32.715,-3.906,0
152085.424,53.223,42.480,30.273,39.062,85.449,0
152085.428,55.176,35.645,41.504,39.062,138.672,0
152085.432,36.621,31.738,46.387,30.273,56.152,0
152085.436,13.672,29.785,37.109,29.297,4.883,0
152085.440,24.414,28.809,40.527,34.668,73.242,0
152085.443,35.156,30.273,36.621,37.598,76.172,0
152085.447,22.461,24.902,32.227,35.645,-22.949,0
152085.451,12.207,26.855,28.809,28.320,-37.109,0
152085.455,25.879,39.062,27.832,27.832,47.363,0
152085.459,41.504,41.016,39.551,29.297,91.797,0
152085.463,30.273,35.156,45.898,23.926,55.176,0
152085.467,11.230,30.762,43.457,20.020,-12.695,0
152085.471,20.996,32.715,33.691,26.367,-3.906,0
152085.474,41.504,28.320,28.809,32.715,69.824,0
152085.478,39.551,25.391,33.203,31.738,33.203,0
152085.482,38.086,32.227,37.109,27.832,-24.414,0
152085.486,35.645,35.645,41.504,26.367,-10.742,0
152085.487,26.367,40.039,43.457,36.133,19.531,0
152085.491,24.902,36.621,34.668,32.227,51.270,0
152085.495,9.766,30.273,37.109,21.973,21.484,0
152085.499,13.184,31.250,44.922,28.320,12.207,0
152085.503,39.062,35.645,35.156,37.109,26.367,0
152085.506,46.875,32.715,28.809,34.668,36.133,0
152085.510,35.156,32.227,38.086,27.832,26.367,0
152085.514,19.043,32.227,43.945,27.832,-8.789,0
152085.518,34.668,25.879,42.969,28.320,22.461,0
152085.522,61.035,26.855,32.227,33.203,28.320,0
152085.526,55.664,34.180,27.832,35.156,14.648,0
152085.530,19.043,41.016,34.180,31.738,-18.066,0
152085.532,22.949,40.527,37.109,40.527,-16.602,0
152085.536,52.246,33.203,38.574,41.992,47.852,0
152085.540,43.945,30.762,34.668,33.691,60.059,0
152085.544,17.090,32.227,30.762,28.320,13.672,0
152085.547,30.273,35.645,32.227,29.785,8.301,0
152085.551,70.312,36.621,32.715,39.551,50.293,0
152085.555,57.129,28.809,39.062,41.504,81.543,0
152085.559,20.020,32.227,39.551,38.574,60.547,0
152085.563,21.484,40.527,25.391,40.527,-5.371,0
152085.567,44.434,34.668,20.996,40.527,40.039,0
152085.571,59.570,33.203,30.273,36.621,91.309,0
152085.575,47.852,36.133,35.156,38.574,42.480,0
152085.577,24.414,33.691,35.156,35.156,23.438,0
152085.581,25.391,30.762,35.645,35.156,60.547,0
152085.585,48.828,30.762,44.434,44.434,91.309,0
152085.589,43.457,32.227,48.828,42.969,74.219,0
152085.593,27.832,30.762,45.410,41.016,40.527,0
152085.597,40.039,29.785,42.480,47.852,46.875,0
152085.601,56.641,29.785,38.574,53.223,71.777,0
152085.605,46.387,30.273,42.480,44.434,51.270,0
152085.609,24.414,31.250,40.039,35.156,0.488,0
152085.613,26.855,27.832,28.809,35.645,31.250,0
152085.617,51.758,26.855,32.227,40.527,85.938,0
152085.620,52.246,29.785,41.992,40.039,108.398,0
152085.622,33.691,38.086,41.016,40.039,91.797,0
152085.626,24.414,39.062,28.320,38.574,41.016,0
152085.630,41.016,32.227,23.926,35.156,96.191,0
152085.634,53.223,29.785,36.133,29.297,127.441,0
152085.637,42.480,29.297,44.922,29.785,54.199,0
152085.641,23.438,28.809,44.922,31.738,-9.766,0
152085.645,22.461,29.785,30.762,28.809,11.719,0
152085.649,35.156,28.320,18.555,28.809,21.973,0
152085.653,45.410,30.273,33.203,34.668,32.715,0
152085.657,31.738,35.156,45.410,31.250,26.367,0
152085.661,15.625,32.227,40.527,22.949,3.906,0
152085.665,43.945,28.809,35.156,28.809,53.223,0
152085.668,39.062,27.344,35.156,27.344,62.988,0
152085.672,10.254,27.832,39.062,21.484,-6.348,0
152085.676,22.461,28.320,36.133,20.996,-19.531,0
152085.680,44.434,28.809,33.691,30.273,32.227,0
152085.684,34.180,27.344,29.785,34.668,63.965,0
152085.688,16.113,26.367,25.879,31.250,24.414,0
152085.692,21.973,30.762,27.832,25.391,-66.895,0
152085.696,46.875,30.762,31.250,26.855,-12.695,0
152085.699,50.293,27.344,33.691,25.879,83.984,0
152085.703,34.180,26.855,31.738,14.160,21.973,0
152085.707,12.207,30.273,30.273,13.672,-20.996,0
152085.711,19.043,31.738,36.133,24.414,64.453,0
152085.712,36.621,32.227,36.133,31.250,132.324,0
152085.716,25.391,31.250,36.621,29.785,94.238,0
152085.720,23.926,28.320,38.086,28.809,14.648,0
152085.724,26.855,28.320,38.574,34.180,17.090,0
152085.727,26.367,30.762,42.480,42.969,70.801,0
152085.731,48.340,28.809,44.434,39.551,85.938,0
152085.735,41.992,28.320,41.016,28.809,30.273,0
152085.739,13.184,34.180,32.715,32.227,19.531,0
152085.743,39.551,43.457,31.250,42.969,79.102,0
152085.747,66.895,42.969,33.203,42.480,43.945,0
152085.751,39.551,36.133,33.203,33.691,11.719,0
152085.755,24.902,38.086,39.551,38.086,30.762,0
152085.772,48.340,39.551,41.992,44.922,69.824,0
152085.776,61.523,36.621,38.086,37.598,116.699,0
152085.780,38.574,29.297,40.527,32.227,60.547,0
152085.784,22.461,25.391,42.969,30.762,-11.230,0
152085.787,35.156,28.809,34.668,39.551,28.809,0
152085.791,53.223,32.715,27.832,48.340,97.656,0
152085.795,50.781,32.715,24.902,40.039,108.398,0
152085.799,32.715,30.273,33.691,29.785,52.734,0
152085.803,35.156,28.320,42.480,36.133,18.066,0
152085.807,45.410,25.879,41.016,42.969,41.992,0
152085.811,34.180,27.344,43.457,33.203,56.152,0
152085.815,16.602,31.738,41.992,29.785,28.809,0
152085.817,20.508,33.691,36.133,39.062,17.090,0
152085.821,40.039,34.180,23.438,39.551,63.477,1
152085.825,40.527,29.297,16.113,29.785,102.051,0
152085.829,21.973,29.297,34.180,28.320,62.988,0
152085.832,19.043,33.691,41.504,22.461,5.371,0
152085.836,41.016,32.715,38.574,21.973,25.391,0
152085.840,36.133,31.250,38.086,22.461,75.684,0
152085.844,19.531,25.391,40.527,20.996,40.527,0
152085.848,0.977,24.414,42.969,20.996,-51.758,0
152085.852,17.090,28.320,34.668,30.273,-32.715,0
152085.856,47.852,28.809,33.203,39.062,91.797,0
152085.860,41.992,33.203,36.621,33.691,78.613,0
152085.862,17.090,34.180,34.180,27.344,-33.691,0
152085.866,18.066,34.668,34.180,20.020,-32.715,0
152085.870,36.133,35.645,24.414,22.949,43.945,0
152085.874,43.457,31.738,19.531,23.438,40.039,0
152085.877,23.926,29.785,37.598,17.090,-8.789,0
152085.881,3.906,34.668,44.922,16.113,-29.785,0
152085.885,47.363,31.738,41.504,24.902,41.504,0
152085.889,48.828,26.855,41.504,33.691,95.215,0
152085.893,8.789,29.785,43.457,29.785,30.273,0
152085.897,3.418,29.297,40.527,26.367,-3.418,0
152085.901,19.531,27.344,36.133,31.250,58.105,0
152085.905,45.410,30.762,35.156,37.598,139.648,0
152085.908,46.875,36.133,34.668,37.598,86.914,0
152085.912,30.762,30.273,29.785,33.691,-16.602,0
152085.916,41.992,29.297,28.809,37.109,50.781,0
152085.920,50.293,38.086,33.691,38.086,54.688,0
152085.924,39.062,40.039,34.668,27.344,13.184,0
152085.928,22.461,38.086,40.039,24.902,14.160,0
152085.932,9.277,33.691,41.992,32.227,0.977,0
152085.936,32.715,30.762,41.504,41.016,49.316,0
152085.939,50.293,32.227,40.039,34.180,41.504,0
152085.943,38.086,35.645,30.762,29.785,28.809,0
152085.947,34.180,38.086,32.227,35.156,20.020,0
152085.951,27.344,32.227,37.109,41.504,35.156,0
152085.952,19.043,23.926,39.551,46.875,118.652,0
152085.956,18.066,29.297,41.016,30.762,88.867,0
152085.960,3.418,34.180,42.480,19.043,9.277,0
152085.964,30.762,34.668,43.457,26.367,33.203,0
152085.968,50.293,34.180,31.250,25.879,51.270,0
152085.971,26.367,33.203,33.691,23.438,-7.812,0
152085.975,16.602,38.574,45.898,26.855,-55.176,0
152085.979,37.109,34.180,39.551,43.457,-41.016,0
152085.983,61.035,26.367,31.738,41.504,28.320,0
152085.987,42.969,24.414,31.738,14.648,77.637,0
152085.991,21.484,29.297,28.320,20.996,18.066,0
152085.995,21.484,37.109,26.367,24.414,-43.945,0
152085.997,31.250,36.621,35.156,30.273,26.367,0
152086.001,39.062,33.691,41.016,38.574,41.016,0
152086.005,14.648,34.180,44.434,30.273,-11.719,0
152086.009,1.953,35.156,42.969,19.043,-6.836,0
152086.013,36.133,33.203,39.062,25.879,35.645,0
152086.017,40.039,37.598,41.016,36.621,62.012,0
152086.020,18.555,35.645,39.551,31.738,15.625,0
152086.024,23.926,30.273,33.691,27.832,-66.406,0
152086.028,21.484,28.809,20.996,34.668,-37.109,0
152086.032,28.809,31.738,22.461,38.086,45.898,0
152086.036,32.227,34.668,40.527,29.785,3.906,0
152086.040,23.438,34.180,43.457,21.973,-69.336,0
152086.042,28.320,35.156,41.504,27.832,-30.273,0
152086.046,41.016,39.062,41.992,35.156,68.848,0
152086.050,46.387,40.527,35.645,31.738,64.453,0
152086.054,32.227,39.062,38.574,26.367,11.230,0
152086.058,24.902,38.574,42.969,29.297,19.531,0
152086.061,46.387,33.691,26.367,37.598,60.059,0
152086.065,51.270,28.320,25.879,37.598,35.645,0
152086.069,34.180,32.227,43.457,35.645,0.000,0
152086.073,27.344,35.156,45.410,32.715,-15.137,0
152086.077,33.203,33.691,43.945,34.180,-21.484,0
152086.081,39.551,31.250,50.781,43.457,27.344,0
152086.085,25.879,35.156,50.781,42.480,30.762,0
152086.102,16.113,38.086,45.410,37.598,12.695,0
152086.106,29.297,34.180,43.457,40.527,18.555,0
152086.110,42.480,33.203,37.598,41.504,53.223,0
152086.114,35.156,33.691,29.297,37.598,63.965,0
152086.118,16.113,31.738,32.227,33.691,-9.766,0
152086.121,27.344,34.180,44.434,39.062,13.184,0
152086.125,56.152,32.715,49.316,49.316,79.590,0
152086.129,58.594,26.367,43.457,43.945,78.125,0
152086.133,37.598,26.855,40.527,34.180,43.457,0
152086.137,40.527,33.203,28.809,39.062,20.996,0
152086.141,57.617,40.527,20.508,50.293,74.219,0
152086.145,48.828,39.062,28.809,48.340,125.000,0
152086.147,37.109,32.715,39.062,42.969,66.895,0
152086.151,35.156,34.180,43.945,44.434,27.832,0
152086.155,43.457,36.133,44.434,46.387,62.988,0
152086.159,65.918,29.297,39.551,46.387,61.035,0
152086.162,52.734,28.809,35.156,38.086,36.621,0
152086.166,10.254,33.691,32.227,37.598,8.301,0
152086.170,26.855,32.227,30.762,44.434,1.953,0
152086.174,52.734,31.738,41.504,47.852,68.359,0
152086.178,46.875,32.227,42.480,48.828,82.520,0
152086.182,41.992,32.227,32.715,48.340,-5.371,0
152086.186,43.457,35.156,36.621,52.734,-14.648,0
152086.190,53.223,36.621,45.898,57.617,87.891,0
152086.192,56.152,36.621,46.387,47.363,45.410,0
152086.196,33.691,32.227,42.480,39.062,-54.199,0
152086.200,28.809,31.250,40.039,43.457,-27.832,0
152086.204,55.176,33.691,37.109,46.387,54.199,0
152086.208,48.828,28.320,39.062,42.480,51.758,0
152086.211,27.832,30.273,44.922,40.039,-14.160,0
152086.215,20.020,34.668,42.480,36.133,-3.418,0
152086.219,37.598,31.738,41.504,44.434,61.035,0
152086.223,58.105,32.227,45.410,45.898,57.129,0
152086.227,47.852,37.598,42.480,32.715,3.418,0
152086.231,41.504,39.551,39.551,34.180,10.742,0
152086.235,42.969,36.621,43.945,41.992,36.621,0
152086.237,56.152,34.668,41.992,43.945,69.824,0
152086.241,48.828,37.109,34.180,34.668,65.430,0
152086.245,20.020,39.551,35.645,36.133,29.785,0
152086.249,32.715,37.109,39.551,42.480,6.836,0
152086.252,41.016,32.227,34.668,37.598,65.918,0
152086.256,46.387,31.738,36.621,36.621,115.234,0
152086.260,31.738,35.645,39.551,32.227,60.547,0
152086.264,12.207,40.039,40.039,28.320,17.578,0
152086.268,40.039,39.062,40.039,30.273,70.312,0
152086.272,42.480,38.574,39.062,25.879,95.703,0
152086.276,13.672,35.645,41.016,20.996,41.016,0
152086.280,13.672,34.180,37.109,22.949,-17.578,0
152086.282,30.762,35.645,34.180,33.691,-8.301,0
152086.286,42.969,32.715,36.621,28.320,60.059,0
152086.290,30.762,29.785,35.156,20.508,43.945,0
152086.294,14.648,33.691,37.598,23.438,-11.230,0
152086.297,13.672,38.086,38.086,24.902,23.438,0
152086.301,41.992,40.527,35.645,26.367,64.941,0
152086.305,52.734,39.551,36.133,27.344,85.938,0
152086.309,28.320,39.551,36.621,24.902,54.199,0
152086.313,19.043,41.504,31.250,25.391,-4.883,0
152086.317,44.922,39.551,26.855,33.691,54.688,0
152086.321,62.500,37.598,32.715,35.645,116.699,0
152086.325,34.180,35.645,31.738,28.809,61.035,0
152086.327,24.414,36.621,32.715,30.762,-11.230,0
152086.331,43.945,35.645,38.086,35.156,27.832,0
152086.335,64.941,36.133,39.551,33.691,110.840,0
152086.339,60.059,43.457,43.457,41.016,33.691,0
152086.342,23.926,40.527,37.109,41.992,-46.387,0
152086.346,39.062,41.504,30.762,41.992,38.086,0
152086.350,68.848,49.805,37.598,55.664,111.328,0
152086.354,59.570,43.457,49.316,51.758,53.223,0
152086.358,32.715,33.691,57.617,47.363,-5.859,0
152086.362,38.574,33.691,57.617,52.246,45.898,0
152086.366,69.824,41.016,56.152,49.316,95.215,0
152086.370,74.219,45.410,53.223,44.434,60.059,0
152086.373,52.734,42.480,45.898,38.574,8.789,0
152086.377,16.602,38.574,36.133,41.016,16.113,0
152086.381,27.344,36.621,36.621,48.828,27.344,0
152086.385,55.176,35.645,45.898,55.664,36.133,0
152086.389,42.969,38.086,57.129,58.105,22.461,0
152086.393,35.156,44.434,49.316,56.152,-9.766,0
152086.397,43.945,41.992,35.156,51.758,38.574,0
152086.401,55.664,40.039,42.480,46.875,90.820,0
152086.404,52.246,43.457,53.223,43.945,76.172,0
152086.408,41.504,43.945,56.152,40.039,28.320,0
152086.412,49.805,43.945,46.387,43.457,20.996,0
152086.416,60.547,43.945,41.992,51.270,75.684,0
152086.417,59.570,36.133,48.828,57.129,101.074,0
152086.421,46.875,35.156,38.086,44.434,21.484,0
152086.425,42.480,45.898,26.855,40.039,-6.836,0
152086.429,46.387,45.898,39.062,55.664,73.730,0
152086.432,46.875,48.340,46.387,52.246,89.355,0
152086.436,40.527,52.246,46.875,39.551,42.480,0
152086.440,28.320,45.898,45.898,37.598,0.488,0
152086.444,45.898,45.410,41.504,44.434,24.902,0
152086.448,72.754,48.340,35.645,45.410,70.312,0
152086.452,42.969,42.969,36.133,41.992,33.203,0
152086.456,14.648,42.480,41.504,41.504,-3.418,0
152086.460,41.992,46.875,35.645,47.852,34.668,0
152086.462,59.570,45.410,30.762,51.758,76.660,0
152086.466,43.945,44.922,35.645,43.945,34.668,0
152086.470,30.762,45.410,41.016,43.457,13.184,0
152086.474,48.828,43.945,44.922,48.340,32.227,0
152086.477,68.359,46.875,44.434,48.828,94.727,0
152086.481,49.316,47.852,37.598,41.504,93.750,0
152086.485,30.273,46.875,31.738,37.598,16.113,0
152086.489,42.969,45.410,30.273,37.598,-0.977,0
152086.493,68.848,45.410,34.668,42.480,45.410,0
152086.497,57.617,44.434,38.086,49.316,45.410,0
152086.501,18.066,45.410,32.227,34.668,-15.137,0
152086.505,8.301,44.922,30.762,25.391,-9.277,1
152086.522,37.109,41.992,36.133,40.527,20.508,0
152086.526,56.641,41.016,38.574,45.410,41.016,0
152086.530,45.410,41.016,41.504,38.574,24.902,0
152086.534,3.906,38.086,42.480,34.180,-36.133,0
152086.538,4.395,36.133,41.016,34.180,-5.371,0
152086.541,40.527,37.598,37.598,36.621,44.434,0
152086.545,32.715,35.156,30.273,32.227,14.160,0
152086.549,10.742,35.645,23.926,23.926,0.977,0
152086.553,32.715,40.039,30.273,30.762,-1.953,0
152086.557,47.363,41.992,41.016,41.992,47.363,0
152086.561,39.062,44.922,47.363,35.156,84.473,0
152086.565,20.996,41.992,45.898,30.273,0.977,0
152086.567,13.184,38.574,34.180,32.227,-45.898,0
152086.571,55.176,40.039,33.203,34.180,16.113,0
152086.575,63.965,38.574,33.203,34.668,57.617,0
152086.579,26.855,39.062,26.367,26.367,45.898,0
152086.583,27.832,39.551,26.855,26.367,35.645,0
152086.586,24.414,37.598,35.645,33.203,66.406,0
152086.590,33.203,41.504,28.809,27.832,83.984,0
152086.594,37.109,42.969,9.277,25.879,55.664,0
152086.598,11.719,42.969,16.602,25.879,-10.254,0
152086.602,17.090,40.527,34.180,28.809,13.184,0
152086.606,37.598,39.551,38.574,27.832,99.121,0
152086.610,25.879,37.109,44.922,25.391,92.773,0
152086.612,14.648,32.715,46.387,28.320,30.273,0
152086.616,17.090,38.574,41.504,31.250,11.719,0
152086.620,33.203,38.574,32.227,32.715,57.617,0
152086.624,47.363,40.527,24.414,31.738,63.965,0
152086.627,27.832,44.922,22.461,28.809,-16.602,0
152086.631,12.207,41.992,27.344,29.785,-4.395,0
152086.635,39.551,36.621,35.645,37.598,77.148,0
152086.639,60.059,37.109,33.691,38.086,94.238,0
152086.643,38.086,41.504,33.203,30.273,8.301,0
152086.647,33.691,39.551,35.156,29.785,-10.254,0
152086.651,48.340,41.016,37.109,36.621,17.578,0
152086.655,44.922,46.875,37.109,41.504,66.406,0
152086.658,43.945,47.363,26.855,32.227,103.516,0
152086.662,30.273,45.410,21.484,24.414,-20.996,0
152086.666,25.879,47.363,34.668,33.203,-38.574,0
152086.670,52.246,46.875,38.086,41.504,9.277,0
152086.674,50.781,42.969,32.715,34.180,12.695,0
152086.678,28.809,41.992,37.109,28.320,19.531,0
152086.682,28.320,41.992,42.480,32.715,5.371,0
152086.686,68.359,41.992,29.785,33.203,49.316,0
152086.689,61.035,41.504,23.926,36.133,81.055,0
152086.693,7.324,39.551,36.133,34.668,25.879,0
152086.697,8.789,41.504,38.086,44.434,-39.062,0
152086.701,41.016,40.527,34.180,54.199,21.484,0
152086.702,60.547,36.621,29.297,49.805,65.430,0
152086.706,38.574,41.504,30.273,40.039,44.922,0
152086.710,17.578,42.969,45.898,37.109,8.789,0
152086.714,30.762,38.574,42.480,40.527,-25.879,0
152086.718,53.223,41.992,28.320,41.016,34.180,0
152086.721,46.875,45.898,35.156,34.668,32.227,0
152086.725,22.461,44.434,35.645,30.762,-41.504,0
152086.729,39.551,42.480,26.367,28.320,-26.367,0
152086.733,56.152,45.410,22.461,26.367,44.922,0
152086.737,30.273,48.828,21.973,28.320,43.945,0
152086.741,17.578,52.246,20.996,31.738,3.418,0
152086.745,25.391,52.734,25.879,29.785,10.254,0
152086.747,44.922,41.504,29.297,30.273,70.312,0
152086.751,44.434,33.691,28.320,27.344,101.562,0
152086.755,35.645,37.598,24.902,27.344,19.531,0
152086.759,26.855,45.410,20.508,32.227,-47.852,0
152086.762,45.898,47.852,29.297,42.969,38.086,0
152086.766,58.594,41.016,41.016,53.711,109.863,0
152086.770,34.180,43.457,42.969,46.387,52.734,0
152086.774,19.043,45.410,34.668,37.109,-17.578,0
152086.778,29.297,41.992,35.156,41.992,23.926,0
152086.782,49.805,44.922,46.875,50.293,89.844,0
152086.786,39.551,41.992,40.527,38.086,37.109,0
152086.790,25.879,41.016,37.598,31.738,-34.180,0
152086.792,25.879,43.457,37.109,38.086,2.441,0
152086.796,29.297,47.852,28.320,33.691,80.566,0
152086.800,32.227,45.410,24.414,18.066,101.562,0
152086.804,15.137,42.480,36.621,19.531,61.035,0
152086.807,15.137,49.805,40.039,28.320,41.992,0
152086.811,42.480,54.199,33.203,32.715,72.754,0
152086.815,50.781,55.664,28.320,33.203,56.152,0
152086.819,35.156,58.105,26.367,25.391,17.578,0
152086.823,21.973,54.688,30.273,26.855,4.395,0
152086.827,39.062,49.805,31.250,37.598,41.992,0
152086.831,57.129,49.316,33.203,45.410,103.516,0
152086.835,44.922,47.852,36.621,47.363,61.035,0
152086.838,33.691,48.828,34.180,47.852,1.953,0
152086.842,39.062,49.316,26.855,51.270,20.508,0
152086.846,54.199,45.410,38.086,54.199,48.340,0
152086.850,62.500,46.875,43.457,45.898,67.871,0
152086.854,33.691,50.781,35.156,41.016,19.043,0
152086.858,10.254,44.434,29.297,42.480,-65.918,0
152086.862,51.270,44.922,31.738,49.316,-29.297,0
152086.866,64.941,54.199,36.133,57.617,32.227,0
152086.869,39.551,51.758,32.227,50.293,-4.883,0
152086.873,41.504,42.969,34.180,51.758,-40.039,0
152086.877,68.359,37.598,33.203,58.105,18.555,0
152086.881,78.613,41.992,29.297,55.664,69.824,0
152086.898,47.852,50.781,35.645,50.781,3.418,0
152086.901,36.621,53.223,33.691,48.340,-52.734,0
152086.905,56.152,52.246,28.320,51.758,-35.645,0
152086.909,57.129,50.781,26.855,53.223,-5.859,0
152086.913,33.691,45.898,20.996,42.969,-37.598,0
152086.917,19.531,44.922,27.832,39.062,-115.234,0
152086.921,37.598,42.969,38.574,40.039,-103.027,0
152086.925,51.270,38.086,35.645,40.039,-22.949,0
152086.929,41.016,43.457,30.273,34.668,-18.066,0
152086.933,26.855,50.293,34.180,32.715,-69.336,0
152086.937,30.762,50.293,30.762,40.039,-69.336,0
152086.941,61.035,47.852,23.438,41.016,15.137,0
152086.942,67.871,46.387,28.320,45.410,41.016,0
152086.946,23.926,43.457,36.621,45.410,11.230,0
152086.950,20.020,39.551,37.109,41.504,2.930,0
152086.954,48.828,41.504,33.203,43.945,14.648,0
152086.958,49.805,42.969,37.598,45.410,48.340,0
152086.961,26.855,47.363,37.109,47.852,31.738,0
152086.965,26.855,49.316,24.902,35.645,-10.742,0
152086.969,46.875,46.387,29.297,32.227,2.930,0
152086.973,43.457,42.969,41.016,41.504,49.316,0
152086.977,33.691,41.992,35.156,37.109,18.555,0
152086.981,38.086,45.410,28.809,36.133,-63.965,0
152086.985,47.363,47.363,31.250,40.039,-32.715,0
152086.987,51.270,44.434,32.227,41.992,44.434,0
152086.991,41.992,43.945,26.367,41.016,11.230,0
152086.995,26.855,49.805,24.902,38.574,-1.465,0
152086.999,31.738,49.805,31.738,39.551,-20.020,0
152087.002,55.664,45.898,30.273,44.922,-23.926,0
152087.006,62.988,42.969,20.508,45.898,0.000,0
152087.010,30.762,44.434,24.902,35.645,-19.531,0
152087.014,19.531,49.805,36.621,36.621,-35.156,0
152087.018,63.477,46.387,37.109,40.039,19.043,0
152087.022,50.293,41.016,32.227,25.879,63.965,0
152087.026,4.883,41.016,27.832,18.555,41.016,0
152087.030,-3.418,35.156,27.344,14.648,-9.277,0
152087.032,16.602,31.738,31.738,17.090,9.766,0
152087.036,40.039,38.086,28.809,28.320,80.078,0
152087.040,28.809,46.875,20.996,26.855,54.199,0
152087.044,12.207,47.852,17.578,20.508,-36.133,0
152087.047,22.949,43.457,27.832,20.020,11.719,0
152087.051,41.016,41.016,41.016,23.926,109.375,0
152087.055,56.152,48.340,42.969,24.902,87.402,0
152087.059,31.738,45.898,40.527,23.926,7.812,0
152087.063,9.277,39.551,35.645,30.762,-28.809,0
152087.067,59.082,45.410,35.156,39.551,80.078,0
152087.071,76.660,46.387,35.645,46.387,113.281,0
152087.075,40.527,43.945,39.551,45.410,23.438,0
152087.077,31.250,49.316,37.109,39.062,-6.348,0
152087.081,61.035,50.293,35.645,47.363,73.242,0
152087.085,80.078,42.969,38.574,46.387,127.930,0
152087.089,67.383,41.016,40.039,43.457,61.035,0
152087.093,35.156,42.480,36.133,40.527,20.020,0
152087.097,38.086,42.480,30.273,40.527,51.270,0
152087.101,67.383,47.363,43.945,58.594,93.262,0
152087.105,59.570,41.504,55.664,55.176,75.684,0
152087.109,33.203,35.156,39.551,41.016,26.367,0
152087.113,49.805,42.969,36.621,51.270,6.836,0
152087.117,67.383,48.828,49.316,62.012,20.508,0
152087.120,47.363,45.410,46.875,47.363,46.875,0
152087.123,22.949,47.363,43.457,36.621,46.875,0
152087.127,27.832,52.246,38.574,42.969,43.945,0
152087.131,47.852,49.805,36.133,42.969,56.641,0
152087.135,58.105,44.922,39.551,40.039,51.270,2
152087.139,51.758,44.434,43.945,38.574,24.414,0
152087.143,35.156,36.621,46.387,38.086,-11.719,0
152087.147,37.598,32.227,43.457,34.668,1.953,0
152087.151,51.758,38.086,37.109,21.973,22.949,0
152087.154,36.133,43.457,29.297,23.438,21.973,0
152087.158,13.184,47.852,10.254,36.621,24.414,0
152087.162,40.039,44.434,12.695,43.457,40.039,0
152087.166,48.828,37.598,41.504,36.133,70.801,0
152087.167,26.367,36.133,57.617,36.621,100.098,0
152087.171,13.672,33.691,59.082,39.062,58.105,0
152087.175,13.184,29.297,55.664,33.203,20.996,0
152087.179,43.457,29.297,47.363,36.621,59.082,0
152087.182,53.223,39.551,38.574,37.598,75.195,0
152087.186,31.250,45.410,44.434,31.738,52.734,0
152087.190,12.207,41.016,45.898,31.738,9.766,0
152087.194,48.340,39.062,41.504,43.457,35.645,0
152087.198,60.547,37.109,38.086,36.621,104.492,0
152087.202,11.230,38.086,35.645,21.973,51.270,0
152087.206,5.371,42.480,37.109,31.250,-21.973,0
152087.210,26.367,41.504,36.621,48.340,9.277,0
152087.227,37.598,30.273,33.203,44.922,80.566,0
152087.231,30.273,26.367,30.762,25.879,31.250,0
152087.235,9.277,30.762,33.691,25.879,-37.598,0
152087.239,21.973,32.715,36.133,31.250,32.715,0
152087.243,48.340,34.180,37.598,29.297,98.145,0
152087.246,69.336,38.574,40.527,33.691,78.125,0
152087.250,34.668,40.039,34.180,33.691,20.508,0
152087.254,4.395,40.039,24.414,27.344,20.996,0
152087.258,34.668,39.551,25.391,33.203,101.562,0
152087.262,52.734,33.691,31.250,29.785,83.008,0
152087.266,48.340,31.250,34.668,25.879,0.000,0
152087.270,4.395,35.645,33.691,26.367,13.184,0
152087.287,5.859,40.039,34.668,28.320,83.496,0
152087.291,30.273,39.551,34.668,31.738,92.773,0
152087.295,25.879,37.598,37.598,26.367,31.250,0
152087.299,12.695,37.109,39.551,24.902,-18.555,0
152087.303,15.137,30.762,40.527,34.668,26.855,0
152087.306,51.270,23.926,35.156,36.621,94.727,0
152087.310,33.203,27.344,30.273,29.297,77.148,0
152087.314,-12.207,29.297,36.133,24.902,65.430,0
152087.318,19.043,31.738,42.480,40.527,45.898,0
152087.322,47.852,37.598,43.457,50.781,39.062,0
152087.326,34.180,36.133,33.203,31.250,65.918,0
152087.330,18.066,40.039,33.691,29.297,5.859,0
152087.317,14.160,43.457,33.203,32.715,-15.137,0
152087.321,40.039,37.598,28.320,23.438,55.176,0
152087.325,59.082,31.250,36.133,14.648,86.426,0
152087.329,29.297,31.738,38.086,17.090,35.645,0
152087.333,6.348,35.645,31.250,22.949,-2.441,0
152087.336,38.086,36.621,35.645,29.297,57.617,0
152087.340,59.570,33.203,41.504,33.203,113.770,0
152087.344,44.922,35.156,36.133,35.645,89.844,0
152087.348,22.949,41.504,31.738,28.809,18.555,0
152087.352,25.879,37.598,32.715,32.227,13.672,0
152087.356,51.758,35.645,31.250,42.480,68.359,0
152087.360,54.199,36.621,31.738,31.250,54.199,0
152087.362,20.508,34.180,40.527,22.461,-8.301,0
152087.366,18.555,35.645,37.598,20.996,-5.371,0
152087.370,51.270,37.598,39.062,29.297,80.078,0
152087.374,29.297,34.668,45.410,41.504,101.074,0
152087.377,2.441,33.203,31.250,30.273,16.113,0
152087.381,15.137,34.668,25.391,25.391,18.066,0
152087.385,32.715,32.715,23.438,31.250,92.285,0
152087.389,35.645,30.273,28.320,23.926,122.070,0
152087.393,11.230,30.273,39.551,17.578,47.852,0
152087.397,-4.883,28.320,41.992,16.602,24.902,0
152087.401,21.973,27.344,42.969,22.949,74.707,0
152087.405,34.668,25.879,34.180,25.879,90.332,0
152087.407,21.973,31.738,25.879,18.066,77.637,0
152087.411,10.742,36.621,28.320,14.648,20.508,0
152087.415,12.207,35.156,22.949,12.695,39.062,0
152087.419,44.922,37.598,23.438,12.207,117.188,0
152087.423,45.410,38.086,31.250,9.277,75.195,0
152087.426,11.230,40.039,34.668,11.719,2.930,0
152087.430,19.531,36.621,27.832,15.137,27.344,0
152087.434,38.574,32.227,14.648,11.719,122.070,0
152087.438,48.340,29.785,18.066,11.230,90.820,0
152087.442,28.320,29.785,29.785,13.672,45.898,0
152087.446,0.488,30.762,36.621,17.090,53.711,0
152087.450,30.273,31.250,38.086,19.043,93.262,0
152087.452,46.387,35.156,36.133,25.391,125.488,0
152087.456,16.602,33.203,40.527,30.762,78.613,0
152087.460,-3.418,29.785,46.387,31.250,10.254,0
152087.464,20.996,30.273,39.551,37.109,27.832,0
152087.467,46.387,34.180,30.762,41.992,92.773,0
152087.471,28.320,35.645,33.203,37.598,63.965,0
152087.475,14.160,28.809,32.227,34.180,6.836,0
152087.479,32.227,30.762,28.320,41.016,9.766,0
152087.483,55.176,33.691,31.738,47.363,61.035,0
152087.487,66.895,27.344,34.668,51.270,80.078,0
152087.491,46.875,29.785,34.668,48.828,31.738,0
152087.495,26.367,35.156,31.250,40.527,9.277,0
152087.497,41.504,31.250,24.414,35.645,74.707,0
152087.501,44.922,30.273,28.320,33.691,115.723,0
152087.505,38.574,33.691,36.133,33.203,59.082,0
152087.509,37.598,34.180,35.156,37.109,6.348,0
152087.512,48.340,31.250,34.668,45.410,58.594,0
152087.516,62.012,27.344,36.621,50.293,133.789,0
152087.520,45.410,31.250,41.992,37.598,69.824,0
152087.524,29.785,38.574,37.598,25.391,-6.836,0
152087.528,38.086,34.668,30.273,35.156,23.926,0
152087.532,50.293,28.320,37.109,37.598,34.668,0
152087.536,40.527,31.250,38.086,25.879,8.789,0
152087.540,29.785,38.086,33.203,28.809,-37.598,0
152087.542,31.250,36.621,33.691,34.180,20.508,0
152087.546,36.133,31.738,36.621,36.621,98.145,0
152087.550,36.133,33.691,34.668,35.156,62.012,0
152087.554,10.254,35.156,30.762,30.762,20.508,0
152087.557,7.324,33.203,30.762,29.297,5.371,0
152087.561,34.180,27.344,30.762,35.156,62.012,0
152087.565,46.387,29.297,35.645,36.133,42.480,0
152087.569,27.832,33.691,39.551,26.367,-16.113,0
152087.573,16.602,34.668,44.434,38.574,-17.090,0
152087.577,42.969,37.109,43.457,53.223,8.301,0
152087.581,55.176,32.715,30.762,44.434,63.965,0
152087.585,29.297,26.855,27.344,36.133,37.598,0
152087.588,14.648,31.738,28.809,36.621,-38.574,0
152087.592,29.297,33.691,24.902,45.410,-25.391,0
152087.596,54.688,32.715,27.344,45.898,41.992,0
152087.600,50.781,34.180,34.180,35.645,65.430,0
152087.604,9.766,35.645,36.133,24.902,13.184,0
152087.608,15.137,34.668,36.133,27.344,3.418,0
152087.612,45.898,32.227,36.621,33.691,87.402,0
152087.616,50.293,36.133,28.809,30.762,109.863,0
152087.619,24.414,34.180,19.043,28.809,44.434,0
152087.623,12.207,25.879,21.973,32.715,-22.461,0
152087.627,37.598,26.855,26.855,41.992,54.688,0
152087.631,51.270,35.156,34.668,41.016,112.793,0
152087.647,36.133,40.039,39.551,33.691,59.082,0
152087.651,16.602,34.180,39.551,26.855,2.441,0
152087.655,29.297,31.250,41.504,31.250,15.625,0
152087.659,51.270,35.156,39.551,39.062,69.824,0
152087.663,41.504,29.785,33.203,33.203,54.199,0
152087.666,20.996,26.367,34.668,21.973,-0.488,0
152087.670,26.367,30.762,30.762,22.949,24.902,0
152087.674,41.016,31.738,25.879,31.738,80.078,0
152087.678,47.852,31.738,35.156,32.715,72.266,0
152087.682,25.391,33.691,38.574,25.391,-9.277,0
152087.686,9.277,33.691,37.109,29.297,21.973,0
152087.690,46.875,28.809,35.645,36.621,101.562,0
152087.692,42.969,27.832,27.832,28.320,79.590,0
152087.696,2.930,30.762,28.809,27.832,55.664,0
152087.700,10.742,32.227,33.203,33.203,45.898,0
152087.704,36.133,28.320,27.832,32.715,78.613,0
152087.707,43.457,19.531,34.180,37.109,94.727,0
152087.711,32.227,22.949,43.457,42.480,33.691,0
152087.715,20.020,31.738,42.969,35.156,1.465,0
152087.719,35.645,24.902,34.180,33.691,27.832,0
152087.723,55.176,22.461,24.414,39.062,53.711,0
152087.727,41.016,30.273,27.832,30.273,-0.977,0
152087.731,25.391,29.297,35.156,28.320,-47.363,0
152087.735,32.227,25.391,38.086,37.598,18.066,0
152087.737,56.152,26.855,34.180,34.668,105.957,0
152087.741,44.922,28.809,28.809,25.879,69.824,0
152087.745,2.930,28.320,30.762,24.414,-3.418,0
152087.749,20.508,32.715,39.551,25.879,3.906,0
152087.752,55.176,35.645,34.180,31.250,59.570,1
152087.756,45.410,36.621,28.320,29.297,89.844,0
152087.760,15.625,34.180,34.668,28.809,34.180,0
152087.764,16.602,28.320,32.227,31.738,28.320,0
152087.768,36.621,27.344,34.180,33.691,66.406,0
152087.772,51.270,29.785,35.645,33.691,39.062,0
152087.776,35.156,30.273,31.738,33.691,43.457,0
152087.780,12.207,32.227,35.156,37.598,23.438,0
152087.782,34.668,34.668,37.598,38.574,39.551,0
152087.786,51.758,30.762,34.180,36.133,104.492,0
152087.790,35.156,21.973,32.715,27.832,67.383,0
152087.794,23.926,21.973,37.109,27.832,-27.832,0
152087.797,30.762,25.879,34.668,28.809,16.113,0
152087.801,47.363,24.902,24.414,28.809,56.641,0
152087.805,39.062,28.809,25.879,25.391,41.992,0
152087.809,15.625,34.180,35.156,17.090,0.488,0
152087.813,17.578,33.203,38.086,20.508,-32.227,0
152087.817,56.641,31.738,36.133,31.738,44.922,0
152087.821,60.547,32.227,35.645,34.180,36.133,0
152087.825,16.602,29.785,32.715,27.832,-18.555,0
152087.827,16.602,26.367,30.762,27.344,-41.504,0
152087.831,46.875,26.855,33.203,35.645,29.297,0
152087.835,44.922,26.855,24.414,36.621,114.258,0
152087.839,28.320,31.250,22.949,28.809,62.012,0
152087.842,17.090,32.227,33.691,25.391,17.578,0
152087.846,20.508,27.832,37.109,33.691,24.902,0
152087.850,40.527,30.762,35.645,40.527,47.852,0
152087.854,38.574,32.715,35.156,31.738,-7.324,0
152087.858,31.250,30.762,30.762,25.391,-33.203,0
152087.862,29.785,33.691,32.227,29.785,20.508,0
152087.866,36.133,34.668,37.598,32.715,68.359,0
152087.870,37.109,27.832,36.621,30.762,50.781,0
152087.872,19.531,29.297,31.250,31.250,-44.434,0
152087.876,22.949,33.691,24.902,34.668,-57.617,0
152087.880,56.152,31.738,25.879,46.387,17.090,0
152087.884,57.617,36.133,28.809,41.016,54.199,0
152087.888,24.902,37.598,30.762,23.926,-18.555,0
152087.891,10.254,33.691,32.227,25.879,-32.227,0
152087.895,43.945,34.668,34.668,33.203,31.738,0
152087.899,63.965,36.133,39.062,36.621,45.410,0
152087.903,31.738,33.691,41.504,41.504,40.527,0
152087.907,15.137,27.832,37.598,38.574,36.621,0
152087.911,33.203,31.250,33.691,37.109,52.246,0
152087.915,62.012,37.109,29.785,44.922,84.473,0
152087.917,51.270,35.156,26.367,39.551,65.430,0
152087.921,30.762,35.156,32.715,35.156,30.762,0
152087.925,36.621,32.715,32.715,31.250,44.434,0
152087.929,39.062,28.320,25.391,25.391,94.727,0
152087.933,37.598,30.273,27.832,26.367,67.383,0
152087.937,41.016,34.668,37.598,28.320,6.348,0
152087.941,34.180,37.598,39.062,28.320,-35.645,0
152087.945,22.461,34.668,37.598,28.809,-9.766,0
152087.949,46.875,28.320,40.039,36.621,71.777,0
152087.952,42.480,28.320,35.645,35.645,86.426,0
152087.956,16.602,32.227,32.227,37.109,56.152,0
152087.960,35.645,31.250,32.227,39.551,37.109,0
152087.977,49.805,26.367,32.227,39.062,56.641,0
152087.981,41.504,29.785,31.250,34.668,42.480,0
152087.985,32.227,37.598,32.715,29.297,-0.977,0
152087.989,33.203,34.668,38.574,34.180,56.152,0
152087.993,49.805,28.320,38.086,34.668,111.816,0
152087.997,49.805,28.320,37.109,33.203,78.125,0
152088.000,20.020,24.902,40.039,27.344,53.711,0
152088.004,20.508,31.738,48.828,32.227,54.199,0
152088.008,39.551,40.039,45.898,46.387,80.078,0
152088.012,35.645,34.668,33.691,35.156,97.656,0
152088.016,23.926,28.320,29.785,22.949,41.504,0
152088.020,28.809,26.367,27.832,27.344,-5.859,0
152088.022,33.203,24.414,28.809,38.086,46.387,0
152088.026,38.574,25.879,35.156,41.504,112.305,0
152088.030,26.367,27.832,39.062,37.598,77.637,0
152088.034,7.812,24.902,43.945,30.762,-1.953,0
152088.038,37.598,26.367,44.922,31.250,32.227,0
152088.041,56.641,27.344,42.969,38.086,80.566,0
152088.045,30.273,27.344,40.039,35.645,70.312,0
152088.049,18.555,32.227,34.180,32.715,33.203,0
152088.053,31.738,32.227,34.668,34.668,20.996,0
152088.057,65.918,31.250,36.133,40.527,24.414,0
152088.061,47.363,31.250,38.574,36.133,34.180,0
