timestamps,TP9,AF7,AF8,TP10,Right AUX,Marker0
151462.006,35.645,36.133,46.875,33.691,80.078,0
151462.010,36.133,33.691,47.363,32.715,84.961,0
151462.014,39.551,40.527,48.340,45.410,82.520,0
151462.018,35.645,40.039,43.945,50.781,99.121,0
151462.022,33.203,38.086,42.969,36.621,103.027,0
151462.026,42.969,33.691,36.621,30.273,67.383,0
151462.030,44.922,36.621,35.156,39.062,34.668,0
151462.033,36.621,41.504,49.805,44.434,0.488,0
151462.037,37.598,39.062,48.340,47.852,7.812,0
151462.041,40.039,43.457,39.551,56.152,-0.977,0
151462.045,37.598,42.969,41.016,49.316,-28.809,0
151462.049,34.180,37.109,42.480,39.062,-13.672,0
151462.050,37.598,38.574,38.574,41.504,3.906,0
151462.054,44.434,38.086,33.203,45.410,-17.578,0
151462.057,43.945,34.180,41.504,50.293,11.719,0
151462.061,42.969,37.598,48.340,46.875,44.434,0
151462.065,55.664,42.480,47.363,50.781,34.668,0
151462.069,52.734,45.410,46.387,50.781,34.180,0
151462.073,40.039,48.340,41.504,46.387,9.766,0
151462.077,36.621,48.828,35.156,46.387,10.254,0
151462.081,39.551,45.898,36.133,49.316,43.457,0
151462.085,29.297,37.598,42.969,51.758,0.977,0
151462.089,22.949,38.086,42.969,39.551,-20.996,0
151462.093,28.320,35.156,40.527,32.227,20.508,0
151462.110,33.691,33.691,40.527,35.645,54.199,0
151462.113,32.715,33.691,41.992,40.527,30.762,0
151462.117,32.715,29.297,41.016,41.992,-0.488,0
151462.121,47.363,39.062,35.645,52.246,-10.254,0
151462.125,41.016,40.527,20.508,50.781,9.766,0
151462.129,31.250,39.062,19.531,37.598,0.977,0
151462.133,34.668,41.992,38.086,44.434,4.395,0
151462.137,28.809,37.598,52.246,51.270,9.277,0
151462.141,26.855,35.156,49.805,47.852,3.418,0
151462.145,33.203,40.039,45.410,39.551,34.180,0
151462.149,43.457,48.828,48.340,33.691,-17.578,0
151462.152,45.898,49.805,43.945,37.598,-0.488,0
151462.154,42.969,47.363,42.969,43.457,40.527,0
151462.158,44.434,45.898,42.969,44.922,17.578,0
151462.162,48.828,46.875,37.109,39.551,33.203,0
151462.166,45.410,48.340,30.273,36.621,49.805,0
151462.170,29.785,44.922,31.738,40.527,59.570,0
151462.174,24.902,42.969,40.039,40.039,70.312,0
151462.178,30.762,42.969,37.598,39.551,80.078,0
151462.182,25.391,39.551,32.227,28.809,78.613,0
151462.186,29.297,41.016,37.598,23.926,68.359,0
151462.190,38.086,46.387,42.480,33.691,60.059,0
151462.194,35.645,47.852,39.551,35.645,56.641,0
151462.197,41.016,48.340,36.621,33.691,62.500,0
151462.201,44.434,46.387,36.621,38.086,42.969,0
151462.205,42.969,48.340,39.062,44.434,21.973,0
151462.209,44.922,49.316,42.480,46.387,45.410,0
151462.213,38.086,40.039,39.062,38.086,52.246,0
151462.217,30.273,41.504,37.109,27.832,40.527,0
151462.220,26.855,43.945,37.598,24.902,72.754,0
151462.224,30.762,42.480,41.992,31.250,85.938,0
151462.228,38.574,46.875,41.992,28.320,73.730,0
151462.232,40.527,45.898,34.180,25.879,47.363,0
151462.236,33.203,44.434,35.156,39.062,26.367,0
151462.240,49.805,46.387,38.574,39.551,70.801,0
151462.244,60.059,45.410,38.574,27.832,33.691,0
151462.245,31.250,44.434,29.785,30.273,-1.953,0
151462.248,22.461,44.434,20.996,46.387,21.484,0
151462.252,31.250,44.434,35.645,54.688,35.156,0
151462.256,35.156,40.527,51.758,41.016,61.523,0
151462.260,30.273,40.527,40.039,31.738,30.273,0
151462.264,37.109,40.039,33.691,37.598,12.695,0
151462.268,37.109,35.156,47.363,35.156,43.457,0
151462.272,29.297,37.598,51.758,31.738,74.219,0
151462.276,33.691,38.574,45.410,28.809,49.805,0
151462.280,29.297,38.086,47.852,26.855,10.254,0
151462.284,19.531,39.062,50.293,32.227,64.941,0
151462.288,28.809,42.969,51.270,45.898,95.215,0
151462.290,42.480,43.457,46.875,42.969,52.246,0
151462.293,41.016,40.527,41.992,32.227,58.105,0
151462.297,41.992,40.527,42.969,36.133,104.980,0
151462.301,38.574,39.551,42.969,44.922,101.562,0
151462.305,38.574,38.086,41.992,48.340,76.660,0
151462.309,42.480,39.062,38.086,42.969,43.945,0
151462.313,34.180,37.109,38.086,42.969,47.363,0
151462.317,33.203,40.039,36.133,45.898,83.984,0
151462.321,39.551,44.922,43.457,43.945,74.219,0
151462.325,37.109,39.551,51.758,36.621,57.617,0
151462.329,32.715,37.109,47.852,31.738,33.691,0
151462.332,23.438,40.039,40.039,34.668,55.176,0
151462.335,17.090,36.133,36.133,31.250,59.570,0
151462.338,20.996,35.645,34.668,24.414,46.387,0
151462.342,16.602,38.574,34.668,25.391,20.020,0
151462.346,19.531,37.109,29.785,32.227,17.578,0
151462.350,34.668,37.109,28.809,36.133,55.664,0
151462.354,33.691,34.668,40.527,34.180,45.410,0
151462.358,22.461,29.785,45.410,29.785,0.977,0
151462.362,27.344,35.645,43.457,31.738,-1.953,0
151462.366,38.574,40.527,44.922,42.480,36.133,0
151462.370,45.898,39.062,44.434,47.363,83.984,0
151462.374,44.434,40.039,37.109,49.316,40.527,0
151462.377,37.598,39.551,30.273,54.199,18.066,0
151462.379,39.062,37.598,34.668,54.199,65.430,0
151462.383,28.809,34.180,43.457,51.270,82.031,0
151462.387,23.438,34.668,42.480,47.852,91.309,0
151462.391,33.691,39.551,35.645,53.223,84.961,0
151462.395,34.180,44.434,39.062,53.711,113.770,0
151462.399,19.043,37.598,42.480,41.016,135.254,0
151462.403,19.043,36.621,41.992,38.086,100.098,0
151462.407,28.809,41.992,37.109,32.715,96.680,0
151462.411,23.926,39.551,30.273,31.738,103.027,0
151462.415,17.578,38.574,30.762,38.086,93.262,0
151462.419,21.484,38.086,35.156,35.645,82.520,0
151462.422,24.414,36.621,36.133,27.344,38.574,0
151462.426,20.020,34.668,34.668,21.484,53.711,0
151462.430,21.484,36.133,36.621,28.320,70.312,0
151462.434,33.203,41.016,41.016,36.133,40.039,0
151462.438,33.203,39.062,37.109,33.203,49.805,0
151462.442,27.832,38.574,36.133,34.180,45.898,0
151462.446,35.645,39.062,35.645,38.574,41.992,0
151462.450,41.016,38.574,34.180,37.109,48.340,0
151462.454,37.598,43.457,34.180,34.180,39.551,0
151462.458,36.621,42.969,33.691,39.551,30.762,0
151462.462,37.598,40.039,38.086,41.016,12.207,0
151462.466,39.551,41.504,40.039,31.738,29.785,0
151462.469,48.340,41.992,33.691,23.438,38.086,0
151462.485,34.180,36.621,30.273,25.391,54.199,0
151462.488,12.695,36.133,23.438,36.133,34.180,0
151462.492,26.367,41.016,17.090,36.133,14.648,0
151462.496,34.668,43.457,27.832,29.297,62.500,0
151462.500,37.109,45.410,43.457,38.086,37.598,0
151462.504,42.969,49.316,49.805,49.805,-15.625,0
151462.508,40.039,46.387,48.340,46.387,-0.977,0
151462.512,43.457,42.969,45.898,44.922,50.293,0
151462.516,48.340,45.410,37.598,53.711,69.824,0
151462.520,45.410,45.410,34.668,45.410,31.738,0
151462.524,38.086,41.016,33.203,29.297,31.250,0
151462.528,36.621,38.574,21.973,33.691,59.082,0
151462.530,48.340,42.480,28.809,47.852,48.340,0
151462.534,53.223,42.969,44.434,44.922,20.508,0
151462.537,50.781,42.969,51.270,36.133,16.113,0
151462.541,54.688,48.340,54.688,48.340,28.320,0
151462.545,45.410,49.316,50.293,46.875,46.875,0
151462.549,39.062,45.410,43.945,42.969,43.457,0
151462.553,39.062,46.875,42.969,49.805,42.969,0
151462.557,39.062,47.363,46.387,46.387,75.684,1
151462.561,45.898,45.898,40.039,40.527,55.176,0
151462.565,50.293,51.270,35.645,47.363,1.465,0
151462.569,44.434,52.734,43.457,52.246,19.043,0
151462.573,34.668,41.016,40.527,48.340,44.922,0
151462.575,38.574,42.480,38.574,38.574,26.367,0
151462.579,45.410,48.828,46.875,29.297,12.207,0
151462.582,40.527,39.062,45.898,31.250,11.719,0
151462.586,32.715,40.039,32.227,42.480,58.105,0
151462.590,41.504,45.410,29.785,44.922,81.055,0
151462.594,43.457,44.922,35.156,34.180,40.527,0
151462.598,28.320,37.598,35.156,24.902,30.762,0
151462.602,23.438,35.156,34.180,26.367,73.242,0
151462.606,26.855,37.598,32.715,34.180,72.754,0
151462.610,35.645,35.156,39.551,40.527,27.344,0
151462.614,35.645,33.691,47.852,36.133,14.648,0
151462.618,25.879,35.645,43.945,28.320,62.012,0
151462.619,31.250,38.086,41.016,33.691,93.262,0
151462.623,40.039,38.086,41.504,34.180,75.684,0
151462.627,40.527,35.645,32.715,29.297,42.480,0
151462.631,39.551,39.551,30.762,35.156,34.180,0
151462.635,30.762,40.039,40.039,38.574,86.426,0
151462.639,28.320,34.668,45.898,35.156,100.098,0
151462.643,28.320,31.250,47.363,30.762,97.656,0
151462.647,24.902,30.273,45.898,29.785,92.285,0
151462.651,20.020,34.668,45.898,28.809,55.176,0
151462.655,27.344,35.156,40.527,29.297,55.664,0
151462.659,46.875,29.785,37.598,35.645,43.945,0
151462.662,46.387,31.738,38.574,38.574,26.855,0
151462.666,27.832,39.062,37.598,37.598,29.297,0
151462.670,25.879,36.133,35.645,39.062,61.035,0
151462.674,36.621,31.738,41.504,32.715,83.496,0
151462.678,34.668,34.180,51.270,28.320,39.551,0
151462.682,25.391,32.227,48.340,31.250,22.949,0
151462.686,34.668,31.738,47.363,39.551,83.008,0
151462.690,44.434,32.227,45.410,48.340,57.617,0
151462.693,43.457,36.621,42.969,48.340,-36.133,0
151462.697,39.551,41.992,44.434,41.504,-27.832,0
151462.701,38.574,36.133,41.016,41.504,45.898,0
151462.705,39.062,34.180,41.992,40.039,64.941,0
151462.709,41.016,39.062,45.410,37.598,26.855,0
151462.710,35.156,36.621,34.180,34.180,2.441,0
151462.714,32.715,37.598,30.273,35.156,14.648,0
151462.717,39.062,37.598,41.504,39.551,33.203,0
151462.721,41.016,39.062,47.363,38.574,28.320,0
151462.725,41.016,43.457,48.828,39.062,-23.438,0
151462.729,41.992,39.551,39.062,36.133,-8.789,0
151462.733,37.109,33.691,32.715,34.180,20.020,0
151462.737,32.227,35.156,29.785,31.250,-28.320,0
151462.741,32.715,36.133,24.414,31.250,-56.641,0
151462.745,34.668,37.598,28.809,38.574,-33.691,0
151462.749,35.156,41.504,40.039,32.715,1.465,0
151462.753,38.086,41.504,46.387,32.715,-12.695,0
151462.755,40.039,44.434,46.875,38.574,-8.789,0
151462.758,40.527,47.363,45.410,46.875,-11.719,0
151462.762,45.410,48.828,49.805,53.711,-5.371,0
151462.766,37.598,43.457,41.992,41.016,31.738,0
151462.770,27.832,34.668,33.203,24.902,40.527,0
151462.774,30.273,39.551,34.180,29.785,-20.020,0
151462.778,23.438,39.551,34.180,31.250,-54.688,0
151462.782,23.926,36.133,42.969,26.367,-33.203,0
151462.786,30.273,37.109,49.316,28.809,-27.832,0
151462.790,34.668,36.133,44.922,35.156,-27.344,0
151462.794,41.016,38.574,47.852,45.898,34.668,0
151462.798,41.504,48.340,48.340,48.340,34.668,0
151462.800,39.551,46.387,42.969,38.574,6.836,0
151462.803,33.691,33.691,39.551,23.926,6.836,0
151462.807,37.598,34.180,36.133,26.367,2.441,0
151462.811,40.527,42.480,37.109,38.086,32.715,0
151462.815,30.762,41.504,41.992,28.809,33.203,0
151462.819,29.785,36.621,44.922,21.973,16.602,0
151462.823,31.250,37.598,46.875,30.273,-28.809,0
151462.827,27.344,35.156,46.875,30.762,13.672,0
151462.831,28.320,34.668,41.992,35.645,72.266,0
151462.835,35.156,38.086,44.434,40.527,29.785,0
151462.839,29.297,35.156,47.363,32.715,18.066,0
151462.842,26.367,38.086,46.387,34.180,64.941,0
151462.859,34.180,43.457,44.922,41.992,76.660,0
151462.863,37.598,43.457,44.434,40.039,58.105,0
151462.867,37.598,40.527,41.504,35.156,38.086,0
151462.871,36.621,36.133,39.062,37.109,31.250,0
151462.875,41.016,39.062,39.551,38.574,17.578,0
151462.879,42.969,45.898,42.969,36.621,-4.395,0
151462.883,32.227,45.898,43.457,33.691,19.531,0
151462.887,25.391,44.434,45.410,36.621,53.711,0
151462.891,31.738,43.457,45.410,43.457,57.617,0
151462.895,40.527,46.387,41.504,46.387,45.898,0
151462.899,37.109,47.363,41.016,40.039,16.602,0
151462.902,32.227,45.898,38.574,34.668,19.531,0
151462.904,31.738,45.410,34.668,38.086,66.406,0
151462.908,32.227,44.434,29.785,43.457,56.641,0
151462.912,37.598,45.898,38.086,41.992,30.762,0
151462.916,40.527,44.434,44.922,38.574,42.480,0
151462.920,33.691,42.969,34.180,40.527,29.785,0
151462.924,34.668,40.039,32.715,38.086,29.297,0
151462.928,44.922,39.062,41.016,34.668,48.828,0
151462.932,40.527,41.016,34.180,43.457,20.996,0
151462.936,30.762,40.527,19.043,47.363,6.836,0
151462.940,40.039,40.039,22.461,41.504,22.949,0
151462.944,42.480,42.480,40.039,38.574,36.133,0
151462.947,27.344,39.551,50.781,31.250,54.199,0
151462.950,21.484,34.180,50.781,32.715,20.996,0
151462.953,23.438,35.645,45.410,42.969,39.551,0
151462.957,25.391,37.598,42.480,40.039,56.641,0
151462.961,29.297,36.621,37.109,39.062,25.879,0
151462.965,31.250,38.086,31.250,44.922,-10.742,0
151462.969,34.180,41.016,33.203,46.875,-21.973,0
151462.973,36.621,41.016,37.109,42.969,25.879,0
151462.977,40.527,38.574,35.156,41.992,59.570,0
151462.981,43.945,37.598,27.344,45.410,41.992,0
151462.985,37.598,40.527,26.855,43.457,15.137,0
151462.989,30.762,41.992,34.180,40.527,43.457,0
151462.993,21.973,39.551,41.992,30.273,52.734,0
151462.995,19.043,35.645,46.387,27.344,19.531,0
151462.998,25.391,39.551,44.434,37.598,6.348,0
151463.002,23.438,39.551,35.645,32.227,58.594,0
151463.006,22.949,35.645,33.203,24.902,84.473,0
151463.010,29.297,37.598,32.715,27.832,42.480,0
151463.014,32.227,41.992,30.273,35.645,44.434,0
151463.018,31.250,31.250,26.367,39.062,44.434,0
151463.022,28.809,25.391,29.785,39.551,8.301,0
151463.026,27.344,30.762,35.645,26.855,-9.766,0
151463.030,29.297,28.320,33.203,23.926,-12.207,0
151463.034,29.785,34.668,33.203,33.691,8.789,0
151463.038,25.879,42.480,30.273,34.180,28.809,0
151463.040,24.902,40.039,28.320,29.297,38.086,0
151463.043,27.832,36.133,32.715,32.227,32.715,0
151463.047,29.297,38.086,38.086,43.945,40.039,0
151463.051,29.785,41.016,31.250,41.504,61.035,0
151463.055,29.785,39.062,26.367,33.691,41.504,0
151463.059,36.133,37.598,36.621,35.156,35.156,0
151463.063,39.062,41.016,46.387,42.480,22.949,0
151463.067,31.250,44.922,43.945,49.316,30.762,0
151463.071,31.250,43.457,40.039,40.039,52.246,0
151463.075,31.738,38.574,42.480,29.785,70.801,0
151463.079,38.574,39.062,38.574,35.156,58.594,0
151463.082,30.762,41.016,38.574,42.480,35.645,0
151463.085,24.414,37.109,43.945,34.668,42.969,0
151463.088,34.668,35.645,42.480,29.785,18.066,0
151463.092,32.227,39.551,41.016,34.668,15.137,0
151463.096,24.902,42.480,40.039,34.180,37.109,0
151463.100,25.391,37.109,33.691,26.367,17.578,0
151463.104,38.086,35.645,28.809,25.391,26.367,0
151463.108,36.621,36.621,39.062,32.715,25.879,0
151463.112,29.785,36.133,43.945,34.668,-19.043,0
151463.116,29.785,36.133,35.156,33.691,-3.418,0
151463.120,32.227,32.715,35.645,25.879,43.945,0
151463.124,41.992,36.133,36.133,27.344,74.707,0
151463.128,41.992,34.180,30.273,32.227,62.012,0
151463.131,36.621,31.250,36.621,31.250,63.965,1
151463.135,36.621,35.156,39.062,35.156,100.098,0
151463.139,42.480,38.574,45.410,39.062,16.602,0
151463.143,35.645,36.133,51.758,36.621,-26.367,0
151463.146,26.367,30.273,45.898,40.039,22.949,0
151463.150,37.109,34.668,41.504,41.016,49.316,0
151463.154,41.016,41.504,40.527,31.738,40.039,0
151463.158,32.715,36.621,36.133,22.949,18.555,0
151463.162,32.227,40.039,31.738,29.785,45.410,0
151463.166,34.668,42.480,42.969,38.574,50.781,0
151463.170,34.668,36.133,48.828,30.273,42.480,0
151463.174,33.203,33.691,38.574,26.367,26.367,0
151463.175,37.598,34.668,36.621,34.180,47.852,0
151463.178,36.621,38.086,46.875,39.551,87.891,0
151463.182,35.645,41.504,44.922,36.621,95.215,0
151463.186,35.645,42.969,36.621,35.645,90.820,0
151463.190,24.902,37.598,40.039,36.133,84.473,0
151463.194,25.879,32.715,41.992,35.156,91.797,0
151463.198,35.156,37.109,32.715,27.832,68.359,0
151463.202,31.738,41.504,27.344,21.973,4.883,0
151463.206,30.762,41.016,40.039,29.297,31.738,0
151463.210,24.902,34.180,40.527,30.273,65.918,0
151463.214,23.926,30.762,25.879,26.367,67.871,0
151463.217,31.738,31.250,30.273,22.949,75.684,0
151463.234,31.250,29.297,41.016,23.438,35.645,0
151463.238,29.785,30.762,41.992,25.879,19.043,0
151463.242,24.902,32.715,33.203,23.926,37.598,0
151463.246,28.809,33.691,31.738,20.020,37.109,0
151463.250,30.273,35.645,33.691,20.020,76.172,0
151463.254,28.320,41.504,29.785,31.250,101.074,0
151463.258,32.715,38.574,29.785,39.062,79.102,0
151463.262,38.574,35.156,32.227,37.598,64.941,0
151463.266,38.086,42.480,29.785,34.180,41.504,0
151463.270,26.367,38.574,27.344,36.133,23.438,0
151463.274,19.531,32.715,32.227,41.504,33.691,0
151463.277,20.508,31.250,36.621,34.180,13.184,0
151463.279,24.414,29.297,35.156,22.461,-13.184,0
151463.283,27.344,28.809,27.832,20.508,-23.438,0
151463.287,34.180,31.250,21.484,31.738,-12.695,0
151463.291,41.992,37.598,26.367,39.062,45.898,0
151463.295,45.410,46.875,38.574,31.738,41.504,0
151463.299,37.109,43.457,33.691,30.273,6.348,0
151463.303,39.551,40.039,21.484,43.457,9.277,0
151463.307,45.410,43.457,24.902,50.781,64.941,0
151463.311,29.785,39.062,34.180,34.180,74.707,0
151463.315,29.297,39.062,43.945,29.297,30.762,0
151463.319,32.227,38.086,45.898,35.645,33.203,0
151463.322,31.250,36.133,41.504,32.715,70.801,0
151463.325,37.109,37.598,36.621,33.203,64.941,0
151463.328,39.551,40.527,32.715,32.715,54.199,0
151463.332,34.180,44.922,35.645,32.227,67.871,0
151463.336,26.367,42.969,35.645,37.598,60.547,0
151463.340,26.367,36.133,32.715,45.898,57.129,0
151463.344,32.715,38.086,31.250,51.758,31.250,0
151463.348,39.062,41.504,34.668,46.387,20.020,0
151463.352,36.133,41.992,38.574,38.574,57.617,0
151463.356,29.785,39.551,35.156,43.457,94.238,0
151463.360,33.691,36.621,31.738,30.762,66.406,0
151463.364,34.668,38.086,29.785,18.555,36.621,0
151463.368,34.180,41.016,31.250,33.203,41.504,0
151463.370,37.598,44.922,40.527,43.945,68.359,0
151463.373,39.062,41.016,36.133,42.480,72.266,0
151463.377,41.016,38.086,22.461,33.203,48.828,0
151463.381,38.086,40.527,28.809,32.715,59.570,0
151463.385,29.785,38.086,37.109,41.016,72.754,0
151463.389,29.297,36.133,41.992,39.551,88.867,0
151463.393,32.715,35.645,46.875,41.504,97.168,0
151463.397,36.621,38.086,43.945,46.387,83.008,0
151463.401,31.738,37.598,40.039,41.992,69.824,0
151463.405,21.973,33.691,35.645,38.086,116.699,0
151463.409,28.809,40.527,28.320,31.738,118.652,0
151463.412,31.250,43.945,30.762,22.461,45.410,0
151463.416,26.855,41.992,40.527,27.832,32.715,0
151463.420,33.691,43.457,39.062,38.086,56.641,0
151463.424,27.344,38.086,34.668,34.668,41.504,0
151463.428,25.391,38.086,40.527,32.227,17.578,0
151463.432,32.227,44.434,41.504,44.434,-4.883,0
151463.435,37.109,43.945,34.668,47.852,4.395,0
151463.439,41.992,40.039,35.645,48.340,26.855,0
151463.443,43.457,37.598,41.504,48.340,1.953,0
151463.447,51.270,41.504,40.039,48.828,-30.762,0
151463.451,49.805,40.527,30.273,50.781,5.371,0
151463.455,38.086,36.621,32.227,44.434,48.828,0
151463.459,42.969,40.527,41.992,34.668,45.410,0
151463.460,40.527,41.992,46.875,29.297,40.039,0
151463.463,31.738,39.062,41.992,28.809,52.246,0
151463.467,29.785,34.180,36.133,32.715,62.500,0
151463.471,28.320,30.762,37.109,35.645,46.387,0
151463.475,31.738,34.668,29.297,40.527,23.926,0
151463.479,36.621,38.574,26.855,48.340,23.438,0
151463.483,42.969,38.086,35.645,47.852,10.742,0
151463.487,40.527,40.039,44.434,32.715,-7.324,0
151463.491,35.645,42.969,50.781,29.297,-10.254,0
151463.495,38.574,41.992,52.734,37.598,8.301,0
151463.499,38.574,35.645,52.734,36.133,20.020,0
151463.503,44.922,34.668,50.293,37.109,7.812,0
151463.505,42.969,37.598,45.898,38.574,12.695,0
151463.508,35.156,38.086,45.898,39.062,18.066,0
151463.512,36.621,38.574,43.945,34.180,34.180,0
151463.516,32.715,37.598,39.062,31.738,50.781,0
151463.520,29.785,39.551,38.086,36.621,35.156,0
151463.524,26.855,34.668,36.133,30.762,16.602,0
151463.528,19.043,30.273,35.645,32.227,10.254,0
151463.532,25.879,39.551,39.551,43.457,27.344,0
151463.536,35.645,44.922,42.969,43.457,42.969,0
151463.540,31.250,39.062,37.109,47.363,51.758,0
151463.544,30.762,38.574,34.668,46.875,72.754,0
151463.548,38.574,39.062,33.203,35.645,88.379,0
151463.550,45.410,41.016,32.715,38.574,96.680,0
151463.553,44.922,42.480,33.203,38.086,85.938,0
151463.557,41.992,40.527,34.180,37.109,59.570,0
151463.561,36.133,42.969,37.109,38.574,51.758,0
151463.565,25.391,42.480,37.109,37.109,71.289,0
151463.569,29.297,39.062,35.645,33.691,70.801,0
151463.573,32.227,44.922,36.621,36.133,23.438,0
151463.577,32.227,53.223,41.992,44.434,34.180,0
151463.581,41.992,51.270,48.340,41.504,94.727,0
151463.585,41.016,42.480,45.410,28.809,66.406,0
151463.589,34.668,38.574,44.434,28.809,27.832,0
151463.593,37.109,39.551,45.898,34.180,30.762,0
151463.609,40.527,43.457,42.480,31.738,61.523,0
151463.613,42.969,44.434,44.922,34.668,46.387,0
151463.617,38.574,37.598,44.434,38.574,28.809,0
151463.621,35.645,36.621,37.598,39.062,1.465,0
151463.625,36.621,37.598,36.621,42.480,21.973,0
151463.629,37.598,39.551,46.875,32.715,42.969,0
151463.633,40.527,41.016,53.711,23.926,13.184,1
151463.637,24.902,42.969,48.340,26.855,52.734,0
151463.641,23.926,42.969,40.039,28.320,52.246,0
151463.645,40.527,43.457,43.945,27.832,36.133,0
151463.649,37.598,47.363,43.945,24.414,23.926,0
151463.652,33.203,48.340,39.551,33.203,9.277,0
151463.655,38.574,41.992,42.480,41.992,34.668,0
151463.658,41.016,34.180,44.922,37.598,52.734,0
151463.662,41.504,36.621,49.805,35.156,42.480,0
151463.666,36.133,38.086,47.852,38.086,18.555,0
151463.670,33.691,33.203,43.457,37.598,19.531,0
151463.674,35.156,31.738,40.039,38.574,64.453,0
151463.678,35.645,37.598,34.668,41.992,44.434,0
151463.682,38.574,39.551,29.297,38.086,-3.418,0
151463.686,37.109,38.086,34.180,32.715,9.277,0
151463.690,34.668,40.527,44.434,33.203,2.441,0
151463.694,39.551,41.504,47.363,34.668,9.766,0
151463.697,39.062,36.133,41.504,37.109,38.574,0
151463.700,29.785,31.738,39.062,33.691,17.090,0
151463.704,37.109,35.156,41.504,29.785,3.906,0
151463.707,40.039,35.156,36.133,35.645,46.875,0
151463.711,30.762,35.156,34.180,40.527,60.059,0
151463.715,28.320,36.133,36.621,39.062,48.828,0
151463.719,27.832,36.621,45.410,40.527,39.062,0
151463.723,30.762,42.480,52.734,44.922,58.594,0
151463.727,36.621,41.992,52.246,53.711,42.480,0
151463.731,36.621,32.715,45.410,46.875,-15.137,0
151463.735,31.738,33.203,35.645,28.809,-13.184,0
151463.739,34.180,37.109,32.227,30.762,4.395,0
151463.743,42.969,38.086,32.715,37.598,-5.371,0
151463.745,39.062,39.551,32.715,31.738,12.695,0
151463.748,31.738,43.945,34.180,30.762,36.133,0
151463.752,34.180,44.922,38.086,48.828,16.113,0
151463.756,32.715,41.504,42.969,51.270,6.836,0
151463.760,28.320,39.062,47.852,41.992,3.906,0
151463.764,26.367,34.668,50.781,37.598,13.184,0
151463.768,30.762,37.598,47.852,46.387,26.855,0
151463.772,36.133,40.527,41.504,62.988,33.691,0
151463.776,31.738,40.527,47.852,45.898,-12.207,0
151463.780,34.668,43.945,55.176,26.855,-31.738,0
151463.784,39.551,45.410,52.246,30.273,26.367,0
151463.787,42.969,46.875,42.480,36.133,44.434,0
151463.790,41.016,46.387,40.039,36.621,17.578,0
151463.793,36.133,45.898,45.410,32.227,5.859,0
151463.797,41.016,47.363,43.457,41.504,51.270,0
151463.801,41.504,48.828,45.898,49.316,70.801,0
151463.805,35.156,41.504,47.852,43.945,53.711,0
151463.809,33.203,39.062,45.410,37.598,38.574,0
151463.813,41.016,45.410,45.410,39.062,12.695,0
151463.817,35.645,44.434,47.363,44.434,14.648,0
151463.821,31.738,36.621,42.969,42.480,41.016,0
151463.825,42.969,38.574,38.086,40.039,38.086,0
151463.829,42.969,42.480,34.668,34.180,16.113,0
151463.833,37.598,41.504,27.832,29.785,20.996,0
151463.834,37.109,41.992,28.320,28.809,43.457,0
151463.838,32.715,41.504,32.715,31.738,53.711,0
151463.842,25.391,39.062,39.062,36.133,1.953,0
151463.846,23.926,37.109,42.969,28.809,-11.230,0
151463.850,20.508,36.621,41.016,20.508,54.199,0
151463.854,30.273,39.062,34.180,20.020,55.664,0
151463.858,39.062,44.434,28.809,18.555,-5.371,0
151463.862,34.180,43.457,29.297,17.578,12.695,0
151463.866,23.926,37.598,36.621,19.531,62.988,0
151463.870,28.320,41.504,39.551,29.785,42.480,0
151463.874,39.062,44.922,39.551,41.016,28.320,0
151463.877,26.367,39.062,41.504,39.062,47.363,0
151463.881,20.020,37.598,44.434,42.480,15.625,0
151463.885,30.273,41.992,40.527,44.922,2.441,0
151463.889,31.738,41.992,34.668,37.598,-12.207,0
151463.893,23.438,30.762,35.156,34.180,-1.465,0
151463.896,20.508,28.320,42.969,38.086,51.270,0
151463.900,23.926,32.227,43.457,34.180,47.852,0
151463.904,25.879,36.133,38.574,28.320,35.645,0
151463.908,20.996,36.621,39.551,34.180,38.574,0
151463.912,30.762,35.156,30.273,34.668,83.008,0
151463.916,36.621,40.527,30.273,33.203,75.195,0
151463.920,24.902,38.086,41.992,35.645,59.082,0
151463.924,18.555,35.156,41.504,34.180,60.547,0
151463.925,19.531,37.109,41.504,42.480,58.105,0
151463.929,26.855,35.156,48.340,45.898,57.129,0
151463.933,31.250,29.297,48.828,35.645,64.941,0
151463.937,33.691,34.668,49.316,36.133,44.434,0
151463.941,29.785,42.480,44.434,41.504,23.438,0
151463.944,20.996,35.156,37.109,36.621,54.688,0
151463.948,16.602,26.367,36.621,27.344,55.664,0
151463.952,25.879,30.273,41.504,26.367,29.297,0
151463.956,32.227,33.691,42.969,28.320,33.691,0
151463.960,23.438,32.715,40.527,31.738,37.109,0
151463.964,20.508,36.133,39.551,33.691,18.066,0
151463.968,28.320,41.504,36.621,37.598,16.602,0
151463.985,37.598,43.457,40.039,47.363,38.574,0
151463.989,48.828,43.945,45.410,53.223,40.039,0
151463.993,45.898,38.574,41.016,43.945,55.176,0
151463.997,36.133,34.180,39.551,41.504,74.219,0
151464.001,38.574,34.668,38.086,41.992,52.246,0
151464.005,38.086,34.668,41.504,34.180,29.785,0
151464.008,40.527,36.621,42.480,36.621,28.320,0
151464.012,44.434,37.598,37.109,35.645,85.938,0
151464.016,51.758,39.551,41.016,35.645,103.516,0
151464.020,56.152,43.457,41.992,39.062,41.504,0
151464.024,40.039,47.363,41.016,46.387,50.781,0
151464.028,38.086,46.875,39.062,52.734,67.383,0
151464.030,45.410,43.457,38.086,45.410,61.035,0
151464.033,45.410,43.457,46.387,44.922,72.754,0
151464.037,45.898,41.992,47.852,55.664,82.520,0
151464.041,48.340,40.527,42.480,54.199,98.145,0
151464.045,51.758,41.504,37.598,48.340,72.754,0
151464.049,54.688,41.016,39.062,50.781,58.594,0
151464.053,55.664,43.457,40.527,54.199,56.152,0
151464.057,52.734,48.828,41.504,53.223,55.664,0
151464.061,47.852,49.805,46.875,45.898,82.520,0
151464.065,46.387,48.828,43.945,45.410,77.148,0
151464.069,41.504,44.922,34.180,46.387,61.523,0
151464.073,38.574,40.527,36.133,42.480,41.504,0
151464.075,41.504,43.945,47.363,38.574,25.391,0
151464.078,46.875,44.922,49.805,40.039,15.625,0
151464.082,45.410,44.434,45.898,46.387,5.371,0
151464.086,42.969,46.875,39.551,48.828,11.230,0
151464.090,48.828,50.293,41.016,50.293,76.660,0
151464.094,50.781,53.223,44.922,44.434,72.754,0
151464.098,43.457,47.363,37.109,34.668,38.086,0
151464.102,38.574,42.480,34.180,34.180,83.008,0
151464.106,34.668,42.480,36.133,32.227,64.941,0
151464.110,34.180,45.410,41.504,31.738,51.270,0
151464.114,31.250,46.875,38.086,35.645,66.895,0
151464.118,18.555,44.434,37.109,30.273,68.359,0
151464.119,20.996,45.898,43.457,29.785,40.039,0
151464.123,34.180,45.898,42.969,30.273,59.570,0
151464.127,35.156,43.945,43.457,26.367,55.176,0
151464.131,29.785,40.527,41.504,28.320,42.480,0
151464.135,27.832,32.715,39.062,34.180,64.453,0
151464.139,28.809,34.180,38.574,30.273,29.297,0
151464.143,30.273,38.574,36.621,28.320,2.930,0
151464.147,29.785,37.598,33.691,38.574,22.461,0
151464.151,35.645,38.086,32.715,40.039,56.152,0
151464.155,35.156,41.992,34.180,28.320,87.402,0
151464.159,30.273,37.598,36.621,18.555,73.242,0
151464.162,37.109,37.598,39.062,19.043,44.434,0
151464.165,39.062,43.457,41.504,29.297,47.363,0
151464.168,31.250,42.969,41.992,35.156,40.039,0
151464.172,35.156,41.504,42.480,31.738,41.016,0
151464.176,37.598,42.480,39.062,31.250,22.949,0
151464.180,36.133,43.457,30.273,39.551,8.301,0
151464.184,42.969,45.410,36.133,47.852,13.184,0
151464.188,44.434,49.805,43.945,45.898,41.016,0
151464.192,40.039,47.852,39.551,40.527,16.602,0
151464.196,35.156,40.527,37.598,38.574,-33.203,0
151464.200,36.133,42.969,44.922,40.527,-1.465,0
151464.204,42.480,44.922,44.434,42.480,6.836,0
151464.207,54.688,37.598,37.109,39.551,-1.953,0
151464.210,44.434,36.133,37.598,40.527,-4.395,0
151464.213,28.320,39.062,37.109,54.688,4.395,0
151464.217,35.156,41.016,29.297,51.270,23.926,0
151464.221,46.387,44.434,32.227,39.551,11.719,0
151464.225,41.992,43.945,40.527,41.016,28.320,0
151464.229,33.691,42.969,44.434,41.992,13.184,0
151464.233,41.016,41.992,44.434,37.598,20.020,0
151464.237,37.109,35.645,41.016,29.297,-0.977,0
151464.241,29.297,35.645,36.621,21.973,-9.766,0
151464.245,32.227,41.504,35.645,33.203,55.176,0
151464.249,30.762,36.621,38.086,42.969,66.895,0
151464.252,28.809,29.297,40.039,33.691,40.039,0
151464.254,31.250,35.156,41.992,31.738,15.137,0
151464.258,39.062,37.598,43.945,36.621,4.883,0
151464.262,38.086,35.156,40.527,33.691,22.461,0
151464.266,29.297,39.551,36.621,38.086,11.719,0
151464.270,40.039,39.062,32.227,44.434,2.930,0
151464.274,43.457,37.109,31.738,49.316,37.598,0
151464.278,33.691,38.574,41.992,50.293,41.016,0
151464.282,39.062,39.551,49.316,40.039,61.523,0
151464.286,41.504,41.016,50.781,37.109,96.680,0
151464.290,37.598,40.527,47.852,43.457,64.941,0
151464.294,29.785,41.504,42.480,42.969,47.363,0
151464.297,32.715,40.527,40.039,34.180,41.504,0
151464.299,26.855,38.574,32.715,18.555,61.523,0
151464.303,17.090,41.992,36.133,22.949,57.129,0
151464.307,21.973,36.621,41.992,31.250,28.809,0
151464.311,27.344,33.203,39.551,36.621,43.457,0
151464.315,29.297,40.039,41.992,43.945,50.781,0
151464.319,31.250,40.527,44.434,34.668,45.898,0
151464.323,36.133,37.109,43.457,26.855,24.902,1
151464.327,36.133,38.086,44.922,31.738,37.598,0
151464.331,40.039,38.574,42.480,34.668,48.340,0
151464.335,41.992,38.574,34.668,33.691,39.551,0
151464.339,38.574,38.574,34.180,32.227,57.129,0
151464.342,31.738,33.691,36.621,33.203,45.410,0
151464.346,32.715,34.180,35.645,38.574,54.199,0
151464.350,43.457,38.574,36.621,34.180,47.363,0
151464.354,40.039,39.551,40.039,30.762,15.625,0
151464.358,33.203,42.969,40.527,38.574,51.270,0
151464.362,24.902,43.945,38.574,39.062,87.891,0
151464.365,23.926,40.039,42.969,33.203,46.387,0
151464.369,27.832,42.969,39.551,26.367,10.254,0
151464.373,23.438,47.363,31.250,20.996,12.695,0
151464.377,20.996,45.898,33.203,35.645,23.926,0
151464.381,28.320,41.992,34.180,37.109,15.625,0
151464.385,30.762,41.992,36.133,24.414,0.488,0
151464.389,27.344,44.434,40.527,27.344,19.043,0
151464.405,29.297,40.039,39.551,29.785,21.973,0
151464.409,35.156,37.598,33.203,32.715,50.781,0
151464.412,43.945,38.086,32.715,29.785,65.430,0
151464.416,52.246,41.504,38.086,28.320,22.949,0
151464.420,37.109,44.922,39.551,30.273,56.641,0
151464.424,20.508,39.062,40.527,29.785,73.242,0
151464.428,23.926,36.621,39.062,26.367,34.668,0
151464.432,29.297,39.062,36.133,33.691,23.438,0
151464.436,26.855,40.039,33.203,36.133,-0.977,0
151464.440,29.785,43.945,30.273,31.738,17.578,0
151464.444,39.551,45.410,32.227,34.180,58.594,0
151464.448,42.969,44.922,38.574,34.668,32.715,0
151464.450,41.016,40.039,40.527,34.180,35.645,0
151464.453,37.109,38.086,41.016,39.551,78.613,0
151464.457,35.156,40.527,40.039,39.062,116.699,0
151464.461,40.527,37.109,46.387,31.250,65.918,0
151464.465,37.109,31.738,46.387,28.809,12.695,0
151464.469,31.738,30.762,40.527,33.691,17.578,0
151464.473,41.992,35.645,39.551,36.621,41.504,0
151464.477,45.410,40.527,36.621,34.668,59.082,0
151464.481,36.621,38.574,36.133,36.133,13.184,0
151464.485,34.180,38.086,34.180,39.551,6.836,0
151464.489,35.645,37.109,34.668,34.668,28.320,0
151464.492,41.992,35.645,40.527,37.109,34.668,0
151464.495,44.434,35.156,39.551,47.852,41.016,0
151464.498,42.480,33.691,39.062,51.758,53.711,0
151464.502,35.645,33.203,34.180,51.758,69.336,0
151464.506,29.297,31.738,22.949,48.340,41.992,0
151464.510,32.715,33.691,34.180,41.504,37.109,0
151464.514,34.180,38.574,46.875,42.480,44.434,0
151464.518,34.668,30.273,42.969,40.527,58.594,0
151464.522,35.645,22.461,33.691,40.527,58.594,0
151464.526,37.598,29.297,34.180,41.504,8.301,0
151464.530,34.668,31.250,34.180,37.109,-5.371,0
151464.534,29.297,30.762,39.062,38.574,-2.930,0
151464.537,42.969,35.645,47.852,40.039,-4.883,0
151464.540,53.223,40.527,43.945,37.598,21.973,0
151464.543,44.922,41.992,36.133,30.762,30.762,0
151464.547,37.598,37.598,29.785,34.668,9.766,0
151464.551,35.645,34.180,30.273,39.062,19.043,0
151464.555,34.180,33.691,32.715,30.762,-1.953,0
151464.559,37.598,34.668,41.992,35.645,-17.578,0
151464.563,36.621,34.180,45.410,43.945,-7.812,0
151464.567,35.645,34.180,32.715,41.016,-34.668,0
151464.571,41.016,36.621,34.180,38.574,-18.555,0
151464.575,44.922,38.086,46.387,43.457,22.949,0
151464.579,43.457,34.180,48.340,47.852,19.531,0
151464.582,34.180,31.250,39.551,43.945,13.672,0
151464.585,44.922,32.715,29.785,46.875,50.293,0
151464.588,50.781,33.691,26.367,55.176,69.824,0
151464.592,50.293,34.668,38.086,37.598,30.273,0
151464.596,58.105,40.039,44.922,19.531,28.809,0
151464.600,49.805,42.480,45.898,31.738,58.594,0
151464.604,37.598,39.062,48.340,41.992,33.203,0
151464.608,36.133,37.598,46.875,42.969,-0.977,0
151464.612,32.227,36.133,45.898,40.039,-14.648,0
151464.616,28.809,33.691,51.270,35.645,15.625,0
151464.620,32.715,35.156,50.781,34.180,44.922,0
151464.624,40.039,38.086,45.898,32.227,65.430,0
151464.628,37.109,39.551,47.363,36.133,78.125,0
151464.631,27.344,38.086,44.434,32.715,76.660,0
151464.635,29.297,37.109,38.086,31.738,55.664,0
151464.639,32.715,32.227,32.227,44.434,56.641,0
151464.643,41.016,36.133,30.273,42.480,64.941,0
151464.646,53.711,42.480,35.156,36.133,46.875,0
151464.650,35.645,38.574,36.133,35.156,62.988,0
151464.654,29.785,40.527,27.344,29.297,41.504,0
151464.658,40.039,45.410,24.902,22.949,0.488,0
151464.662,29.297,42.480,34.668,20.020,51.270,0
151464.666,31.738,39.062,38.086,25.879,67.383,0
151464.670,39.062,40.039,35.156,34.668,22.949,0
151464.674,37.598,39.551,33.203,37.109,24.902,0
151464.675,32.227,32.715,26.855,43.945,35.156,0
151464.678,31.738,26.367,29.785,43.457,37.598,0
151464.682,36.621,29.297,41.504,33.203,23.438,0
151464.686,31.250,33.203,45.410,25.879,-16.113,0
151464.690,26.367,33.203,42.480,32.715,-8.789,0
151464.694,27.832,34.180,39.062,38.086,3.906,0
151464.698,37.109,39.062,39.062,37.598,5.859,0
151464.702,35.156,37.598,34.180,37.109,-7.812,0
151464.706,30.762,33.203,33.691,38.086,39.551,0
151464.710,28.809,31.250,34.180,41.016,75.195,0
151464.714,28.809,34.180,31.738,38.086,42.480,0
151464.717,34.668,35.156,33.203,36.133,47.852,0
151464.735,25.879,32.227,37.598,36.621,62.012,0
151464.739,23.438,38.086,39.551,39.551,27.832,0
151464.742,37.109,43.945,32.715,42.480,33.203,0
151464.746,40.039,41.016,26.855,33.691,24.414,0
151464.750,35.156,43.945,27.832,29.297,14.160,0
151464.754,41.016,43.945,27.344,34.668,-4.395,0
151464.758,39.551,44.922,21.973,38.086,-10.254,0
151464.762,39.062,50.293,22.949,39.551,44.434,0
151464.766,42.969,45.410,37.598,41.504,41.992,0
151464.770,40.039,40.527,43.945,44.434,-21.973,0
151464.774,37.598,43.457,38.086,41.016,-0.488,0
151464.778,30.273,43.945,34.180,32.227,67.383,0
151464.779,31.250,41.016,34.180,33.691,39.551,0
151464.783,30.273,37.598,36.621,37.109,12.695,0
151464.787,30.273,35.156,36.133,37.109,5.371,0
151464.791,35.156,34.180,35.645,41.992,38.574,0
151464.795,31.738,34.180,40.527,40.527,47.363,0
151464.799,32.227,39.551,44.922,34.180,2.930,0
151464.803,31.738,40.039,42.969,34.180,-4.395,0
151464.807,24.902,34.668,33.691,36.133,40.039,0
151464.811,25.879,32.227,29.297,35.156,57.129,0
151464.815,36.133,33.203,29.297,32.715,25.879,0
151464.819,35.156,34.668,32.227,32.227,18.066,0
151464.822,30.273,36.133,31.738,36.133,51.758,0
151464.824,29.785,36.133,32.715,28.320,43.457,0
151464.828,31.738,38.574,35.156,23.438,14.648,0
151464.832,34.180,42.480,30.273,26.367,51.270,0
151464.836,31.250,38.574,26.367,31.738,62.988,1
151464.840,29.297,36.621,34.180,34.180,28.809,0
151464.844,32.715,38.574,41.504,30.273,29.297,0
151464.848,41.992,40.039,38.086,29.297,75.195,0
151464.852,39.551,39.062,33.203,38.574,85.938,0
151464.856,35.645,40.039,33.203,36.133,58.105,0
151464.860,32.227,40.039,36.133,23.926,28.320,0
151464.864,29.297,38.086,38.574,27.832,16.602,0
151464.867,30.762,41.016,41.016,39.062,14.648,0
151464.871,28.320,40.527,41.992,41.504,45.410,0
151464.875,30.762,32.715,40.039,40.527,29.785,0
151464.879,31.738,31.738,33.203,43.945,10.742,0
151464.883,27.344,33.203,25.391,41.504,33.203,0
151464.887,27.344,32.715,27.344,36.133,31.250,0
151464.891,30.762,36.133,32.715,30.762,36.133,0
151464.895,30.762,35.156,30.762,19.043,56.152,0
151464.899,41.992,38.086,29.297,26.367,34.180,0
151464.903,46.875,45.410,33.203,35.156,-5.371,0
151464.906,41.992,42.480,35.156,38.086,25.391,0
151464.910,37.109,39.062,38.086,43.457,55.176,0
151464.914,32.715,39.551,40.039,41.504,60.547,0
151464.914,39.062,41.504,35.156,34.180,61.035,0
151464.918,34.180,39.062,30.273,33.203,49.316,0
151464.922,24.902,37.598,27.832,27.832,33.203,0
151464.926,25.391,37.598,35.156,24.902,-5.371,0
151464.930,27.832,35.645,46.387,33.203,3.906,0
151464.934,28.320,34.180,47.363,29.297,51.758,0
151464.938,31.250,35.645,42.969,26.855,68.359,0
151464.942,37.598,40.039,36.133,27.832,41.992,0
151464.946,40.527,40.527,35.645,26.855,54.688,0
151464.950,37.598,39.551,35.645,30.273,95.703,0
151464.954,44.922,41.504,31.250,30.762,121.094,0
151464.957,51.270,44.434,30.762,25.879,90.820,0
151464.960,38.574,43.457,33.203,27.344,53.711,0
151464.964,32.227,39.551,35.156,42.480,74.707,0
151464.968,41.504,41.016,38.574,47.852,60.547,0
151464.972,45.898,42.480,44.434,41.992,23.438,0
151464.976,40.039,43.457,48.340,38.086,-9.277,0
151464.980,39.551,43.457,49.805,35.645,17.090,0
151464.984,46.875,45.410,46.875,38.086,66.895,0
151464.988,53.711,51.270,40.527,42.969,-4.395,0
151464.992,60.547,45.898,37.598,40.039,-32.715,0
151464.996,56.152,43.945,36.133,41.504,45.898,0
151464.999,44.434,44.434,35.156,52.246,33.203,0
151465.003,46.875,41.992,38.086,45.898,6.836,0
151465.005,44.434,41.992,36.133,33.203,37.109,0
151465.008,35.156,40.039,34.180,41.016,23.926,0
151465.012,30.762,40.039,40.039,45.410,-33.203,0
151465.016,28.320,43.457,39.551,41.992,-28.320,0
151465.020,29.297,41.992,40.527,35.645,-3.418,0
151465.024,23.926,37.598,38.086,33.203,-33.203,0
151465.028,19.043,40.039,35.156,34.180,19.531,0
151465.032,21.484,42.480,37.598,29.297,34.668,0
151465.036,28.320,44.434,38.086,34.180,29.785,0
151465.040,35.156,45.898,38.574,40.039,23.438,0
151465.044,41.504,47.363,40.527,35.645,-34.180,0
151465.048,35.156,47.363,42.969,38.086,-20.020,0
151465.049,30.273,46.875,37.598,37.109,36.621,0
151465.053,47.852,51.270,33.203,33.203,38.574,0
151465.057,52.246,52.246,34.180,40.039,23.926,0
151465.061,45.410,47.363,30.273,43.945,58.594,0
151465.065,42.480,46.875,34.180,40.527,60.059,0
151465.069,40.527,44.434,42.969,42.480,23.438,0
151465.073,44.922,47.363,45.898,43.457,25.391,0
151465.077,44.434,49.316,43.945,42.480,51.270,0
151465.081,34.668,40.039,40.527,44.922,70.312,0
151465.085,39.062,36.621,40.039,43.457,73.242,0
151465.089,40.527,41.016,39.062,40.527,83.008,0
151465.092,29.785,39.062,32.715,40.527,98.145,0
151465.096,21.484,34.180,35.645,39.062,105.957,0
151465.100,16.113,35.156,41.992,36.621,50.293,0
151465.104,22.949,39.551,42.480,33.691,-4.395,0
151465.108,28.809,43.457,43.457,40.039,8.789,0
151465.112,23.926,45.410,45.410,50.781,20.020,0
151465.115,31.250,51.758,46.875,38.086,-12.695,0
151465.119,38.574,49.316,44.922,21.973,-11.719,0
151465.123,36.133,42.969,38.574,28.809,10.742,0
151465.127,38.574,49.805,34.668,42.480,42.969,0
151465.131,54.199,49.316,33.203,43.945,68.848,0
151465.135,49.805,41.504,33.691,46.387,36.621,0
151465.139,22.949,37.109,36.133,35.645,38.574,0
151465.155,22.949,37.598,40.527,20.996,36.133,0
151465.159,30.762,36.621,39.062,23.438,23.926,0
151465.162,29.785,37.109,33.203,20.508,44.922,0
151465.166,26.855,41.992,31.738,20.996,44.922,0
151465.170,24.902,44.434,36.133,27.344,51.270,0
151465.174,22.949,46.875,45.410,32.227,30.762,0
151465.178,28.809,49.805,44.434,35.645,27.344,0
151465.182,30.273,41.016,38.574,39.551,21.973,0
151465.186,20.508,35.156,38.574,39.551,6.836,0
151465.190,25.391,41.992,39.551,38.086,35.645,0
151465.194,38.086,41.016,39.551,34.180,42.480,0
151465.198,31.250,36.133,44.434,41.016,40.527,0
151465.200,23.926,33.691,42.969,48.340,30.762,0
151465.203,25.879,32.227,38.574,40.527,17.578,0
151465.207,27.832,38.574,44.434,39.062,39.062,0
151465.211,33.203,41.016,51.758,39.551,34.668,0
151465.215,32.227,37.109,45.898,34.668,-8.301,0
151465.219,31.250,38.086,37.109,34.180,15.625,0
151465.223,37.598,39.062,41.992,38.574,58.594,0
151465.227,42.969,38.574,44.434,35.156,34.668,0
151465.231,43.945,37.598,35.645,26.855,-6.836,0
151465.235,38.574,37.598,29.785,30.273,-2.930,0
151465.239,37.598,36.621,40.039,41.992,29.785,0
151465.242,43.945,41.504,44.922,44.922,67.383,0
151465.245,51.270,41.016,42.480,47.363,87.891,0
151465.248,47.363,36.621,39.062,47.852,47.852,0
151465.252,35.156,37.598,29.297,47.363,59.082,0
151465.256,35.156,36.133,32.227,49.316,81.055,0
151465.260,42.480,39.551,43.945,50.781,68.359,0
151465.264,33.691,42.969,44.434,45.410,37.109,0
151465.268,29.297,40.527,41.504,39.062,58.105,0
151465.272,32.227,34.668,37.109,36.621,117.188,0
151465.276,30.762,35.645,36.133,36.133,77.637,0
151465.280,36.133,37.109,35.156,36.133,43.457,0
151465.284,41.504,34.180,28.809,39.062,78.125,0
151465.288,39.062,33.691,24.414,36.621,98.145,0
151465.289,39.551,32.715,26.367,31.738,58.594,0
151465.293,41.992,39.062,23.438,32.715,31.738,0
151465.297,39.551,47.363,19.531,37.109,64.941,0
151465.301,39.062,47.852,25.879,38.574,66.406,0
151465.305,53.223,50.293,37.598,31.738,28.320,0
151465.309,55.176,49.805,40.039,25.391,-0.488,0
151465.313,41.016,44.434,35.156,31.250,13.672,0
151465.317,37.598,42.969,39.551,38.086,37.109,0
151465.321,38.574,41.504,41.504,27.344,21.973,0
151465.325,38.574,39.062,31.738,20.996,13.184,0
151465.329,37.598,39.551,25.879,31.250,16.602,0
151465.332,40.039,38.086,27.832,38.574,43.457,0
151465.336,38.086,36.621,30.273,41.504,41.992,0
151465.340,36.621,39.062,32.227,40.527,14.160,0
151465.344,41.992,46.387,34.180,43.945,3.906,0
151465.348,36.133,45.898,35.645,50.781,22.461,0
151465.352,22.949,40.527,34.668,41.992,43.945,0
151465.355,16.113,40.039,30.762,35.156,69.336,0
151465.359,20.508,41.992,33.203,31.738,69.336,0
151465.363,15.137,41.992,36.621,27.832,19.531,0
151465.367,15.625,36.621,36.133,30.762,30.762,0
151465.371,25.391,34.668,30.762,29.297,59.570,0
151465.375,33.203,39.062,25.391,30.273,54.688,0
151465.379,39.062,41.504,16.602,37.598,69.336,0
151465.380,38.574,44.434,16.602,35.645,77.148,0
151465.383,40.527,42.969,35.156,34.180,94.238,0
151465.387,40.039,41.504,46.875,42.480,58.105,0
151465.391,36.621,40.039,49.316,49.316,28.320,0
151465.395,37.598,38.086,47.363,39.551,55.664,0
151465.399,41.992,41.016,42.969,29.297,57.129,0
151465.403,41.016,40.039,37.598,26.367,24.414,0
151465.407,30.273,37.109,32.227,21.484,18.555,0
151465.411,24.414,37.598,31.738,22.461,55.176,0
151465.415,30.273,35.156,37.109,28.320,93.262,0
151465.419,38.086,36.621,35.156,37.109,90.820,0
151465.422,38.574,35.645,28.809,39.062,35.156,0
151465.425,35.645,32.715,32.227,36.621,50.781,0
151465.429,36.621,33.691,35.645,48.828,52.734,0
151465.432,48.340,34.668,33.691,55.176,10.742,0
151465.436,42.969,36.621,35.645,43.945,35.156,0
151465.440,20.996,35.645,38.574,35.645,74.707,0
151465.444,18.555,35.645,35.645,34.668,78.125,0
151465.448,27.344,43.457,38.086,34.180,49.316,0
151465.452,36.133,47.363,40.527,36.133,43.945,0
151465.456,38.574,40.527,33.691,43.457,62.500,0
151465.460,33.691,37.109,30.273,44.434,62.988,0
151465.464,37.598,40.039,37.598,38.086,53.711,0
151465.468,46.387,41.504,32.715,41.016,51.270,0
151465.470,41.504,37.598,22.461,42.480,72.266,0
151465.473,33.203,33.203,33.203,36.133,37.109,0
151465.477,31.738,29.297,40.039,33.691,46.387,0
151465.481,37.598,32.227,37.109,28.809,61.523,0
151465.485,44.434,40.527,37.598,27.832,29.297,0
151465.489,38.574,38.086,39.062,30.273,40.527,0
151465.493,39.551,37.109,37.598,28.320,74.219,0
151465.497,41.992,39.551,33.691,26.855,105.957,0
151465.501,41.016,35.156,35.645,31.250,118.164,0
151465.505,40.039,34.180,27.832,33.203,77.637,0
151465.509,40.039,36.621,19.531,31.738,62.500,2
151465.512,46.387,40.039,24.414,29.297,108.398,0
151465.530,48.828,39.062,26.367,24.902,112.793,0
151465.534,48.340,34.668,31.250,20.996,76.660,0
151465.537,44.434,35.645,33.203,18.066,83.008,0
151465.541,38.086,35.645,21.973,19.531,118.164,0
151465.545,42.969,35.645,20.508,29.297,100.586,0
151465.549,51.758,38.574,30.762,43.457,87.891,0
151465.553,43.457,37.598,32.227,38.574,96.680,0
151465.557,35.645,36.621,33.691,35.156,78.125,0
151465.561,41.504,39.062,33.203,35.645,33.203,0
151465.565,44.434,41.504,33.691,28.320,9.766,0
151465.569,37.109,41.504,36.133,29.785,32.715,0
151465.573,27.832,37.598,34.180,31.250,44.434,0
151465.575,34.668,37.598,35.645,30.273,27.344,0
151465.578,51.270,41.504,33.203,29.785,18.555,0
151465.582,45.410,42.969,34.668,30.762,17.090,0
151465.586,35.645,40.039,36.133,37.598,58.594,0
151465.590,44.922,39.062,29.785,39.551,57.129,0
151465.594,45.898,49.316,31.250,34.668,-26.367,0
151465.598,33.203,45.410,34.180,28.809,8.301,0
151465.602,31.250,34.180,33.203,24.414,57.617,0
151465.606,38.086,34.180,30.762,24.414,34.668,0
151465.610,39.062,37.598,30.273,30.273,-7.812,0
151465.614,42.969,38.086,32.715,37.598,-19.043,0
151465.618,36.621,35.645,34.668,41.016,20.996,0
151465.620,32.715,35.645,38.086,39.062,44.922,0
151465.623,39.062,39.062,41.992,30.762,23.438,0
151465.627,36.133,40.527,41.504,30.762,33.203,0
151465.631,25.879,33.203,35.156,34.180,37.598,0
151465.635,25.391,31.738,38.086,37.109,-22.949,0
151465.639,30.273,39.062,41.992,40.527,-26.855,0
151465.643,21.484,37.598,40.039,34.180,7.324,0
151465.647,13.672,37.598,38.086,34.668,19.043,0
151465.651,14.648,38.574,35.645,41.504,-1.465,0
151465.655,18.555,37.109,39.062,38.086,6.836,0
151465.659,22.461,40.039,42.969,36.621,48.340,0
151465.663,27.832,41.016,38.574,36.133,29.785,0
151465.665,27.344,38.574,37.109,35.156,33.691,0
151465.668,32.227,41.504,41.504,36.621,68.359,0
151465.672,46.387,44.922,38.086,33.691,59.570,0
151465.676,38.086,41.016,28.809,27.832,43.457,0
151465.680,26.855,38.574,28.320,31.738,55.664,0
151465.684,16.113,37.109,32.227,31.250,69.336,0
151465.688,19.531,41.992,33.691,29.785,82.031,0
151465.692,28.809,40.527,29.785,25.391,74.707,0
151465.696,24.414,37.109,33.691,24.902,17.578,0
151465.700,27.344,40.527,45.898,37.109,19.531,0
151465.704,27.832,43.457,47.852,33.691,48.828,0
151465.707,24.414,42.969,42.480,32.227,33.691,0
151465.710,29.297,38.086,37.598,33.691,27.832,0
151465.713,31.250,43.457,43.457,38.086,77.637,0
151465.717,30.762,42.480,45.410,37.109,85.449,0
151465.721,28.809,36.621,42.480,30.273,48.828,0
151465.725,24.414,41.992,42.969,35.156,22.949,0
151465.729,25.391,52.734,44.434,43.945,28.320,0
151465.733,27.344,48.340,40.527,38.086,56.641,0
151465.737,29.785,40.527,34.668,26.367,20.020,0
151465.741,36.133,41.504,41.016,26.367,-0.977,0
151465.745,39.062,42.480,39.551,36.133,43.945,0
151465.749,29.297,40.039,30.762,35.156,37.598,0
151465.753,31.250,40.039,34.668,33.203,-3.418,0
151465.755,39.062,42.480,43.457,32.227,15.137,0
151465.758,40.039,46.387,45.410,30.273,53.223,0
151465.762,41.016,46.387,32.715,40.039,44.922,0
151465.766,43.457,40.039,25.879,37.109,75.195,0
151465.770,45.410,41.504,34.668,25.879,84.961,0
151465.774,39.551,38.086,30.273,18.066,74.219,0
151465.778,35.156,32.715,31.250,24.902,97.656,0
151465.782,41.504,41.016,41.992,27.344,52.734,0
151465.786,41.992,49.805,44.434,32.227,21.484,0
151465.790,36.621,42.969,38.574,40.039,51.758,0
151465.794,35.645,36.621,31.738,35.645,45.410,0
151465.798,40.527,42.969,32.227,35.156,20.996,0
151465.801,48.340,45.898,31.738,33.203,28.809,0
151465.805,47.852,42.480,38.086,31.250,41.992,0
151465.809,34.180,42.969,46.387,33.691,33.691,0
151465.813,27.832,40.039,44.434,38.086,52.734,0
151465.817,32.227,36.133,40.039,38.574,76.172,0
151465.820,37.109,40.039,41.504,31.250,12.695,0
151465.824,39.551,49.316,44.922,37.598,-1.465,0
151465.828,34.668,48.340,44.922,52.734,38.574,0
151465.832,31.250,38.086,43.457,46.387,75.684,0
151465.836,26.855,36.621,43.945,33.203,42.480,0
151465.840,27.832,42.480,43.945,26.855,-4.883,0
151465.844,36.621,41.504,42.480,30.273,16.602,0
151465.846,32.715,35.156,40.527,38.086,38.086,0
151465.850,33.691,42.969,36.621,36.133,22.461,0
151465.854,38.086,46.875,41.992,38.574,7.324,0
151465.858,37.598,43.457,52.246,46.387,9.766,0
151465.862,40.527,43.945,55.176,38.086,39.551,0
151465.866,41.016,40.039,53.711,33.203,33.691,0
151465.870,41.016,41.016,52.734,37.109,5.859,0
151465.873,43.945,41.504,53.223,49.316,11.230,0
151465.877,48.340,40.527,50.781,56.152,40.527,0
151465.881,51.758,43.457,52.734,50.293,80.078,0
151465.885,41.016,38.086,52.734,42.969,58.105,0
151465.889,36.621,41.992,45.898,47.363,49.316,0
151465.905,39.062,46.875,39.551,57.617,40.527,0
151465.908,39.062,45.898,40.527,52.246,45.410,0
151465.912,39.062,42.480,42.480,41.016,55.664,0
151465.916,37.598,38.574,42.480,41.016,50.293,0
151465.920,31.250,37.598,45.898,46.387,80.078,0
151465.924,36.133,41.016,47.363,51.270,39.551,0
151465.928,35.156,43.945,46.387,44.434,60.059,0
151465.932,29.785,39.062,42.969,33.203,131.836,0
151465.936,35.156,41.992,49.805,41.016,64.453,0
151465.940,23.926,43.457,47.852,38.086,40.039,0
151465.944,22.949,42.969,35.645,27.832,41.992,0
151465.948,25.879,41.992,33.203,27.344,21.484,0
151465.949,19.531,37.598,33.691,27.344,37.109,0
151465.953,23.438,36.133,37.109,32.715,66.895,0
151465.957,28.320,38.086,39.062,31.738,68.359,0
151465.961,31.250,40.039,37.109,27.344,61.523,0
151465.965,32.715,38.086,30.762,27.832,71.289,0
151465.969,33.691,41.992,28.809,36.621,52.734,0
151465.973,33.203,43.945,29.785,41.016,91.309,0
151465.977,33.691,43.457,33.203,37.598,99.609,0
151465.981,38.574,46.387,39.062,33.203,30.762,0
151465.985,31.738,37.109,41.016,38.086,2.441,0
151465.989,23.438,26.367,42.969,35.645,62.500,0
151465.992,28.320,28.320,42.969,26.855,75.195,0
151465.995,35.156,34.180,44.922,27.832,27.344,0
151465.998,32.227,38.086,41.016,25.879,11.230,0
151466.002,31.738,38.086,39.062,21.484,42.480,0
151466.006,38.086,41.016,39.551,23.438,52.734,0
151466.010,35.156,38.086,37.109,25.391,41.992,0
151466.014,32.715,34.180,36.621,33.203,51.270,0
151466.018,34.180,35.156,33.203,37.598,44.434,0
151466.022,39.062,34.180,34.180,34.180,64.453,0
151466.026,33.691,34.668,39.551,33.203,15.625,0
151466.030,28.320,38.086,38.086,30.762,-53.711,0
151466.034,32.715,35.156,34.180,32.227,-12.695,0
151466.038,38.086,34.668,34.180,31.250,46.875,0
151466.039,41.016,41.992,39.062,34.668,32.227,0
151466.043,41.992,38.574,41.504,38.086,-5.371,0
151466.047,33.691,35.645,41.016,36.621,18.066,0
151466.051,26.855,38.574,33.691,44.434,38.574,0
151466.055,31.250,37.109,30.273,45.898,10.254,0
151466.059,38.574,37.598,40.039,36.133,1.953,0
151466.063,33.691,35.156,44.922,38.086,64.941,0
151466.067,27.344,33.691,48.340,39.551,80.566,0
151466.071,35.645,33.691,48.340,35.645,44.434,0
151466.075,35.645,27.344,38.086,29.297,64.941,0
151466.079,32.227,28.320,37.598,28.320,65.430,0
151466.082,32.227,34.668,43.457,34.180,62.012,1
151466.086,34.668,34.668,42.969,31.250,87.891,0
151466.090,36.621,36.133,39.062,20.020,88.379,0
151466.094,40.039,45.410,36.133,20.508,67.383,0
151466.098,33.691,43.457,35.156,27.344,58.594,0
151466.101,36.133,40.527,38.086,32.227,52.734,0
151466.105,44.922,41.504,37.598,37.598,4.395,0
151466.109,38.574,35.645,32.227,29.297,-24.902,0
151466.113,33.691,33.203,35.156,20.996,-23.926,0
151466.117,34.180,33.691,38.574,23.926,7.812,0
151466.121,37.598,35.156,42.480,27.832,32.715,0
151466.125,40.527,43.457,45.898,29.785,21.973,0
151466.129,39.551,44.434,41.992,39.551,23.926,0
151466.129,35.645,40.527,38.574,41.992,48.828,0
151466.133,31.738,43.945,35.645,35.645,50.781,0
151466.137,33.691,46.387,30.762,29.297,25.391,0
151466.141,33.203,41.016,30.762,26.367,27.344,0
151466.145,25.879,38.574,36.133,29.297,56.152,0
151466.149,32.715,38.574,38.574,32.715,37.109,0
151466.153,33.203,36.133,37.109,28.320,-3.418,0
151466.157,24.902,36.133,34.668,20.508,-10.254,0
151466.161,24.414,38.086,33.203,20.996,29.785,0
151466.165,19.531,37.598,37.598,27.344,82.520,0
151466.169,25.879,38.574,37.598,33.203,52.246,0
151466.172,29.297,40.039,32.715,34.180,33.203,0
151466.175,29.297,38.574,38.574,36.621,46.875,0
151466.178,42.480,40.527,36.621,33.691,83.984,0
151466.182,42.480,37.109,32.227,29.785,96.680,0
151466.186,37.109,36.133,39.062,34.668,35.156,0
151466.190,34.668,36.133,28.320,31.250,-18.066,0
151466.194,41.504,34.180,25.391,29.297,7.812,0
151466.198,42.969,37.598,41.016,38.574,27.344,0
151466.202,25.879,36.133,43.945,27.832,8.301,0
151466.206,23.926,33.691,39.062,16.602,-10.742,0
151466.210,28.320,34.668,39.551,26.855,-26.367,0
151466.214,26.855,33.203,40.527,37.109,-2.930,0
151466.218,29.297,34.668,35.645,40.527,6.348,0
151466.219,33.691,35.156,34.180,41.992,24.902,0
151466.223,33.691,36.133,40.527,40.527,21.973,0
151466.227,38.574,36.133,42.969,41.016,2.930,0
151466.231,42.969,37.598,42.969,41.016,44.434,0
151466.235,39.551,36.621,42.969,38.086,48.828,0
151466.239,38.574,37.598,44.434,43.457,38.086,0
151466.243,37.109,44.434,42.969,47.852,45.410,0
151466.247,35.645,44.434,37.109,44.434,58.105,0
151466.251,47.852,47.852,33.691,35.156,55.664,0
151466.255,46.387,53.711,41.504,25.391,45.410,0
151466.259,31.738,44.922,41.016,27.832,50.781,0
151466.262,38.086,40.039,37.598,37.598,56.641,0
151466.280,46.387,46.387,38.086,38.086,75.195,0
151466.283,40.039,44.434,33.691,30.273,54.688,0
151466.287,33.203,35.156,33.691,31.250,50.293,0
151466.291,34.180,34.668,36.133,39.062,43.945,0
151466.295,37.598,39.551,37.109,37.598,-24.414,0
151466.299,38.086,40.527,41.016,39.551,-69.824,0
151466.303,32.227,41.504,41.504,40.527,-16.602,0
151466.307,33.203,41.016,36.133,35.645,24.414,0
151466.311,41.016,37.109,33.691,29.297,13.184,0
151466.315,40.039,34.180,33.203,20.508,-2.930,0
151466.319,34.668,37.598,38.086,27.832,-31.738,0
151466.322,37.598,38.574,38.574,39.062,-5.371,0
151466.325,46.875,37.109,35.645,41.992,-17.090,0
151466.328,44.922,36.133,36.621,41.504,-71.777,0
151466.332,32.227,36.133,34.668,43.457,-27.832,0
151466.336,28.320,36.621,31.738,45.410,27.832,0
151466.340,31.250,43.945,33.203,48.828,10.254,0
151466.344,25.879,44.922,37.598,43.945,-11.230,0
151466.348,29.785,41.992,38.086,37.109,24.414,0
151466.352,31.250,41.016,36.621,39.551,42.480,0
151466.356,28.809,33.691,40.039,41.504,34.668,0
151466.360,35.156,35.645,44.922,41.016,33.203,0
151466.364,34.180,39.551,42.969,36.133,38.574,0
151466.368,38.086,39.551,36.133,36.621,39.551,0
151466.370,48.340,42.969,35.645,41.504,12.695,0
151466.373,43.457,46.875,41.992,40.039,25.879,0
151466.377,36.133,47.852,40.039,41.504,22.461,0
151466.381,36.621,48.340,41.016,50.781,38.574,0
151466.385,39.551,45.410,48.828,53.223,81.543,0
151466.389,38.574,41.504,43.945,44.922,67.383,0
151466.393,47.852,40.527,40.039,32.227,35.156,0
151466.397,43.945,38.574,41.992,33.203,0.488,0
151466.401,32.715,41.992,38.574,49.316,20.996,0
151466.405,40.527,40.527,34.668,54.199,48.340,0
151466.409,48.828,41.016,41.504,42.969,60.547,0
151466.413,40.527,44.434,42.480,39.062,85.449,0
151466.415,40.039,46.875,38.574,46.875,105.957,0
151466.419,43.457,47.363,38.574,41.504,97.168,0
151466.422,48.340,43.945,35.156,33.691,73.242,0
151466.426,52.246,43.457,28.809,40.527,40.527,0
151466.430,43.457,42.969,30.762,36.133,28.320,0
151466.434,41.016,45.898,39.551,33.691,48.828,0
151466.438,41.504,42.969,40.039,36.133,54.688,0
151466.442,44.434,39.062,35.645,34.668,47.852,0
151466.446,45.410,42.480,33.691,34.180,2.441,0
151466.450,28.809,39.062,35.156,31.738,-9.277,0
151466.454,27.344,34.180,39.551,25.391,20.508,0
151466.458,35.156,32.715,39.062,20.508,10.742,0
151466.459,28.809,34.668,36.133,29.297,-0.977,0
151466.463,25.391,38.574,31.738,32.227,4.395,0
151466.467,29.297,36.133,25.391,30.273,-7.812,0
151466.471,36.621,32.715,29.297,24.902,-11.230,0
151466.475,37.598,32.227,33.203,14.160,16.113,0
151466.479,33.691,33.691,34.180,25.879,16.602,0
151466.483,37.598,35.645,39.062,37.598,35.645,0
151466.487,45.898,33.691,41.992,33.691,39.062,0
151466.491,50.781,37.598,41.992,28.320,8.301,0
151466.495,41.504,44.434,44.922,32.227,22.461,0
151466.499,36.133,48.828,43.457,40.039,10.254,0
151466.502,41.992,47.852,40.039,36.133,-6.836,0
151466.505,40.039,41.992,39.551,30.273,35.645,0
151466.508,40.527,40.039,39.551,32.227,32.715,0
151466.512,34.668,36.621,37.598,33.203,30.273,0
151466.516,25.879,34.668,31.250,30.762,57.617,0
151466.520,34.668,37.109,33.691,27.344,41.016,0
151466.524,40.039,40.039,34.180,26.855,37.598,0
151466.528,30.762,40.527,32.715,28.809,38.086,0
151466.532,28.809,37.598,35.156,20.996,25.391,0
151466.536,34.180,35.156,36.621,14.648,56.641,0
151466.540,34.668,38.086,41.016,20.020,43.945,0
151466.544,35.645,41.504,39.062,35.645,47.852,0
151466.548,30.273,38.574,35.645,38.574,60.547,0
151466.551,31.250,41.016,35.645,40.039,38.574,0
151466.555,34.668,40.527,34.180,44.434,29.297,0
151466.559,34.668,37.598,41.016,37.598,59.570,0
151466.563,37.109,41.016,44.434,38.574,50.293,0
151466.566,44.434,44.434,43.457,38.574,46.387,0
151466.570,54.199,43.945,43.945,36.621,30.762,0
151466.574,53.223,45.898,42.969,35.156,-7.812,0
151466.578,47.363,43.945,39.551,34.668,29.785,0
151466.582,42.969,39.551,34.180,42.480,57.617,0
151466.586,37.109,40.039,35.645,31.738,42.969,0
151466.590,32.227,39.062,35.156,19.531,7.812,0
151466.594,39.551,39.062,33.203,28.320,22.461,0
151466.610,45.410,37.109,32.715,30.762,51.758,0
151466.614,41.504,34.180,39.062,31.738,16.113,0
151466.617,37.598,34.668,42.969,35.645,10.742,0
151466.621,34.668,35.645,37.598,36.621,11.719,0
151466.625,35.645,32.715,37.109,38.574,12.695,0
151466.629,38.574,29.297,38.086,34.668,32.227,0
151466.633,38.086,34.180,40.527,32.227,11.719,0
151466.637,38.574,38.086,39.062,37.109,29.297,0
151466.641,39.062,40.527,37.109,43.945,71.777,0
151466.645,39.062,40.527,36.621,41.504,63.477,0
151466.649,41.992,33.691,31.250,39.062,64.453,0
151466.653,42.969,37.598,39.551,47.363,85.449,2
151466.654,33.691,38.574,51.270,47.852,102.539,0
151466.658,29.297,31.250,43.457,38.086,80.078,0
151466.662,33.203,34.180,38.086,37.598,51.270,0
151466.666,27.832,30.762,39.062,35.156,71.289,0
151466.670,24.902,27.832,40.039,32.715,61.035,0
151466.674,32.715,31.250,41.504,38.574,66.895,0
151466.678,36.621,33.203,40.039,41.992,61.035,0
151466.682,33.691,37.109,35.156,39.551,26.855,0
151466.686,27.832,41.016,37.598,41.016,35.156,0
151466.690,28.809,39.062,43.457,40.527,33.203,0
151466.694,40.527,41.992,41.016,38.086,16.602,0
151466.697,38.574,43.945,33.691,36.621,2.441,0
151466.700,31.250,39.062,36.621,36.133,-2.441,0
151466.703,31.250,40.039,40.527,36.133,25.879,0
151466.707,28.320,38.574,36.133,35.645,50.293,0
151466.711,33.203,39.062,34.180,33.691,22.461,0
151466.715,41.504,42.480,36.621,38.086,-4.883,0
151466.719,40.039,39.551,39.062,42.969,18.555,0
151466.723,38.086,36.621,39.062,35.645,51.758,0
151466.727,41.016,42.969,43.945,32.227,85.938,0
151466.731,39.551,48.828,47.852,34.668,77.637,0
151466.735,40.039,41.992,41.504,35.645,44.434,0
151466.739,36.133,39.551,34.180,37.598,79.590,0
151466.742,32.227,41.992,32.715,42.480,109.375,0
151466.744,40.039,44.434,37.598,39.062,62.988,0
151466.748,38.086,44.434,40.039,34.668,48.828,0
151466.752,40.039,41.016,35.645,43.945,60.547,0
151466.756,52.246,45.898,33.203,42.480,65.918,0
151466.760,46.387,44.434,33.691,40.039,36.621,0
151466.764,38.086,39.062,35.645,42.969,-10.742,0
151466.768,41.504,41.504,38.574,41.504,-5.859,0
151466.772,40.039,40.039,34.180,30.273,58.594,0
151466.776,33.203,37.109,31.250,23.926,36.133,0
151466.780,23.438,36.133,32.715,23.438,4.395,0
151466.784,30.273,39.551,33.203,26.367,24.902,0
151466.787,36.621,39.551,33.691,26.855,32.227,0
151466.790,28.320,37.598,33.691,30.762,57.617,0
151466.793,31.738,37.109,30.762,37.598,39.551,0
151466.797,31.250,33.203,32.715,35.645,26.855,0
151466.801,36.133,39.551,41.504,39.551,48.340,0
151466.805,44.434,46.875,45.898,46.875,14.160,0
151466.809,42.480,39.551,40.527,40.527,0.000,0
151466.813,38.086,34.180,33.691,33.203,43.457,0
151466.817,36.133,39.551,39.062,35.645,59.570,0
151466.821,37.598,41.992,36.133,40.527,30.273,0
151466.825,40.039,40.039,26.855,35.156,11.719,0
151466.829,38.574,34.668,33.691,30.273,21.484,0
151466.832,33.203,33.691,39.062,33.203,26.855,0
151466.835,35.156,37.598,41.992,32.227,44.434,0
151466.839,41.016,39.551,49.316,32.715,49.316,0
151466.842,40.527,44.922,48.828,33.203,4.883,0
151466.846,34.180,41.016,42.969,38.086,-14.160,0
151466.850,32.715,32.227,38.086,41.992,27.344,0
151466.854,35.645,33.203,39.062,40.527,53.223,0
151466.858,34.668,36.133,42.969,36.133,60.547,0
151466.862,30.762,37.109,41.992,35.156,29.297,0
151466.866,32.715,41.016,40.039,38.574,26.367,0
151466.870,40.527,44.434,39.551,40.039,62.012,0
151466.874,46.875,47.363,40.527,45.410,28.320,0
151466.878,41.016,44.922,44.434,44.922,3.906,0
151466.880,33.203,38.574,43.457,40.527,9.277,0
151466.883,37.598,41.504,53.223,40.527,30.273,0
151466.887,41.504,40.527,49.805,36.133,31.250,0
151466.891,35.645,32.715,37.109,30.273,11.719,0
151466.895,28.809,38.086,38.574,26.855,21.484,0
151466.899,31.250,39.551,39.551,29.297,23.926,0
151466.903,40.527,36.133,44.434,38.086,37.598,0
151466.907,46.875,41.016,47.363,43.457,0.488,0
151466.911,37.109,41.504,36.133,33.691,-23.926,0
151466.915,31.250,40.039,33.691,27.832,25.879,0
151466.919,40.039,44.434,43.457,34.180,14.648,0
151466.922,43.457,45.898,45.898,41.992,24.902,0
151466.924,41.504,43.945,42.969,41.992,50.293,0
151466.928,41.016,39.551,41.504,41.504,55.664,0
151466.932,36.133,36.133,41.992,39.062,61.035,0
151466.936,32.227,36.133,38.086,32.715,19.043,0
151466.940,37.598,35.156,36.133,37.109,11.719,0
151466.944,42.480,38.574,37.109,43.457,47.852,0
151466.948,45.898,43.457,40.039,46.387,47.363,0
151466.952,40.527,41.992,44.922,41.504,35.645,0
151466.956,33.203,40.527,45.898,39.551,43.457,0
151466.960,33.691,41.016,43.945,45.898,41.504,0
151466.964,41.504,41.992,38.574,55.176,57.129,0
151466.967,46.387,43.457,31.738,45.410,49.316,0
151466.985,42.969,46.875,31.250,27.832,35.645,0
151466.988,37.109,49.316,36.621,32.715,48.828,0
151466.992,46.875,49.805,38.574,40.527,78.613,0
151466.996,41.504,44.922,35.156,40.039,76.660,0
151467.000,28.809,45.410,36.621,36.621,67.871,0
151467.004,34.180,50.293,43.457,40.527,68.359,0
151467.008,41.016,48.828,46.387,51.758,82.031,0
151467.012,45.410,44.922,45.410,50.781,95.215,0
151467.016,50.781,42.969,41.992,47.363,82.520,0
151467.020,47.363,42.480,39.062,52.246,91.309,0
151467.024,47.852,39.551,44.434,49.316,85.938,0
151467.027,47.852,38.086,45.898,39.062,65.918,0
151467.030,38.574,41.504,42.480,40.039,52.246,0
151467.033,34.180,47.852,36.133,39.551,67.383,0
151467.037,34.668,48.340,34.180,39.062,76.660,0
151467.041,38.574,42.969,41.992,39.062,82.520,0
151467.045,33.691,36.133,38.086,37.598,57.617,0
151467.049,35.645,34.180,29.297,39.062,12.207,0
151467.053,35.156,37.598,37.109,37.109,-14.648,0
151467.057,30.273,42.480,49.805,39.062,63.477,0
151467.061,43.457,45.898,49.316,38.086,116.211,0
151467.065,47.852,40.527,45.410,37.109,30.273,0
151467.069,33.203,34.668,41.992,46.875,22.461,0
151467.072,27.344,36.133,38.574,49.316,62.988,0
151467.076,30.273,40.527,40.527,39.062,45.898,0
151467.080,37.598,42.480,46.875,38.086,38.574,0
151467.084,35.645,41.016,51.758,41.504,30.762,0
151467.088,27.832,41.016,47.363,39.551,32.715,0
151467.092,33.203,43.457,39.551,37.109,16.113,0
151467.095,34.180,44.922,38.574,36.621,-14.648,0
151467.099,32.715,46.875,41.992,31.250,-23.438,0
151467.103,29.785,41.016,42.969,32.227,42.969,0
151467.107,30.762,41.992,42.480,39.551,24.902,0
151467.111,37.109,44.922,35.645,35.645,-15.137,0
151467.115,33.203,36.133,28.809,31.250,37.109,0
151467.119,19.043,33.691,31.250,34.180,76.660,0
151467.120,21.973,37.109,34.180,30.762,74.707,0
151467.123,27.344,39.551,36.621,26.855,75.195,0
151467.127,20.508,38.086,28.320,24.902,57.617,0
151467.131,18.555,37.109,19.531,23.926,42.480,0
151467.135,15.625,37.598,29.297,34.180,68.848,0
151467.139,25.879,41.504,37.598,39.551,56.641,0
151467.143,35.645,45.410,33.203,31.738,18.555,0
151467.147,31.250,41.016,18.555,28.320,18.066,0
151467.151,25.879,41.016,18.555,31.738,-9.766,0
151467.155,30.762,41.992,31.250,30.762,-21.973,0
151467.159,32.715,37.109,34.668,28.809,28.320,0
151467.163,28.809,34.668,35.645,29.297,34.668,0
151467.165,32.227,40.039,38.574,39.062,44.434,0
151467.168,43.945,40.039,36.621,44.922,50.293,0
151467.172,43.457,40.039,34.668,39.551,41.992,0
151467.176,31.738,43.945,40.527,40.039,20.996,0
151467.180,29.297,39.551,30.762,35.156,25.391,0
151467.184,32.227,39.551,18.555,33.203,13.672,0
151467.188,34.180,39.551,27.832,42.480,42.480,0
151467.192,35.156,38.086,40.527,43.945,28.809,0
151467.196,32.715,38.574,41.504,38.574,-48.828,0
151467.200,34.668,38.574,37.598,41.016,0.977,0
151467.204,39.062,42.969,34.180,40.527,64.453,0
151467.208,41.016,48.828,29.785,34.180,48.828,0
151467.210,40.039,49.805,31.250,36.133,49.805,0
151467.213,38.086,46.875,35.645,40.039,86.914,0
151467.217,36.133,38.086,36.133,31.738,83.008,0
151467.221,41.016,37.598,36.621,30.273,81.055,0
151467.225,41.016,46.875,34.180,39.062,89.844,0
151467.229,36.133,46.875,31.250,40.039,83.008,0
151467.233,38.086,42.969,35.645,41.992,76.172,0
151467.237,41.016,46.387,34.180,49.316,43.945,0
151467.241,40.527,46.875,36.621,45.410,30.762,0
151467.245,36.133,41.016,47.852,39.551,53.223,0
151467.249,31.250,34.668,44.434,41.016,93.262,0
151467.252,34.180,32.715,38.086,37.109,99.609,0
151467.255,32.715,32.715,36.621,40.039,83.496,0
151467.258,29.297,33.203,38.574,46.875,70.801,0
151467.262,29.297,34.180,40.039,44.434,86.426,0
151467.266,33.203,32.227,34.668,42.480,82.031,0
151467.270,43.457,36.621,29.785,36.133,17.090,0
151467.274,38.574,38.574,36.133,35.645,-2.930,0
151467.278,31.738,39.062,41.504,39.062,6.348,0
151467.282,36.621,41.992,41.504,39.062,20.508,0
151467.286,41.016,41.992,38.574,37.109,58.594,0
151467.290,38.086,38.574,35.645,26.367,39.551,0
151467.294,37.598,37.109,33.203,27.344,5.371,1
151467.298,37.598,39.551,31.250,36.621,29.785,0
151467.301,36.621,37.109,28.809,31.738,10.742,0
151467.305,41.992,35.645,35.156,38.086,-26.367,0
151467.309,41.016,36.621,42.969,49.805,4.883,0
151467.313,36.621,36.133,38.574,45.898,47.852,0
151467.316,37.109,41.016,35.645,42.969,70.801,0
151467.320,38.574,48.340,38.574,47.852,65.430,0
151467.324,33.691,48.340,41.016,43.945,53.711,0
151467.328,36.621,46.875,41.504,44.434,57.617,0
151467.332,40.039,43.457,37.598,45.410,89.355,0
151467.336,31.738,39.551,35.645,38.574,38.086,0
151467.340,24.902,37.598,37.598,45.898,-16.602,0
151467.344,24.414,36.133,41.504,42.969,37.598,0
151467.360,28.320,38.574,44.434,33.691,76.172,0
151467.363,38.086,41.504,41.504,35.156,48.340,0
151467.367,32.227,38.086,37.598,38.086,41.016,0
151467.371,25.391,33.691,35.645,42.969,62.988,0
151467.375,30.273,37.109,36.133,45.410,51.270,0
151467.379,24.902,38.574,39.062,35.645,21.484,0
151467.383,31.738,40.039,38.574,22.949,-25.879,0
151467.387,35.645,37.109,37.109,24.414,-44.434,0
151467.391,24.902,26.855,37.598,31.250,12.207,0
151467.395,30.762,33.203,42.969,37.598,57.129,0
151467.399,39.062,42.480,41.992,36.621,41.504,0
151467.403,39.062,36.621,33.691,35.156,37.598,0
151467.405,32.715,32.715,33.203,43.945,52.246,0
151467.408,29.785,36.133,38.574,44.922,80.078,0
151467.412,41.016,35.156,43.457,41.504,66.895,0
151467.416,38.086,34.180,42.969,36.133,51.270,0
151467.420,33.691,40.039,40.527,41.016,43.457,0
151467.424,37.598,43.457,38.086,45.898,63.965,0
151467.428,41.016,43.457,38.086,44.434,44.922,0
151467.432,41.016,45.410,41.992,42.480,-9.766,0
151467.436,31.738,41.992,44.922,30.273,43.457,0
151467.440,34.668,41.016,46.387,29.785,32.227,0
151467.444,48.828,41.992,45.410,38.574,10.742,0
151467.447,54.199,40.039,42.480,32.227,73.242,0
151467.450,44.434,42.969,40.527,30.273,63.965,0
151467.454,36.133,45.410,38.086,38.574,47.363,0
151467.458,46.387,48.828,36.621,41.992,74.219,0
151467.462,48.828,49.316,33.203,44.434,70.312,0
151467.466,45.410,42.480,26.367,43.945,62.012,0
151467.470,44.434,41.016,31.738,45.410,74.707,0
151467.473,40.039,38.574,39.551,41.504,59.570,0
151467.477,45.898,36.621,38.574,33.203,48.828,0
151467.481,52.734,43.945,39.062,28.320,21.484,0
151467.485,32.715,41.016,35.645,28.320,10.254,0
151467.489,26.367,35.156,32.715,35.645,30.762,0
151467.493,46.387,41.504,37.109,40.039,48.340,0
151467.495,50.781,46.875,35.645,38.574,41.992,0
151467.498,35.645,41.992,34.180,40.527,30.762,0
151467.502,29.297,37.598,36.621,52.246,60.547,0
151467.506,35.156,39.062,40.527,51.270,37.109,0
151467.510,34.180,38.086,40.039,37.109,14.648,0
151467.514,29.785,38.086,38.086,37.598,30.762,0
151467.518,32.227,39.062,37.598,44.922,59.082,0
151467.522,35.645,39.062,36.621,37.598,83.984,0
151467.526,45.898,38.574,30.762,34.180,36.133,0
151467.530,47.363,39.551,29.297,35.645,9.277,0
151467.534,33.691,36.621,35.156,41.992,4.883,0
151467.538,29.785,30.273,30.762,42.969,-8.301,0
151467.541,32.227,31.250,25.391,32.227,-27.344,0
151467.545,27.344,31.250,33.691,28.320,-19.043,0
151467.549,24.414,30.273,39.551,32.715,3.418,0
151467.553,26.855,31.250,35.156,36.133,-37.598,0
151467.557,36.621,37.598,34.180,36.133,-19.043,0
151467.560,41.016,42.480,41.504,35.156,1.953,0
151467.564,32.715,35.645,44.922,31.738,-8.301,0
151467.568,29.297,32.715,44.434,33.203,11.230,0
151467.572,35.156,38.574,47.852,42.969,19.043,0
151467.576,39.551,40.527,45.410,41.016,40.527,0
151467.580,32.227,36.133,42.480,37.109,46.387,0
151467.584,22.949,31.738,38.086,40.527,85.449,0
151467.585,33.203,37.598,40.527,49.316,105.957,0
151467.589,42.969,43.457,45.410,50.293,70.801,0
151467.592,37.598,38.086,43.457,44.434,66.895,0
151467.596,35.156,39.062,46.875,42.969,45.898,0
151467.600,34.668,40.039,45.898,33.691,19.531,0
151467.604,37.109,34.668,41.504,27.344,33.203,0
151467.608,41.016,39.062,42.969,34.180,33.691,0
151467.612,35.645,43.457,41.504,37.598,10.742,0
151467.616,30.762,35.645,34.180,31.738,29.297,0
151467.620,28.320,31.738,31.738,29.297,87.891,0
151467.624,33.691,33.691,36.621,32.227,77.148,0
151467.628,38.574,39.062,41.992,40.039,33.203,0
151467.630,42.480,45.410,41.992,48.340,76.660,0
151467.634,45.898,41.504,41.992,42.969,84.961,0
151467.637,41.992,38.086,40.527,36.621,4.395,0
151467.641,35.156,41.016,35.645,38.574,-20.508,0
151467.645,32.715,37.598,37.109,49.316,6.348,0
151467.649,37.598,36.133,45.410,54.688,14.160,0
151467.653,37.598,30.273,46.387,46.387,18.066,0
151467.657,37.109,29.297,41.992,42.969,20.508,0
151467.661,33.691,34.180,38.086,43.457,67.871,0
151467.665,32.715,37.109,38.086,42.969,94.727,0
151467.669,40.039,37.598,38.086,41.992,57.129,0
151467.673,44.922,39.062,34.668,36.133,62.988,0
151467.675,42.480,37.109,36.133,34.180,64.453,0
151467.678,43.457,40.039,40.039,42.480,20.020,0
151467.682,56.152,43.457,38.086,44.434,35.645,0
151467.686,58.105,40.039,31.250,38.574,43.457,0
151467.690,34.668,39.062,32.227,39.062,23.438,0
151467.694,21.973,35.645,38.574,41.504,35.156,0
151467.698,28.809,34.180,38.086,33.203,26.367,0
151467.702,30.762,37.109,36.621,26.367,2.441,0
151467.706,26.855,41.016,40.527,29.785,20.996,0
151467.710,23.926,40.039,41.016,39.062,56.641,0
151467.714,21.973,36.621,38.086,39.062,52.734,0
151467.718,24.414,33.691,32.715,24.414,7.324,0
151467.719,28.809,34.668,33.691,17.578,23.438,0
151467.723,29.297,34.668,37.598,36.133,67.383,0
151467.727,25.391,33.203,27.832,35.156,50.293,0
151467.731,24.414,32.715,27.832,14.648,83.496,0
151467.735,28.809,33.691,38.574,17.578,93.262,0
151467.739,28.809,40.527,41.016,28.320,39.551,0
151467.743,28.320,40.527,39.551,32.227,41.504,0
151467.747,31.738,37.598,40.039,30.762,54.688,0
151467.751,36.133,39.551,41.504,29.785,44.434,0
151467.755,34.668,39.551,36.621,33.691,35.156,0
151467.759,26.855,41.016,29.785,36.621,50.781,0
151467.762,29.297,48.340,37.109,38.574,46.875,0
151467.779,36.133,47.363,41.504,39.062,1.953,0
151467.783,26.367,40.039,40.527,28.320,-38.574,0
151467.787,22.461,39.551,42.969,27.344,-20.996,0
151467.791,27.344,38.086,41.504,30.762,-7.812,0
151467.795,37.109,38.086,42.480,30.273,-3.418,0
151467.799,41.504,41.016,44.434,32.715,3.418,0
151467.803,31.738,43.457,41.992,41.504,-19.043,0
151467.807,35.156,43.457,35.645,44.434,38.574,0
151467.811,39.551,39.551,33.203,36.621,64.941,0
151467.815,43.457,41.016,36.133,32.227,18.555,0
151467.819,44.434,44.922,40.039,36.621,13.672,0
151467.822,42.480,45.410,39.551,45.898,30.273,0
151467.825,42.480,42.480,37.598,44.434,28.320,0
151467.828,48.340,43.457,38.574,40.039,36.621,0
151467.832,43.945,41.504,38.086,34.180,24.902,0
151467.836,35.645,39.551,41.992,41.504,21.484,0
151467.840,38.574,42.969,45.410,48.828,42.480,0
151467.844,52.246,50.293,45.410,39.551,42.480,0
151467.848,51.758,55.176,47.852,36.133,28.809,0
151467.852,26.855,45.898,43.457,34.668,44.922,0
151467.856,23.438,44.922,39.062,38.574,52.246,0
151467.860,29.785,47.852,44.434,40.039,10.742,0
151467.864,34.180,42.969,41.504,35.645,22.461,0
151467.867,35.156,38.574,34.668,39.551,62.500,0
151467.869,32.227,39.551,33.203,39.551,72.754,0
151467.873,35.156,41.504,35.156,34.180,71.777,0
151467.877,40.039,41.504,32.227,36.621,46.387,0
151467.881,39.062,43.945,29.297,44.922,15.625,0
151467.885,36.621,45.898,34.180,46.387,23.926,0
151467.889,31.738,42.480,38.086,38.086,47.852,0
151467.893,35.645,43.945,38.086,34.180,17.090,0
151467.897,32.227,47.363,33.203,31.250,16.113,0
151467.901,20.508,41.992,28.809,28.809,6.836,0
151467.905,24.902,43.945,29.297,32.715,-9.277,0
151467.909,34.668,46.387,29.785,35.645,33.691,0
151467.912,29.297,41.504,32.227,34.668,43.945,0
151467.914,27.344,37.109,37.109,33.203,41.504,0
151467.918,30.762,33.691,37.598,28.320,60.059,0
151467.922,33.691,36.133,36.133,24.902,39.062,0
151467.926,31.738,40.039,32.227,27.832,19.531,0
151467.930,27.344,42.969,32.227,35.645,9.277,0
151467.934,39.062,45.410,34.668,48.828,8.789,0
151467.938,44.922,44.434,36.133,44.922,14.160,0
151467.942,36.621,47.363,41.992,27.832,3.906,0
151467.946,27.344,47.852,39.062,28.320,-19.531,0
151467.950,21.973,40.527,34.668,37.598,50.781,1
151467.954,24.902,33.691,38.086,40.527,86.426,0
151467.957,27.344,31.250,36.621,34.180,27.832,0
151467.960,25.879,38.574,36.133,28.320,27.832,0
151467.963,29.785,39.062,36.621,32.227,44.922,0
151467.967,34.668,38.574,37.109,37.598,42.480,0
151467.971,31.738,40.039,38.574,37.109,32.227,0
151467.975,32.715,33.203,36.621,34.180,16.113,0
151467.979,33.691,33.203,37.598,42.480,2.441,0
151467.983,40.527,37.598,41.504,44.434,20.996,0
151467.987,41.016,37.598,41.992,33.691,-1.465,0
151467.991,33.203,38.574,38.574,30.273,-40.527,0
151467.995,33.691,41.016,40.527,39.551,2.441,0
151467.999,34.668,40.039,40.527,39.551,64.453,0
151468.002,34.180,36.133,33.203,31.250,45.410,0
151468.006,39.551,36.133,28.809,29.785,32.227,0
151468.010,41.504,37.598,30.762,32.227,36.621,0
151468.014,36.621,34.668,37.109,37.598,35.645,0
151468.018,36.621,35.645,41.504,41.016,37.598,0
151468.021,34.180,33.203,40.039,34.180,46.875,0
151468.025,35.156,28.320,39.062,28.809,56.152,0
151468.029,35.156,35.645,40.527,37.109,41.016,0
151468.033,28.320,36.621,37.109,35.156,67.871,0
151468.037,35.156,31.250,26.367,23.926,90.820,0
151468.041,37.598,33.203,32.715,33.691,57.617,0
151468.045,31.738,34.668,42.969,43.457,44.434,0
151468.049,28.320,33.691,41.504,35.156,69.824,0
151468.049,31.250,35.645,43.457,38.574,101.074,0
151468.053,37.109,37.109,41.992,41.992,39.551,0
151468.057,32.715,33.691,37.598,26.367,-19.043,0
151468.061,31.738,33.691,34.668,26.367,25.879,0
151468.065,38.086,41.016,32.227,33.203,62.500,0
151468.069,42.969,39.062,34.180,34.180,50.781,0
151468.073,35.645,36.133,41.992,37.109,10.742,0
151468.077,29.297,38.574,44.922,31.250,-0.488,0
151468.081,31.250,38.574,41.992,31.738,22.461,0
151468.085,32.227,38.086,40.527,35.645,9.766,0
151468.089,34.668,42.480,40.527,37.598,-16.602,0
151468.092,34.668,41.504,32.715,41.504,23.438,0
151468.110,28.809,34.668,28.320,41.016,66.895,0
151468.113,27.832,35.645,32.715,35.645,27.344,0
151468.117,33.203,37.598,37.109,29.297,3.906,0
151468.121,33.203,38.086,41.016,32.715,17.090,0
151468.125,38.086,41.504,40.527,45.410,24.902,0
151468.129,34.668,45.898,42.480,43.945,37.109,0
151468.133,24.902,43.945,42.969,38.086,4.883,0
151468.137,29.785,40.039,41.016,45.898,18.066,0
151468.141,35.156,40.527,41.504,53.711,48.828,0
151468.145,37.598,42.969,40.039,48.828,31.250,0
151468.149,38.086,39.062,36.621,41.016,22.949,0
151468.153,44.922,35.156,35.645,51.270,29.785,0
151468.155,39.551,41.504,36.621,48.340,27.344,0
151468.158,29.297,51.270,34.668,26.855,56.641,0
151468.162,41.992,56.641,35.645,25.391,61.523,0
151468.166,43.457,52.734,38.086,28.809,32.715,0
151468.170,28.320,46.387,34.180,29.785,48.828,0
151468.174,35.645,46.875,36.621,40.039,67.871,0
151468.178,49.805,47.852,34.180,41.504,42.480,0
151468.182,46.387,44.434,30.273,36.133,22.461,0
151468.186,35.156,36.621,39.062,41.504,0.488,0
151468.190,31.250,31.738,46.875,43.945,-7.812,0
151468.194,35.645,31.738,42.969,39.062,5.859,0
151468.198,33.203,28.320,35.645,35.645,26.367,0
151468.199,30.273,29.785,40.039,41.992,31.738,0
151468.203,33.691,32.227,40.527,47.363,23.438,0
151468.207,37.598,34.180,35.156,46.387,50.293,0
151468.211,41.016,37.109,34.668,48.828,42.969,0
151468.215,41.992,38.086,31.738,55.664,-19.043,0
151468.219,35.156,36.133,30.762,60.059,15.137,0
151468.223,37.109,32.227,35.156,52.734,62.500,0
151468.227,49.805,34.180,37.109,44.434,42.480,0
151468.231,48.828,34.668,34.180,43.457,-7.324,0
151468.235,39.551,30.273,30.762,46.875,-28.320,0
151468.239,47.363,32.715,31.250,48.340,13.672,0
151468.242,48.828,35.645,38.086,44.434,45.410,0
151468.244,44.922,35.645,48.340,50.293,69.336,0
151468.248,51.270,34.180,45.410,62.988,47.363,0
151468.252,45.410,33.691,33.691,51.270,15.625,0
151468.256,42.969,42.480,29.297,31.738,31.738,0
151468.260,43.457,41.016,26.855,30.273,49.805,0
151468.264,37.598,36.621,30.762,36.133,46.875,0
151468.268,37.598,39.551,31.738,46.875,63.477,0
151468.272,37.109,39.062,29.785,44.922,112.305,0
151468.276,42.969,37.598,36.133,40.039,87.402,0
151468.280,44.922,38.086,38.086,42.969,16.113,0
151468.284,36.133,30.762,33.691,37.109,22.461,0
151468.287,40.527,30.762,30.273,41.016,46.875,0
151468.291,49.316,36.621,25.879,42.969,48.828,0
151468.295,49.805,38.574,31.738,41.992,54.199,0
151468.299,47.852,40.527,39.062,54.199,41.016,0
151468.303,48.340,40.039,37.598,54.688,63.965,0
151468.306,51.270,37.109,35.645,41.992,72.266,0
151468.310,50.293,33.691,37.109,41.016,28.809,0
151468.314,49.316,35.156,39.062,51.270,34.180,0
151468.318,46.387,33.203,37.598,64.941,50.781,0
151468.322,39.062,33.691,34.180,62.988,29.785,0
151468.326,34.668,36.133,39.062,45.410,42.480,0
151468.330,30.273,33.691,41.016,40.039,56.152,0
151468.334,28.809,31.738,41.504,46.387,66.895,0
151468.334,34.668,34.180,46.875,48.340,90.820,0
151468.338,37.598,33.691,43.457,42.969,75.195,0
151468.342,34.668,32.227,37.109,37.109,59.570,0
151468.346,29.785,36.133,38.574,38.574,62.988,0
151468.350,41.016,41.016,40.527,41.992,83.984,0
151468.354,46.875,42.969,39.551,36.621,61.523,0
151468.358,34.668,37.109,36.621,37.109,46.387,0
151468.362,34.180,37.109,32.715,41.016,14.648,0
151468.366,39.062,43.457,30.273,44.434,1.465,0
151468.370,41.992,44.434,31.250,45.898,27.832,0
151468.374,39.062,41.992,37.598,34.668,13.672,0
151468.377,38.086,40.039,43.945,31.250,-2.930,0
151468.380,42.480,42.969,45.898,38.086,45.898,0
151468.383,44.434,44.434,45.410,45.410,62.988,0
151468.387,45.410,39.062,47.852,46.875,7.324,0
151468.391,45.898,35.156,46.875,46.875,-4.883,0
151468.395,45.410,40.039,39.551,43.457,13.184,0
151468.399,43.457,43.457,39.551,39.551,12.695,0
151468.403,36.621,39.062,41.016,33.203,-14.160,0
151468.407,39.551,40.527,39.062,29.785,3.906,0
151468.411,40.039,45.898,41.504,30.762,34.180,0
151468.415,38.574,43.945,39.062,23.926,25.879,0
151468.419,36.621,44.434,32.715,19.043,34.180,0
151468.422,27.344,44.922,39.062,21.973,39.062,0
151468.425,22.461,38.574,44.434,28.809,48.340,0
151468.428,22.461,35.156,40.527,32.715,85.938,0
151468.432,24.902,40.039,33.691,26.367,68.848,0
151468.436,29.785,41.504,30.762,21.484,51.758,0
151468.440,29.297,38.086,36.133,27.344,37.598,0
151468.444,24.902,38.574,41.504,29.297,37.109,0
151468.448,31.738,41.016,41.504,27.832,65.430,0
151468.452,40.039,39.062,40.039,30.762,52.734,0
151468.456,45.898,36.133,41.016,38.086,43.457,0
151468.460,48.340,35.645,39.551,43.457,51.270,0
151468.464,48.828,39.062,40.527,45.410,44.434,0
151468.467,54.199,43.457,46.387,44.922,15.625,0
151468.471,54.199,39.062,40.527,44.922,28.809,0
151468.475,53.711,40.527,35.645,49.316,22.461,0
151468.479,47.852,45.410,40.039,50.293,16.113,0
151468.483,41.016,40.527,39.062,43.945,39.062,0
151468.486,41.992,34.668,39.062,36.133,20.508,0
151468.490,42.480,35.645,42.969,38.086,11.719,0
151468.494,43.457,38.574,45.410,41.016,6.348,0
151468.498,43.457,38.574,41.992,33.203,34.180,0
151468.502,42.969,38.574,40.527,26.367,34.180,0
151468.506,33.691,39.551,38.574,27.344,38.574,0
151468.510,32.715,41.992,36.133,36.133,71.289,0
151468.514,42.969,42.969,35.645,41.016,70.801,0
151468.529,45.898,39.062,41.992,34.180,42.480,0
151468.533,45.898,38.086,44.922,33.691,24.902,0
151468.537,37.109,36.133,41.016,34.668,15.625,0
151468.541,32.227,32.715,41.504,33.203,46.387,0
151468.545,43.945,33.203,39.062,36.621,80.078,0
151468.549,42.969,40.527,37.598,38.574,47.363,2
151468.553,36.621,44.922,41.016,40.527,56.152,0
151468.557,38.086,41.016,41.504,32.227,77.637,0
151468.561,39.551,40.039,40.527,21.484,67.871,0
151468.565,36.621,38.086,32.715,15.625,56.641,0
151468.569,23.926,35.645,31.250,25.391,18.066,0
151468.572,34.180,37.598,35.645,31.738,28.809,0
151468.575,45.410,41.504,38.086,26.855,20.508,0
151468.579,35.156,41.016,36.133,33.203,-10.254,0
151468.582,29.297,37.109,34.668,37.109,9.277,0
151468.586,34.668,38.574,43.945,40.527,31.738,0
151468.590,40.039,41.016,51.758,42.480,19.531,0
151468.594,45.898,37.109,52.246,44.434,-18.066,0
151468.598,46.387,35.156,45.898,48.828,-20.508,0
151468.602,33.203,35.645,41.504,47.852,21.484,0
151468.606,32.715,34.668,40.527,41.504,53.711,0
151468.610,39.062,38.086,40.527,36.621,41.992,0
151468.614,37.598,40.527,38.086,39.062,2.930,0
151468.618,30.762,37.109,36.621,39.062,-9.766,0
151468.619,21.973,36.133,36.621,34.668,53.223,0
151468.623,22.461,40.039,38.574,32.715,92.285,0
151468.627,30.762,41.016,39.062,32.715,84.473,0
151468.631,30.762,40.039,37.109,40.527,78.613,0
151468.635,34.180,40.527,38.574,40.527,57.617,0
151468.639,35.645,41.016,41.992,33.691,62.012,0
151468.643,35.156,41.504,43.457,34.668,60.547,0
151468.647,38.574,41.016,41.016,36.621,18.555,0
151468.651,37.109,42.480,40.039,41.992,-1.953,0
151468.655,38.086,44.922,42.480,40.039,27.344,0
151468.659,36.133,42.480,35.645,34.668,52.246,0
151468.662,45.898,43.457,31.738,39.551,-0.488,0
151468.665,46.875,45.410,37.598,46.875,-18.555,0
151468.668,29.297,41.504,37.598,48.828,-0.977,0
151468.672,32.715,39.062,35.645,38.086,21.484,0
151468.676,40.527,39.551,29.785,33.203,25.391,0
151468.680,39.062,39.551,27.344,36.133,5.859,0
151468.684,41.992,41.016,36.133,42.969,20.996,0
151468.688,44.434,42.480,37.598,40.039,21.973,0
151468.692,47.363,46.875,34.668,32.715,20.996,0
151468.696,40.039,46.387,24.902,35.156,2.930,0
151468.700,30.762,39.551,19.043,36.621,14.160,0
151468.704,32.227,37.109,28.320,32.715,25.879,0
151468.707,34.668,40.527,37.109,25.879,46.387,0
151468.710,37.109,40.039,41.504,22.461,36.621,0
151468.713,36.133,36.133,38.574,28.320,34.668,0
151468.717,27.344,34.668,36.133,32.227,74.707,0
151468.721,27.832,36.133,38.574,27.832,50.293,0
151468.725,30.273,38.574,38.574,30.762,3.906,0
151468.729,22.461,38.086,34.180,37.109,10.742,0
151468.733,22.949,33.691,30.762,39.551,42.480,0
151468.737,28.320,34.180,34.668,31.250,30.273,0
151468.741,28.809,36.621,33.203,18.066,25.879,0
151468.745,26.367,34.668,30.762,18.555,64.941,0
151468.749,25.879,34.668,34.668,26.367,57.129,0
151468.752,30.273,31.738,31.738,22.949,55.664,0
151468.756,29.297,29.785,30.762,20.996,70.312,0
151468.760,29.785,34.180,32.715,25.879,35.156,0
151468.764,26.855,35.156,28.809,24.902,21.484,0
151468.768,22.461,32.715,28.320,23.926,29.785,0
151468.771,25.391,32.715,37.598,17.090,25.879,0
151468.775,28.320,39.062,38.574,12.207,42.969,0
151468.779,22.949,41.992,34.180,20.508,18.066,0
151468.783,26.855,39.551,37.109,26.367,20.508,0
151468.787,34.180,39.551,39.551,26.855,39.551,0
151468.791,27.832,38.086,36.133,24.902,39.551,0
151468.795,20.508,38.086,33.691,29.785,26.855,0
151468.799,24.902,41.992,33.203,39.551,-13.184,0
151468.800,32.715,44.434,38.086,35.156,22.949,0
151468.803,35.645,42.480,43.945,31.250,42.969,0
151468.807,29.785,44.922,43.945,38.574,39.551,0
151468.811,25.879,43.945,40.527,38.574,85.449,0
151468.815,28.809,36.133,38.574,28.320,75.684,0
151468.819,34.668,33.691,37.109,23.926,26.367,0
151468.823,31.738,38.086,42.480,25.391,-17.090,0
151468.827,16.602,40.039,45.410,23.926,-8.789,0
151468.831,15.137,38.574,40.527,23.926,51.758,0
151468.835,28.320,35.645,41.992,26.367,63.965,0
151468.839,29.785,35.645,42.969,26.855,32.715,0
151468.842,20.508,43.457,42.969,27.832,29.785,0
151468.860,19.531,41.016,43.457,33.691,59.570,0
151468.863,25.879,34.668,39.551,26.855,28.809,0
151468.867,27.832,35.156,40.527,16.113,-19.531,0
151468.871,20.996,36.133,36.133,22.949,-19.531,0
151468.875,25.879,36.621,30.273,31.738,46.875,0
151468.879,40.039,37.598,39.062,27.832,67.871,0
151468.883,37.598,37.598,43.457,26.855,-0.488,0
151468.887,28.809,39.062,40.039,32.227,14.648,0
151468.891,43.457,43.457,41.504,41.504,40.039,0
151468.895,50.781,43.945,42.480,45.898,26.855,0
151468.899,36.133,40.039,42.969,41.504,52.734,0
151468.902,37.598,40.527,43.457,44.922,70.312,0
151468.905,40.527,39.551,41.016,50.293,72.266,0
151468.908,37.109,37.598,39.551,49.805,82.031,0
151468.912,44.434,37.109,37.109,46.875,84.473,0
151468.916,52.246,41.016,36.621,47.363,71.777,0
151468.920,46.875,41.992,42.969,55.176,37.109,0
151468.924,47.852,42.480,48.828,59.570,37.109,0
151468.928,54.688,44.434,44.922,48.340,22.949,0
151468.932,57.617,41.016,41.992,43.945,-17.578,0
151468.936,54.199,41.016,41.992,55.176,19.531,0
151468.940,43.457,41.992,39.551,59.570,51.758,0
151468.944,41.992,36.621,37.109,49.316,38.086,0
151468.947,46.875,37.109,36.133,47.363,62.988,0
151468.950,48.828,42.969,39.551,56.152,55.664,0
151468.953,49.805,45.898,39.062,51.758,71.777,0
151468.957,53.223,46.875,38.086,51.758,97.656,0
151468.961,67.383,47.363,40.039,63.965,71.777,0
151468.965,67.383,48.340,40.039,64.941,37.109,0
151468.969,49.316,48.828,42.969,53.711,54.199,0
151468.973,46.387,44.922,48.828,52.246,97.168,0
151468.977,50.293,39.062,45.898,52.734,68.848,0
151468.981,53.223,42.969,43.457,46.875,13.672,0
151468.985,59.082,48.828,49.316,54.199,20.020,0
151468.989,56.641,44.434,49.316,63.477,70.312,0
151468.992,53.711,42.969,41.992,58.594,83.008,0
151468.995,48.340,45.410,41.016,49.805,50.781,0
151468.998,38.086,44.434,44.434,48.340,57.129,0
151469.002,40.039,42.969,45.898,51.270,71.777,0
151469.006,46.875,45.410,51.758,50.781,80.566,0
151469.010,51.758,45.898,52.246,46.387,106.445,0
151469.014,44.922,40.039,49.805,46.875,99.609,0
151469.018,37.598,40.039,49.316,45.898,70.312,0
151469.022,40.527,42.480,43.457,41.016,84.961,0
151469.026,40.527,42.969,40.527,34.668,63.965,0
151469.030,35.156,45.410,39.062,35.156,38.574,0
151469.034,25.879,41.504,36.621,34.668,25.879,0
151469.038,23.438,41.016,41.016,28.320,31.250,0
151469.039,36.133,40.527,45.410,25.391,54.199,0
151469.043,34.668,39.551,42.480,25.391,29.297,0
151469.047,17.090,38.086,38.086,26.367,13.184,0
151469.051,23.926,37.109,37.598,25.391,6.348,0
151469.055,24.902,35.156,33.691,23.926,3.418,0
151469.059,14.648,31.738,30.762,22.949,30.273,0
151469.063,16.602,35.156,33.691,22.949,56.641,0
151469.067,20.996,36.133,34.180,25.391,44.922,0
151469.071,27.344,36.621,32.715,29.297,24.902,0
151469.075,24.902,40.039,34.668,39.551,26.855,0
151469.079,17.090,37.598,36.133,40.527,20.508,0
151469.082,16.602,35.645,35.645,28.809,43.945,0
151469.085,27.832,37.109,39.551,23.438,81.055,0
151469.088,31.250,35.645,36.133,27.832,72.266,0
151469.092,20.508,35.156,33.203,31.250,44.922,0
151469.096,19.043,35.156,33.203,28.809,32.715,0
151469.100,29.297,35.645,31.250,26.855,14.160,0
151469.104,36.133,37.598,38.574,30.273,11.230,0
151469.108,35.156,36.621,41.504,33.691,9.277,0
151469.112,30.273,34.180,31.738,35.645,-12.207,0
151469.116,34.180,35.645,26.855,36.621,31.738,0
151469.120,40.527,36.621,33.203,40.039,50.293,0
151469.124,44.922,39.062,33.203,35.645,25.391,0
151469.127,41.992,41.504,30.762,36.133,41.504,0
151469.130,32.227,36.133,35.645,37.109,79.590,0
151469.133,32.227,37.109,40.527,41.016,82.031,0
151469.137,39.551,39.551,42.480,34.668,41.504,0
151469.141,37.598,34.668,38.574,27.832,22.949,0
151469.145,27.344,35.156,37.598,36.621,11.230,0
151469.149,33.203,41.016,42.969,37.109,44.434,0
151469.153,41.016,46.387,43.457,33.691,18.066,0
151469.157,37.598,42.480,35.156,37.598,-28.809,0
151469.161,35.645,41.992,32.227,34.180,46.387,0
151469.165,32.715,46.387,38.574,25.879,53.223,0
151469.169,33.691,43.457,41.504,22.461,29.785,0
151469.172,32.715,36.621,38.574,21.484,38.574,0
151469.175,31.738,36.133,36.621,29.297,14.648,0
151469.178,31.738,34.180,35.156,33.203,28.809,0
151469.182,35.645,35.645,35.645,34.668,73.730,0
151469.186,41.504,41.016,38.574,32.227,52.246,0
151469.190,31.250,38.086,34.180,30.273,24.414,0
151469.194,29.785,34.668,34.668,39.062,40.039,0
151469.198,36.133,40.039,42.969,38.574,22.461,0
151469.202,33.691,43.945,48.828,25.879,37.598,0
151469.206,28.809,39.062,46.387,25.391,74.707,0
151469.210,20.996,36.621,39.551,34.180,49.316,1
151469.214,22.461,36.133,38.574,41.504,33.691,0
151469.217,34.180,39.551,41.016,35.645,44.434,0
151469.221,39.062,44.922,44.434,35.645,25.391,0
151469.225,41.016,48.340,41.504,38.086,28.320,0
151469.229,41.504,44.434,38.086,33.691,71.777,0
151469.233,36.621,37.598,35.156,34.668,89.355,0
151469.236,40.039,36.133,34.180,34.180,70.801,0
151469.240,40.527,39.062,34.668,33.203,54.199,0
151469.244,39.551,44.434,38.574,33.203,19.531,0
151469.248,43.457,41.504,43.457,31.250,20.020,0
151469.252,49.805,39.062,47.363,37.109,28.320,0
151469.256,44.922,36.621,40.527,48.340,14.648,0
151469.260,29.785,35.645,32.715,44.434,30.762,0
151469.264,28.320,37.109,36.133,40.039,79.590,0
151469.280,33.691,33.203,34.668,37.598,88.379,0
151469.284,29.297,34.180,35.156,31.250,9.766,0
151469.287,23.438,41.504,39.062,31.250,-14.648,0
151469.291,26.367,41.504,39.551,30.273,22.461,0
151469.295,34.180,36.133,37.109,26.367,48.828,0
151469.299,34.668,34.668,33.691,26.367,38.574,0
151469.303,24.414,32.715,35.645,26.367,32.227,0
151469.307,23.926,32.715,37.109,37.109,65.918,0
151469.311,25.391,36.621,32.227,45.410,52.734,0
151469.315,30.273,39.551,33.203,38.086,32.715,0
151469.319,28.809,38.574,39.062,37.109,44.922,0
151469.323,25.391,37.109,37.598,37.109,60.059,0
151469.325,35.156,38.086,38.086,30.273,78.613,0
151469.328,36.133,39.062,37.109,31.250,43.945,0
151469.332,31.250,37.598,36.621,36.133,27.344,0
151469.336,27.832,34.180,31.738,38.086,24.414,0
151469.340,31.250,38.574,28.320,38.574,17.578,0
151469.344,38.086,39.062,33.691,29.785,3.906,0
151469.348,38.574,37.109,44.434,25.879,-15.137,0
151469.352,32.227,41.992,43.945,32.227,29.297,0
151469.356,32.715,41.016,40.039,37.109,50.781,0
151469.360,38.086,37.598,42.969,32.715,26.367,0
151469.364,33.691,36.133,38.086,24.414,31.250,0
151469.368,40.039,40.039,33.691,30.273,33.691,0
151469.370,42.969,43.457,32.715,32.715,51.758,0
151469.374,30.273,38.574,30.273,24.414,71.777,0
151469.378,25.391,35.645,31.250,27.344,57.617,0
151469.381,28.809,35.645,34.180,29.785,35.156,0
151469.385,37.109,39.062,37.598,33.203,40.039,0
151469.389,43.945,38.086,37.598,32.227,76.660,0
151469.393,44.922,39.062,36.133,23.926,55.176,0
151469.397,47.852,39.062,34.668,32.227,68.848,0
151469.401,40.039,34.668,32.227,38.574,62.500,0
151469.405,33.691,37.598,29.297,33.691,39.062,0
151469.409,40.527,39.062,30.273,33.203,80.078,0
151469.413,50.293,38.574,35.645,34.668,48.828,0
151469.415,41.992,36.133,35.156,38.574,32.715,0
151469.418,36.621,33.691,33.203,40.527,47.852,0
151469.422,43.945,37.109,38.574,40.527,61.035,0
151469.426,47.852,34.668,38.086,43.457,61.523,0
151469.430,45.898,37.109,31.738,47.852,40.039,0
151469.434,43.457,41.992,28.809,47.363,36.133,0
151469.438,40.527,37.109,32.715,36.621,28.809,0
151469.442,39.551,34.668,38.086,32.715,14.160,0
151469.446,35.645,33.203,38.086,35.156,4.883,0
151469.450,35.645,31.250,35.645,34.668,26.855,0
151469.454,39.551,32.715,34.180,39.551,69.824,0
151469.458,44.922,39.062,31.738,42.969,71.777,0
151469.460,48.828,43.457,31.738,42.480,35.645,0
151469.463,39.551,39.062,33.203,42.480,23.926,0
151469.467,35.645,37.109,34.668,42.969,33.203,0
151469.471,39.551,37.598,40.527,42.480,60.059,0
151469.475,41.504,33.691,42.480,32.227,34.668,0
151469.479,41.504,32.715,38.086,33.203,27.832,0
151469.483,39.551,38.574,39.062,39.062,84.473,0
151469.487,39.062,42.969,41.504,29.297,70.801,0
151469.491,41.016,42.480,39.062,15.625,40.527,0
151469.495,39.062,40.039,30.762,17.090,54.199,0
151469.499,35.156,40.527,27.832,30.762,54.688,0
151469.503,40.039,42.480,38.574,33.203,51.270,0
151469.505,38.086,40.039,38.574,31.738,30.762,0
151469.508,32.715,39.062,36.621,33.203,25.879,0
151469.512,29.297,36.133,39.062,33.203,45.410,0
151469.516,23.438,35.156,39.551,28.320,53.711,0
151469.520,26.367,38.574,39.062,26.855,42.480,0
151469.524,33.203,40.527,38.086,39.551,27.832,0
151469.528,35.645,41.504,39.551,44.434,22.461,0
151469.532,36.133,39.062,42.969,37.598,35.645,0
151469.536,39.551,38.574,44.922,38.574,40.527,0
151469.540,38.086,37.598,44.434,34.180,0.000,0
151469.544,31.738,35.156,42.969,36.621,-4.395,0
151469.548,32.715,38.574,41.992,44.434,45.898,0
151469.550,40.527,39.062,41.504,39.551,63.477,0
151469.553,40.527,40.039,41.504,35.645,41.016,0
151469.557,27.344,36.621,38.086,31.250,20.996,0
151469.561,24.902,33.203,29.785,34.180,32.715,0
151469.565,35.645,36.621,34.668,39.062,19.043,0
151469.569,35.645,38.574,41.504,35.645,9.766,0
151469.573,35.156,37.109,41.504,39.062,10.254,0
151469.577,37.598,39.062,41.016,43.457,9.766,0
151469.581,35.156,40.039,43.457,41.016,22.461,0
151469.585,37.109,40.039,45.410,37.598,20.020,0
151469.589,38.086,39.551,38.086,38.086,5.859,0
151469.592,31.738,39.062,25.879,35.645,5.859,0
151469.610,35.645,38.086,31.250,36.621,54.199,0
151469.613,44.922,36.133,39.062,32.715,83.008,0
151469.617,45.898,40.039,33.691,31.738,55.176,0
151469.621,37.109,41.016,35.645,42.969,13.672,0
151469.625,27.832,36.133,41.992,50.293,35.645,0
151469.629,37.598,35.156,43.457,50.781,38.574,0
151469.633,46.387,36.621,43.457,45.410,0.000,0
151469.637,40.527,36.133,36.621,41.016,4.883,0
151469.641,41.016,39.062,37.598,44.922,24.414,0
151469.645,48.340,43.457,47.363,43.457,65.430,0
151469.649,50.293,42.480,45.898,40.527,67.871,0
151469.653,40.039,34.180,38.086,39.062,44.922,0
151469.655,36.621,29.785,34.180,37.109,40.527,0
151469.658,44.922,34.668,35.156,43.457,25.879,0
151469.662,48.828,35.645,35.645,39.062,30.762,0
151469.666,42.969,31.250,31.738,30.273,41.992,0
151469.670,31.250,26.367,22.949,30.762,1.953,0
151469.674,24.414,24.902,23.438,32.227,17.578,0
151469.678,30.273,24.414,40.039,32.227,7.812,0
151469.682,39.551,31.738,46.387,29.297,-10.254,0
151469.686,34.668,36.621,40.039,34.668,35.156,0
151469.690,28.809,30.273,38.574,41.016,18.555,0
151469.694,28.320,27.344,36.621,38.086,14.648,0
151469.698,35.156,31.738,34.180,35.156,9.766,0
151469.699,39.062,37.109,36.621,44.434,-21.973,0
151469.703,38.086,37.109,39.551,52.246,4.395,0
151469.707,39.551,36.621,40.039,41.504,47.363,0
151469.711,40.527,41.504,38.086,34.180,48.340,0
151469.715,33.203,42.480,32.715,37.598,53.223,0
151469.719,30.762,42.480,32.715,40.527,82.520,0
151469.723,41.992,43.945,36.133,40.039,85.449,0
151469.727,35.645,39.551,35.156,28.320,55.664,0
151469.731,32.715,38.574,34.668,28.809,-19.531,0
151469.735,37.598,42.480,32.227,36.621,-46.875,0
151469.739,35.645,41.992,31.738,41.504,17.090,0
151469.742,44.434,39.062,40.039,48.340,62.988,0
151469.746,48.828,34.668,39.551,43.457,58.105,0
151469.750,45.898,35.645,38.086,42.480,52.734,0
151469.754,49.316,41.016,40.039,42.480,50.781,0
151469.758,54.199,39.062,34.668,44.434,82.520,0
151469.761,48.828,36.133,28.320,39.062,69.824,0
151469.765,39.551,33.203,25.391,31.250,6.836,0
151469.769,38.574,34.668,28.320,36.133,-3.418,0
151469.773,45.410,39.551,36.621,44.434,24.414,0
151469.777,55.664,41.992,39.062,46.387,7.324,0
151469.781,46.875,39.062,35.645,41.504,-36.621,0
151469.785,32.715,37.598,35.156,37.109,3.906,0
151469.789,34.668,34.668,35.156,38.086,30.273,0
151469.790,39.062,29.785,35.645,40.039,15.625,0
151469.793,40.527,30.273,39.551,39.551,11.230,0
151469.797,35.645,30.762,37.109,33.691,2.930,0
151469.801,40.039,34.668,29.785,36.621,41.992,0
151469.805,45.410,39.062,30.762,34.668,43.945,0
151469.809,47.363,38.574,41.016,32.715,2.930,0
151469.813,41.504,37.109,35.645,36.133,28.320,0
151469.817,32.715,38.086,27.832,39.062,41.504,0
151469.821,37.598,40.527,36.133,34.668,19.043,0
151469.825,41.016,41.504,39.551,22.461,24.902,0
151469.829,37.598,41.992,34.180,24.902,22.461,0
151469.832,31.738,39.062,26.855,30.762,24.902,0
151469.835,30.762,37.598,27.832,27.344,43.945,0
151469.838,36.621,38.574,37.598,24.902,39.062,0
151469.842,33.691,38.574,41.992,26.367,11.230,0
151469.846,30.762,34.668,35.645,29.785,25.879,0
151469.850,36.133,32.715,34.668,40.039,67.383,0
151469.854,31.250,32.715,37.109,34.180,72.754,0
151469.858,25.879,36.133,36.621,27.344,40.039,0
151469.862,29.297,42.480,31.250,33.691,13.184,0
151469.866,32.715,43.457,25.391,33.691,30.273,0
151469.870,36.621,38.574,31.250,36.621,48.828,0
151469.874,41.992,33.203,36.621,42.969,32.715,0
151469.877,41.016,33.691,41.016,40.039,-21.973,0
151469.880,36.621,36.133,42.969,36.621,-3.906,0
151469.883,41.016,38.574,38.086,36.621,-0.977,0
151469.887,52.734,41.016,31.738,35.645,-42.480,0
151469.891,47.852,37.109,28.320,31.250,-38.574,0
151469.895,37.598,35.645,24.414,35.156,33.203,0
151469.899,40.527,38.086,24.902,39.062,87.402,0
151469.903,43.945,36.133,35.645,26.855,51.758,1
151469.907,45.898,33.691,33.203,31.738,22.461,0
151469.911,39.062,35.645,29.297,46.387,52.734,0
151469.915,31.738,35.156,36.621,41.992,63.477,0
151469.919,31.250,33.691,41.016,30.762,42.969,0
151469.922,34.180,33.203,38.574,30.762,37.109,0
151469.924,28.809,31.250,32.715,38.574,20.996,0
151469.928,29.785,31.738,35.645,41.992,40.527,0
151469.932,36.621,32.715,37.598,39.551,77.637,0
151469.936,42.969,34.180,38.086,37.598,37.598,0
151469.940,45.410,35.645,39.551,38.574,20.508,0
151469.944,38.086,33.691,38.086,44.434,32.227,0
151469.948,41.504,31.738,42.969,42.480,29.785,0
151469.952,40.527,33.203,44.434,34.180,39.062,0
151469.956,37.598,33.203,37.598,35.156,34.668,0
151469.960,40.039,36.133,35.156,41.504,27.344,0
151469.964,36.133,36.133,37.109,43.457,38.086,0
151469.967,41.016,34.180,45.898,43.945,38.086,0
151469.971,38.574,36.133,47.852,42.969,57.129,0
151469.975,36.621,38.574,41.992,43.945,42.969,0
151469.979,41.992,36.621,41.016,45.410,50.293,0
151469.983,46.875,37.598,41.504,39.551,55.664,0
151469.987,47.852,41.504,41.016,24.414,8.301,0
151469.991,39.551,41.016,42.969,18.066,-9.766,0
151469.995,37.598,41.504,39.062,32.227,36.621,0
151469.999,41.504,41.504,28.809,36.621,80.078,0
151470.003,39.062,40.039,29.297,27.344,54.688,0
151470.007,31.738,40.527,28.809,31.250,34.180,0
151470.011,29.785,37.109,28.320,38.086,73.730,0
151470.014,31.738,36.133,33.203,36.621,101.074,0
151470.030,33.203,40.527,32.715,31.738,73.242,0
151470.033,31.250,38.574,28.809,30.762,32.227,0
151470.037,30.762,34.668,27.344,35.645,28.809,0
151470.041,36.621,38.086,24.414,41.504,31.250,0
151470.045,41.016,38.574,24.414,41.016,-16.602,0
151470.049,42.480,39.062,30.273,36.133,-67.383,0
151470.053,39.551,40.039,35.645,38.086,-10.742,0
151470.057,38.086,41.992,38.086,51.270,51.758,0
151470.061,37.109,43.945,37.598,48.828,47.852,0
151470.065,40.039,41.016,34.180,36.621,51.758,0
151470.069,43.457,41.504,30.273,38.574,20.508,0
151470.072,40.527,46.875,34.180,37.598,-2.441,0
151470.075,35.645,43.457,37.109,36.133,57.617,0
151470.078,37.109,42.969,36.133,35.156,78.125,0
151470.082,40.039,46.875,39.551,34.180,57.617,0
151470.086,41.016,44.434,41.992,41.992,45.898,0
151470.090,38.574,42.480,42.480,37.598,42.969,0
151470.094,39.551,40.039,39.062,34.668,40.527,0
151470.098,40.527,41.016,31.738,37.598,44.434,0
151470.102,32.715,40.039,33.203,35.645,72.266,0
151470.106,32.227,35.645,38.574,39.062,96.680,0
151470.110,34.668,33.203,38.574,36.621,80.078,0
151470.114,41.992,38.086,41.992,39.551,64.453,0
151470.118,43.945,41.016,38.086,42.969,52.246,0
151470.119,31.738,36.133,28.320,38.086,82.520,0
151470.123,23.926,35.156,26.855,41.016,95.703,0
151470.127,30.273,32.715,31.250,36.621,69.336,0
151470.131,34.668,37.109,36.621,31.250,32.227,0
151470.135,29.297,40.527,41.016,37.109,40.039,0
151470.139,33.203,37.109,34.668,38.086,56.152,0
151470.143,38.574,34.180,30.762,34.668,19.043,0
151470.147,36.133,32.715,30.273,30.273,16.113,0
151470.151,40.527,35.645,31.738,29.785,28.320,0
151470.155,38.086,37.109,31.738,30.273,28.809,0
151470.159,29.785,35.645,28.320,22.461,32.227,0
151470.162,27.344,34.668,36.133,20.996,17.090,0
151470.164,24.902,34.180,41.992,20.020,-5.859,0
151470.168,36.133,39.062,41.992,21.484,27.344,0
151470.172,47.363,41.992,38.086,26.367,48.828,0
151470.176,56.152,40.039,38.086,23.926,26.367,0
151470.180,55.176,39.551,34.180,29.297,31.250,0
151470.184,46.387,41.016,32.227,32.227,57.129,0
151470.188,52.734,39.551,34.668,31.250,62.012,0
151470.192,58.105,38.086,29.297,31.250,-0.488,0
151470.196,54.199,40.527,32.227,27.832,-41.504,0
151470.200,50.293,41.016,40.527,39.062,7.812,0
151470.204,50.293,38.574,44.434,46.387,42.480,0
151470.207,51.758,40.039,42.969,41.504,49.805,0
151470.211,47.363,40.527,40.039,47.852,35.156,0
151470.215,43.457,41.504,38.574,51.758,32.227,0
151470.219,39.551,39.062,36.621,46.875,88.867,0
151470.223,43.457,38.086,33.691,48.828,65.918,0
151470.226,51.270,40.527,33.203,39.551,35.645,0
151470.230,52.246,38.574,38.574,36.133,40.039,0
151470.234,52.734,37.598,41.504,41.992,50.293,0
151470.238,46.875,40.527,39.062,38.086,23.438,0
151470.242,45.410,39.062,38.574,37.598,-26.855,0
151470.246,46.387,34.180,38.574,32.715,-6.348,0
151470.250,43.945,34.180,40.039,31.250,34.180,0
151470.254,50.781,35.156,37.598,36.133,69.824,0
151470.255,58.594,38.086,27.344,40.527,59.082,0
151470.258,54.688,42.480,27.344,47.363,10.254,0
151470.262,46.875,39.551,31.738,53.223,11.230,0
151470.266,46.875,34.668,34.180,52.734,79.102,0
151470.270,48.340,34.668,37.598,49.316,69.336,0
151470.274,49.805,35.156,42.480,53.223,-1.465,0
151470.278,41.016,32.715,46.387,49.316,35.156,0
151470.282,42.969,30.273,43.457,38.574,54.199,0
151470.286,55.176,33.203,39.551,34.180,24.902,0
151470.290,51.270,38.086,38.086,37.598,43.945,0
151470.294,46.387,35.645,34.180,45.410,20.508,0
151470.298,49.316,37.109,33.691,49.316,-2.441,0
151470.299,57.129,42.969,39.551,46.387,31.738,0
151470.303,62.012,43.457,40.527,44.922,25.391,0
151470.307,52.246,40.039,34.180,41.504,-20.508,0
151470.311,46.387,43.457,30.273,34.668,-15.625,0
151470.315,51.758,45.898,38.086,38.086,10.254,0
151470.319,52.246,43.945,43.457,38.086,-10.742,0
151470.323,43.457,43.457,32.715,31.250,-30.273,0
151470.327,37.598,38.574,21.484,32.227,-2.441,0
151470.331,46.875,37.598,28.320,35.156,88.379,0
151470.335,50.781,37.598,33.203,31.250,89.844,0
151470.339,48.340,35.156,31.250,31.250,39.062,0
151470.342,42.480,32.715,34.668,37.109,55.176,0
151470.344,36.621,30.273,33.691,35.156,73.730,0
151470.348,43.945,38.574,35.645,31.250,44.922,0
151470.352,40.039,42.969,35.156,40.039,2.930,0
151470.356,34.668,37.109,31.250,44.434,2.930,0
151470.360,41.016,35.645,33.203,38.574,31.738,0
151470.364,38.574,35.645,32.227,37.598,24.902,0
151470.368,36.621,37.109,30.762,34.668,-39.062,0
151470.372,47.363,39.062,33.691,38.086,-30.273,0
151470.376,53.223,39.551,41.016,38.574,25.879,0
151470.380,48.340,37.598,43.945,35.645,39.062,0
151470.384,43.945,36.133,39.062,34.180,-5.859,0
151470.387,50.781,37.109,36.621,32.227,-19.531,0
151470.405,49.316,37.109,40.527,37.109,57.129,0
151470.408,43.457,36.133,36.621,35.156,97.656,0
151470.412,46.387,39.062,34.180,32.715,61.035,0
151470.416,44.922,38.574,34.668,35.645,39.551,0
151470.420,40.039,35.645,34.180,35.156,23.438,0
151470.424,44.922,38.086,38.086,30.762,28.809,0
151470.428,48.828,38.086,39.062,26.855,50.293,0
151470.432,43.457,36.133,38.574,27.832,41.992,0
151470.436,39.062,36.621,34.180,30.762,45.410,0
151470.440,40.039,34.668,31.250,33.203,63.477,0
151470.444,43.457,34.180,36.621,35.156,57.129,0
151470.448,48.828,32.715,40.039,39.062,28.809,0
151470.450,50.781,27.832,36.621,42.969,10.742,0
151470.453,48.340,29.785,35.645,38.086,34.180,0
151470.457,53.711,32.715,38.574,33.691,57.617,0
151470.461,51.270,32.227,41.504,30.273,58.105,0
151470.465,41.016,35.645,42.480,32.227,39.551,0
151470.469,40.527,39.062,40.039,45.898,3.418,0
151470.473,46.387,36.133,38.086,54.199,17.578,2
151470.477,46.387,34.668,40.527,42.480,74.219,0
151470.481,47.852,40.039,46.387,36.133,31.738,0
151470.485,53.711,41.504,44.922,39.062,-20.020,0
151470.489,50.293,34.668,37.109,40.039,51.758,0
151470.492,49.316,32.227,39.551,47.852,63.477,0
151470.495,58.594,34.668,38.086,52.246,39.551,0
151470.498,48.828,35.156,35.645,41.016,48.828,0
151470.502,35.645,33.691,38.574,33.691,51.758,0
151470.506,43.457,34.668,33.691,32.715,64.453,0
151470.510,48.340,37.598,32.715,32.715,41.992,0
151470.514,47.363,38.086,35.645,36.621,10.254,0
151470.518,41.016,38.086,34.668,40.039,25.391,0
151470.522,38.574,40.039,35.156,45.898,55.664,0
151470.526,43.457,43.457,34.668,48.340,53.223,0
151470.530,38.574,41.992,37.109,38.574,34.668,0
151470.534,34.668,42.969,36.621,36.621,42.969,0
151470.538,51.758,49.805,38.086,41.992,60.547,0
151470.540,52.734,47.363,42.969,39.551,83.984,0
151470.544,47.852,42.969,42.480,29.785,108.887,0
151470.548,58.105,45.898,41.016,41.504,85.449,0
151470.552,54.688,45.898,39.062,49.316,59.570,0
151470.555,43.945,41.016,40.527,44.922,83.984,0
151470.559,38.086,38.574,36.621,46.387,60.547,0
151470.563,35.156,38.086,24.902,39.062,52.246,0
151470.567,35.156,35.645,30.273,30.273,79.590,0
151470.571,41.504,36.621,40.527,36.133,60.059,0
151470.575,38.086,37.598,38.086,35.645,23.926,0
151470.579,29.785,33.691,34.180,32.227,5.859,0
151470.583,34.668,33.691,35.156,41.504,53.223,0
151470.585,43.945,38.086,35.156,45.410,62.500,0
151470.588,47.363,41.016,36.621,44.922,46.875,0
151470.592,46.387,39.551,36.621,42.969,47.852,0
151470.596,43.457,38.086,34.180,39.551,22.949,0
151470.600,51.758,39.062,37.598,43.457,23.926,0
151470.604,52.734,40.527,44.434,53.223,38.086,0
151470.608,45.898,41.992,46.387,49.805,28.320,0
151470.612,45.898,43.945,48.340,43.945,11.719,0
151470.616,46.387,45.410,47.852,43.457,29.297,0
151470.620,53.223,43.945,43.457,38.086,68.359,0
151470.624,52.734,43.945,40.039,41.016,26.855,0
151470.628,43.457,43.945,34.668,44.922,-15.137,0
151470.629,40.527,41.504,37.109,45.898,28.320,0
151470.633,42.969,39.062,32.715,37.598,33.203,0
151470.637,52.734,40.039,30.273,31.738,25.391,0
151470.641,44.922,42.480,39.062,38.086,45.410,0
151470.645,27.832,40.527,46.387,40.527,59.570,0
151470.649,37.109,44.434,46.875,38.574,64.453,0
151470.653,50.293,51.270,41.504,38.086,52.246,0
151470.657,46.875,43.457,37.109,38.086,15.137,0
151470.661,39.551,37.598,32.227,35.645,18.555,0
151470.665,33.691,42.969,35.645,38.574,37.109,0
151470.669,31.738,41.992,39.062,32.227,65.430,0
151470.672,36.133,38.574,41.016,30.273,67.871,0
151470.676,28.809,37.598,39.062,28.320,23.438,0
151470.680,25.391,37.109,40.527,26.855,48.340,0
151470.684,29.785,40.039,44.922,26.367,75.195,0
151470.688,30.273,41.992,38.086,22.949,60.059,0
151470.691,26.855,32.715,35.156,29.785,29.297,0
151470.695,22.949,26.855,38.086,31.250,7.812,0
151470.699,24.902,32.715,41.504,24.414,-18.066,0
151470.703,23.926,32.715,41.016,16.602,-35.156,0
151470.707,23.926,34.180,35.156,16.113,-7.812,0
151470.711,29.297,35.156,35.645,22.949,20.508,0
151470.715,35.645,31.250,38.574,30.762,26.855,0
151470.719,39.062,32.715,38.574,26.367,41.016,0
151470.735,42.480,34.668,38.574,21.484,63.477,0
151470.739,41.504,35.645,34.668,32.715,24.902,0
151470.742,38.574,38.574,33.203,38.574,20.996,0
151470.746,47.363,38.086,36.621,35.156,28.809,0
151470.750,53.223,37.598,33.203,36.133,7.324,0
151470.754,42.969,36.621,31.738,40.039,48.340,0
151470.758,34.180,34.668,39.062,41.504,45.410,0
151470.762,38.574,33.203,44.434,37.598,2.441,0
151470.766,42.969,33.691,43.457,33.203,5.859,0
151470.770,32.715,34.180,43.457,34.180,17.578,0
151470.774,26.855,33.203,41.016,42.969,34.668,0
151470.778,30.273,34.668,38.574,45.410,23.438,0
151470.780,32.227,35.156,39.062,40.039,18.066,0
151470.784,36.133,36.621,40.527,37.109,9.766,0
151470.788,34.668,35.645,41.504,42.480,39.062,0
151470.792,37.109,34.180,41.504,49.316,85.449,0
151470.796,38.574,35.645,41.992,45.410,69.824,0
151470.800,41.016,36.133,40.527,41.992,27.832,0
151470.803,43.945,38.574,41.992,38.574,48.828,0
151470.807,41.992,39.551,41.992,39.551,82.520,0
151470.811,41.992,39.062,41.504,40.527,63.477,0
151470.815,41.016,40.039,43.945,35.645,1.465,0
151470.819,42.480,36.133,46.387,38.574,-6.836,0
151470.823,41.992,35.645,47.363,52.734,59.082,0
151470.825,42.480,39.062,44.434,50.781,35.645,0
151470.829,42.969,33.203,41.504,48.340,14.648,0
151470.833,41.504,33.691,40.039,47.852,33.203,0
151470.837,40.039,37.598,37.598,39.062,42.480,0
151470.841,43.945,35.156,40.039,38.086,62.012,0
151470.844,41.016,35.156,42.969,47.363,54.199,0
151470.848,37.598,37.598,41.992,55.664,-1.465,0
151470.852,34.668,41.016,45.898,47.852,25.879,0
151470.856,35.156,44.922,47.363,40.527,69.336,0
151470.860,43.945,44.922,47.852,36.621,7.812,0
151470.864,39.551,43.945,50.293,30.273,-10.254,0
151470.868,38.086,41.992,45.898,33.203,28.320,0
151470.870,43.945,39.062,34.668,40.039,39.062,0
151470.873,43.457,37.598,30.273,39.551,35.156,0
151470.877,42.969,38.574,34.180,40.039,41.016,0
151470.881,40.039,39.551,36.133,43.457,40.039,0
151470.885,41.504,41.992,39.551,39.551,11.719,0
151470.889,51.758,43.457,43.945,32.227,39.062,0
151470.893,57.617,40.527,40.039,27.832,51.270,0
151470.897,46.875,41.016,39.551,30.762,16.113,0
151470.901,45.410,42.480,42.969,39.551,1.953,0
151470.905,49.316,39.551,41.016,37.109,35.156,0
151470.909,51.270,41.016,44.922,29.785,83.008,0
151470.912,50.781,43.457,46.387,35.156,55.176,0
151470.917,39.062,42.480,44.434,37.598,56.152,0
151470.921,32.715,41.992,41.016,38.086,87.402,0
151470.924,37.109,41.992,41.504,33.203,64.453,0
151470.928,40.527,41.016,45.410,31.250,50.781,0
151470.932,40.039,40.039,44.434,41.016,47.363,0
151470.936,45.898,41.992,44.434,44.922,44.434,0
151470.940,50.293,42.969,42.480,40.039,111.328,0
151470.944,47.852,37.109,40.039,29.297,64.941,0
151470.948,45.898,36.621,43.945,29.785,-11.719,0
151470.952,44.922,38.574,44.922,38.574,44.434,0
151470.956,46.387,40.039,41.992,36.133,61.035,0
151470.960,46.387,40.527,39.551,39.062,59.082,0
151470.961,45.898,38.086,38.574,41.992,76.172,0
151470.965,38.086,35.156,35.156,35.645,62.988,0
151470.969,39.551,32.715,37.109,37.598,63.477,0
151470.973,56.152,39.062,44.434,27.832,55.176,0
151470.976,52.734,42.480,42.480,22.461,7.812,1
151470.980,38.574,34.668,39.062,31.250,-22.949,0
151470.984,40.039,34.180,37.109,34.180,5.859,0
151470.988,49.805,39.551,37.109,25.391,11.719,0
151470.992,43.945,39.551,38.574,24.414,-18.555,0
151470.996,27.344,37.109,37.109,32.227,-11.719,0
151471.000,30.273,37.598,39.062,35.645,45.898,0
151471.004,36.133,36.133,40.527,28.320,69.824,0
151471.005,34.668,34.668,38.086,23.926,58.105,0
151471.009,30.273,35.156,35.156,26.367,46.875,0
151471.012,25.879,33.203,35.645,30.762,44.922,0
151471.016,23.926,32.715,38.086,31.738,73.730,0
151471.020,25.879,36.621,38.086,27.344,70.312,0
151471.024,25.391,37.598,40.039,24.414,23.926,0
151471.028,22.949,36.621,41.016,26.855,20.508,0
151471.032,23.438,39.551,36.621,26.855,22.461,0
151471.036,30.273,36.621,31.738,20.996,53.711,0
151471.040,34.668,32.715,30.273,19.043,47.363,0
151471.044,24.902,35.645,30.762,21.973,15.137,0
151471.048,22.461,34.180,33.691,24.414,35.645,0
151471.050,31.738,33.203,40.039,27.832,50.293,0
151471.053,36.133,41.992,42.480,32.227,42.480,0
151471.057,38.086,42.480,42.480,33.691,22.949,0
151471.061,41.016,38.574,44.434,35.156,15.137,0
151471.065,42.480,39.551,46.387,32.715,32.227,0
151471.069,46.387,40.527,44.434,32.715,41.016,0
151471.073,52.734,39.551,41.992,35.156,49.316,0
151471.077,45.898,37.598,38.086,37.598,35.645,0
151471.081,32.715,36.621,36.133,41.992,33.691,0
151471.085,34.180,34.668,42.969,39.551,35.645,0
151471.089,30.762,33.691,48.340,32.227,1.953,0
151471.092,28.320,35.645,48.340,30.762,8.301,0
151471.095,35.645,32.715,45.410,30.762,60.547,0
151471.098,38.574,24.902,44.434,35.645,73.730,0
151471.102,39.551,25.879,41.016,34.180,57.617,0
151471.106,38.574,34.668,35.645,35.156,36.133,0
151471.110,39.062,38.086,34.180,43.457,76.172,0
151471.114,40.527,35.645,39.551,45.410,85.938,0
151471.118,45.410,38.574,41.016,41.504,35.645,0
151471.122,49.316,42.480,37.109,42.480,32.227,0
151471.126,46.875,41.992,40.527,50.293,49.805,0
151471.130,44.434,39.551,43.457,43.457,70.801,0
151471.134,52.246,40.527,43.945,42.480,92.773,0
151471.137,46.387,36.621,43.945,51.758,62.012,0
151471.155,35.156,33.203,43.945,47.363,37.109,0
151471.158,40.527,35.156,40.039,43.945,71.289,0
151471.162,42.969,35.156,36.621,38.574,108.887,0
151471.166,42.480,34.180,37.109,33.691,94.727,0
151471.170,42.969,36.133,39.551,36.133,31.738,0
151471.174,43.457,35.645,41.992,40.527,36.133,0
151471.178,47.363,34.180,41.016,40.039,58.105,0
151471.182,51.758,40.527,41.504,41.992,21.973,0
151471.186,50.293,36.133,40.039,41.992,26.855,0
151471.190,45.410,29.785,34.180,39.062,24.902,0
151471.194,46.875,28.320,42.480,32.715,24.902,0
151471.198,51.270,27.344,52.246,35.156,53.223,0
151471.200,42.969,30.762,49.316,38.086,31.250,0
151471.203,37.598,32.227,43.945,34.180,0.000,0
151471.207,37.598,31.738,41.016,32.715,11.230,0
151471.211,30.762,34.180,45.410,37.598,32.227,0
151471.215,28.809,33.203,43.457,37.109,2.441,0
151471.219,34.180,31.738,39.062,27.344,-10.254,0
151471.223,35.645,33.203,38.086,24.414,3.906,0
151471.227,34.668,32.715,30.762,20.996,36.133,0
151471.231,41.992,34.180,26.367,27.832,24.414,0
151471.235,42.480,35.645,32.715,35.645,-43.457,0
151471.239,42.969,32.715,39.062,37.109,14.648,0
151471.242,49.805,33.203,40.039,45.898,61.523,0
151471.245,53.223,35.156,40.527,49.316,19.043,0
151471.248,51.758,37.598,40.039,42.969,11.230,0
151471.252,51.758,41.504,38.086,50.781,54.688,0
151471.256,55.664,43.945,37.598,62.988,82.520,0
151471.260,58.594,47.852,33.691,50.293,76.660,0
151471.264,57.617,47.852,38.086,46.875,23.438,0
151471.268,46.875,42.480,45.410,56.152,19.531,0
151471.272,49.316,42.969,45.410,50.781,63.477,0
151471.276,54.688,47.363,49.805,49.805,31.250,0
151471.280,52.246,52.246,52.246,59.082,11.719,0
151471.284,52.246,54.688,53.711,59.570,40.039,0
151471.288,60.059,51.270,53.711,54.199,47.852,0
151471.290,59.570,50.781,42.969,55.664,52.734,0
151471.293,53.711,49.316,33.691,54.199,57.129,0
151471.297,51.270,45.410,33.691,48.828,61.035,0
151471.301,53.223,45.410,38.086,49.805,52.246,0
151471.305,60.547,43.457,42.969,50.781,25.391,0
151471.309,55.176,39.062,47.852,48.828,10.254,0
151471.313,52.246,41.016,52.246,53.223,31.250,0
151471.317,56.152,44.434,54.199,56.152,44.434,0
151471.321,47.852,45.898,48.828,51.270,3.906,0
151471.325,42.480,42.480,40.527,50.293,-13.184,0
151471.329,37.598,37.598,41.992,45.410,20.508,0
151471.332,32.227,38.574,48.340,45.410,13.184,0
151471.335,31.738,35.156,43.945,43.457,8.789,0
151471.338,34.668,34.180,37.598,34.180,38.086,0
151471.342,36.133,40.527,34.668,27.344,45.410,0
151471.346,36.621,39.062,33.203,30.273,44.922,0
151471.350,35.645,35.156,37.109,32.715,20.020,0
151471.354,34.180,36.621,36.621,26.367,13.672,0
151471.358,36.133,39.062,31.738,31.250,33.203,0
151471.362,36.133,41.016,35.645,37.598,25.879,0
151471.366,40.039,41.016,41.016,36.621,59.570,0
151471.370,48.340,41.504,42.480,40.527,81.543,0
151471.374,45.410,42.480,44.434,42.480,36.133,0
151471.377,41.016,39.551,43.457,39.062,21.484,0
151471.379,42.480,39.062,35.156,43.945,25.391,0
151471.383,44.434,41.504,31.738,47.852,53.223,0
151471.387,49.805,39.062,38.086,41.016,42.480,0
151471.391,47.363,35.156,44.434,32.715,21.484,0
151471.395,28.320,37.598,50.781,35.156,26.367,0
151471.399,27.344,39.551,50.293,34.668,83.984,0
151471.403,38.574,37.109,41.992,25.879,82.031,0
151471.407,45.410,32.227,32.227,18.555,0.488,0
151471.411,43.457,29.297,28.809,17.578,12.207,0
151471.415,30.273,30.273,33.691,24.414,46.387,0
151471.419,27.344,30.762,43.457,31.250,30.273,0
151471.422,29.785,29.297,46.875,32.715,22.949,0
151471.426,23.438,29.297,41.504,34.668,32.227,0
151471.430,23.438,32.227,37.109,46.387,49.805,0
151471.434,22.949,30.762,38.086,41.504,64.453,0
151471.438,20.508,33.691,35.156,28.320,34.668,0
151471.441,26.855,36.621,33.203,28.320,45.898,0
151471.445,22.949,31.738,34.668,34.668,40.527,0
151471.449,22.461,32.227,33.691,28.809,37.109,0
151471.453,30.273,35.156,36.133,15.137,52.734,0
151471.457,30.762,39.062,41.016,21.484,52.734,0
151471.461,37.598,43.457,41.016,29.785,74.707,0
151471.465,31.250,41.504,37.598,32.715,86.426,0
151471.469,28.809,39.551,37.109,32.227,60.547,0
151471.470,29.297,38.086,37.598,25.879,52.734,0
151471.473,25.879,37.598,37.598,25.879,24.414,0
151471.477,34.180,41.016,39.062,27.832,47.852,0
151471.481,37.109,45.410,41.504,32.715,71.777,0
151471.485,30.273,41.992,39.062,32.715,15.625,0
151471.489,30.273,35.156,39.062,30.273,19.043,0
151471.493,36.621,39.062,43.945,32.715,-2.441,0
151471.497,35.156,43.457,41.992,26.855,37.598,0
151471.501,41.016,37.598,38.086,21.973,97.656,0
151471.505,42.480,34.180,39.062,23.926,83.496,0
151471.509,28.320,35.645,41.016,29.785,70.312,0
151471.512,28.809,39.062,36.621,34.180,78.125,0
151471.530,39.551,38.574,33.691,29.297,61.523,1
151471.533,47.852,42.480,43.457,33.203,25.879,0
151471.537,52.246,48.340,46.387,39.551,12.695,0
151471.541,53.223,44.922,39.551,40.039,31.250,0
151471.545,44.922,42.969,39.062,38.574,42.969,0
151471.549,39.551,41.016,40.039,37.109,20.508,0
151471.553,41.016,40.527,39.062,34.180,14.160,0
151471.557,38.086,41.992,40.039,38.574,19.531,0
151471.561,41.016,41.992,40.527,41.016,28.809,0
151471.565,43.945,41.016,38.086,32.715,26.367,0
151471.569,34.180,37.598,31.738,30.762,21.484,0
151471.572,33.691,36.133,36.621,38.086,48.340,0
151471.575,40.039,38.574,40.039,40.527,73.242,0
151471.579,41.016,38.086,40.039,35.156,39.551,0
151471.582,36.621,36.621,37.598,30.762,7.812,0
151471.586,35.156,35.156,38.574,33.203,13.672,0
151471.590,41.016,33.203,40.039,36.133,53.711,0
151471.594,39.551,31.738,30.273,31.738,51.270,0
151471.598,36.621,38.574,28.809,28.809,41.504,0
151471.602,41.016,42.480,29.785,32.715,48.340,0
151471.606,41.016,44.434,29.297,33.203,43.945,0
151471.610,41.016,45.898,37.109,25.391,31.738,0
151471.614,41.992,42.969,39.551,27.832,55.664,0
151471.618,35.156,42.480,36.133,31.738,62.500,0
151471.620,34.180,44.434,38.086,34.180,36.621,0
151471.623,41.504,49.316,36.621,34.668,47.363,0
151471.627,45.410,48.340,33.203,37.109,56.641,0
151471.631,41.992,40.527,33.203,43.457,32.715,0
151471.635,34.180,39.551,36.133,45.410,20.020,0
151471.639,28.809,39.062,36.621,39.551,13.184,0
151471.643,27.344,33.691,33.203,26.367,1.465,0
151471.647,24.414,34.180,32.227,19.531,0.977,0
151471.651,23.438,36.621,34.668,20.508,-29.785,0
151471.655,20.996,33.691,36.133,22.949,4.395,0
151471.659,19.531,30.273,34.180,22.461,53.223,0
151471.662,26.367,34.668,31.738,22.949,49.805,0
151471.665,34.180,37.109,30.273,29.297,59.082,0
151471.668,31.738,42.480,36.133,40.039,60.547,0
151471.672,31.738,45.898,40.527,44.434,55.176,0
151471.676,31.738,38.086,40.527,28.809,20.996,0
151471.680,24.414,35.156,40.039,18.555,2.441,0
151471.684,26.367,34.668,35.645,24.902,35.156,0
151471.688,32.715,36.621,34.668,30.762,63.477,0
151471.692,34.668,37.109,42.480,35.645,29.785,0
151471.696,32.227,35.645,45.898,38.086,-1.465,0
151471.700,33.203,41.992,41.992,41.016,56.152,0
151471.704,38.086,48.828,37.598,36.133,40.527,0
151471.707,39.062,43.945,34.180,26.367,14.648,0
151471.709,39.062,36.133,38.086,26.855,26.367,0
151471.713,32.227,30.762,40.039,28.320,36.621,0
151471.717,26.367,30.273,41.016,30.273,37.109,0
151471.721,30.762,31.250,43.945,29.785,15.137,0
151471.725,31.738,32.227,41.992,24.902,1.465,0
151471.729,34.180,34.180,41.504,25.879,-8.789,0
151471.733,31.250,36.621,41.504,33.691,-0.977,0
151471.737,27.344,38.574,35.156,34.668,-9.277,0
151471.741,31.250,38.086,33.691,28.320,11.230,0
151471.745,25.391,34.180,38.086,29.297,23.926,0
151471.749,25.879,29.785,37.598,38.574,15.137,0
151471.752,34.668,31.738,38.574,34.180,50.293,0
151471.755,41.016,36.621,42.969,26.367,37.109,0
151471.758,38.574,37.109,42.480,32.715,21.484,0
