timestamps,TP9,AF7,AF8,TP10,Right AUX,Marker0
151676.715,56.152,41.016,35.645,41.016,40.039,0
151676.719,48.340,29.785,39.062,31.250,43.457,0
151676.723,29.785,18.066,32.715,16.602,11.230,0
151676.726,24.414,36.621,34.668,20.996,-7.324,0
151676.730,35.645,39.062,34.180,25.879,23.926,0
151676.734,59.570,41.504,27.344,39.551,77.637,0
151676.738,47.363,47.363,31.250,41.992,21.973,0
151676.742,13.672,37.598,28.809,26.367,-14.648,0
151676.746,23.438,37.109,30.273,31.250,51.270,0
151676.750,41.016,30.273,30.762,23.926,74.219,0
151676.754,42.969,27.832,39.062,18.555,41.992,0
151676.758,28.320,35.156,40.039,34.180,15.625,0
151676.775,28.320,38.574,10.254,43.945,0.977,0
151676.779,50.293,41.016,11.230,42.969,5.859,0
151676.783,45.410,41.016,46.875,29.297,46.387,0
151676.787,31.738,42.969,58.105,27.344,45.898,0
151676.790,23.438,44.922,53.711,38.086,0.977,0
151676.794,31.250,38.086,40.039,39.551,33.691,0
151676.798,44.434,34.668,41.016,39.062,62.500,0
151676.802,40.039,42.969,41.016,38.574,26.855,0
151676.806,23.926,41.016,36.621,38.574,19.043,0
151676.810,28.809,31.250,41.016,38.574,18.066,0
151676.814,48.828,35.156,43.945,36.621,38.574,0
151676.818,46.875,42.480,40.527,40.039,65.918,0
151676.820,29.297,46.387,27.344,40.039,-1.465,0
151676.824,35.156,36.133,23.926,39.062,-44.922,0
151676.827,66.895,32.715,28.320,40.039,58.594,0
151676.831,57.129,40.527,29.785,44.922,115.234,2
151676.835,26.367,42.969,34.180,43.945,66.406,0
151676.839,22.949,43.457,38.574,35.156,-7.812,0
151676.843,37.598,41.992,35.156,33.203,42.480,0
151676.847,43.945,44.434,38.574,35.156,94.727,0
151676.851,36.621,43.945,30.762,28.320,7.324,0
151676.855,29.785,40.527,20.508,35.156,-37.598,0
151676.859,45.898,44.922,27.832,53.711,19.531,0
151676.863,69.336,45.898,29.785,51.758,66.406,0
151676.865,56.641,40.527,31.738,42.969,77.148,0
151676.869,30.762,37.109,30.273,30.762,31.738,0
151676.872,27.344,27.832,17.090,23.926,32.227,0
151676.876,49.805,31.738,8.789,37.109,80.566,0
151676.880,51.270,34.180,30.762,37.109,44.434,0
151676.884,23.926,34.668,47.363,24.902,-12.207,0
151676.888,22.461,42.480,49.316,26.855,-0.977,0
151676.892,47.363,23.926,33.691,29.297,46.875,0
151676.896,43.457,3.418,26.855,21.973,12.695,0
151676.900,28.809,31.250,34.180,22.461,-33.203,0
151676.904,29.297,53.711,30.762,28.320,-7.324,0
151676.908,45.898,48.340,32.715,33.203,55.176,0
151676.910,43.945,32.227,20.508,21.484,70.801,0
151676.914,22.949,22.461,29.785,18.066,38.086,0
151676.918,9.277,22.461,49.316,22.949,2.441,0
151676.922,19.531,22.949,43.457,23.926,0.977,0
151676.926,40.527,27.832,31.738,28.320,20.020,0
151676.930,31.738,33.691,31.738,27.344,28.809,0
151676.934,22.949,40.527,43.457,30.762,7.812,0
151676.938,40.039,36.621,36.621,43.457,26.367,0
151676.942,59.570,31.738,18.555,43.457,75.195,0
151676.945,41.992,29.297,5.859,35.645,42.480,0
151676.949,4.883,25.879,15.137,30.273,5.371,0
151676.953,-1.465,19.531,40.527,21.484,41.016,0
151676.955,28.809,20.996,41.504,22.949,62.012,0
151676.959,38.574,27.344,26.855,20.508,52.246,0
151676.962,23.926,38.086,32.227,25.879,21.973,0
151676.966,8.789,37.109,45.898,27.832,-15.625,0
151676.970,15.625,19.531,33.203,25.879,31.250,0
151676.974,35.645,22.949,7.812,34.668,67.383,0
151676.978,17.578,36.621,12.695,28.320,89.844,0
151676.982,0.977,41.504,41.016,27.344,40.527,0
151676.986,12.207,41.016,53.711,31.738,-0.977,0
151676.990,32.715,35.645,47.363,31.738,56.641,0
151676.994,29.297,28.320,39.062,30.273,31.250,0
151676.998,10.254,29.785,38.574,24.902,-9.766,0
151677.000,21.973,31.738,38.086,26.367,-6.836,0
151677.004,46.387,32.227,34.180,31.250,39.062,0
151677.008,45.898,36.133,36.621,36.621,53.711,0
151677.011,24.414,35.156,29.297,34.668,0.488,0
151677.015,23.926,35.645,18.066,36.133,-17.578,0
151677.019,54.688,37.109,14.160,45.410,28.809,0
151677.023,48.828,33.203,30.762,41.504,66.406,0
151677.027,29.297,41.016,50.781,35.156,37.598,0
151677.031,34.180,42.480,31.738,39.062,22.949,0
151677.035,33.203,31.738,20.020,40.039,62.988,0
151677.039,35.645,31.738,39.551,33.203,97.656,0
151677.043,41.504,34.668,48.828,26.367,77.148,0
151677.045,15.137,26.367,42.969,20.996,43.945,0
151677.049,15.625,26.367,34.180,30.762,52.734,0
151677.052,38.574,19.043,38.086,33.203,77.148,0
151677.056,38.574,18.066,41.504,35.645,94.727,0
151677.060,34.180,45.410,27.344,47.363,57.129,0
151677.064,28.320,46.875,17.578,38.086,3.906,0
151677.068,34.180,34.668,20.020,31.250,39.062,0
151677.072,37.109,33.691,28.320,26.367,95.703,0
151677.076,17.578,38.086,39.062,21.484,88.867,0
151677.080,8.301,35.156,39.062,26.367,43.457,0
151677.084,27.832,26.855,27.344,26.367,59.082,0
151677.088,36.621,30.273,30.273,25.879,101.074,0
151677.105,23.438,34.668,40.527,33.203,79.102,0
151677.109,17.090,35.156,39.062,42.480,59.082,0
151677.113,32.715,31.738,38.086,44.434,78.613,0
151677.117,50.293,36.621,30.273,41.992,90.332,0
151677.120,49.316,44.922,18.066,37.598,59.570,0
151677.124,26.367,41.504,21.484,34.668,33.691,0
151677.128,36.621,35.156,29.785,36.621,28.809,0
151677.132,54.199,30.273,34.180,36.621,79.102,0
151677.136,29.297,28.809,45.898,34.180,120.117,0
151677.140,15.137,30.762,54.199,38.086,56.152,0
151677.144,33.691,25.391,40.527,45.898,32.227,0
151677.148,62.500,33.691,32.227,50.293,69.824,0
151677.150,44.434,50.293,38.086,41.992,80.566,0
151677.154,1.465,40.527,29.785,17.090,12.207,0
151677.157,4.883,34.668,23.438,16.602,-45.410,0
151677.161,38.086,29.297,36.621,41.992,14.648,0
151677.165,47.852,21.484,40.039,38.574,67.871,0
151677.169,27.344,21.973,29.785,17.578,27.832,0
151677.173,6.348,24.902,32.227,25.879,-31.738,0
151677.177,36.621,34.668,38.086,40.527,7.324,0
151677.181,49.316,38.574,35.645,32.715,39.062,0
151677.185,25.879,37.109,34.668,20.020,3.906,0
151677.189,14.648,34.668,33.691,16.602,-11.230,0
151677.193,22.461,30.762,34.180,23.438,8.301,0
151677.195,44.922,28.809,21.973,28.320,32.227,0
151677.199,44.434,34.668,25.879,28.320,35.156,0
151677.203,30.762,44.434,44.922,35.156,-10.742,0
151677.206,34.180,38.574,42.480,44.434,-42.480,0
151677.210,52.734,27.832,39.551,50.781,5.371,0
151677.214,54.688,27.832,46.387,52.246,44.922,0
151677.218,33.203,31.250,44.922,44.434,16.602,0
151677.222,27.344,37.109,45.898,43.457,19.043,0
151677.226,48.340,44.434,46.875,52.246,24.902,0
151677.230,56.641,41.016,39.551,47.852,23.438,0
151677.234,41.016,39.062,34.668,41.504,36.133,0
151677.238,26.367,48.340,38.574,42.969,13.672,0
151677.240,27.832,34.180,30.762,34.668,44.434,0
151677.244,48.340,25.879,19.531,35.645,92.773,0
151677.247,38.086,34.668,27.832,30.762,35.645,0
151677.251,5.859,29.297,36.621,18.555,-11.719,0
151677.255,12.695,33.691,24.414,24.414,-2.930,0
151677.259,38.086,38.086,15.625,31.738,45.898,0
151677.263,40.039,36.621,32.227,30.762,62.500,0
151677.267,26.367,39.551,41.992,26.855,0.977,0
151677.271,29.785,40.527,35.645,24.414,-8.789,0
151677.275,50.293,33.691,28.809,27.344,61.523,0
151677.279,57.129,36.133,32.715,33.691,83.008,0
151677.283,41.504,40.527,32.715,34.668,39.062,0
151677.285,35.156,37.598,34.668,38.574,-6.836,0
151677.289,53.223,43.457,40.527,51.758,39.551,0
151677.292,49.805,43.945,34.668,41.992,96.680,0
151677.296,26.367,35.156,32.227,31.250,39.551,0
151677.300,24.414,37.109,33.203,39.062,0.977,0
151677.304,37.109,39.062,29.297,44.434,44.434,0
151677.308,53.711,34.180,36.621,49.316,92.285,0
151677.312,51.758,34.180,38.574,43.457,72.754,0
151677.316,34.668,44.922,39.062,39.062,4.395,0
151677.320,39.062,50.781,41.504,44.434,5.859,0
151677.324,54.688,44.922,30.273,41.504,79.590,0
151677.328,45.898,39.062,34.180,27.344,55.176,0
151677.330,21.973,33.203,34.668,16.113,-7.812,0
151677.334,24.902,26.855,41.016,25.879,17.090,0
151677.337,49.316,23.926,42.969,37.598,76.172,0
151677.341,53.711,38.574,29.785,31.738,79.590,0
151677.345,41.016,46.387,25.391,26.367,30.762,1
151677.349,25.391,41.016,28.320,19.531,13.672,0
151677.353,33.691,41.504,36.133,20.996,58.594,0
151677.357,55.664,44.434,41.016,30.273,65.918,0
151677.361,46.875,44.434,39.551,32.715,-8.789,0
151677.365,25.391,39.062,28.809,31.738,-11.719,0
151677.369,36.621,39.551,22.949,42.480,12.695,0
151677.373,55.176,39.551,34.668,50.781,30.273,0
151677.375,32.715,26.367,35.645,31.250,45.410,0
151677.379,5.371,19.531,31.738,17.090,34.668,0
151677.382,21.973,28.809,45.410,34.180,-9.277,0
151677.386,40.039,32.715,28.320,38.086,23.926,0
151677.390,36.133,34.668,15.625,29.297,64.453,0
151677.394,25.391,38.574,35.645,32.227,9.766,0
151677.398,13.672,28.320,24.414,24.414,3.906,0
151677.402,34.668,36.621,22.461,26.855,17.090,0
151677.406,57.617,56.152,35.156,39.551,50.781,0
151677.410,44.922,49.805,20.996,33.691,34.180,0
151677.414,28.809,32.227,18.555,23.926,5.371,0
151677.418,35.156,27.832,32.227,26.367,36.133,0
151677.435,40.527,33.691,41.992,31.738,36.621,0
151677.439,39.062,41.992,53.711,37.109,11.719,0
151677.442,26.367,43.945,44.922,34.668,-9.277,0
151677.446,25.879,36.133,27.832,28.320,46.875,0
151677.450,50.293,36.133,28.320,29.785,91.309,0
151677.454,51.270,43.945,31.738,29.297,88.379,0
151677.458,23.438,42.480,36.133,21.973,27.344,0
151677.462,25.391,44.434,38.086,25.879,-0.488,0
151677.466,50.293,41.992,32.715,33.203,95.215,0
151677.470,55.176,39.062,31.738,32.227,104.004,0
151677.474,32.715,41.016,33.203,28.809,32.715,0
151677.478,14.648,38.574,35.156,28.809,-19.043,0
151677.465,33.203,38.086,36.133,34.668,16.602,0
151677.469,41.016,33.203,42.480,30.273,46.875,0
151677.472,24.414,33.203,43.945,24.414,15.625,0
151677.476,19.043,39.551,34.668,33.691,-3.906,0
151677.480,25.391,27.344,20.996,37.109,40.527,0
151677.484,42.969,25.879,25.391,37.109,50.781,0
151677.488,38.574,35.645,30.273,31.738,22.461,0
151677.492,35.645,34.668,20.508,27.832,41.016,0
151677.496,63.965,44.434,40.039,40.527,52.246,0
151677.500,50.293,40.039,50.293,36.133,56.641,0
151677.504,28.809,27.832,26.855,14.160,27.832,0
151677.508,17.090,25.391,37.109,17.090,15.137,0
151677.525,18.066,30.273,55.664,31.250,38.574,0
151677.529,47.363,35.645,48.828,35.645,56.641,0
151677.533,59.082,33.203,41.016,35.645,29.297,0
151677.536,39.551,39.551,41.016,40.527,-29.297,0
151677.540,26.855,44.922,22.461,43.945,-30.762,0
151677.544,56.152,46.875,20.996,55.664,10.254,0
151677.548,65.918,38.086,42.480,49.805,45.410,0
151677.552,46.387,26.855,44.922,30.762,50.293,0
151677.556,40.039,27.344,40.039,35.156,-5.859,0
151677.560,43.457,26.855,40.039,40.527,3.418,0
151677.564,57.129,34.180,44.434,51.270,73.730,0
151677.568,47.363,38.574,44.922,48.828,57.617,0
151677.570,27.344,39.551,48.340,41.992,7.812,0
151677.574,44.922,41.504,52.246,54.688,35.156,0
151677.578,66.406,40.039,34.180,58.594,68.848,0
151677.581,66.406,38.574,24.902,51.758,70.801,0
151677.585,47.852,32.227,32.227,44.434,40.527,0
151677.589,39.062,34.180,27.832,42.480,27.832,0
151677.593,69.824,26.367,27.344,42.969,51.270,0
151677.597,65.918,20.508,33.203,38.086,45.898,0
151677.601,25.391,36.133,36.133,32.227,2.441,0
151677.605,22.949,43.457,36.621,37.598,-14.160,0
151677.609,46.875,43.457,37.109,41.016,52.734,0
151677.613,62.012,45.898,28.320,41.504,98.145,0
151677.615,59.082,52.246,30.762,46.875,49.316,0
151677.619,22.461,44.922,30.273,30.762,10.742,0
151677.622,2.930,34.180,32.715,22.949,68.359,0
151677.626,35.156,33.203,48.828,33.691,144.531,0
151677.630,37.109,26.367,41.016,30.762,97.656,0
151677.634,22.949,30.762,32.715,28.320,42.480,0
151677.638,27.344,37.598,35.645,33.203,67.871,0
151677.642,50.293,34.180,33.203,39.062,136.230,0
151677.646,58.594,36.133,32.227,41.016,96.191,0
151677.650,41.504,43.945,18.555,42.480,3.906,0
151677.654,38.574,42.480,8.789,46.875,26.855,0
151677.658,56.152,41.504,33.691,49.316,73.242,0
151677.661,65.430,43.945,42.480,44.434,102.539,0
151677.665,39.551,32.715,39.551,37.598,60.547,0
151677.669,-1.465,21.973,37.598,23.438,31.738,0
151677.673,15.625,29.297,32.227,25.879,60.059,0
151677.677,44.434,20.996,40.039,34.180,77.148,0
151677.680,32.227,8.301,31.250,31.250,70.801,0
151677.684,-0.488,26.855,17.090,27.344,34.668,0
151677.688,0.000,30.273,23.438,29.785,18.066,0
151677.692,30.273,31.738,41.504,35.156,27.344,0
151677.696,41.504,38.086,38.086,29.297,37.598,0
151677.700,23.438,35.645,28.320,25.391,31.738,0
151677.704,20.020,38.574,35.645,31.738,31.738,0
151677.705,46.387,36.621,39.062,39.551,65.918,0
151677.709,43.945,27.832,29.297,36.133,72.754,0
151677.713,26.855,28.320,24.414,33.203,38.574,0
151677.716,16.113,29.297,22.949,27.832,-2.930,0
151677.720,24.414,27.832,25.879,31.738,2.930,0
151677.724,53.223,37.109,32.227,48.828,52.734,0
151677.728,42.969,44.434,24.414,46.387,31.250,0
151677.732,18.066,32.715,27.832,33.691,-34.668,0
151677.736,30.762,25.391,47.852,38.574,-4.395,0
151677.740,47.363,28.320,40.527,40.527,94.238,0
151677.744,53.223,28.809,32.227,38.086,62.988,0
151677.748,27.344,20.020,40.527,35.645,2.441,0
151677.750,9.766,23.926,37.598,34.668,38.574,0
151677.754,34.668,40.039,27.832,33.203,96.680,0
151677.757,38.086,41.016,17.090,29.297,93.750,0
151677.761,13.672,34.180,27.832,24.902,23.438,0
151677.765,9.766,30.762,41.992,27.832,2.441,0
151677.769,36.133,29.297,35.645,36.133,46.875,0
151677.773,44.434,28.809,30.762,35.156,51.758,0
151677.777,25.391,25.879,30.762,20.996,-14.160,0
151677.781,17.090,23.926,32.715,20.996,-15.137,0
151677.785,42.969,32.227,27.832,41.016,55.176,0
151677.789,51.270,35.645,25.391,41.992,83.496,0
151677.793,30.273,34.180,29.297,32.227,54.199,0
151677.795,23.438,41.016,33.203,34.668,25.879,0
151677.799,47.363,42.969,37.598,38.086,72.266,0
151677.802,62.500,32.715,33.691,29.297,90.820,0
151677.806,30.273,27.344,30.762,19.043,42.480,0
151677.810,4.883,32.227,27.344,20.508,-0.977,0
151677.814,30.762,35.156,21.973,30.762,-2.441,0
151677.818,46.387,32.715,26.855,32.715,11.230,0
151677.822,31.250,35.645,40.039,26.367,-7.812,0
151677.826,9.277,34.668,39.551,20.020,-8.789,0
151677.830,15.625,38.574,28.320,27.832,-17.578,0
151677.834,48.340,44.434,23.438,39.551,64.453,0
151677.838,50.293,35.645,35.156,35.156,87.891,0
151677.840,33.203,38.574,36.621,33.203,16.113,0
151677.843,26.367,48.828,38.574,31.738,-53.223,0
151677.847,50.781,52.246,41.992,33.691,-44.922,0
151677.851,64.453,56.641,37.598,41.016,13.672,0
151677.855,37.598,50.781,33.691,30.273,-4.883,0
151677.859,9.277,32.227,24.414,16.113,-15.137,0
151677.863,16.602,20.020,20.508,22.461,-6.348,1
151677.867,41.992,28.809,17.578,30.762,24.414,0
151677.871,40.527,33.691,25.391,26.855,15.137,0
151677.875,22.949,37.109,43.945,25.391,-15.625,0
151677.879,30.762,50.293,55.176,33.203,9.766,0
151677.883,60.059,53.711,51.270,42.969,57.129,0
151677.900,61.035,47.852,40.527,39.551,60.059,0
151677.904,26.367,42.480,32.715,32.227,-5.371,0
151677.907,30.762,45.898,32.227,41.992,1.953,0
151677.911,68.848,43.945,21.484,49.805,85.449,0
151677.915,54.688,38.574,11.230,42.969,74.219,0
151677.919,25.391,41.016,31.250,32.715,22.461,0
151677.923,23.926,40.039,49.316,31.250,1.465,0
151677.927,36.621,39.551,44.922,37.109,4.395,0
151677.931,51.270,44.922,31.738,38.086,44.922,0
151677.935,45.898,40.039,14.648,36.621,21.484,0
151677.939,33.203,35.645,19.043,34.668,-43.945,0
151677.943,37.109,34.180,37.598,41.016,6.348,0
151677.945,51.758,25.879,47.363,45.898,58.105,0
151677.949,54.688,39.062,48.828,44.434,30.273,0
151677.952,32.227,51.758,41.016,37.109,1.465,0
151677.956,23.926,39.551,28.809,30.273,-29.297,0
151677.960,47.363,44.434,16.113,38.086,11.719,0
151677.964,45.410,39.551,26.855,32.227,60.059,0
151677.968,21.484,31.250,43.945,19.043,0.000,0
151677.972,24.902,43.457,47.852,32.227,-4.883,0
151677.976,46.387,40.527,41.016,41.016,55.664,0
151677.980,55.176,33.691,36.133,35.645,80.078,0
151677.984,51.270,47.852,34.668,46.387,60.547,0
151677.988,36.133,48.340,27.832,53.711,27.832,0
151677.990,38.086,35.645,25.879,41.016,78.613,0
151677.994,49.316,30.273,36.621,36.133,119.141,0
151677.998,38.574,33.203,47.852,36.621,89.355,0
151678.001,18.066,33.203,41.992,30.273,38.086,0
151678.005,27.344,28.809,37.598,32.715,37.598,0
151678.009,40.527,24.902,27.344,33.203,62.988,0
151678.013,40.527,33.691,12.695,37.598,48.340,0
151678.017,36.133,41.016,21.484,41.016,-4.395,0
151678.021,25.391,34.180,40.039,40.039,-50.781,0
151678.025,43.457,37.598,46.387,43.945,-11.230,0
151678.029,44.434,43.457,45.898,31.250,36.133,0
151678.033,25.879,35.156,48.340,18.066,-7.324,0
151678.035,17.578,35.645,36.133,22.461,-15.137,0
151678.039,22.461,28.809,23.926,28.809,48.828,0
151678.043,32.715,20.508,25.879,31.250,74.707,0
151678.047,24.414,35.645,29.785,29.297,38.574,0
151678.051,19.043,47.852,37.598,25.391,-5.371,0
151678.055,40.039,45.898,23.438,38.086,42.969,0
151678.058,62.500,37.598,13.184,46.875,124.023,0
151678.062,42.480,29.785,37.109,27.832,74.707,0
151678.066,12.695,32.715,54.199,14.648,-29.785,0
151678.070,18.066,31.738,48.340,22.461,8.301,0
151678.074,56.152,35.156,38.574,31.250,114.746,0
151678.078,49.316,38.574,29.297,29.297,82.520,0
151678.080,12.695,30.762,25.391,17.090,20.020,0
151678.084,18.555,30.762,27.832,23.926,37.109,0
151678.088,43.457,27.832,24.414,38.086,68.359,0
151678.092,53.711,29.785,18.555,33.203,45.898,0
151678.096,54.688,32.227,35.156,28.320,-1.465,0
151678.100,39.551,19.531,45.410,25.879,1.953,0
151678.103,42.969,25.879,47.363,33.203,66.895,0
151678.107,48.340,38.574,41.992,39.551,104.492,0
151678.111,49.805,42.480,38.086,36.621,55.664,0
151678.115,28.320,40.527,36.133,34.668,9.766,0
151678.119,17.090,35.156,26.855,40.039,9.277,0
151678.123,50.781,39.062,28.320,44.922,55.176,0
151678.140,36.133,38.086,32.227,37.598,19.531,0
151678.144,16.113,37.598,35.156,34.668,-39.551,0
151678.148,26.367,41.016,33.691,39.062,-1.465,0
151678.152,52.734,43.945,37.598,45.410,52.246,0
151678.156,56.641,42.969,44.434,47.852,92.285,0
151678.160,30.273,38.574,39.062,40.039,61.035,0
151678.164,21.973,42.969,34.668,34.668,25.391,0
151678.168,46.387,43.457,30.273,37.598,25.879,0
151678.172,52.246,37.109,31.738,35.156,42.969,0
151678.175,34.668,39.551,38.086,29.297,40.039,0
151678.179,20.996,38.574,37.598,30.273,16.113,0
151678.183,32.227,39.062,41.504,41.992,61.523,0
151678.170,54.688,38.086,41.504,45.898,104.980,0
151678.174,38.086,33.691,36.133,33.691,60.059,0
151678.177,17.578,30.762,33.691,26.367,-2.930,0
151678.181,35.645,33.203,27.344,33.203,-20.020,0
151678.185,51.758,44.434,23.438,37.109,3.906,0
151678.189,40.527,43.457,28.320,26.855,24.414,0
151678.193,18.066,33.691,31.250,19.043,-25.391,0
151678.197,17.578,30.762,40.039,18.066,-60.059,0
151678.201,38.086,29.785,45.410,26.367,41.016,0
151678.205,37.109,26.855,38.086,37.598,69.336,0
151678.209,17.090,27.344,32.715,36.133,-21.484,0
151678.213,9.277,32.227,37.109,30.762,-23.438,0
151678.215,29.785,22.949,36.621,37.109,34.668,0
151678.219,45.410,23.926,32.715,40.527,40.039,0
151678.222,38.086,42.969,32.227,38.574,15.137,0
151678.226,30.273,40.039,34.668,36.621,14.648,0
151678.230,44.434,36.621,35.645,39.551,6.348,0
151678.234,56.641,39.551,33.203,45.410,-24.414,0
151678.238,49.805,37.109,35.156,42.480,-21.484,0
151678.242,30.273,29.785,45.410,48.828,-30.762,0
151678.246,31.250,28.809,40.527,59.082,-24.902,0
151678.250,45.410,35.156,31.250,55.176,33.691,0
151678.254,37.598,32.715,28.809,36.133,43.945,0
151678.258,8.301,22.949,27.344,27.832,-16.113,0
151678.275,7.812,32.227,39.551,39.551,-9.277,0
151678.279,32.227,36.621,37.109,40.039,59.570,0
151678.282,29.785,22.949,19.043,26.367,75.195,0
151678.286,17.090,21.973,25.879,24.902,26.367,0
151678.290,10.254,27.832,30.762,22.949,18.555,0
151678.294,27.832,35.156,28.320,27.832,68.848,0
151678.298,47.363,41.504,27.832,32.227,79.590,0
151678.302,45.410,40.527,24.902,22.949,48.828,0
151678.306,28.320,29.785,32.715,24.902,-5.371,0
151678.310,16.602,23.926,32.227,30.273,-8.789,0
151678.314,41.992,44.434,35.156,35.156,25.391,0
151678.318,52.246,43.945,35.156,30.762,16.602,0
151678.320,6.348,30.762,27.832,24.902,-27.344,0
151678.324,-1.953,32.715,32.227,29.785,-17.090,0
151678.327,33.203,35.156,36.621,38.086,72.266,0
151678.331,35.645,30.273,29.297,34.668,60.547,0
151678.335,28.809,34.180,38.574,30.273,-24.414,0
151678.339,23.438,36.621,44.434,33.203,-4.883,0
151678.343,35.156,39.551,31.738,36.133,43.457,0
151678.347,38.574,36.621,23.438,29.785,60.547,0
151678.351,17.090,26.855,20.996,19.531,29.785,0
151678.355,11.719,33.203,35.156,19.043,-11.230,0
151678.359,31.250,34.180,45.410,21.973,39.551,0
151678.363,47.363,34.180,39.551,24.414,61.035,0
151678.365,39.062,46.387,39.551,27.344,28.320,0
151678.368,14.648,37.598,36.621,19.531,-3.418,0
151678.372,25.879,30.273,21.973,19.531,24.902,0
151678.376,52.246,40.527,21.973,28.320,118.164,0
151678.380,30.273,39.551,20.996,28.320,97.656,2
151678.384,14.160,40.527,20.508,31.250,6.836,0
151678.388,20.996,36.621,25.391,28.809,16.602,0
151678.392,38.086,31.250,27.832,28.809,90.332,0
151678.396,47.363,36.133,40.039,35.156,77.148,0
151678.400,30.273,43.945,38.574,34.668,27.344,0
151678.404,20.508,29.785,27.832,31.738,57.129,0
151678.408,41.016,23.926,35.645,34.180,72.754,0
151678.410,46.387,44.922,38.574,40.039,71.289,0
151678.414,22.461,37.598,27.832,25.391,78.613,0
151678.417,3.906,28.320,31.250,12.695,28.809,0
151678.421,16.602,37.598,39.551,29.297,21.484,0
151678.425,39.551,42.969,38.574,31.250,71.777,0
151678.429,33.203,42.969,25.879,21.484,45.898,0
151678.433,25.879,42.969,24.414,28.809,15.625,0
151678.437,31.250,42.480,38.574,34.180,8.789,0
151678.441,48.828,37.598,43.945,33.691,21.484,0
151678.445,45.898,32.715,42.480,22.949,43.457,0
151678.449,12.207,34.668,41.016,19.043,6.348,0
151678.453,9.277,35.156,40.527,27.832,-10.742,0
151678.455,43.945,38.086,38.086,35.156,37.109,0
151678.459,51.270,38.086,22.461,38.086,72.266,0
151678.462,21.973,35.645,27.344,36.621,30.273,0
151678.466,28.320,46.387,53.223,48.828,6.836,0
151678.470,54.688,43.945,53.223,52.734,46.387,0
151678.474,56.152,33.691,39.062,41.504,52.734,0
151678.478,40.039,40.039,37.109,39.551,16.113,0
151678.482,41.504,38.086,29.785,41.504,-28.320,0
151678.486,44.922,33.203,26.367,38.086,-13.184,0
151678.490,28.809,28.809,24.902,34.180,38.086,0
151678.494,33.691,32.715,29.785,33.203,8.301,0
151678.498,25.879,28.320,29.785,21.484,-39.062,0
151678.500,40.527,30.273,32.715,35.156,30.273,0
151678.504,66.406,45.898,40.527,51.758,102.051,0
151678.507,57.129,39.551,33.203,35.156,48.340,0
151678.511,46.875,40.527,36.621,36.621,-8.789,0
151678.515,43.457,42.480,40.527,40.039,38.574,0
151678.519,53.711,33.691,44.922,37.109,101.562,0
151678.523,59.082,34.180,47.363,37.109,32.227,0
151678.527,43.457,36.133,38.574,35.156,-18.066,0
151678.531,52.734,31.738,38.086,35.156,8.789,0
151678.535,61.523,33.691,44.922,41.504,60.059,0
151678.539,50.293,39.062,39.062,44.922,86.914,0
151678.543,42.480,45.898,39.062,44.434,43.457,0
151678.545,37.109,39.551,42.969,39.551,16.113,0
151678.549,50.781,30.762,33.203,37.109,47.363,0
151678.552,53.711,32.715,38.086,44.434,83.984,0
151678.556,36.621,40.527,45.410,44.434,78.125,0
151678.560,18.555,38.086,34.180,37.109,34.668,0
151678.564,24.414,29.785,32.227,38.574,11.230,0
151678.568,49.805,30.762,32.715,40.039,54.688,0
151678.572,63.477,40.527,27.344,38.574,58.105,0
151678.576,44.434,41.016,25.879,42.480,14.648,0
151678.580,24.414,31.738,30.762,38.086,16.602,0
151678.584,48.828,33.691,42.969,42.969,41.016,0
151678.588,53.711,34.668,39.062,48.340,69.824,0
151678.591,23.926,28.809,25.879,34.668,80.078,0
151678.595,12.695,26.855,35.645,27.832,54.688,0
151678.599,41.504,15.625,44.434,41.504,36.133,0
151678.603,50.781,19.531,36.621,45.898,28.809,0
151678.607,29.785,38.086,23.438,33.203,34.668,0
151678.611,27.832,44.922,21.973,27.344,-17.578,0
151678.614,36.133,35.156,29.297,37.109,-22.949,0
151678.618,44.922,27.832,31.250,42.969,37.109,0
151678.622,29.785,30.273,26.855,33.691,50.293,0
151678.626,28.320,27.832,30.273,29.297,26.367,0
151678.630,34.180,25.879,36.621,32.227,20.508,0
151678.634,37.109,29.297,25.391,37.598,64.941,0
151678.651,49.316,27.832,17.578,38.574,88.379,0
151678.655,36.133,24.902,33.691,39.062,44.434,0
151678.659,33.691,31.250,47.363,47.363,-1.465,0
151678.663,49.316,33.691,35.645,48.340,57.129,0
151678.667,54.199,27.344,25.879,36.621,71.777,0
151678.670,27.832,29.297,25.391,28.809,-11.719,0
151678.674,18.555,34.668,25.391,35.645,-27.832,0
151678.678,44.434,22.949,27.832,40.527,37.598,0
151678.682,48.340,20.508,31.738,38.086,72.754,0
151678.686,22.949,34.668,33.691,28.320,14.648,0
151678.690,12.695,42.969,37.109,25.391,-5.859,0
151678.694,36.133,43.945,41.016,38.574,41.504,0
151678.695,75.195,43.457,41.016,52.734,93.750,0
151678.699,65.430,43.457,37.109,44.922,82.520,0
151678.702,19.043,38.086,26.855,33.691,-2.441,0
151678.706,12.207,32.715,15.625,35.645,-7.812,0
151678.710,43.457,31.250,20.996,38.086,32.715,0
151678.714,48.828,28.320,25.879,32.227,31.738,0
151678.718,42.480,31.738,29.785,29.785,-15.137,0
151678.722,32.715,39.551,34.668,32.715,-51.758,0
151678.726,18.066,42.969,36.621,29.785,11.719,0
151678.730,35.645,42.480,39.062,29.785,28.320,0
151678.734,41.992,41.016,23.438,28.809,-19.531,0
151678.738,34.668,45.410,15.625,33.203,-22.461,0
151678.740,43.457,49.316,24.902,41.992,13.184,0
151678.744,54.688,46.387,35.156,40.039,58.105,0
151678.747,50.293,44.922,46.875,36.133,46.387,0
151678.751,27.832,38.086,47.852,37.598,-11.719,0
151678.755,13.672,26.855,36.621,31.250,7.324,0
151678.759,34.180,29.785,33.691,26.367,77.148,0
151678.763,30.273,39.062,36.133,25.879,75.195,0
151678.767,16.602,42.480,37.598,28.320,8.301,0
151678.771,27.832,47.363,37.109,39.551,-20.996,0
151678.775,45.410,45.898,30.762,42.480,19.043,0
151678.779,45.410,33.203,27.832,34.180,100.098,0
151678.783,30.273,24.902,36.621,32.227,71.777,0
151678.785,15.137,37.598,41.504,34.180,18.066,0
151678.789,28.320,45.410,37.598,40.527,64.941,0
151678.792,53.223,43.457,39.551,40.527,88.379,0
151678.796,37.598,42.969,42.969,37.109,28.320,0
151678.800,14.648,45.898,46.875,48.828,14.648,0
151678.804,44.434,43.945,46.387,55.664,42.969,0
151678.808,64.453,32.715,32.715,44.434,72.754,0
151678.812,39.551,36.133,20.996,31.250,41.992,0
151678.816,24.902,44.922,32.715,28.320,-32.227,0
151678.820,30.762,37.109,28.320,28.320,20.020,0
151678.824,42.969,30.273,18.555,29.785,91.309,0
151678.828,36.621,30.762,31.250,27.832,28.809,0
151678.830,17.090,35.156,37.109,26.367,15.625,0
151678.834,13.672,36.621,30.762,24.902,59.082,0
151678.837,36.133,37.109,41.504,32.715,67.871,0
151678.841,45.410,40.039,52.246,38.086,59.570,0
151678.845,22.949,39.551,36.621,27.344,9.766,0
151678.849,11.230,34.668,26.367,20.996,-32.227,0
151678.853,31.250,30.273,28.809,27.344,19.043,0
151678.857,53.711,28.320,32.227,32.715,62.988,0
151678.861,33.203,31.738,38.574,33.691,7.324,0
151678.865,12.695,36.621,38.574,40.039,-13.672,0
151678.869,27.344,36.621,28.809,43.945,18.555,0
151678.873,37.598,36.621,24.414,38.086,56.152,0
151678.876,34.668,36.133,27.832,28.809,60.547,0
151678.880,14.648,36.133,31.738,20.508,-8.301,0
151678.884,20.508,35.156,36.133,27.832,-15.137,0
151678.888,54.199,32.715,37.598,38.574,55.176,0
151678.892,51.758,35.156,29.785,31.738,48.828,0
151678.895,25.391,38.086,22.949,20.996,7.812,1
151678.899,13.184,29.785,30.762,18.555,-3.418,0
151678.903,38.086,40.527,36.621,31.250,48.828,0
151678.907,49.316,45.410,28.320,34.180,76.172,0
151678.911,27.344,28.809,28.809,20.508,51.758,0
151678.915,18.066,35.645,38.086,25.879,36.621,0
151678.919,31.738,35.645,42.969,40.527,45.898,0
151678.920,48.828,26.367,49.316,38.574,98.145,0
151678.924,44.922,30.273,35.645,36.133,78.613,0
151678.927,41.504,36.621,15.625,43.457,-2.441,0
151678.931,29.297,41.016,22.461,45.898,18.066,0
151678.935,42.480,48.828,34.668,45.410,86.426,0
151678.939,47.852,39.551,41.992,40.039,60.547,0
151678.943,17.578,24.902,39.551,31.738,-29.785,0
151678.947,16.602,37.598,42.969,37.598,-67.383,0
151678.951,48.340,41.016,43.457,42.480,-7.324,0
151678.955,51.270,31.738,34.180,39.062,20.508,0
151678.959,37.109,35.156,30.762,41.016,-10.742,0
151678.963,35.156,35.156,18.555,39.062,-25.879,0
151678.980,54.688,38.574,21.484,41.992,28.320,0
151678.984,62.500,41.504,40.527,37.598,89.355,0
151678.988,40.039,44.434,47.363,33.203,64.453,0
151678.991,29.297,39.062,42.480,34.668,10.254,0
151678.995,41.504,31.738,26.855,30.762,39.062,0
151678.999,39.062,28.809,20.508,28.809,78.613,0
151679.003,36.133,26.855,29.785,29.785,38.086,0
151679.007,21.973,33.203,44.434,33.691,14.160,0
151679.011,37.109,32.715,47.852,39.551,51.270,0
151679.015,56.641,29.785,29.297,38.574,69.336,0
151679.019,37.598,33.203,25.879,34.668,52.734,0
151679.023,22.949,31.250,39.062,37.109,35.645,0
151679.025,26.367,26.367,41.504,33.691,6.348,0
151679.029,46.387,28.809,38.086,35.645,45.410,0
151679.032,51.270,35.645,43.945,37.598,38.574,0
151679.036,30.762,33.691,37.109,26.855,-7.324,0
151679.040,28.809,32.227,23.438,25.879,1.953,0
151679.044,51.758,40.039,30.762,36.621,55.664,0
151679.048,51.758,39.062,36.621,36.621,118.164,0
151679.052,28.809,34.668,31.738,28.809,55.176,0
151679.056,18.555,35.156,21.973,26.855,-30.273,0
151679.060,34.180,35.645,23.926,31.738,-4.883,0
151679.064,71.289,45.410,38.574,41.016,29.785,0
151679.068,54.199,40.039,36.621,35.645,40.039,0
151679.070,8.301,27.344,27.832,26.855,1.953,0
151679.074,16.602,40.527,35.156,31.250,-23.438,0
151679.077,38.086,35.156,29.785,32.227,32.715,0
151679.081,36.621,17.090,27.832,30.762,77.148,0
151679.085,10.742,24.414,34.180,22.949,29.785,0
151679.089,26.855,44.922,46.387,32.227,27.832,0
151679.093,73.730,50.293,42.969,41.992,73.730,0
151679.097,48.828,31.738,20.996,27.344,70.801,0
151679.101,8.789,30.273,28.809,27.344,-5.859,0
151679.105,12.207,39.551,43.945,35.156,-63.965,0
151679.109,39.062,44.434,43.945,42.969,7.324,0
151679.113,63.965,50.781,41.504,51.270,79.102,0
151679.115,48.340,44.922,44.434,41.016,56.152,0
151679.119,26.367,44.434,50.293,33.691,-4.883,0
151679.123,32.227,39.551,47.363,28.809,12.695,0
151679.127,47.852,28.320,40.039,28.320,67.871,0
151679.131,41.504,33.691,40.527,33.203,26.855,0
151679.135,26.367,43.945,41.992,37.109,-28.809,0
151679.139,37.109,40.527,41.504,44.922,-3.418,0
151679.143,41.992,31.738,39.062,47.852,69.336,0
151679.147,31.250,28.809,32.715,39.062,62.012,0
151679.150,16.602,28.809,23.438,31.738,12.207,0
151679.154,14.160,35.156,31.250,42.969,5.371,0
151679.158,41.992,42.480,48.340,54.688,73.730,0
151679.160,38.086,41.992,39.062,48.340,93.750,0
151679.164,16.602,46.875,29.785,34.668,41.504,0
151679.168,15.137,41.504,26.855,30.273,29.297,0
151679.171,31.250,32.715,28.809,36.133,27.832,0
151679.175,49.805,32.715,36.133,34.668,69.336,0
151679.179,41.992,32.227,36.621,27.344,66.406,0
151679.183,31.250,33.203,39.062,24.414,38.086,0
151679.187,49.805,24.902,37.598,28.320,52.246,0
151679.191,68.359,22.949,28.809,31.250,64.941,0
151679.195,56.152,37.598,35.645,25.879,50.781,0
151679.199,27.832,42.480,37.109,24.902,21.973,0
151679.203,25.391,41.016,29.785,33.691,30.762,0
151679.205,57.617,41.016,29.785,44.922,83.984,0
151679.209,59.570,41.504,32.227,46.875,82.031,0
151679.212,38.574,47.363,41.016,49.316,33.691,0
151679.216,30.762,46.387,38.574,47.363,-5.371,0
151679.220,45.410,40.527,30.762,47.363,37.598,0
151679.224,53.223,38.574,34.180,46.875,64.453,0
151679.228,42.969,41.992,37.109,40.527,4.883,0
151679.232,40.039,43.457,36.621,38.574,-52.246,0
151679.236,37.598,40.527,38.086,40.527,-33.203,0
151679.240,48.340,38.574,38.086,44.922,27.344,0
151679.244,50.781,36.621,36.621,42.480,26.855,0
151679.248,30.273,42.480,43.457,40.527,-7.812,0
151679.250,30.273,46.387,39.551,39.062,-12.695,0
151679.254,60.547,37.109,28.320,38.086,57.129,0
151679.257,59.082,32.715,29.785,36.133,59.082,0
151679.261,18.555,35.645,16.113,29.297,-0.488,0
151679.265,20.508,37.109,9.277,34.668,-1.465,0
151679.269,49.805,34.180,29.297,40.527,48.340,0
151679.273,55.664,39.551,50.293,40.039,62.500,0
151679.277,43.457,49.316,53.711,44.434,-22.461,0
151679.281,25.879,39.062,39.551,37.109,-30.273,0
151679.285,40.527,29.785,34.668,34.180,5.859,0
151679.289,52.734,34.180,31.738,36.621,0.977,0
151679.293,57.129,39.062,26.855,38.086,-11.719,0
151679.295,33.691,36.621,32.227,37.109,-13.184,0
151679.299,3.906,24.414,30.762,28.320,-7.324,0
151679.302,26.855,26.855,30.762,30.273,40.039,0
151679.306,26.855,35.156,33.691,30.762,60.547,0
151679.310,11.230,28.320,33.203,32.715,22.461,0
151679.314,24.414,28.320,38.086,40.527,30.762,0
151679.318,41.504,31.738,33.203,46.875,72.754,0
151679.322,44.434,29.297,26.367,44.922,83.496,0
151679.326,34.180,34.668,39.551,43.457,71.289,0
151679.330,29.785,36.133,41.016,38.574,35.645,0
151679.334,62.012,38.086,35.645,43.457,12.695,0
151679.338,62.500,43.945,36.621,44.434,42.480,0
151679.341,34.180,41.992,42.969,29.785,41.504,0
151679.345,21.973,44.434,45.410,29.297,-4.395,0
151679.349,38.086,43.945,38.574,33.203,27.832,0
151679.353,55.176,35.156,31.738,27.832,72.266,0
151679.357,38.086,31.738,25.879,26.367,37.109,0
151679.361,21.484,42.480,26.367,35.645,-3.418,0
151679.365,47.852,43.457,27.344,40.039,-2.930,0
151679.368,62.012,35.156,23.926,36.133,16.602,0
151679.372,33.203,38.086,21.973,32.227,42.969,0
151679.376,13.184,39.551,29.297,28.320,5.859,0
151679.380,23.926,36.133,34.180,27.832,7.324,0
151679.384,46.387,35.645,40.527,35.645,61.523,0
151679.400,45.898,40.527,53.711,38.574,31.250,0
151679.404,25.879,42.480,54.688,38.086,-14.648,0
151679.408,21.484,36.133,49.805,41.504,1.465,0
151679.411,41.992,31.738,41.992,44.922,42.480,0
151679.415,43.457,31.738,37.598,43.457,31.738,0
151679.419,24.902,26.367,33.203,34.668,-40.527,0
151679.423,15.625,25.391,33.691,32.715,-53.711,0
151679.427,43.945,35.645,38.086,36.621,20.508,0
151679.431,67.383,42.969,30.273,30.762,63.965,0
151679.435,35.156,44.434,32.227,29.297,39.551,0
151679.439,1.465,47.363,32.227,28.809,36.133,0
151679.443,20.508,46.387,38.086,28.809,82.031,0
151679.445,49.805,39.062,43.457,38.574,88.379,0
151679.449,52.734,41.504,35.645,46.387,62.988,0
151679.452,40.039,44.922,32.715,42.480,34.668,0
151679.456,30.273,37.598,30.762,36.621,21.973,0
151679.460,45.410,36.133,31.738,46.875,61.523,0
151679.464,47.852,33.203,29.785,45.410,61.035,0
151679.468,23.438,22.949,29.785,30.762,26.367,0
151679.472,20.020,26.855,33.203,29.785,28.320,0
151679.476,45.898,38.574,27.344,35.156,68.359,0
151679.480,61.523,32.715,24.902,29.785,58.105,0
151679.484,24.902,21.973,32.715,28.320,32.715,0
151679.488,7.812,22.461,37.598,39.551,7.324,0
151679.490,35.156,28.320,45.410,42.480,38.574,0
151679.494,39.551,33.203,49.316,39.551,85.938,0
151679.497,42.480,34.668,44.434,39.062,34.668,0
151679.501,37.598,40.039,42.480,40.527,1.953,0
151679.505,16.602,41.992,36.133,41.992,38.086,0
151679.509,33.203,34.180,31.250,40.527,45.898,0
151679.513,40.039,30.762,35.156,29.785,25.391,0
151679.517,13.184,28.809,33.691,20.508,-4.395,0
151679.521,15.137,26.367,28.320,18.555,-21.973,0
151679.525,47.363,30.273,27.832,22.949,34.668,0
151679.529,56.641,31.738,30.273,23.926,56.152,0
151679.533,29.297,34.180,30.762,18.555,21.484,0
151679.535,13.184,31.250,26.367,19.043,15.625,0
151679.539,58.105,32.715,33.691,31.738,61.035,0
151679.542,70.312,38.574,38.086,33.203,94.238,0
151679.546,22.461,32.715,28.320,23.926,48.828,0
151679.550,5.371,33.203,24.414,26.367,-10.254,0
151679.554,35.156,41.016,31.250,34.180,1.465,0
151679.558,57.617,38.574,32.227,38.574,41.016,0
151679.562,43.945,35.645,26.367,35.645,5.371,0
151679.566,24.414,37.598,36.621,37.109,-55.664,0
151679.570,38.574,35.645,45.898,41.016,-70.312,0
151679.574,50.293,30.273,39.551,40.527,4.883,0
151679.578,66.895,29.785,38.574,39.062,62.012,0
151679.580,36.133,29.297,41.016,31.250,46.875,0
151679.584,8.301,27.344,32.715,32.227,47.852,0
151679.588,51.270,31.250,13.672,43.945,104.492,1
151679.592,54.688,33.691,17.090,41.504,89.844,0
151679.596,31.250,32.715,48.340,31.250,17.578,0
151679.600,18.066,33.691,53.711,25.391,-9.766,0
151679.604,50.781,38.086,50.781,31.250,28.320,0
151679.608,56.152,38.574,49.805,31.738,54.688,0
151679.612,27.344,32.715,41.504,24.414,27.344,0
151679.615,12.695,39.062,38.574,28.320,14.648,0
151679.619,23.926,39.062,32.227,34.180,26.855,0
151679.623,51.270,32.227,28.809,41.016,61.523,0
151679.625,50.293,36.621,29.785,43.945,69.336,0
151679.629,51.758,42.480,36.621,43.457,30.762,0
151679.633,44.922,37.598,34.180,37.109,22.461,0
151679.636,34.180,35.645,22.461,30.762,47.363,0
151679.640,38.574,41.992,14.648,23.926,55.664,0
151679.644,20.020,41.504,26.855,24.414,47.852,0
151679.648,13.672,41.504,35.645,32.227,22.461,0
151679.652,42.969,38.086,24.414,37.598,30.762,0
151679.656,59.082,33.691,16.113,46.387,36.621,0
151679.660,30.762,32.227,19.043,42.969,15.137,0
151679.664,25.391,34.180,29.785,38.574,40.527,0
151679.668,47.852,32.227,38.086,45.410,77.148,0
151679.670,66.406,33.203,45.898,47.852,71.777,0
151679.674,53.711,39.551,43.945,46.875,14.648,0
151679.677,19.043,40.527,26.855,41.504,3.906,0
151679.681,29.785,27.832,16.602,35.645,64.453,0
151679.685,56.641,27.832,25.391,38.086,96.191,0
151679.689,56.641,44.434,40.527,50.293,49.316,0
151679.693,45.410,41.504,35.645,47.852,4.395,0
151679.697,35.156,29.785,11.719,36.133,36.621,0
151679.701,55.176,26.367,6.836,32.227,106.445,0
151679.705,54.199,27.832,22.949,33.203,108.887,0
151679.709,8.301,28.809,33.203,26.367,38.086,0
151679.713,0.488,26.367,36.133,23.438,-16.602,0
151679.715,17.578,28.809,32.715,35.156,36.621,0
151679.719,34.180,35.156,27.832,39.062,72.266,0
151679.722,27.832,39.551,36.621,35.156,28.809,0
151679.726,16.602,38.086,36.133,33.691,19.531,0
151679.730,35.156,33.691,29.297,36.621,73.242,0
151679.734,52.246,32.715,23.438,35.156,84.961,0
151679.738,40.527,31.738,12.207,25.879,35.156,0
151679.742,20.508,31.250,11.719,19.043,7.324,0
151679.746,32.715,28.809,32.227,29.785,18.066,0
151679.750,54.688,22.949,41.992,32.227,38.574,0
151679.754,56.152,34.668,44.922,26.855,46.875,0
151679.758,35.645,38.574,40.527,25.391,18.555,0
151679.775,20.508,29.785,21.484,20.508,-0.977,0
151679.779,24.902,32.715,20.020,20.508,76.660,0
151679.782,19.531,30.762,28.320,19.043,109.863,0
151679.786,15.625,26.367,27.832,17.578,34.668,0
151679.790,16.602,26.367,27.832,19.531,2.441,0
151679.794,29.785,30.762,26.367,32.227,37.109,0
151679.798,47.363,38.574,15.625,39.062,67.383,0
151679.802,32.715,42.480,24.902,33.203,44.434,0
151679.806,19.531,36.133,39.062,30.762,0.000,0
151679.810,43.945,41.016,43.945,37.109,-18.066,0
151679.814,43.457,47.363,43.945,41.016,38.086,0
151679.818,22.949,44.922,34.668,35.645,66.895,0
151679.820,13.184,45.898,28.809,23.926,17.090,0
151679.824,30.273,36.621,28.320,24.902,34.668,0
151679.828,54.199,28.809,29.297,31.738,92.773,0
151679.832,33.203,36.133,30.762,33.203,108.398,0
151679.836,4.883,36.133,32.227,28.320,26.367,0
151679.840,7.812,34.668,38.574,27.344,-0.488,0
151679.844,43.945,42.969,47.852,32.715,88.867,0
151679.848,52.246,40.527,42.480,25.879,88.379,0
151679.852,12.695,34.668,40.527,20.020,28.809,0
151679.855,8.301,37.598,45.410,20.508,-37.109,0
151679.859,31.250,45.410,35.156,24.414,-31.738,0
151679.863,38.086,38.574,21.973,28.809,20.020,0
151679.881,23.438,30.273,21.973,23.438,21.973,0
151679.885,11.719,35.645,31.738,20.508,19.531,0
151679.889,23.438,32.715,38.574,32.227,60.547,0
151679.893,53.711,29.297,35.645,37.598,98.633,0
151679.897,35.645,36.621,33.691,30.762,61.523,0
151679.901,-5.859,37.109,40.527,31.738,0.977,0
151679.905,13.672,32.715,39.551,37.109,9.766,0
151679.909,29.785,37.109,33.691,47.363,55.664,0
151679.912,19.531,33.203,34.180,42.480,33.691,0
151679.916,2.930,33.691,45.410,29.297,-38.574,0
151679.920,13.184,36.621,47.852,32.715,-23.926,0
151679.924,45.898,32.227,31.738,40.527,54.199,0
151679.910,44.922,31.250,33.691,43.457,86.914,0
151679.914,26.855,36.133,44.922,41.016,22.949,0
151679.917,18.555,38.086,39.062,36.133,-12.695,0
151679.921,33.691,33.203,32.227,30.762,49.805,0
151679.925,49.316,37.109,27.832,24.414,83.008,0
151679.929,39.062,40.039,27.344,19.531,74.219,0
151679.933,17.578,35.645,24.414,13.672,41.992,0
151679.937,19.043,24.902,26.855,19.043,36.621,0
151679.941,38.574,25.391,29.297,28.320,74.707,0
151679.945,33.691,34.180,25.391,23.438,83.008,0
151679.949,21.973,42.969,36.133,26.855,39.551,0
151679.953,41.016,43.457,38.086,40.527,41.016,0
151679.955,64.453,46.875,35.156,45.410,68.359,0
151679.959,53.223,52.246,32.715,39.551,86.426,0
151679.963,29.297,43.457,26.367,32.715,37.598,0
151679.967,17.090,35.156,31.250,31.250,6.348,0
151679.971,31.250,28.809,36.133,36.621,60.547,0
151679.974,43.457,27.344,41.016,42.969,45.410,0
151679.978,31.250,33.203,40.039,39.551,-5.371,0
151679.982,18.066,35.645,35.156,31.738,-12.695,0
151679.986,33.691,33.203,25.391,33.203,23.926,0
151679.990,59.082,34.668,20.996,41.016,81.543,0
151679.994,32.715,37.598,28.809,32.227,51.270,0
151679.998,-0.977,39.551,29.297,24.902,-5.371,0
151680.000,19.531,35.156,28.320,26.855,0.000,0
151680.004,38.086,23.926,34.180,24.902,45.898,0
151680.007,35.156,28.320,39.551,19.043,24.902,0
151680.011,26.367,36.621,43.945,17.090,-35.645,0
151680.015,28.809,44.434,39.551,28.809,-13.184,0
151680.019,44.434,49.805,22.949,40.527,47.363,0
151680.023,46.875,42.969,22.461,34.668,68.848,0
151680.027,32.227,41.016,39.062,27.344,44.922,0
151680.031,34.668,45.410,50.781,34.668,32.715,0
151680.035,38.086,35.156,44.434,38.574,80.078,0
151680.039,47.363,37.598,38.086,40.527,84.473,0
151680.043,35.645,42.480,37.598,27.832,25.391,0
151680.045,4.395,36.621,33.203,14.160,-12.207,0
151680.049,24.414,39.551,35.645,20.996,10.254,0
151680.053,40.527,33.203,37.109,20.020,45.898,0
151680.057,22.949,29.297,37.109,15.137,42.969,0
151680.061,12.695,37.598,39.551,21.973,47.363,0
151680.065,22.949,37.109,33.203,29.785,67.871,0
151680.069,50.293,30.273,28.320,27.344,43.457,0
151680.073,45.898,34.668,29.297,23.926,5.371,0
151680.077,8.301,36.133,34.180,20.508,-12.695,0
151680.081,7.324,31.738,43.457,19.043,-24.414,0
151680.085,32.715,33.203,38.574,28.320,17.090,0
151680.088,38.574,38.086,31.250,32.715,44.434,0
151680.091,34.668,41.504,37.598,33.691,12.695,0
151680.095,27.832,35.645,40.039,35.156,-9.766,0
151680.099,27.344,29.785,36.133,33.203,12.207,0
151680.103,39.551,31.250,36.621,34.668,62.500,0
151680.107,29.297,38.574,40.039,35.156,29.785,0
151680.110,24.414,43.457,39.551,39.062,-14.648,0
151680.114,41.992,39.551,32.227,41.504,22.461,0
151680.118,39.551,29.785,24.902,38.574,93.750,0
151680.122,26.855,24.902,27.832,33.691,103.027,0
151680.126,23.438,30.273,38.574,28.809,24.414,0
151680.130,41.504,41.504,44.434,36.133,48.340,0
151680.134,45.898,41.504,32.715,39.551,137.695,0
151680.150,45.410,39.062,21.973,37.109,95.215,0
151680.154,29.785,38.574,27.832,34.180,23.926,0
151680.158,25.391,41.504,38.086,37.598,29.297,2
151680.161,48.340,36.621,39.551,46.875,86.914,0
151680.165,46.875,25.879,33.691,42.480,44.922,0
151680.169,33.203,31.250,33.691,30.762,-42.969,0
151680.173,36.621,32.227,30.273,38.574,3.418,0
151680.177,38.574,35.645,28.809,49.805,65.430,0
151680.181,43.945,38.574,29.785,37.598,98.145,0
151680.185,36.133,37.109,26.367,28.809,93.262,0
151680.189,16.113,38.086,28.320,32.227,46.875,0
151680.193,41.016,38.574,31.738,35.156,38.086,0
151680.195,60.059,40.527,32.715,41.016,99.609,0
151680.199,49.805,41.016,30.273,39.551,89.844,0
151680.202,29.785,36.621,28.809,29.785,18.066,0
151680.206,27.344,31.250,28.809,30.762,36.133,0
151680.210,63.477,29.785,27.344,36.621,101.074,0
151680.214,55.176,31.250,33.203,34.668,69.824,0
151680.218,21.973,41.016,39.551,41.016,1.465,0
151680.222,27.344,41.016,32.227,51.270,2.441,0
151680.226,51.758,34.668,31.738,52.246,56.641,0
151680.230,56.641,32.227,34.180,42.480,74.219,0
151680.234,37.109,32.227,32.227,30.273,46.875,0
151680.238,25.879,34.668,33.691,31.250,14.160,0
151680.240,46.387,34.668,22.461,38.086,15.625,0
151680.244,67.383,37.109,24.414,41.504,55.176,0
151680.247,49.805,37.109,46.875,39.551,69.336,0
151680.251,19.531,31.250,50.293,36.621,20.020,0
151680.255,30.273,33.203,43.457,43.457,41.504,0
151680.259,58.105,40.527,41.504,52.246,72.754,0
151680.263,47.363,45.898,38.574,52.246,45.898,0
151680.267,23.438,44.434,35.645,48.340,17.578,0
151680.271,25.391,36.621,36.133,48.340,16.602,0
151680.275,52.246,35.156,40.039,45.410,27.832,0
151680.279,59.082,34.668,43.945,44.434,25.879,0
151680.283,38.574,32.715,39.062,39.551,20.996,0
151680.285,31.250,33.691,34.668,27.832,-9.766,0
151680.289,44.434,35.156,38.574,33.691,23.926,0
151680.292,45.898,29.785,31.738,32.227,50.781,0
151680.296,30.273,32.227,26.367,23.926,19.043,0
151680.300,19.531,36.621,33.203,31.250,-1.953,0
151680.304,44.922,27.344,29.297,32.715,15.137,0
151680.308,61.523,32.715,20.508,34.668,50.781,0
151680.312,27.832,39.551,19.531,31.738,66.895,0
151680.316,5.859,36.621,28.809,24.414,22.949,0
151680.320,19.531,34.668,31.250,24.414,11.719,0
151680.324,43.945,30.762,32.715,34.180,77.148,0
151680.328,39.062,31.738,40.527,36.621,55.664,0
151680.331,11.719,33.691,41.992,26.855,4.883,0
151680.335,10.254,36.621,36.621,25.391,-10.742,0
151680.339,38.086,38.086,29.785,30.762,37.109,0
151680.343,42.969,27.832,17.090,30.762,42.969,0
151680.347,24.414,23.926,20.020,29.297,-23.438,0
151680.351,23.438,27.344,33.691,32.227,-40.527,0
151680.354,52.734,24.414,23.438,38.086,-5.859,0
151680.358,45.410,25.879,20.508,41.504,-22.949,0
151680.362,15.625,29.785,33.203,40.039,-47.852,0
151680.366,0.488,24.902,26.855,30.762,-49.316,0
151680.370,22.949,29.297,33.203,30.762,-13.672,0
151680.374,58.594,40.527,46.387,35.645,45.898,0
151680.375,43.945,38.086,42.969,31.738,62.012,0
151680.379,12.207,29.297,30.762,25.879,33.691,0
151680.382,12.695,21.484,10.742,25.391,12.207,0
151680.386,40.039,23.926,13.184,29.297,66.895,0
151680.390,41.992,29.297,34.180,32.715,76.660,0
151680.394,25.879,29.297,40.527,35.156,35.156,0
151680.398,17.578,29.297,28.809,33.691,17.090,0
151680.402,35.645,35.645,25.391,25.391,50.781,0
151680.406,43.945,39.551,31.250,19.531,71.777,0
151680.410,19.043,31.738,36.621,19.531,14.648,0
151680.414,-3.418,33.691,31.250,19.531,-1.465,0
151680.418,13.672,40.039,24.414,25.391,55.176,0
151680.420,41.504,37.109,36.133,31.738,92.285,0
151680.424,30.762,37.598,45.410,28.320,56.641,0
151680.427,15.625,36.621,37.598,32.227,-18.555,0
151680.431,27.344,34.180,33.203,37.598,9.766,0
151680.435,44.434,29.297,28.809,27.344,100.098,0
151680.439,29.785,26.855,25.879,21.484,54.688,0
151680.443,8.301,30.762,30.273,22.461,-41.504,0
151680.447,15.137,30.762,29.785,25.391,-4.883,0
151680.451,42.480,32.715,30.273,33.691,52.734,0
151680.455,44.922,32.227,36.621,30.273,28.320,0
151680.459,11.719,33.203,36.133,24.414,-3.418,0
151680.463,21.484,35.156,21.973,31.250,-5.859,0
151680.465,59.082,35.645,23.926,44.434,54.199,0
151680.469,45.410,35.645,36.621,43.945,79.590,0
151680.472,14.648,30.762,29.785,29.297,18.066,0
151680.476,25.391,27.832,22.949,20.508,-22.949,0
151680.480,31.738,31.738,32.715,25.391,6.348,0
151680.484,18.066,41.504,41.992,33.691,41.992,0
151680.488,20.020,39.551,35.645,30.762,-33.203,0
151680.492,10.742,30.273,32.227,25.391,-64.453,0
151680.496,20.996,27.344,33.691,26.367,-8.789,0
151680.500,46.875,32.227,39.551,36.621,20.996,0
151680.504,46.387,37.109,25.391,39.062,20.996,0
151680.508,28.809,47.363,20.020,39.062,20.508,0
151680.525,33.203,44.434,35.645,41.992,41.504,0
151680.529,54.688,34.668,45.410,44.922,74.707,0
151680.532,51.758,37.598,41.504,39.062,69.824,0
151680.536,27.344,39.062,30.273,31.738,47.852,0
151680.540,24.414,37.598,21.484,35.645,46.387,0
151680.544,42.969,31.250,22.949,41.016,48.340,0
151680.548,62.012,30.273,30.762,38.574,59.570,0
151680.552,46.875,31.250,29.785,30.762,52.246,0
151680.556,18.066,40.527,32.227,31.250,13.184,0
151680.560,41.504,46.875,31.250,42.480,11.230,0
151680.564,64.453,38.574,23.926,40.039,37.109,0
151680.568,57.129,36.621,24.902,30.273,59.082,0
151680.570,30.273,38.574,33.691,32.715,49.316,0
151680.574,21.484,35.156,35.645,38.574,51.758,0
151680.577,38.086,31.250,32.227,37.598,82.520,0
151680.581,40.039,38.574,36.621,35.645,67.383,0
151680.585,20.996,41.504,41.992,31.250,10.254,0
151680.589,19.043,36.133,31.250,30.762,-1.953,0
151680.593,43.945,37.109,28.320,41.504,60.547,0
151680.597,51.270,38.086,39.062,45.898,79.102,0
151680.601,28.809,33.203,31.738,43.457,22.461,0
151680.605,28.320,36.133,35.645,41.016,-2.930,0
151680.609,47.363,41.016,42.969,32.715,85.449,0
151680.613,47.363,37.598,34.668,19.531,76.172,0
151680.615,23.926,34.668,35.156,16.113,12.695,0
151680.619,-14.648,29.297,35.645,14.160,-4.395,0
151680.623,5.859,34.668,35.645,18.066,21.484,0
151680.626,39.551,42.480,23.926,30.273,67.383,0
151680.630,36.621,40.527,7.812,29.297,38.574,0
151680.634,21.484,37.598,22.949,26.855,-27.832,0
151680.638,19.043,34.180,46.875,24.902,12.695,0
151680.642,30.762,32.715,44.922,16.602,71.777,0
151680.646,36.133,32.227,44.434,17.578,1.465,0
151680.650,11.230,26.855,43.457,18.555,-14.648,0
151680.654,16.602,26.367,35.156,20.508,37.109,0
151680.658,46.875,36.621,36.621,40.039,97.656,0
151680.660,40.527,39.062,28.809,36.621,103.027,0
151680.664,29.297,34.668,28.809,17.090,29.785,0
151680.667,13.184,33.203,30.273,16.113,20.996,0
151680.671,23.926,40.527,29.785,20.996,55.664,0
151680.675,43.457,50.293,39.551,28.809,65.918,0
151680.679,28.809,41.016,37.598,25.879,50.781,0
151680.683,12.695,33.691,26.367,23.438,45.898,0
151680.687,27.832,34.668,18.555,31.250,67.383,0
151680.691,61.523,30.762,24.902,30.762,103.516,0
151680.695,47.852,31.250,33.203,28.809,108.887,0
151680.699,12.695,34.668,34.180,29.785,80.566,0
151680.703,29.785,38.086,41.016,34.668,74.219,0
151680.705,57.617,41.016,44.434,40.527,122.070,0
151680.709,47.363,34.668,37.109,30.762,120.605,0
151680.713,28.320,31.738,28.320,23.926,57.617,0
151680.716,16.602,37.598,33.691,33.203,49.316,0
151680.720,34.180,42.969,39.551,42.969,62.988,0
151680.724,44.922,40.039,25.879,33.203,43.457,2
151680.728,29.785,30.762,22.461,21.973,25.879,0
151680.732,21.484,26.855,30.273,27.344,-9.277,0
151680.736,33.203,31.738,28.809,36.621,20.020,0
151680.740,50.293,36.621,29.785,39.551,85.938,0
151680.744,36.621,36.133,47.852,38.086,49.316,0
151680.748,19.531,32.227,53.711,25.879,-8.301,0
151680.750,44.434,37.598,43.457,33.203,10.742,0
151680.754,58.105,40.527,41.992,44.434,56.641,0
151680.757,35.156,28.320,29.297,33.691,18.066,0
151680.761,7.324,28.809,26.367,27.832,-26.855,0
151680.765,18.555,30.273,41.016,30.762,6.836,0
151680.769,49.316,34.668,42.969,38.086,31.738,0
151680.773,41.992,37.598,41.504,36.621,17.578,0
151680.777,25.391,40.527,39.551,31.738,-22.461,0
151680.781,30.273,45.410,38.574,39.551,-16.602,0
151680.785,49.805,37.109,35.156,46.387,85.938,0
151680.789,52.734,38.086,38.086,37.109,99.121,0
151680.793,42.969,43.945,44.922,28.809,3.418,0
151680.796,29.785,35.156,40.527,25.879,-11.230,0
151680.800,47.852,37.598,28.320,36.621,67.871,0
151680.804,75.684,41.992,28.809,36.621,94.238,0
151680.808,40.039,32.227,35.645,18.066,52.246,0
151680.812,22.461,33.691,37.109,23.926,45.410,0
151680.815,48.828,42.480,47.363,47.852,55.664,0
151680.819,54.688,37.598,48.340,47.363,73.242,0
151680.823,41.016,27.832,36.621,35.645,20.020,0
151680.827,18.066,23.438,35.156,37.109,-33.691,0
151680.831,26.855,20.996,33.691,36.621,18.066,0
151680.835,53.223,30.273,32.227,40.039,69.824,0
151680.839,44.434,42.969,39.551,41.992,67.871,0
151680.840,14.648,41.992,41.016,35.645,-1.953,0
151680.844,26.367,39.062,39.551,38.574,-22.461,0
151680.847,41.504,40.039,43.945,41.504,24.414,0
151680.851,36.621,41.504,41.992,40.039,35.645,0
151680.855,30.273,39.551,37.598,38.574,2.930,0
151680.859,22.461,44.922,38.574,36.133,-27.344,0
151680.863,34.668,44.922,39.062,41.504,-30.762,0
151680.867,48.828,34.180,39.551,45.410,34.180,0
151680.871,40.527,29.297,41.992,40.527,29.785,0
151680.875,24.902,34.180,46.387,42.969,-25.879,0
151680.879,52.734,42.969,41.504,53.711,15.625,0
151680.883,59.570,39.062,29.785,45.898,88.867,0
151680.900,20.020,32.715,14.648,28.320,65.430,0
151680.904,5.859,35.645,23.926,25.391,-21.484,0
151680.908,3.418,40.527,45.410,27.832,-16.602,0
151680.911,23.438,42.969,49.805,29.785,18.555,0
151680.915,36.621,36.133,41.992,30.273,24.902,0
151680.919,12.207,29.785,35.156,24.902,0.488,0
151680.923,6.348,34.668,39.551,26.855,-2.441,0
151680.927,27.832,35.645,38.086,38.086,38.086,0
151680.931,43.457,35.645,29.785,37.598,75.684,0
151680.935,39.551,31.738,17.090,30.762,47.363,0
151680.939,28.320,26.855,19.043,28.320,-8.301,0
151680.943,27.832,42.480,36.133,36.621,26.367,0
151680.945,41.992,49.316,40.039,33.691,108.398,0
151680.949,33.203,34.180,38.086,22.949,92.285,0
151680.952,6.348,33.203,40.527,23.438,43.945,0
151680.956,21.973,40.039,36.133,35.645,62.500,0
151680.960,53.711,38.574,41.016,50.781,83.008,0
151680.964,52.246,34.668,37.109,49.316,63.477,0
151680.968,31.250,31.250,26.855,32.715,-8.301,0
151680.972,31.738,26.367,32.227,28.320,-25.391,0
151680.976,34.180,26.367,31.250,32.227,41.504,0
151680.980,26.855,29.297,34.668,32.227,30.273,0
151680.984,24.902,30.762,44.434,32.227,-13.672,0
151680.988,15.625,32.715,30.762,31.738,-11.719,0
151680.990,40.527,37.109,27.832,41.504,6.348,0
151680.994,60.547,36.621,41.504,43.945,23.926,0
151680.997,40.039,26.855,43.457,35.156,17.578,0
151681.001,29.297,24.414,42.969,40.527,2.441,0
151681.005,41.016,25.879,32.227,45.898,14.648,0
151681.009,50.781,27.344,35.645,41.992,43.457,0
151681.013,44.434,33.691,39.062,37.598,34.180,0
151681.017,50.293,39.551,34.668,35.156,-21.973,0
151681.021,54.199,41.016,37.109,36.621,-31.738,0
151681.025,35.156,37.598,38.086,36.133,39.062,0
151681.029,33.203,42.969,33.691,38.086,72.754,0
151681.033,23.926,48.340,36.621,35.645,10.254,0
151681.035,27.832,42.480,36.133,37.109,-6.348,0
151681.039,75.195,36.621,25.391,47.363,47.363,0
151681.042,52.246,31.738,18.066,38.086,73.242,0
151681.046,21.484,30.762,19.043,23.438,59.570,0
151681.050,15.625,31.738,31.250,19.531,39.551,0
151681.054,21.973,26.367,37.109,16.602,61.035,0
151681.058,50.293,22.461,30.273,16.602,95.703,0
151681.062,42.969,29.785,36.621,21.973,22.461,0
151681.066,21.973,40.039,46.387,33.203,-36.621,0
151681.070,29.297,43.945,41.992,38.574,10.742,0
151681.074,56.641,41.016,34.180,38.574,74.707,0
151681.078,50.293,38.574,18.555,39.551,82.520,0
151681.080,15.625,37.598,19.043,34.180,42.480,0
151681.084,19.043,31.250,29.785,31.250,57.617,0
151681.088,41.992,26.367,34.180,41.016,100.586,0
151681.092,36.621,30.273,35.645,47.363,86.914,0
151681.095,24.902,34.668,33.691,41.992,13.672,0
151681.099,17.090,31.250,27.344,38.574,-30.762,0
151681.103,39.062,27.832,25.879,49.316,35.156,0
151681.107,55.664,28.320,39.551,50.781,50.781,0
151681.111,31.738,33.691,42.480,26.855,14.160,0
151681.115,12.695,38.574,37.598,19.531,15.625,0
151681.119,25.879,35.156,31.738,29.785,21.973,0
151681.123,40.039,33.691,30.273,27.344,26.855,0
151681.125,24.414,29.297,26.367,14.648,21.973,0
151681.129,1.465,25.879,20.996,14.648,11.230,0
151681.132,2.930,25.391,29.297,18.555,3.906,0
151681.136,25.879,31.738,32.227,21.973,43.945,0
151681.140,23.926,32.715,22.949,15.137,59.082,0
151681.144,-1.465,30.273,20.508,11.719,-0.488,0
151681.148,13.672,38.086,28.320,23.438,-29.297,0
151681.152,42.480,36.133,27.344,23.438,16.113,0
151681.156,38.574,37.598,32.715,23.438,57.617,0
151681.160,25.879,45.410,36.133,27.832,24.414,0
151681.164,27.832,40.039,32.715,33.691,2.930,0
151681.168,28.320,31.738,28.809,33.691,30.273,0
151681.170,34.668,34.180,31.738,35.156,56.152,0
151681.173,41.016,34.668,36.621,27.344,62.012,0
151681.177,20.020,30.762,35.645,16.113,38.086,0
151681.181,12.695,33.203,34.668,22.461,49.316,0
151681.185,30.273,34.180,28.320,26.855,92.285,0
151681.189,33.203,29.785,29.297,18.066,38.574,0
151681.193,12.207,29.785,28.809,8.789,-30.273,0
151681.197,7.812,37.598,24.414,20.508,0.977,0
151681.201,51.270,38.574,26.367,30.273,53.223,0
151681.205,36.133,26.367,23.438,15.625,74.219,0
151681.209,-10.742,23.438,22.949,11.230,25.879,0
151681.213,-9.277,30.273,25.879,16.113,-13.184,0
151681.215,18.066,29.785,32.715,18.555,61.523,0
151681.219,33.691,25.879,40.039,16.602,90.820,0
151681.222,13.184,23.926,35.156,15.137,29.785,0
151681.226,11.230,26.367,24.414,17.578,-23.438,0
151681.230,36.621,33.691,27.832,31.250,5.859,0
151681.234,46.387,41.016,36.621,42.969,43.457,0
151681.238,33.691,38.086,37.109,32.227,1.953,0
151681.242,16.113,40.527,33.691,26.855,-19.043,0
151681.246,28.809,36.133,23.926,28.320,23.438,0
151681.250,43.945,26.367,28.809,28.809,55.664,0
151681.254,38.574,36.133,43.457,35.645,41.992,0
151681.258,13.184,34.668,35.645,28.809,20.508,0
151681.261,17.090,28.809,37.598,28.809,34.180,0
151681.265,47.852,35.645,46.875,41.504,59.570,0
151681.269,46.875,36.621,41.016,42.969,71.289,0
151681.273,39.551,37.598,38.086,38.574,51.758,0
151681.277,34.180,30.273,35.645,41.016,42.969,0
151681.280,37.598,24.414,27.832,47.852,85.449,0
151681.284,48.828,37.109,27.344,47.363,79.590,0
151681.288,28.809,37.109,17.090,30.762,57.617,0
151681.292,15.137,24.414,15.625,25.391,58.594,0
151681.296,29.297,20.996,27.832,28.809,67.871,0
151681.300,41.992,28.809,31.738,26.367,73.242,0
151681.304,28.809,28.809,27.344,16.602,50.293,0
151681.321,7.812,26.855,27.344,16.113,29.297,0
151681.325,22.949,31.738,35.645,27.832,77.637,0
151681.329,48.828,28.809,33.203,30.762,103.027,0
151681.333,35.156,27.832,26.855,28.320,69.336,0
151681.337,16.602,36.621,25.391,25.879,19.531,0
151681.340,28.320,45.898,26.367,30.273,6.348,1
151681.344,37.598,42.480,22.461,36.133,62.500,0
151681.348,37.109,31.250,20.508,33.691,62.988,0
151681.352,25.879,26.367,23.438,29.297,-5.371,0
151681.356,22.461,25.879,24.414,24.414,-25.391,0
151681.360,34.180,26.855,29.297,33.691,57.129,0
151681.364,45.898,29.785,30.762,42.969,94.238,0
151681.365,39.062,36.621,30.273,38.574,38.086,0
151681.369,21.973,35.156,33.691,34.668,20.020,0
151681.372,34.668,27.344,15.137,36.133,53.223,0
151681.376,56.641,29.297,15.137,41.016,86.426,0
151681.380,36.621,37.598,33.691,35.156,78.613,0
151681.384,4.883,37.109,30.762,19.531,37.598,0
151681.388,20.020,35.645,38.574,19.531,65.918,0
151681.392,41.992,38.574,46.387,30.273,129.395,0
151681.396,25.879,37.598,38.086,31.250,71.777,0
151681.400,3.906,35.156,27.344,20.020,-45.898,0
151681.404,20.996,39.551,28.320,24.902,-64.453,0
151681.408,47.363,37.109,36.133,37.109,22.949,0
151681.410,44.922,31.250,40.527,33.203,30.273,0
151681.414,17.578,36.621,36.621,20.508,-26.855,0
151681.417,5.371,37.598,32.715,27.344,-30.273,0
151681.421,32.227,33.203,35.156,41.016,4.395,0
151681.425,43.945,36.621,39.062,33.691,34.668,0
151681.429,26.855,40.039,41.992,29.297,29.785,0
151681.433,20.020,41.992,45.898,35.645,14.648,0
151681.437,28.320,38.574,43.945,39.551,5.371,0
151681.441,50.293,33.691,37.598,35.645,11.230,0
151681.445,49.316,37.598,34.180,30.273,31.250,0
151681.449,6.348,36.621,28.809,25.391,0.977,0
151681.453,14.160,30.762,31.250,31.250,11.230,0
151681.455,43.457,31.738,35.645,42.969,66.895,0
151681.459,37.109,33.691,33.691,43.945,90.332,0
151681.462,25.391,36.133,30.273,36.621,43.457,0
151681.466,28.320,38.574,34.668,35.156,7.812,0
151681.470,58.105,35.645,43.945,35.156,72.754,0
151681.474,60.059,39.551,47.363,36.133,64.453,0
151681.478,31.738,40.527,49.805,41.992,-10.254,0
151681.482,18.066,34.668,41.016,39.551,-28.809,0
151681.486,32.227,38.574,28.809,39.062,27.344,0
151681.490,48.828,36.133,21.484,41.992,78.125,0
151681.494,30.273,34.180,25.879,39.551,8.789,0
151681.498,19.531,38.086,35.156,35.156,-39.551,0
151681.500,48.340,35.156,28.320,33.691,-15.625,0
151681.504,39.551,39.551,29.785,28.809,17.090,0
151681.508,11.719,34.668,40.039,20.508,25.879,0
151681.511,7.324,37.598,41.504,24.414,19.531,0
151681.515,17.578,40.527,39.551,32.715,22.949,0
151681.519,42.480,34.180,33.203,34.180,53.223,0
151681.523,43.945,39.551,31.738,32.715,17.578,0
151681.527,14.648,33.203,32.715,24.902,-29.297,0
151681.531,13.184,31.738,35.156,31.250,-30.273,0
151681.535,38.086,43.457,41.992,43.945,17.090,0
151681.539,41.992,42.969,39.551,42.480,56.641,0
151681.543,21.484,39.062,29.297,35.156,14.648,0
151681.546,12.695,44.922,27.832,32.227,-46.387,0
151681.550,27.832,43.457,26.855,36.133,-39.551,0
151681.554,34.668,35.645,26.367,28.320,5.859,0
151681.558,23.438,38.086,38.574,27.344,-7.324,0
151681.562,12.207,45.410,32.227,35.156,18.555,0
151681.566,26.367,41.992,18.066,43.945,69.824,0
151681.569,51.270,37.109,25.879,41.504,94.727,0
151681.573,49.805,39.062,37.109,32.227,63.477,0
151681.577,30.762,41.992,44.434,32.227,20.508,0
151681.581,23.926,39.062,42.480,32.227,24.414,0
151681.585,48.828,34.668,30.762,32.715,80.078,0
151681.589,66.406,40.527,26.367,27.344,87.402,0
151681.590,17.090,40.527,30.762,19.043,7.812,0
151681.594,-9.277,34.668,30.762,17.578,-25.391,0
151681.598,31.738,40.039,24.414,24.902,42.480,0
151681.601,45.410,40.527,20.996,29.785,87.891,0
151681.605,25.391,40.527,25.391,26.855,62.500,0
151681.609,14.160,41.504,30.273,20.996,40.039,0
151681.613,32.227,41.504,41.016,28.320,13.672,0
151681.617,45.410,41.016,38.086,25.391,52.734,0
151681.621,32.715,36.621,22.949,20.020,75.195,0
151681.625,19.043,39.062,29.297,27.344,-1.465,0
151681.629,27.344,41.992,38.574,25.391,-22.949,0
151681.633,53.711,36.621,36.133,30.762,65.430,0
151681.650,47.852,38.086,27.832,31.738,98.145,0
151681.654,29.785,41.016,28.320,25.879,21.973,0
151681.657,38.086,34.668,33.203,35.645,22.949,0
151681.661,72.754,37.598,35.156,45.410,88.379,0
151681.665,71.777,38.086,32.227,37.109,83.496,0
151681.669,33.203,36.621,18.066,21.973,50.293,0
151681.673,29.297,40.039,18.066,28.320,-3.906,0
151681.677,50.293,32.227,34.668,46.387,18.555,0
151681.681,63.965,32.227,37.598,54.199,61.523,0
151681.685,62.012,44.434,39.062,50.781,-2.930,0
151681.689,31.738,39.551,32.227,44.434,-46.875,0
151681.693,28.809,32.227,29.785,45.898,5.371,0
151681.695,49.805,32.227,41.504,45.898,42.969,0
151681.699,37.598,33.691,38.574,31.738,42.969,0
151681.703,19.531,34.668,30.762,26.855,3.906,0
151681.707,21.973,38.086,35.645,33.691,-16.602,0
151681.711,45.410,42.480,38.086,36.621,55.176,0
151681.714,49.316,44.434,33.691,39.062,32.715,0
151681.718,34.180,52.246,29.785,40.039,-27.832,0
151681.722,33.691,47.363,34.668,42.480,2.441,0
151681.726,48.340,29.297,34.668,39.551,55.176,0
151681.730,53.711,33.691,24.902,36.133,25.391,0
151681.734,33.203,36.133,29.785,26.855,-28.320,0
151681.738,19.043,32.227,37.109,22.949,-13.184,0
151681.740,28.809,34.180,30.762,34.180,32.227,0
151681.744,41.992,29.297,28.320,31.738,28.809,0
151681.747,35.156,28.809,32.227,24.902,22.461,0
151681.751,16.113,31.738,32.715,27.832,28.320,0
151681.755,32.227,30.762,36.133,34.668,37.598,0
151681.759,62.012,33.203,36.133,43.457,67.383,0
151681.763,51.270,37.109,26.855,42.480,37.598,0
151681.767,33.203,34.668,31.250,36.133,7.324,0
151681.771,46.387,32.715,44.434,42.480,12.207,0
151681.775,52.246,27.344,35.645,45.410,59.570,0
151681.779,39.551,33.203,30.273,42.480,100.586,0
151681.783,17.090,34.180,42.969,38.086,40.527,0
151681.786,18.555,25.391,44.434,36.621,-32.715,0
151681.790,52.734,27.832,37.598,42.969,27.832,0
151681.794,56.641,32.227,32.227,40.039,91.797,0
151681.798,27.344,30.762,37.109,38.086,26.367,0
151681.802,15.625,27.832,38.086,31.250,-24.414,0
151681.806,36.133,29.785,33.203,32.715,41.992,0
151681.809,48.828,30.273,31.250,38.086,79.102,0
151681.813,47.852,32.715,32.227,31.250,37.598,0
151681.817,32.227,37.598,25.391,26.367,18.555,0
151681.821,26.367,32.715,20.020,31.250,52.734,0
151681.825,53.223,29.785,32.227,37.109,95.215,0
151681.829,49.805,36.621,40.527,32.227,44.434,0
151681.830,27.344,39.551,32.227,24.902,-8.301,0
151681.834,33.203,44.922,28.320,38.086,35.156,0
151681.837,56.152,44.922,30.762,48.828,53.711,0
151681.841,52.246,32.227,26.367,30.273,51.270,0
151681.845,29.785,28.809,28.809,20.508,29.785,0
151681.849,21.484,35.156,30.273,32.715,25.879,0
151681.853,33.203,30.762,21.973,40.039,73.242,0
151681.857,36.133,27.832,26.367,34.668,44.434,0
151681.861,23.926,32.227,39.062,36.621,-2.441,0
151681.865,22.461,28.809,38.086,37.109,12.207,0
151681.869,39.062,33.203,31.250,36.133,32.715,0
151681.873,46.387,36.621,35.156,39.062,69.824,0
151681.875,32.227,28.320,39.551,31.738,53.223,0
151681.879,31.250,26.855,34.180,29.785,-9.766,0
151681.882,36.621,25.391,25.391,37.598,-20.996,0
151681.886,42.480,24.414,29.785,41.504,40.527,0
151681.890,49.316,31.738,37.598,41.992,53.223,0
151681.894,32.715,41.016,41.504,45.410,-6.836,0
151681.898,33.691,39.551,49.805,50.781,2.930,0
151681.902,55.664,35.645,41.504,49.805,23.438,0
151681.906,69.824,38.574,34.180,51.758,23.438,0
151681.910,48.828,44.434,45.410,51.758,13.184,0
151681.914,27.344,40.039,43.945,45.898,-13.184,0
151681.918,48.828,38.086,37.109,48.828,14.648,0
151681.920,60.059,40.527,39.551,48.828,64.941,0
151681.924,36.133,26.367,39.062,37.598,23.438,0
151681.927,20.996,20.508,43.945,33.691,-8.301,0
151681.931,37.109,27.344,43.457,41.504,21.973,1
151681.935,71.777,31.738,39.551,50.781,54.688,0
151681.939,64.453,33.691,37.109,50.293,25.391,0
151681.943,32.227,41.016,34.180,46.875,-36.621,0
151681.947,46.387,44.434,41.504,42.969,5.371,0
151681.951,68.359,43.457,45.898,40.527,101.562,0
151681.955,57.617,41.992,37.598,38.574,55.664,0
151681.959,31.250,39.551,26.367,35.645,-0.977,0
151681.963,26.855,42.480,28.320,31.738,27.344,0
151681.966,47.363,47.363,39.551,39.062,66.895,0
151681.970,53.223,52.246,39.062,46.387,74.219,0
151681.974,40.527,52.246,30.762,40.039,45.898,0
151681.977,29.785,38.086,29.297,36.621,34.668,0
151681.981,33.691,27.344,31.250,36.133,35.645,0
151681.985,37.109,27.344,41.016,37.109,56.152,0
151681.989,36.133,36.133,44.922,31.738,48.828,0
151681.993,20.508,33.203,36.133,28.320,7.324,0
151681.997,9.277,28.809,38.086,36.133,6.836,0
151682.001,32.715,28.809,43.457,36.133,8.789,0
151682.005,28.320,29.297,36.133,28.809,17.090,0
151682.009,20.020,40.039,35.645,32.227,16.113,0
151682.011,28.809,41.992,40.527,39.062,25.391,0
151682.015,38.574,35.645,32.715,41.504,67.871,0
151682.019,48.828,41.504,39.062,39.062,44.434,0
151682.023,16.602,40.039,39.551,21.973,-23.438,0
151682.027,0.977,31.250,34.180,10.254,-13.184,0
151682.030,30.273,37.598,35.156,17.578,41.504,0
151682.034,42.969,43.457,27.344,27.832,45.898,0
151682.038,24.902,40.527,21.484,23.926,26.367,0
151682.042,-7.812,27.832,20.020,5.371,21.973,0
151682.046,6.836,24.414,20.996,7.324,48.340,0
151682.050,36.133,30.273,26.855,15.137,53.223,0
151682.054,22.949,28.320,33.203,16.602,31.250,0
151682.070,8.789,33.203,37.598,22.461,-20.996,0
151682.074,30.273,41.504,39.551,34.180,-25.879,0
151682.078,41.504,35.156,41.992,35.645,40.039,0
151682.081,16.602,29.785,41.992,24.414,50.293,0
151682.085,5.859,34.668,39.062,20.020,-2.441,0
151682.089,11.719,29.785,47.363,24.902,-5.859,0
151682.093,25.391,21.484,47.363,26.367,48.828,0
151682.097,37.109,30.762,44.922,29.297,88.867,0
151682.101,35.645,46.387,42.480,35.645,29.785,0
151682.105,23.438,45.898,36.133,33.691,-45.898,0
151682.109,40.527,41.504,26.855,35.156,29.297,0
151682.113,59.082,41.992,17.578,31.738,74.219,0
151682.115,42.480,41.016,24.902,21.973,9.277,0
151682.119,29.785,39.551,40.527,24.902,-29.785,0
151682.123,36.133,41.504,40.039,32.227,-3.418,0
151682.127,48.828,44.434,40.039,38.086,46.875,0
151682.131,39.062,49.316,43.945,32.227,50.293,0
151682.134,8.789,44.922,26.855,19.531,-2.930,0
151682.138,8.789,32.715,14.160,15.625,16.602,0
151682.142,28.320,27.344,24.414,18.555,78.613,0
151682.146,24.414,23.926,27.832,17.578,41.504,0
151682.150,12.207,27.344,31.738,18.066,-29.785,0
151682.154,19.043,32.715,39.551,29.297,-6.836,0
151682.158,32.715,33.203,43.945,40.039,63.477,0
151682.175,34.668,27.344,41.504,34.668,60.059,0
151682.179,23.438,34.180,38.086,30.273,8.301,0
151682.183,22.461,39.062,35.645,40.039,23.438,0
151682.187,36.133,31.738,24.902,45.898,56.152,0
151682.191,40.039,25.879,24.902,41.016,39.551,0
151682.194,26.367,20.508,30.273,34.180,1.953,0
151682.198,14.648,25.879,32.227,28.809,-33.203,0
151682.202,27.344,31.738,34.180,34.668,-5.371,0
151682.206,61.035,32.715,33.691,33.691,31.738,0
151682.210,50.781,29.785,34.668,23.438,57.129,0
151682.214,20.508,32.715,33.691,22.461,58.594,0
151682.218,32.715,38.086,37.598,27.344,23.926,0
151682.205,64.453,41.992,43.457,28.320,36.133,0
151682.209,54.199,43.945,41.504,26.367,66.895,0
151682.212,14.160,36.621,34.180,22.949,0.977,0
151682.216,23.438,34.668,23.926,23.438,-34.668,0
151682.220,41.992,36.621,27.344,36.621,1.465,0
151682.224,36.133,27.344,35.645,41.016,17.090,0
151682.228,19.043,23.926,39.062,37.109,-16.602,0
151682.232,13.672,26.855,41.504,38.574,-45.898,0
151682.236,32.715,25.879,40.527,32.715,11.230,0
151682.240,44.922,27.344,40.527,28.320,45.410,0
151682.244,24.902,36.621,33.203,24.902,10.742,0
151682.248,11.719,38.086,28.320,27.832,-19.043,0
151682.250,29.297,30.273,35.645,40.527,-23.438,0
151682.254,43.457,27.832,36.621,42.969,63.477,0
151682.257,31.738,27.344,27.344,30.273,64.453,0
151682.261,13.672,27.344,29.785,23.926,-1.953,0
151682.265,20.996,27.832,37.109,32.227,5.859,0
151682.269,45.898,25.879,37.109,36.621,41.016,0
151682.273,44.922,26.367,32.715,32.227,37.598,0
151682.277,25.879,34.180,33.691,31.738,-45.410,0
151682.281,35.645,37.109,39.551,31.250,-17.578,0
151682.285,42.480,29.785,30.273,26.367,59.082,0
151682.289,44.922,21.973,24.414,24.414,86.914,0
151682.293,40.527,30.762,32.227,25.879,33.203,0
151682.295,14.648,37.598,35.645,28.809,-9.277,0
151682.299,37.598,36.621,32.715,40.039,52.246,0
151682.303,58.594,39.551,30.762,41.992,82.520,0
151682.306,30.762,32.227,18.066,23.926,55.664,0
151682.310,10.254,35.156,21.484,19.531,17.578,0
151682.314,19.531,32.227,35.156,24.902,2.930,0
151682.318,35.156,21.973,32.227,21.484,16.602,0
151682.322,21.973,24.414,29.297,14.160,40.527,0
151682.326,0.488,20.996,25.879,14.160,28.809,0
151682.330,8.301,18.555,28.320,14.648,34.668,0
151682.334,32.227,26.855,41.504,18.066,117.188,0
151682.338,40.039,36.133,39.062,19.531,138.184,0
151682.340,12.207,32.715,25.391,13.672,79.590,0
151682.344,-0.977,22.461,29.297,11.230,30.273,0
151682.347,25.879,23.438,29.297,16.113,59.082,0
151682.351,34.668,24.902,14.648,21.484,83.008,0
151682.355,22.461,28.809,17.578,21.484,51.758,0
151682.359,22.461,35.645,31.250,23.438,36.133,0
151682.363,23.438,29.297,29.297,27.344,29.785,0
151682.367,34.668,27.344,25.879,30.273,53.223,0
151682.371,36.133,31.738,33.203,30.762,71.289,0
151682.375,29.297,29.785,41.504,33.203,21.484,0
151682.379,48.828,27.344,39.551,32.715,12.207,0
151682.383,50.293,32.227,36.133,31.250,74.707,0
151682.400,33.691,40.039,26.855,32.227,72.266,0
151682.404,12.695,39.551,26.855,29.297,43.457,0
151682.407,17.090,37.598,40.039,36.621,43.457,0
151682.411,41.504,30.273,37.109,40.039,84.473,0
151682.415,33.691,23.926,33.203,24.902,96.191,0
151682.419,14.648,31.738,44.434,20.020,-1.465,0
151682.423,7.324,32.227,39.062,20.508,-40.039,0
151682.427,22.949,27.832,26.367,22.949,50.293,0
151682.431,33.691,30.273,27.344,22.461,78.125,0
151682.435,9.766,26.367,24.414,9.277,-2.441,0
151682.439,6.348,32.227,26.855,3.906,-48.828,0
151682.443,26.367,42.969,36.133,13.672,-5.859,0
151682.445,33.691,34.668,40.527,24.414,38.574,0
151682.449,21.973,24.902,38.086,22.949,41.992,0
151682.452,3.906,30.273,35.645,17.090,-2.930,0
151682.456,26.367,32.227,34.668,26.855,0.000,0
151682.460,41.992,36.621,29.785,36.133,69.824,0
151682.464,27.344,38.574,16.113,30.273,68.848,0
151682.468,13.672,38.574,14.160,20.020,-0.488,0
151682.472,19.531,39.062,19.531,25.391,21.973,0
151682.476,38.086,29.785,28.320,37.109,79.590,0
151682.480,44.922,29.785,36.621,29.297,52.734,0
151682.484,19.531,28.809,31.738,12.207,20.996,0
151682.488,3.906,29.297,27.344,7.812,31.250,0
151682.490,38.086,38.086,28.809,18.555,68.848,0
151682.494,44.434,37.598,30.273,20.020,81.055,0
151682.497,12.695,36.133,30.273,17.578,23.926,0
151682.501,10.254,37.109,26.367,20.508,-25.391,0
151682.505,28.320,35.156,24.902,28.809,-11.230,0
151682.509,43.457,29.297,22.949,28.809,13.672,0
151682.513,35.645,29.297,25.391,25.391,16.113,0
151682.517,19.531,29.297,33.203,34.668,-9.766,0
151682.521,15.625,25.391,33.691,28.320,-9.277,0
151682.525,40.527,26.855,36.621,23.438,36.621,0
151682.529,41.016,29.297,35.645,27.344,52.246,0
151682.533,3.418,33.691,30.762,26.855,5.371,0
151682.550,4.883,36.621,37.598,37.598,-0.488,0
151682.554,32.227,33.203,35.645,43.457,20.996,0
151682.558,52.246,37.109,26.855,40.527,10.742,0
151682.562,30.273,34.180,22.461,32.715,4.395,0
151682.566,-1.465,20.996,20.020,26.855,-5.371,0
151682.570,24.414,23.438,24.414,32.715,4.395,0
151682.574,52.734,28.809,29.297,37.109,27.344,0
151682.578,41.504,35.156,35.156,36.621,-10.254,0
151682.582,23.926,41.992,37.598,28.320,-49.316,0
151682.585,30.762,37.598,35.156,26.855,35.645,0
151682.589,52.246,38.086,37.598,37.109,73.242,0
151682.593,51.270,38.086,37.598,41.016,47.363,0
151682.580,32.227,27.344,29.297,38.574,2.441,0
151682.584,41.504,24.414,24.414,34.180,8.301,0
151682.588,52.734,25.391,13.184,33.691,112.305,0
151682.591,45.410,31.250,12.207,35.156,85.449,0
151682.595,14.160,37.109,31.250,35.645,-3.906,1
151682.599,3.906,33.691,36.133,33.203,1.953,0
151682.603,33.691,40.039,33.691,38.086,42.480,0
151682.607,49.316,42.480,37.598,38.086,40.039,0
151682.611,24.414,37.109,42.480,37.109,-9.277,0
151682.615,15.137,29.297,39.551,32.715,-23.438,0
151682.619,32.715,31.738,30.273,29.785,4.883,0
151682.623,42.969,38.086,26.855,33.691,42.969,0
151682.625,33.203,36.621,29.297,30.762,48.828,0
151682.629,13.672,36.133,35.156,28.809,33.691,0
151682.632,37.109,33.203,36.133,36.621,66.895,0
151682.636,58.105,37.109,37.109,44.922,126.953,0
151682.640,35.645,42.480,31.738,37.598,61.523,0
151682.644,30.273,44.922,37.598,42.969,-6.836,0
151682.648,33.691,41.504,38.574,46.387,9.766,0
151682.652,44.922,39.551,22.949,35.645,11.230,0
151682.656,48.340,42.969,26.367,32.227,21.973,0
151682.660,26.367,36.133,37.598,28.320,31.250,0
151682.664,16.113,36.621,41.016,31.250,-13.184,0
151682.668,41.504,41.016,36.133,34.668,-11.719,0
151682.670,64.453,38.574,34.180,38.574,42.480,0
151682.674,38.086,40.039,32.227,32.715,34.668,0
151682.677,13.184,41.016,30.762,29.785,-30.762,0
151682.681,31.738,34.180,30.273,35.645,-2.441,0
151682.685,52.734,26.855,32.715,36.621,70.312,0
151682.689,42.480,27.832,32.227,30.273,17.090,0
151682.693,31.250,37.109,27.832,25.879,-24.902,0
151682.697,42.969,37.598,29.297,28.809,3.906,0
151682.701,53.223,34.668,33.203,24.902,58.105,0
151682.705,31.250,39.551,33.691,20.508,68.848,0
151682.709,5.859,41.504,23.438,13.672,9.766,0
151682.713,10.742,38.086,21.973,17.578,9.277,0
151682.715,37.598,41.504,34.668,30.762,71.289,0
151682.719,48.828,43.945,42.969,32.227,34.180,0
151682.722,21.484,39.551,39.062,29.785,-4.395,0
151682.726,14.648,39.551,37.598,29.785,27.832,0
151682.730,40.527,34.668,37.598,35.156,75.684,0
151682.734,51.758,31.250,32.715,37.598,94.727,0
151682.738,34.668,34.668,29.785,31.250,33.203,0
151682.742,17.090,33.203,29.297,25.879,-18.555,0
151682.746,38.086,35.645,39.062,37.598,0.977,0
151682.750,65.918,40.039,44.434,48.340,77.148,0
151682.754,50.293,37.598,40.039,37.598,58.105,0
151682.758,29.785,36.621,34.668,25.391,-8.789,0
151682.761,45.898,38.086,23.438,30.762,11.719,0
151682.765,59.082,41.504,30.762,40.039,64.453,0
151682.769,56.152,41.016,44.922,37.109,86.914,0
151682.773,30.762,37.598,40.527,35.156,19.043,0
151682.777,15.137,38.086,35.645,36.133,-2.441,0
151682.780,42.480,43.945,31.738,35.645,75.195,0
151682.784,46.875,38.086,27.832,30.762,83.984,0
151682.788,19.531,26.855,31.250,17.578,30.762,0
151682.792,11.230,30.273,30.762,17.578,9.766,0
151682.796,33.691,35.156,25.879,29.297,25.879,0
151682.800,45.410,38.574,33.203,35.645,70.312,0
151682.804,30.273,40.527,38.574,33.691,71.777,0
151682.820,17.578,38.574,34.668,28.809,10.254,0
151682.824,25.879,36.133,37.598,30.762,20.508,0
151682.828,36.621,33.203,34.180,29.297,61.523,0
151682.831,32.227,37.109,27.344,24.414,72.754,0
151682.835,15.137,38.086,34.668,27.344,25.879,0
151682.839,20.996,30.273,37.109,31.738,-7.324,0
151682.843,59.082,21.484,33.203,30.762,42.969,0
151682.847,47.852,24.902,35.645,29.785,91.797,0
151682.851,15.625,37.109,44.434,34.180,35.156,0
151682.855,21.484,36.621,41.504,34.668,-8.789,0
151682.859,39.551,33.691,39.062,39.062,33.203,0
151682.863,42.969,35.156,33.691,39.551,22.461,0
151682.865,20.996,31.738,31.250,34.668,-4.883,0
151682.869,10.254,25.879,40.527,34.668,1.465,0
151682.872,28.320,27.832,33.691,34.668,34.668,0
151682.876,41.016,30.762,29.297,31.250,83.984,0
151682.880,29.297,34.180,42.969,33.203,34.180,0
151682.884,9.766,35.645,46.875,34.180,-21.973,0
151682.888,17.578,27.344,37.109,31.738,62.988,0
151682.892,42.969,30.273,38.574,37.598,124.023,0
151682.896,33.691,31.250,36.621,32.227,49.805,0
151682.900,9.766,26.855,35.645,24.414,-20.508,0
151682.904,10.742,30.762,39.062,29.785,36.621,0
151682.908,39.062,32.227,34.668,37.109,121.094,0
151682.925,51.270,34.180,32.227,33.691,104.492,0
151682.929,20.996,37.109,35.645,27.344,43.945,0
151682.932,12.207,35.645,36.621,30.762,60.059,0
151682.936,43.457,35.156,38.574,38.086,93.262,0
151682.940,47.852,35.156,37.109,37.598,84.961,0
151682.944,32.715,36.621,36.621,32.227,28.320,0
151682.948,41.016,39.551,36.133,29.785,-17.090,0
151682.952,42.969,38.086,41.504,34.668,9.277,0
151682.956,43.945,37.598,50.293,39.551,67.383,0
151682.960,38.574,38.574,39.062,37.109,46.875,0
151682.964,20.996,37.109,32.227,36.621,5.371,0
151682.968,35.156,35.156,41.016,43.945,19.043,0
151682.955,52.734,33.691,40.039,41.504,59.570,0
151682.959,46.875,32.715,36.133,34.180,63.965,0
151682.962,31.250,40.527,40.039,37.598,0.000,0
151682.966,34.180,47.852,35.645,41.504,10.742,0
151682.970,51.270,35.645,23.926,41.016,57.129,0
151682.974,46.387,25.879,26.855,42.480,27.344,0
151682.978,25.879,34.180,34.668,44.434,13.184,0
151682.982,24.902,38.574,30.762,45.898,11.230,0
151682.986,52.246,33.203,30.762,50.293,66.406,0
151682.990,57.617,30.273,39.551,47.363,78.613,0
151682.994,35.156,34.668,44.922,40.527,10.254,0
151682.998,24.902,40.527,41.504,43.945,-15.137,0
151683.001,35.645,42.480,36.133,53.711,21.973,0
151683.005,56.641,41.016,40.039,54.199,78.125,0
151683.009,63.477,41.016,41.504,49.316,36.621,0
151683.013,33.691,41.992,37.109,44.434,0.000,0
151683.017,20.996,48.828,37.598,46.387,37.109,0
151683.020,51.270,48.828,33.203,51.758,59.570,0
151683.024,47.852,37.598,36.133,41.504,49.316,0
151683.028,20.508,34.180,39.062,32.715,-3.906,0
151683.032,26.855,37.598,35.645,44.434,1.465,0
151683.036,43.945,36.621,43.457,55.176,69.336,0
151683.040,44.922,29.785,49.316,49.805,52.734,0
151683.044,35.645,29.297,46.387,41.992,28.809,0
151683.045,33.203,36.133,37.598,38.574,18.066,0
151683.048,49.805,40.039,33.691,43.945,20.020,0
151683.052,60.547,39.062,31.738,47.852,96.680,0
151683.056,37.109,30.762,30.273,38.086,70.801,0
151683.060,13.184,27.832,36.621,28.320,-3.906,0
151683.064,31.738,30.273,38.086,29.785,48.828,0
151683.068,61.035,41.504,39.062,35.645,53.223,0
151683.072,39.062,48.340,40.039,34.668,-3.418,0
151683.076,6.836,34.180,36.621,23.438,0.488,0
151683.080,13.184,24.414,31.250,28.320,0.488,0
151683.084,44.922,27.832,28.809,44.922,28.320,0
151683.088,42.480,35.156,32.227,37.598,56.152,0
151683.090,13.672,39.551,27.344,23.438,40.039,0
151683.094,18.066,43.945,23.926,31.738,31.250,0
151683.098,43.945,45.410,36.133,41.504,54.688,0
151683.101,52.734,43.457,43.945,39.062,67.383,0
151683.105,24.902,38.574,34.180,35.156,25.879,0
151683.109,11.719,34.180,32.227,39.062,-26.367,0
151683.113,37.598,35.156,36.621,43.945,-14.160,1
151683.117,49.316,36.621,30.273,39.062,32.715,0
151683.121,30.273,34.668,21.973,27.832,66.895,0
151683.125,14.648,33.691,20.996,29.297,11.719,0
151683.129,28.809,33.203,24.414,37.109,7.324,0
151683.133,50.293,30.762,36.133,41.016,84.961,0
151683.150,41.992,31.250,42.480,39.551,65.918,0
151683.154,25.391,34.668,39.551,35.645,-11.719,0
151683.157,33.691,34.180,36.621,42.969,-11.230,0
151683.161,51.758,30.762,36.133,51.758,66.406,0
151683.165,51.270,30.762,39.062,45.898,65.430,0
151683.169,33.691,35.645,39.551,40.527,-20.508,0
151683.173,30.273,34.668,40.039,40.527,-12.695,0
151683.177,47.363,32.715,37.598,37.598,57.129,0
151683.181,51.270,35.645,29.785,29.297,73.730,0
151683.185,37.109,43.457,26.855,27.832,9.277,0
151683.189,21.973,42.480,32.227,24.902,-50.293,0
151683.193,35.156,38.086,35.156,27.832,-10.254,0
151683.195,52.734,39.551,34.180,38.086,58.594,0
151683.199,51.270,38.574,30.273,33.691,34.668,0
151683.202,23.438,38.086,25.879,30.273,-25.391,0
151683.206,17.578,31.250,30.762,35.645,10.742,0
151683.210,44.922,26.855,32.715,38.086,98.145,0
151683.214,40.527,32.227,27.344,37.109,81.055,0
151683.218,20.020,35.645,24.414,37.109,24.902,0
151683.222,27.344,31.738,28.320,39.551,16.113,0
151683.226,55.176,37.109,36.621,48.340,-7.812,0
151683.230,50.293,41.016,36.133,51.758,-0.977,0
151683.234,22.949,34.668,33.203,42.969,7.324,0
151683.238,21.973,32.715,39.062,42.480,-6.836,0
151683.240,41.016,29.297,40.527,50.781,5.859,0
151683.244,48.828,31.738,36.133,48.828,31.738,0
151683.247,35.156,35.645,35.156,39.551,38.574,0
151683.251,19.043,31.250,31.250,34.180,-3.418,0
151683.255,33.203,30.762,24.414,37.109,18.555,0
151683.259,55.664,32.715,18.555,46.387,75.195,0
151683.263,55.176,35.645,27.344,47.852,77.637,0
151683.267,33.691,37.598,41.992,40.527,37.598,0
151683.271,29.785,37.109,39.062,37.598,-10.742,0
151683.275,56.641,41.992,36.133,40.527,31.250,0
151683.279,69.824,44.922,37.109,45.410,70.312,0
151683.283,32.227,36.133,29.297,36.621,19.043,0
151683.285,17.578,25.879,28.809,31.250,3.418,0
151683.289,44.922,29.785,26.855,38.574,45.410,0
151683.293,46.875,36.133,24.902,31.738,48.340,0
151683.296,31.738,42.969,41.504,27.832,-19.531,0
151683.300,19.531,47.363,39.551,28.809,-41.504,0
151683.304,31.738,43.457,34.668,29.785,15.137,0
151683.308,38.574,40.527,36.621,28.320,47.363,0
151683.312,17.578,37.598,32.715,24.414,22.949,0
151683.316,7.812,35.645,32.227,24.902,-44.434,0
151683.320,27.344,37.598,24.902,29.297,6.836,0
151683.324,49.316,38.574,26.367,37.109,106.445,0
151683.328,50.781,39.551,41.016,39.062,78.613,0
151683.330,36.621,44.434,48.340,37.109,12.695,0
151683.334,27.832,47.363,42.480,39.551,32.227,0
151683.338,44.434,46.387,34.668,45.410,106.934,0
151683.342,41.992,41.992,17.090,45.898,78.125,0
151683.346,20.508,29.297,19.043,42.969,4.395,0
151683.349,20.996,30.273,37.109,41.992,-9.766,0
151683.353,32.715,30.762,43.457,38.086,49.805,0
151683.357,33.691,24.414,51.270,26.367,45.410,0
151683.361,15.137,26.855,47.363,18.066,-25.879,0
151683.365,0.977,26.855,36.621,16.113,-6.348,0
151683.369,22.461,28.320,34.668,28.809,52.734,0
151683.373,41.016,36.133,37.598,34.668,103.027,0
151683.375,26.367,42.969,38.574,30.762,70.801,0
151683.379,4.883,38.574,39.551,24.902,3.906,0
151683.383,26.855,36.133,36.133,29.297,38.574,0
151683.386,46.875,33.203,36.133,39.062,87.891,0
151683.390,29.785,30.273,45.898,35.156,59.570,0
151683.394,19.043,27.344,43.457,29.785,18.555,0
151683.398,26.367,24.902,35.156,29.297,23.926,0
151683.402,50.781,33.691,32.227,34.180,44.922,0
151683.406,54.199,36.621,27.344,42.480,73.242,0
151683.410,37.598,45.898,23.926,45.410,81.055,0
151683.414,38.574,50.781,31.738,39.062,27.832,0
151683.418,43.945,32.227,39.062,28.320,22.461,0
151683.420,38.574,25.391,40.039,21.973,75.195,0
151683.424,25.879,34.668,40.527,22.461,5.859,0
151683.427,9.766,32.715,36.621,23.926,-61.035,0
151683.431,24.414,25.391,30.762,28.320,1.465,0
151683.435,42.969,24.902,25.879,28.320,40.527,0
151683.439,33.691,38.574,23.438,23.438,21.973,0
151683.443,9.277,50.293,25.879,15.137,-7.324,0
151683.447,13.184,38.574,33.691,13.672,-0.488,0
151683.451,36.621,31.250,35.156,18.066,74.219,0
151683.455,25.391,28.320,20.996,14.160,70.312,0
151683.459,10.254,30.762,17.578,16.602,32.227,0
151683.463,20.996,44.434,36.133,30.273,37.598,0
151683.466,43.945,47.852,41.016,38.574,79.590,0
151683.470,42.969,41.016,33.691,35.645,63.477,0
151683.474,18.555,32.715,43.457,31.250,26.855,0
151683.478,13.184,25.879,48.340,31.250,19.043,0
151683.482,36.133,28.809,44.922,36.621,55.664,0
151683.486,50.781,34.180,43.945,40.527,73.730,0
151683.489,32.227,38.086,42.969,34.180,18.066,0
151683.493,12.207,36.133,42.969,24.902,-17.090,0
151683.497,34.668,35.645,41.016,28.320,16.602,0
151683.501,57.617,34.668,35.645,30.762,39.551,0
151683.505,36.621,28.809,40.039,27.832,46.875,0
151683.509,11.230,27.832,46.387,24.902,45.410,0
151683.525,21.484,33.203,41.504,27.832,58.594,0
151683.529,46.875,37.598,38.574,35.645,45.410,0
151683.533,42.969,39.062,32.715,32.227,34.668,0
151683.536,22.949,44.434,31.738,33.203,-3.906,0
151683.540,25.879,41.992,34.180,41.016,-15.137,0
151683.544,45.898,30.273,39.551,42.969,35.645,0
151683.548,48.828,31.250,47.852,35.156,47.852,0
151683.552,31.738,40.527,35.645,32.715,43.945,0
151683.556,16.602,37.109,29.297,32.715,36.133,0
151683.560,33.691,29.785,35.645,31.250,55.176,0
151683.564,43.457,29.785,29.297,25.879,72.266,0
151683.568,33.203,36.133,32.227,29.297,58.594,0
151683.570,30.762,46.387,49.316,36.621,13.184,0
151683.574,28.320,41.504,46.387,26.855,13.672,0
151683.577,34.180,37.598,41.992,22.461,85.938,0
151683.581,41.992,40.039,42.480,28.809,48.340,0
151683.585,21.484,37.109,29.785,19.043,0.488,0
151683.589,19.531,34.668,25.879,12.207,21.973,0
151683.593,47.852,38.574,36.133,28.809,40.039,0
151683.597,49.805,42.480,37.598,37.109,37.109,0
151683.601,25.391,40.527,39.062,32.715,-10.254,0
151683.605,29.785,43.945,45.898,36.621,-30.273,0
151683.609,53.711,41.992,47.852,45.410,35.645,0
151683.613,47.363,34.180,32.715,38.086,39.551,0
151683.630,27.832,37.598,22.461,33.203,-25.879,0
151683.634,23.926,41.992,32.715,38.574,-4.395,0
151683.638,43.945,39.062,35.156,41.016,58.105,0
151683.641,64.453,40.527,37.109,42.480,43.457,0
151683.645,43.457,43.945,40.039,40.039,5.371,0
151683.649,20.996,44.922,42.969,34.668,-4.883,0
151683.653,34.668,47.363,43.457,41.992,61.523,1
151683.657,48.340,44.434,44.922,45.898,92.285,0
151683.661,40.039,39.551,36.621,38.574,-0.488,0
151683.665,17.578,35.645,25.391,28.320,-44.434,0
151683.669,17.578,35.156,32.227,24.414,26.367,0
151683.673,45.410,35.156,40.039,35.156,79.102,0
151683.660,50.781,37.109,37.109,40.039,73.730,0
151683.664,31.250,44.434,41.016,37.598,24.414,0
151683.667,24.902,43.457,33.203,34.668,26.367,0
151683.671,35.156,34.668,27.344,34.668,77.148,0
151683.675,39.062,34.668,38.574,36.133,85.938,0
151683.679,22.461,35.645,38.086,29.297,16.113,0
151683.683,12.695,36.133,40.039,25.879,6.836,0
151683.687,37.109,40.527,41.504,35.645,56.152,0
151683.691,49.316,39.062,37.598,36.133,76.172,0
151683.695,23.926,27.344,32.227,23.926,68.848,0
151683.699,9.766,28.809,29.297,26.367,27.832,0
151683.703,26.367,39.062,33.691,40.527,27.832,0
151683.705,50.293,39.062,38.086,39.551,68.359,0
151683.709,42.480,36.621,45.898,29.297,73.242,0
151683.712,17.090,32.715,45.898,24.414,47.363,0
151683.716,14.648,26.855,38.086,23.926,10.742,0
151683.720,34.180,29.297,37.109,32.227,63.477,0
151683.724,51.270,36.621,32.227,37.598,74.219,0
151683.728,15.625,27.344,20.508,26.855,39.062,0
151683.732,-5.859,24.414,26.855,21.973,18.066,0
151683.736,23.926,31.250,31.738,26.367,39.551,0
151683.740,34.668,30.273,32.715,24.414,103.027,0
151683.744,18.555,23.926,38.086,29.297,56.152,0
151683.748,11.719,17.578,36.133,30.762,0.977,0
151683.751,23.926,19.531,30.273,29.785,20.996,0
151683.755,32.715,21.484,20.020,31.738,86.426,0
151683.759,27.344,24.902,18.555,25.391,54.199,0
151683.763,17.578,32.715,30.273,24.902,-12.695,0
151683.767,20.996,32.227,33.203,26.855,-11.230,0
151683.770,42.480,30.273,29.785,25.391,-10.742,0
151683.774,56.152,32.715,30.762,22.461,-36.133,0
151683.778,18.555,32.715,34.180,20.996,-25.879,0
151683.782,7.812,35.645,30.762,23.438,16.602,0
151683.786,46.387,34.180,27.344,26.367,71.777,0
151683.790,41.504,30.273,30.273,21.484,53.223,0
151683.794,21.973,34.668,37.598,18.555,-3.906,0
151683.795,19.531,32.227,30.273,18.555,9.277,0
151683.799,35.645,29.297,21.484,20.020,44.434,0
151683.802,50.781,30.273,28.809,30.762,47.363,0
151683.806,36.133,33.203,31.738,28.809,-0.488,0
151683.810,26.855,36.133,32.715,20.996,-62.988,0
151683.814,37.598,39.551,27.344,32.715,-18.066,0
151683.818,52.246,35.645,25.879,36.133,51.758,0
151683.822,46.387,37.109,41.016,29.785,1.465,0
151683.826,16.602,44.434,45.410,25.391,-29.785,0
151683.830,17.090,40.527,31.738,23.438,-10.254,0
151683.834,37.598,36.621,24.414,29.297,44.434,0
151683.838,38.086,35.645,31.738,29.297,61.035,0
151683.840,19.043,33.691,33.203,26.855,14.648,0
151683.844,20.020,38.086,33.691,36.621,-5.371,0
151683.847,44.434,39.062,45.410,41.016,31.738,0
151683.851,46.387,29.785,41.992,37.598,44.434,0
151683.855,25.391,27.832,29.785,29.785,14.160,0
151683.859,13.672,30.273,36.621,30.273,-1.465,0
151683.863,31.250,30.762,41.016,39.551,33.203,0
151683.867,47.363,31.738,34.668,39.062,57.617,0
151683.871,35.156,36.621,35.156,35.645,20.508,0
151683.875,21.484,39.551,44.922,38.574,-2.441,0
151683.879,31.738,33.203,43.945,44.434,38.086,0
151683.883,44.922,29.297,32.227,40.527,102.051,0
151683.900,39.062,31.738,28.320,30.273,67.871,0
151683.904,16.113,25.391,30.762,27.832,-7.324,0
151683.908,14.160,21.973,31.250,32.227,-2.441,0
151683.912,42.480,34.668,33.203,41.992,35.156,0
151683.916,49.316,38.574,39.551,43.457,39.551,0
151683.919,22.461,33.203,46.387,34.668,-16.602,0
151683.923,29.297,40.039,50.781,35.645,-29.297,0
151683.927,49.805,34.668,41.992,39.062,37.109,0
151683.931,42.969,28.320,34.668,32.227,66.895,0
151683.935,25.879,28.320,33.691,23.926,0.977,0
151683.939,6.348,30.273,23.926,28.809,-44.434,0
151683.943,24.902,37.598,26.855,40.527,-7.324,0
151683.945,41.504,37.109,40.527,39.551,43.457,0
151683.949,20.508,29.297,41.016,28.809,3.906,0
151683.953,7.324,31.250,34.668,29.785,-35.645,0
151683.957,20.020,30.762,25.391,34.180,33.691,0
151683.961,34.180,20.020,14.648,26.367,93.750,0
151683.965,33.691,27.832,15.137,27.344,68.848,0
151683.969,22.949,41.504,32.227,30.762,-17.090,0
151683.973,34.668,40.527,44.434,31.250,0.488,0
151683.977,57.129,41.504,47.363,44.922,72.754,0
151683.981,50.293,38.574,41.016,47.852,36.133,0
151683.985,25.879,32.227,33.691,33.203,-34.180,0
151683.988,19.043,32.715,35.156,28.809,-31.250,0
151683.991,39.551,30.762,30.762,39.062,28.809,0
151683.995,56.641,35.645,37.598,43.945,39.551,0
151683.999,39.551,37.109,43.457,35.156,15.137,0
151684.003,14.648,34.668,37.598,35.156,16.602,0
151684.007,29.785,41.016,38.574,39.551,37.109,0
151684.010,48.340,43.457,41.016,35.645,46.875,0
151684.014,38.574,43.945,41.992,33.203,8.789,0
151684.018,21.973,42.969,38.086,29.297,-17.090,0
151684.022,27.832,39.062,35.156,30.273,3.906,0
151684.026,41.992,32.227,34.180,31.738,51.270,0
151684.030,48.828,35.645,41.504,36.133,70.312,0
151684.034,34.180,37.109,34.668,26.855,13.184,0
151684.035,17.090,31.250,25.879,20.020,13.184,0
151684.039,47.363,33.691,32.715,31.738,43.945,0
151684.043,66.895,41.016,32.715,38.086,59.570,0
151684.046,27.832,41.016,40.527,30.762,38.574,0
151684.050,9.766,36.621,47.363,32.227,12.695,0
151684.054,33.691,35.156,42.480,41.504,64.941,0
151684.058,47.363,33.691,39.551,39.551,98.633,0
151684.062,33.691,38.574,40.527,40.527,52.246,0
151684.066,18.555,41.016,34.668,39.062,-27.832,0
151684.070,30.273,35.156,27.832,38.086,-3.418,0
151684.074,43.945,34.180,20.508,37.598,83.008,0
151684.078,36.133,34.668,28.809,35.645,74.707,0
151684.080,19.043,31.738,42.969,34.668,49.805,0
151684.084,24.414,32.715,35.156,36.133,64.453,0
151684.088,51.758,32.715,24.414,37.598,89.844,0
151684.091,47.363,37.109,25.879,32.715,70.312,0
151684.095,24.414,44.922,31.738,24.414,49.316,0
151684.099,31.250,48.828,35.645,27.344,77.148,0
151684.103,54.688,39.551,34.668,32.227,102.051,0
151684.107,53.711,29.785,31.250,27.344,63.965,0
151684.111,39.062,36.133,30.273,27.344,2.930,0
151684.115,32.715,40.527,30.273,33.203,27.832,0
151684.119,44.922,41.504,34.668,44.434,55.664,0
151684.123,61.523,49.316,37.109,45.410,88.379,0
151684.125,48.340,46.387,39.551,38.086,101.562,0
151684.129,27.344,41.016,40.527,39.551,21.973,0
151684.132,46.387,41.504,38.086,48.828,9.766,0
151684.136,70.801,39.062,40.527,47.852,78.125,0
151684.140,55.664,39.551,44.434,42.969,100.586,0
151684.144,24.414,40.039,42.969,38.574,48.340,0
151684.148,20.508,32.227,37.598,30.273,7.324,0
151684.152,45.898,31.738,35.156,34.668,54.688,0
151684.156,46.875,33.691,26.855,33.691,70.312,0
151684.160,25.391,36.621,36.621,31.738,20.996,0
151684.164,24.414,41.992,47.852,35.645,10.254,0
151684.168,48.828,45.410,48.340,41.504,50.293,2
151684.170,59.570,43.457,48.828,46.387,84.961,0
151684.174,33.691,36.621,47.363,32.227,56.641,0
151684.177,17.090,38.086,43.945,24.414,5.371,0
151684.181,51.758,45.898,38.086,37.109,-18.555,0
151684.185,61.035,45.410,40.039,37.598,37.109,0
151684.189,26.855,34.180,39.551,25.391,40.039,0
151684.193,13.184,27.832,41.992,22.949,-28.320,0
151684.197,32.227,34.668,46.875,32.227,-37.598,0
151684.201,53.223,37.598,41.992,37.598,60.547,0
151684.205,53.711,32.715,38.086,33.691,87.891,0
151684.209,39.062,33.203,32.715,35.645,54.688,0
151684.213,25.879,39.551,29.297,37.598,68.359,0
151684.230,46.875,44.922,42.480,43.945,83.496,0
151684.234,54.688,40.527,50.781,46.387,114.746,0
151684.237,31.250,39.551,49.316,37.598,49.316,0
151684.241,28.809,37.598,48.340,40.039,18.066,0
151684.245,47.363,29.297,34.180,44.434,63.477,0
151684.249,48.828,31.250,26.367,43.457,55.176,0
151684.253,37.109,41.992,39.062,39.551,26.367,0
151684.257,27.344,40.527,41.016,34.180,24.414,0
151684.261,29.297,30.273,35.645,37.598,79.590,0
151684.265,44.922,30.762,37.109,44.434,107.422,0
151684.269,45.410,39.551,41.504,44.922,75.195,0
151684.273,22.461,41.016,31.250,36.621,22.461,0
151684.275,28.809,35.645,26.367,38.574,26.367,0
151684.279,59.570,33.691,35.645,45.898,73.730,0
151684.283,49.316,26.367,34.180,37.109,82.031,0
151684.286,22.949,30.273,40.039,30.762,27.832,0
151684.290,28.320,36.133,47.363,34.668,-0.977,0
151684.294,48.828,31.738,40.039,41.504,62.500,0
151684.298,48.340,33.203,34.668,31.738,72.754,0
151684.302,22.949,34.180,39.062,21.484,0.488,0
151684.306,5.371,31.250,35.645,20.996,-27.344,0
151684.310,20.508,28.320,22.949,20.020,7.324,0
151684.314,32.227,29.785,14.648,15.137,39.551,0
151684.318,22.461,37.598,24.414,20.020,28.320,0
151684.320,9.277,37.109,41.016,23.926,2.441,0
151684.324,17.090,32.227,36.133,19.043,46.387,0
151684.328,42.480,31.250,35.156,27.344,74.707,0
151684.331,37.598,31.738,27.832,27.344,35.156,0
151684.335,10.742,36.621,23.438,25.879,-18.555,0
151684.339,23.926,34.180,40.039,32.715,-10.742,0
151684.343,51.758,25.391,40.039,29.785,51.270,0
151684.347,44.434,31.738,34.668,31.738,50.781,0
151684.351,23.926,38.086,34.668,36.133,1.953,0
151684.355,29.297,40.527,30.273,38.574,-27.344,0
151684.359,51.270,39.062,35.645,41.016,43.457,0
151684.363,52.734,32.715,47.363,39.551,67.871,0
151684.365,33.203,31.250,43.945,32.227,6.348,0
151684.369,20.996,31.738,36.621,25.391,14.648,0
151684.372,41.504,32.227,30.762,35.645,69.824,0
151684.376,64.941,38.086,33.691,41.992,95.215,0
151684.380,49.316,40.527,41.504,36.133,85.449,0
151684.384,25.879,35.645,31.250,34.668,32.715,0
151684.388,42.969,37.598,21.484,43.457,19.531,0
151684.392,63.477,41.504,34.668,49.805,70.801,0
151684.396,48.828,38.574,48.340,41.504,41.992,0
151684.400,26.855,37.109,41.992,31.738,-38.086,0
151684.404,30.273,34.180,33.691,27.832,-21.973,0
151684.408,48.340,32.227,29.297,25.879,73.730,0
151684.410,54.688,37.598,31.250,25.879,77.148,0
151684.413,34.668,38.086,36.133,26.367,6.836,0
151684.417,18.555,34.668,35.156,28.809,25.879,0
151684.421,40.527,35.156,30.762,32.227,56.152,0
151684.425,50.293,40.039,32.715,31.738,49.805,0
151684.429,27.344,41.992,34.180,27.832,37.598,0
151684.433,13.672,33.691,32.227,27.832,31.250,0
151684.437,37.109,29.785,34.668,37.109,78.613,0
151684.441,57.617,35.645,35.156,40.527,84.961,0
151684.445,37.598,36.621,35.645,35.645,42.969,0
151684.449,17.090,28.320,45.898,33.203,38.086,0
151684.453,27.344,24.902,46.875,33.203,63.965,0
151684.456,45.898,32.227,40.039,34.180,58.594,0
151684.460,36.621,39.551,36.133,27.832,10.742,0
151684.464,14.648,34.180,33.691,21.484,-42.480,0
151684.468,22.461,32.227,30.762,24.902,-42.480,0
151684.472,71.289,35.156,26.855,34.668,35.156,0
151684.476,73.730,31.250,32.715,32.227,59.082,0
151684.480,19.531,30.762,39.062,23.438,9.277,0
151684.484,9.766,37.598,44.434,24.414,-29.785,0
151684.487,33.203,39.062,47.363,29.785,12.695,0
151684.491,42.969,40.039,43.457,34.668,87.402,0
151684.495,24.902,36.133,33.691,36.133,59.570,0
151684.499,21.973,30.273,20.020,35.645,5.859,0
151684.500,35.156,29.297,19.043,34.180,15.137,0
151684.504,49.316,27.344,32.715,36.621,51.758,0
151684.507,42.969,27.344,42.480,31.250,45.410,0
151684.511,29.297,26.367,43.457,27.832,-7.324,0
151684.515,27.344,29.297,44.434,36.621,8.789,0
151684.519,37.598,32.227,52.246,42.969,49.316,0
151684.523,40.039,26.855,51.270,41.504,40.527,0
151684.527,18.555,20.996,41.504,34.668,-20.508,0
151684.531,27.344,22.949,39.062,44.434,5.371,0
151684.535,59.570,30.762,50.781,60.059,89.844,0
151684.539,61.035,34.668,48.340,56.641,50.293,0
151684.543,32.715,29.785,26.855,41.992,-1.953,0
151684.545,20.508,26.367,28.320,32.715,9.766,0
151684.549,44.922,27.832,39.551,40.527,42.969,0
151684.553,53.711,26.855,36.621,40.039,39.551,0
151684.556,33.691,31.250,39.062,31.250,19.043,0
151684.560,22.949,31.250,39.062,33.691,-15.625,0
151684.564,40.527,29.297,27.832,36.621,11.230,0
151684.568,57.617,37.109,27.832,37.598,70.312,0
151684.572,51.758,45.410,36.133,38.574,-9.766,0
151684.576,34.668,42.969,37.598,37.598,-38.574,0
151684.580,38.086,41.992,39.551,40.039,32.227,0
151684.584,53.711,44.434,33.691,39.062,58.105,0
151684.588,49.316,38.086,23.438,38.086,62.012,0
151684.590,31.250,39.062,23.438,44.434,21.973,0
151684.594,30.762,39.551,33.203,48.828,4.883,0
151684.597,53.223,35.645,36.133,52.734,59.082,0
151684.601,60.059,35.156,35.645,51.758,82.520,0
151684.605,50.781,35.645,41.992,51.270,30.762,0
151684.609,40.039,43.457,46.387,52.734,4.883,0
151684.613,47.852,40.039,41.992,48.340,10.254,0
151684.617,58.594,25.879,39.062,39.062,34.180,0
151684.621,43.945,25.879,35.156,30.762,40.527,0
151684.625,28.809,34.668,35.156,31.738,-34.180,0
151684.629,38.574,33.691,39.062,34.180,-33.691,0
151684.633,51.758,23.438,36.133,30.762,68.848,0
151684.650,40.527,20.996,29.297,28.320,85.449,0
151684.654,26.367,26.855,26.367,32.715,42.969,0
151684.657,38.574,37.598,32.715,46.875,38.086,0
151684.661,48.828,40.527,33.203,50.781,69.824,0
151684.665,35.645,32.227,26.367,31.738,69.824,0
151684.669,16.602,30.273,25.879,21.973,-14.648,0
151684.673,21.973,34.668,32.715,27.832,-35.156,0
151684.677,42.480,33.203,39.551,30.762,52.246,0
151684.681,45.898,35.645,34.668,26.855,79.102,0
151684.685,33.691,41.016,33.691,24.902,25.879,0
151684.689,32.715,37.598,40.527,34.180,0.488,0
151684.693,53.223,30.273,35.645,41.992,27.832,0
151684.695,59.570,23.438,29.297,40.039,47.363,0
151684.698,37.598,19.531,26.855,29.785,7.324,0
151684.702,25.391,28.320,25.879,32.715,-37.598,0
151684.706,47.852,31.738,30.762,51.270,2.441,0
151684.710,74.707,32.227,34.180,56.641,80.078,0
151684.714,60.059,42.969,34.180,41.504,45.410,0
151684.718,23.438,45.410,28.809,23.438,-6.348,0
151684.722,22.461,39.551,32.227,22.949,34.180,0
151684.726,41.016,38.086,42.480,31.738,86.914,0
151684.730,26.855,32.715,38.574,23.926,80.566,0
151684.734,1.953,25.391,32.715,19.531,13.184,0
151684.738,1.465,24.902,34.668,25.879,-2.930,0
151684.740,25.391,27.832,28.320,28.320,78.613,0
151684.744,41.016,32.715,25.391,30.273,122.070,0
151684.747,29.297,36.621,30.762,29.297,90.820,0
151684.751,15.137,33.691,33.691,27.344,61.523,0
151684.755,36.621,32.715,38.086,36.621,53.223,0
151684.759,57.129,38.086,34.668,45.410,56.152,0
151684.763,43.945,43.457,34.668,41.992,89.844,0
151684.767,26.855,38.086,43.457,42.480,101.074,0
151684.771,38.574,35.156,48.340,46.875,44.922,0
151684.775,60.547,38.574,44.922,41.992,57.617,0
151684.779,54.199,33.203,33.203,38.574,85.449,0
151684.783,38.086,34.180,34.668,36.621,-0.488,0
151684.785,39.062,39.551,44.434,38.574,4.883,0
151684.789,62.500,40.039,40.039,45.898,90.332,0
151684.792,62.988,37.598,34.668,38.574,79.102,0
151684.796,38.086,39.551,36.621,35.156,10.254,1
151684.800,27.344,36.621,31.738,39.551,-24.414,0
151684.804,41.504,29.785,26.855,37.598,23.926,0
151684.808,51.270,30.762,27.344,39.062,78.613,0
151684.812,38.086,34.180,26.367,41.992,18.066,0
151684.816,28.809,37.109,28.809,47.363,-27.832,0
151684.820,42.969,40.039,34.668,54.688,27.344,0
151684.824,54.199,42.480,42.480,53.223,97.656,0
151684.828,46.387,41.016,45.410,40.039,63.965,0
151684.830,35.645,39.551,41.504,33.203,-37.109,0
151684.834,35.645,38.574,33.203,38.574,16.602,0
151684.837,58.594,39.062,32.715,40.039,97.656,0
151684.841,55.176,43.457,35.156,34.180,85.938,0
151684.845,28.320,45.898,38.086,28.320,44.434,0
151684.849,28.320,46.387,39.551,34.668,1.465,0
151684.853,54.688,45.410,39.062,43.457,36.621,0
151684.857,56.152,43.457,45.898,38.574,67.871,0
151684.861,30.762,47.363,45.410,33.203,-10.742,0
151684.865,15.625,47.363,37.598,27.832,-39.551,0
151684.869,30.273,38.086,37.598,31.738,27.832,0
151684.873,43.457,28.320,38.574,41.992,100.586,0
151684.875,27.832,31.250,34.180,40.039,76.660,0
151684.879,9.277,36.133,26.367,33.691,20.508,0
151684.882,21.973,34.668,27.344,34.180,39.062,0
151684.886,41.016,38.086,40.039,31.250,72.754,0
151684.890,31.738,39.551,43.457,27.832,41.016,0
151684.894,14.160,38.086,41.016,28.320,20.508,0
151684.898,19.043,33.691,38.086,32.227,70.801,0
151684.902,46.875,29.297,35.156,33.691,73.242,0
151684.906,43.945,32.227,24.902,26.367,64.941,0
151684.910,21.484,40.039,26.367,21.484,47.363,0
151684.914,23.926,39.062,28.809,21.973,-4.883,0
151684.918,40.527,32.715,25.879,23.438,50.293,0
151684.921,50.293,33.203,27.344,19.531,92.773,0
151684.925,39.551,34.668,29.785,21.484,46.875,0
151684.929,18.555,34.180,36.133,24.414,-0.488,0
151684.933,41.016,39.551,38.574,27.344,20.020,0
151684.937,56.641,42.480,33.203,33.203,61.035,0
151684.940,27.832,28.809,22.461,23.926,36.621,0
151684.944,16.113,27.832,22.461,23.926,-17.090,0
151684.948,32.715,29.785,35.156,32.227,-17.090,0
151684.952,44.922,24.902,31.738,27.832,65.918,0
151684.956,38.574,27.344,25.879,24.902,56.641,0
151684.960,16.113,26.367,36.133,23.438,10.254,0
151684.964,15.625,28.320,42.480,27.344,18.066,0
151684.966,42.480,37.598,36.621,36.621,56.641,0
151684.970,35.156,32.715,34.180,28.320,60.547,0
151684.974,6.836,25.391,38.574,17.578,15.137,0
151684.978,6.836,27.832,34.668,21.484,-7.812,0
151684.982,28.809,23.438,29.297,27.832,57.617,0
151684.985,35.156,26.855,37.109,32.227,65.430,0
151684.989,22.949,36.621,40.039,26.855,-42.969,0
151684.993,10.254,35.645,30.762,17.090,-58.105,0
151684.997,19.043,32.715,20.996,27.344,15.137,0
151685.001,29.785,28.320,19.043,29.785,55.664,0
151685.005,18.555,31.738,30.273,20.020,30.762,0
151685.009,14.160,33.691,38.086,25.391,-2.441,0
151685.025,25.879,25.879,35.156,33.203,10.742,0
151685.029,43.945,28.320,33.203,36.133,44.922,0
151685.033,47.363,30.762,37.109,30.762,36.621,0
151685.037,31.738,31.738,36.133,25.391,-31.738,0
151685.040,25.879,34.668,29.297,35.645,-41.992,0
151685.044,52.734,39.551,32.227,50.781,6.348,0
151685.048,53.223,40.039,35.156,44.434,1.465,0
151685.052,28.809,37.109,25.391,28.320,-24.414,0
151685.056,24.902,32.715,27.344,24.414,-26.367,0
151685.060,45.898,29.785,36.133,32.227,18.066,0
151685.064,51.758,37.109,31.738,33.691,55.664,0
151685.068,24.414,36.133,27.344,21.973,40.039,0
151685.070,17.090,35.645,35.156,26.367,5.859,0
151685.074,38.086,36.621,36.133,33.691,19.531,0
151685.077,48.340,31.738,29.785,29.297,80.566,0
151685.081,33.691,35.645,31.738,26.855,69.824,0
151685.085,15.625,41.016,35.645,18.555,-9.277,0
151685.089,24.414,39.062,31.250,22.461,10.254,0
151685.093,51.758,37.109,26.855,31.250,98.145,0
151685.097,50.293,36.133,27.832,28.809,83.008,0
151685.101,20.996,34.668,20.508,20.996,22.949,0
151685.105,13.184,35.645,18.066,21.484,-16.113,0
151685.109,35.645,34.668,25.391,30.762,20.020,0
151685.113,42.480,31.250,31.250,33.203,73.730,0
151685.115,22.461,29.785,26.855,26.367,23.926,0
151685.119,17.090,33.203,30.273,27.344,4.883,0
151685.123,41.016,36.133,39.551,38.086,57.129,0
151685.126,49.316,34.180,30.273,34.668,64.941,0
151685.130,26.855,28.320,27.344,22.949,10.254,0
151685.134,13.184,27.832,31.250,23.438,-21.484,0
151685.138,33.203,31.250,38.574,30.762,21.484,0
151685.142,55.176,35.156,46.387,31.738,64.941,0
151685.146,35.156,33.691,36.133,27.832,19.043,0
151685.150,10.742,29.297,24.902,23.926,-17.578,0
151685.154,26.367,28.809,24.902,31.250,42.969,0
151685.158,50.781,32.715,30.762,41.016,112.793,0
151685.175,52.734,35.156,34.180,41.992,74.707,0
151685.179,36.621,35.156,36.621,40.527,35.156,0
151685.182,28.809,30.762,31.738,36.621,64.453,0
151685.186,46.387,30.273,26.855,38.574,71.289,0
151685.190,58.594,39.062,29.785,41.504,71.777,0
151685.194,35.645,31.738,36.621,39.062,28.809,0
151685.198,23.438,22.949,37.109,36.133,-11.719,0
151685.202,49.805,27.344,33.203,44.434,33.203,0
151685.206,63.965,36.621,33.203,47.852,49.805,0
151685.210,43.945,41.504,28.320,35.645,52.246,0
151685.214,24.414,35.645,30.273,34.668,16.113,0
151685.218,34.668,27.344,36.133,41.016,17.090,0
151685.206,54.199,30.762,31.738,41.992,60.547,0
151685.210,51.758,38.086,33.691,43.457,28.320,0
151685.214,30.762,33.691,37.598,34.668,-1.465,0
151685.218,25.391,34.668,41.016,33.203,1.953,0
151685.222,48.828,40.039,40.527,44.922,44.922,0
151685.225,43.945,33.203,35.645,36.621,63.477,0
151685.229,23.438,26.855,41.992,32.715,-2.441,0
151685.233,28.809,32.715,42.480,36.621,-4.395,0
151685.237,43.457,35.645,37.598,37.109,60.547,0
151685.241,48.340,32.715,36.621,34.668,78.613,0
151685.245,30.273,32.227,25.879,29.297,34.180,0
151685.249,27.832,40.527,23.926,30.273,-29.297,0
151685.250,39.062,42.969,32.715,33.691,9.277,0
151685.254,43.945,33.691,40.039,34.668,66.895,0
151685.257,33.691,29.785,38.574,26.855,55.176,0
151685.261,16.113,31.738,33.203,20.996,7.812,0
151685.265,32.227,35.156,37.598,30.762,2.930,0
151685.269,58.594,37.598,37.598,39.551,89.355,0
151685.273,54.688,37.109,39.062,38.574,84.961,0
151685.277,35.156,39.551,41.992,33.691,-10.742,0
151685.281,35.645,37.109,38.574,34.180,-3.418,0
151685.285,52.734,27.344,30.273,35.645,65.918,0
151685.289,62.012,36.621,24.414,38.086,76.660,0
151685.293,41.992,41.504,24.414,37.598,23.438,0
151685.295,26.367,33.691,26.367,36.621,-0.977,0
151685.299,42.969,35.645,36.621,40.527,66.895,0
151685.302,51.758,39.551,42.969,42.969,94.727,0
151685.306,40.039,42.969,45.410,37.598,51.270,0
151685.310,24.902,40.039,43.457,27.832,-0.977,0
151685.314,36.621,40.039,40.039,37.598,5.859,0
151685.318,52.734,41.016,38.086,40.039,61.035,0
151685.322,33.691,35.645,31.738,27.344,51.758,0
151685.326,29.297,41.016,35.156,38.086,38.086,0
151685.330,45.410,41.016,33.691,50.781,52.734,0
151685.334,66.895,40.039,23.438,46.875,62.500,0
151685.338,57.129,41.016,24.902,41.504,51.758,0
151685.340,24.902,35.645,38.086,36.621,13.184,0
151685.344,29.785,34.668,44.922,36.621,4.883,0
151685.347,50.293,37.109,42.969,40.527,32.715,0
151685.351,47.852,35.156,29.785,37.598,26.367,0
151685.355,25.391,32.227,27.344,30.762,-35.156,0
151685.359,21.973,32.715,39.551,34.180,-66.406,0
151685.363,44.434,33.203,39.551,35.156,-26.367,0
151685.367,58.105,33.691,40.527,36.133,28.809,0
151685.371,37.598,34.180,35.645,37.109,35.156,0
151685.375,16.113,37.109,38.574,34.668,-1.465,0
151685.379,28.320,39.062,38.086,38.574,24.902,0
151685.383,50.781,39.062,32.715,38.086,82.520,0
151685.400,41.992,41.992,41.504,35.645,67.871,0
151685.404,13.672,48.828,45.410,34.668,-10.742,0
151685.408,16.602,41.992,47.852,37.598,3.906,0
151685.411,40.527,30.762,43.945,39.551,86.426,0
151685.415,39.062,31.250,38.086,30.762,79.102,0
151685.419,26.855,35.645,35.645,28.320,4.883,0
151685.423,28.809,35.156,32.715,35.645,12.207,0
151685.427,38.574,30.273,35.156,39.551,79.102,0
151685.431,44.922,36.133,38.574,40.039,90.332,0
151685.435,25.879,38.086,39.551,35.156,26.367,0
151685.439,14.160,28.809,34.668,33.203,-23.438,0
151685.443,32.715,27.344,39.551,41.504,22.949,0
151685.445,41.504,23.438,40.039,33.203,28.809,0
151685.449,22.461,21.484,35.645,19.043,-18.066,0
151685.453,7.812,23.926,42.969,22.949,-41.504,0
151685.457,22.461,25.879,39.062,31.250,32.227,0
151685.461,40.039,27.832,32.715,31.738,75.684,1
151685.465,32.715,29.785,37.598,27.832,25.391,0
151685.469,17.090,29.297,38.086,29.297,0.488,0
151685.473,18.555,26.367,37.598,32.715,61.035,0
151685.477,39.062,25.879,42.480,40.039,112.305,0
151685.480,34.180,22.461,36.133,37.109,41.016,0
151685.484,15.137,25.391,34.180,34.668,-0.977,0
151685.488,20.996,30.273,41.016,41.016,41.992,0
151685.490,44.434,26.855,41.504,49.316,95.215,0
151685.494,49.316,27.344,32.227,46.387,85.938,0
151685.498,28.809,29.785,30.762,39.551,51.270,0
151685.501,19.043,32.227,29.297,41.992,25.391,0
151685.505,37.109,37.598,36.621,44.922,26.367,0
151685.509,53.223,36.621,43.945,41.504,50.781,0
151685.513,38.574,32.715,41.992,28.809,29.297,0
151685.517,18.066,36.621,47.852,27.344,16.602,0
151685.521,32.715,38.086,52.734,37.598,10.254,0
151685.525,49.805,36.621,47.363,37.598,15.625,0
151685.529,34.180,35.645,38.086,29.785,22.461,0
151685.533,15.137,30.273,35.156,28.320,2.441,0
151685.535,18.066,27.832,26.855,28.809,16.602,0
151685.539,42.480,37.109,21.973,29.785,83.496,0
151685.542,44.922,42.480,29.297,29.785,101.074,0
151685.546,19.043,36.133,37.598,22.461,32.227,0
151685.550,16.602,38.574,41.992,28.809,3.906,0
151685.554,43.457,40.039,40.039,41.992,15.625,0
151685.558,54.688,38.086,34.180,39.062,43.945,0
151685.562,39.551,38.574,33.203,35.645,17.090,0
151685.566,28.320,37.598,37.109,34.180,-45.410,0
151685.570,49.316,42.969,39.062,38.086,-4.883,0
151685.574,60.547,41.016,42.480,39.551,36.621,0
151685.578,41.016,37.598,38.086,32.715,20.996,0
151685.580,24.902,40.039,29.297,31.738,-38.574,0
151685.584,42.480,39.551,31.250,38.574,-29.297,0
151685.588,62.500,41.016,43.457,41.016,52.734,0
151685.592,38.574,39.062,37.598,33.691,71.777,0
151685.596,14.648,30.273,30.762,23.438,27.344,0
151685.600,19.531,28.320,38.574,27.832,21.973,0
151685.604,42.480,33.203,37.598,37.598,98.145,0
151685.608,45.410,34.668,34.180,33.203,89.355,0
151685.612,20.508,34.668,38.086,24.414,37.598,0
151685.616,16.602,38.574,39.062,27.832,29.785,0
151685.619,41.504,39.062,30.762,34.668,81.055,0
151685.623,44.922,36.621,30.273,37.109,114.258,0
151685.625,28.809,36.133,41.992,36.621,73.730,0
151685.629,10.254,33.203,40.039,30.273,59.570,0
151685.633,21.973,29.785,34.180,33.203,64.453,0
151685.636,45.898,33.691,36.133,41.016,73.730,0
151685.640,39.551,40.527,29.297,39.062,53.711,0
151685.644,25.391,36.621,30.762,35.645,-22.461,0
151685.648,28.320,30.762,40.527,39.062,-4.395,0
151685.652,47.363,34.180,36.621,39.062,26.855,0
151685.656,44.434,39.551,32.227,28.320,2.441,0
151685.660,22.949,45.898,37.109,27.344,-4.395,0
151685.664,26.367,49.316,41.504,41.016,14.648,0
151685.668,48.828,38.574,41.016,48.340,65.430,0
151685.671,53.711,31.250,33.203,40.527,105.469,0
151685.675,24.414,35.645,30.762,41.504,90.332,0
151685.679,14.648,34.180,37.109,44.922,43.457,0
151685.683,34.668,23.926,36.133,36.621,29.785,0
151685.687,45.898,24.414,30.762,35.156,65.430,0
151685.691,40.039,34.180,33.203,38.574,22.949,0
151685.694,27.832,38.086,39.551,36.133,-45.898,0
151685.698,37.109,37.109,38.086,38.086,6.836,0
151685.702,49.316,33.691,35.645,41.992,79.590,0
151685.706,38.086,32.227,35.156,34.668,69.824,0
151685.710,24.902,34.668,32.715,26.367,-31.250,0
151685.714,24.902,34.668,28.320,29.785,2.441,0
151685.715,41.992,36.133,28.809,34.668,84.473,0
151685.719,43.457,37.598,32.227,23.926,51.758,0
151685.722,26.855,44.922,35.156,17.090,21.973,0
151685.726,28.809,47.852,38.086,28.809,3.906,0
151685.730,49.316,41.504,38.574,42.969,58.594,0
151685.734,56.641,38.086,33.203,45.410,54.688,0
151685.738,37.109,36.621,24.414,27.344,-29.297,0
151685.742,20.020,38.086,18.066,19.531,-8.789,0
151685.746,40.039,38.086,27.832,33.691,74.219,0
151685.750,55.176,36.133,35.156,38.574,90.820,0
151685.754,40.527,34.668,36.133,29.297,52.246,0
151685.758,25.391,36.621,40.039,28.320,20.020,0
151685.775,32.715,40.039,38.086,41.016,41.504,0
151685.779,50.293,38.574,32.715,47.852,47.852,0
151685.783,42.969,38.574,35.645,42.969,11.719,0
151685.787,19.531,33.691,35.645,37.109,-5.859,0
151685.790,21.484,25.391,28.809,38.086,-2.930,0
151685.794,42.969,25.879,23.438,38.574,19.531,0
151685.798,35.645,27.344,27.832,33.203,49.805,0
151685.802,6.348,27.344,32.227,26.367,6.836,0
151685.806,6.836,29.785,35.156,26.367,-44.922,0
151685.810,37.598,31.738,38.086,35.645,-0.977,0
151685.814,48.340,33.203,37.109,38.086,20.020,0
151685.818,32.715,41.992,42.480,39.062,-14.648,0
151685.820,23.926,38.574,35.645,37.109,-26.367,0
151685.824,35.645,28.320,24.414,35.645,16.602,0
151685.828,56.641,37.598,33.691,40.527,63.477,0
151685.832,41.992,35.645,32.227,34.180,36.133,0
151685.835,16.113,31.738,26.367,30.762,-11.230,0
151685.839,30.273,35.156,27.832,38.574,10.254,0
151685.843,50.781,32.227,32.715,40.039,62.988,0
151685.847,43.457,29.785,41.016,37.109,58.594,0
151685.851,21.484,37.109,41.992,32.227,-1.465,0
151685.855,25.391,42.480,43.457,36.133,-16.113,0
151685.859,51.270,41.016,42.969,44.434,44.922,0
151685.863,53.711,41.504,39.551,45.410,83.496,0
151685.865,29.297,40.039,34.180,40.039,29.297,0
151685.869,20.996,36.133,36.133,38.574,-3.418,0
151685.872,39.551,32.715,32.715,42.480,68.848,0
151685.876,54.199,39.062,26.367,50.781,98.145,0
151685.880,39.551,43.457,32.715,46.387,20.020,0
151685.884,29.785,40.527,35.645,34.180,-23.438,0
151685.888,43.945,35.645,36.133,37.598,24.902,0
151685.892,47.852,32.715,38.574,40.039,39.062,0
151685.896,38.086,42.480,42.480,37.109,-20.996,0
151685.900,19.531,40.527,39.551,33.203,-45.898,0
151685.904,31.250,26.367,38.574,41.016,12.695,0
151685.908,55.176,28.809,40.527,50.781,60.059,0
151685.910,39.551,26.367,28.809,36.133,52.246,0
151685.914,21.973,30.273,28.320,30.762,5.371,0
151685.918,28.320,33.691,36.621,41.992,5.371,0
151685.921,50.781,34.180,41.992,45.898,84.961,0
151685.925,55.176,43.945,41.016,42.480,97.168,0
151685.929,39.062,45.898,37.598,38.086,27.344,0
151685.933,31.250,41.016,35.156,37.598,20.996,0
151685.937,35.645,35.156,29.785,37.598,72.266,0
151685.941,49.316,29.297,30.762,31.738,79.102,0
151685.945,30.762,25.879,34.180,24.414,40.527,0
151685.949,7.812,29.297,30.762,28.809,10.742,0
151685.953,39.551,39.551,32.715,38.086,22.949,0
151685.955,63.965,40.039,35.156,38.086,85.449,0
151685.959,42.480,33.691,26.367,34.180,133.301,0
151685.963,22.949,35.645,26.855,32.227,55.176,0
151685.967,30.273,36.133,34.668,36.133,-6.348,0
151685.971,46.387,36.621,40.527,38.574,31.738,0
151685.974,39.551,36.621,39.551,28.809,42.480,0
151685.978,15.625,33.203,38.574,26.367,49.316,0
151685.982,21.484,35.645,36.621,28.320,12.207,0
151685.986,43.457,36.621,28.320,27.832,27.832,0
151685.990,47.852,36.133,33.203,29.297,100.098,0
151685.994,26.855,32.227,34.668,24.902,57.617,0
151685.998,12.207,23.926,32.715,28.320,42.480,0
151686.000,40.039,25.879,35.645,40.039,59.082,0
151686.004,58.105,26.855,32.715,41.016,80.566,0
151686.008,40.527,25.391,29.785,37.109,69.336,0
151686.012,24.414,33.691,32.715,41.504,33.691,0
151686.015,41.016,37.598,38.574,51.270,66.895,0
151686.019,59.082,32.227,45.410,50.781,102.539,0
151686.023,46.875,34.180,43.457,41.504,95.703,0
151686.027,23.438,32.715,36.133,36.621,2.930,0
151686.031,30.762,29.297,33.691,38.574,14.160,0
151686.035,55.176,29.297,34.180,41.504,96.191,0
151686.039,48.340,29.297,41.016,39.062,76.172,1
151686.043,29.297,31.250,36.133,32.715,33.203,0
151686.045,23.438,33.203,25.879,27.344,33.203,0
151686.049,35.156,24.414,26.367,27.832,51.758,0
151686.052,38.574,20.996,31.250,22.461,72.754,0
151686.056,25.391,26.855,33.691,19.531,37.598,0
151686.060,22.461,27.832,39.551,27.344,-24.902,0
151686.064,19.531,29.785,35.645,23.926,23.438,0
151686.068,29.785,34.180,38.086,24.414,64.453,0
151686.072,27.344,30.273,38.574,22.949,19.531,0
151686.076,-4.395,26.855,30.273,16.113,-55.664,0
151686.080,4.395,28.809,24.902,24.902,-14.648,0
151686.084,30.273,24.414,16.602,20.020,87.891,0
151686.088,16.602,18.066,18.066,11.230,60.547,0
151686.090,-4.883,20.508,26.367,12.207,15.137,0
151686.094,8.301,27.832,35.645,18.555,21.484,0
151686.097,34.668,30.762,41.504,30.273,60.547,0
151686.101,46.387,38.086,38.086,34.180,53.711,0
151686.105,37.109,44.434,34.180,30.762,6.348,0
151686.109,24.902,41.016,34.180,26.367,1.953,0
151686.113,43.945,37.109,32.715,30.273,19.531,0
151686.117,58.594,36.133,26.367,33.691,29.785,0
151686.121,34.180,33.203,28.320,29.297,-27.832,0
151686.125,19.531,32.715,38.574,30.273,-57.617,0
151686.129,46.387,31.738,41.992,40.527,5.371,0
151686.133,57.617,28.320,45.410,41.016,26.855,0
151686.136,32.715,23.438,40.039,32.227,21.973,0
151686.140,21.484,29.297,37.598,34.180,-22.949,0
151686.144,35.645,37.598,33.691,37.598,-20.020,0
151686.148,53.223,35.156,32.715,39.062,79.102,0
151686.152,53.223,34.180,37.109,40.527,103.516,0
151686.156,34.180,35.156,32.227,37.109,36.133,0
151686.160,36.621,36.621,33.691,45.410,12.207,0
151686.163,61.035,35.156,35.645,54.199,92.285,0
151686.167,60.547,36.621,38.574,50.781,81.055,0
151686.171,34.668,37.598,40.527,43.457,23.438,0
151686.175,27.344,41.992,40.039,40.039,49.316,0
151686.179,46.387,41.504,39.551,45.410,105.957,0
151686.196,54.688,39.062,38.086,44.434,112.305,0
151686.200,38.574,45.410,33.203,35.645,85.449,0
151686.204,21.484,43.945,22.949,27.832,32.227,0
151686.208,36.621,37.109,24.414,27.344,62.012,0
151686.212,52.246,32.715,34.668,26.367,104.004,0
151686.215,28.320,32.715,42.480,21.973,45.898,0
151686.219,10.742,29.785,41.504,20.020,-15.137,0
151686.223,28.809,32.227,36.133,29.297,20.020,0
151686.227,50.781,40.527,32.715,38.574,88.379,0
151686.231,43.457,41.992,33.203,31.250,40.039,0
151686.235,23.438,41.992,39.551,23.438,-12.695,0
151686.239,26.367,38.574,41.504,22.949,31.738,0
151686.240,46.387,34.180,35.645,31.738,71.289,0
151686.244,55.176,37.109,31.738,38.574,66.895,0
151686.247,28.809,35.645,29.297,34.180,3.418,0
151686.251,22.461,34.180,27.344,42.480,-7.324,0
151686.255,46.387,35.645,25.879,43.457,30.273,0
151686.259,47.363,40.527,26.367,29.297,47.852,0
151686.263,30.273,44.434,32.715,24.414,31.738,0
151686.267,12.695,41.016,33.691,21.484,22.461,0
151686.271,30.762,36.133,41.016,28.320,38.086,0
151686.275,55.176,43.945,43.945,39.062,41.992,0
151686.279,55.176,56.152,35.645,30.762,49.805,0
151686.283,46.875,53.223,36.621,33.691,5.859,0
151686.285,34.668,45.410,37.598,43.945,0.000,0
151686.289,46.387,35.645,35.156,41.504,63.965,0
151686.292,44.922,30.273,29.785,32.715,80.078,0
151686.296,24.902,35.645,32.227,31.738,29.297,0
151686.300,20.996,36.133,34.668,42.969,-0.977,0
151686.304,46.875,40.527,38.574,51.270,20.020,0
151686.308,63.477,41.992,42.969,51.758,53.223,0
151686.312,37.598,33.203,37.109,45.898,43.945,0
151686.316,22.949,32.227,34.668,41.504,-25.879,0
151686.320,58.105,31.250,30.273,44.922,12.695,0
151686.324,65.918,29.297,32.715,46.387,64.453,0
151686.328,28.809,32.227,37.109,41.992,-10.254,0
151686.330,14.160,38.086,36.133,41.992,-59.082,0
151686.334,35.156,45.898,46.875,52.734,-32.227,0
151686.337,52.246,37.598,49.316,49.805,-10.742,0
151686.341,37.109,28.809,39.062,34.668,2.441,0
151686.345,11.719,33.203,28.320,27.344,-5.371,0
151686.349,20.020,33.203,28.809,31.250,24.414,0
151686.353,46.387,37.598,33.203,34.668,67.871,0
151686.357,43.457,37.109,32.227,23.926,41.504,0
151686.361,14.160,27.344,34.668,16.602,-30.762,0
151686.365,10.254,26.367,36.133,28.320,-30.762,0
151686.369,35.645,22.461,37.109,35.645,33.203,0
151686.373,39.551,21.973,31.738,26.367,59.082,0
151686.375,32.227,29.785,31.250,22.461,33.203,0
151686.379,22.461,32.715,39.062,26.855,-6.348,0
151686.382,29.785,35.156,39.062,35.156,6.836,0
151686.386,48.828,37.598,38.574,40.039,73.730,0
151686.390,40.527,32.715,36.133,36.133,66.895,0
151686.394,23.926,35.645,31.250,37.598,24.902,0
151686.398,27.832,28.320,20.996,41.016,43.945,0
151686.402,46.875,19.043,15.625,40.039,92.773,0
151686.406,39.551,25.391,29.785,33.691,119.629,0
151686.410,20.020,32.227,42.969,28.809,76.660,0
151686.414,28.809,34.668,38.086,32.227,18.555,0
151686.418,61.523,36.133,39.062,42.969,71.289,0
151686.421,61.035,39.062,44.922,43.457,92.285,0
151686.425,26.367,31.250,36.621,37.109,41.504,0
151686.429,15.625,33.203,30.762,39.551,-2.930,0
151686.433,42.969,44.434,26.855,47.363,28.320,0
151686.437,60.547,40.039,21.484,47.363,76.660,0
151686.440,32.227,30.762,25.391,31.738,41.992,0
151686.444,21.484,35.156,30.273,32.227,-39.062,0
151686.448,41.016,40.039,31.738,42.480,3.418,0
151686.452,48.828,37.598,37.598,41.992,96.680,0
151686.456,41.992,35.156,42.969,41.016,88.867,0
151686.460,22.949,34.668,39.062,38.086,25.391,0
151686.464,36.621,38.086,35.645,42.480,14.160,0
151686.465,62.012,38.086,33.691,46.875,64.453,0
