timestamps,TP9,AF7,AF8,TP10,Right AUX,Marker0
151844.762,34.180,25.879,36.133,34.668,25.391,0
151844.766,28.320,25.879,31.738,37.598,26.367,0
151844.769,29.785,27.832,32.227,39.062,50.293,0
151844.773,35.156,40.039,43.457,40.527,58.105,0
151844.777,44.434,45.898,43.945,42.480,54.688,0
151844.781,43.457,43.457,35.156,38.086,44.434,0
151844.785,35.156,41.016,33.203,35.156,8.789,0
151844.789,27.344,33.203,21.484,30.273,7.324,0
151844.793,27.344,31.250,17.578,25.391,39.551,0
151844.797,30.273,31.250,38.574,22.461,57.617,0
151844.801,30.273,30.273,57.129,23.926,50.293,0
151844.805,31.738,37.109,54.199,24.414,66.895,0
151844.807,40.039,45.410,46.387,29.785,86.426,0
151844.810,40.039,41.504,39.062,28.320,42.480,0
151844.814,33.203,39.551,36.133,26.367,8.789,0
151844.818,34.180,39.551,39.551,33.691,61.035,0
151844.822,31.738,32.715,40.039,33.691,67.871,0
151844.826,27.832,27.832,36.621,26.367,2.930,0
151844.830,33.691,33.203,38.086,29.785,2.441,0
151844.834,41.504,30.762,41.504,39.551,24.902,0
151844.838,45.410,27.344,42.480,46.387,38.574,0
151844.842,42.480,34.180,35.156,44.434,12.207,0
151844.846,37.109,32.715,20.020,33.203,-14.648,0
151844.850,39.551,40.039,29.297,36.621,40.527,0
151844.852,36.621,40.527,39.551,33.691,91.797,0
151844.855,28.320,25.879,33.203,19.043,64.941,0
151844.859,27.344,25.879,36.133,17.090,5.371,0
151844.863,32.227,35.156,43.457,26.367,23.926,0
151844.867,34.180,38.086,30.273,28.809,46.387,0
151844.871,30.273,33.203,20.020,26.855,51.270,0
151844.875,30.762,31.250,38.086,25.391,52.246,0
151844.879,31.250,32.715,51.270,28.320,67.871,0
151844.883,31.738,37.109,45.410,35.156,72.266,0
151844.887,29.785,36.621,38.574,32.715,35.645,0
151844.891,28.320,27.832,42.480,29.297,10.254,0
151844.895,37.109,28.809,48.340,36.133,-4.395,0
151844.896,43.457,38.086,45.410,41.992,9.766,0
151844.900,40.039,41.016,42.480,36.621,58.594,0
151844.904,40.039,38.574,34.668,27.832,52.246,0
151844.908,42.969,29.785,17.090,27.344,33.691,0
151844.912,37.598,26.367,28.809,30.273,36.621,0
151844.916,37.109,40.039,46.875,34.180,53.223,0
151844.920,41.016,46.875,40.527,35.645,74.219,0
151844.924,32.227,36.133,36.621,25.879,30.273,0
151844.928,23.926,30.273,39.551,19.531,-17.578,0
151844.932,25.391,35.645,45.898,24.414,37.109,0
151844.936,29.785,33.691,41.992,24.902,48.828,0
151844.939,32.715,32.715,30.762,25.879,-12.207,0
151844.942,32.715,34.668,28.809,27.832,-26.367,0
151844.946,35.156,39.062,33.203,28.320,34.180,0
151844.949,39.062,46.387,38.574,27.832,28.809,0
151844.953,33.691,44.922,42.480,22.461,-7.324,0
151844.957,33.203,39.062,40.527,21.973,-52.246,0
151844.961,34.668,36.133,35.156,23.926,-52.246,0
151844.965,34.180,30.273,28.809,29.785,26.855,0
151844.969,38.574,31.738,23.926,35.156,37.598,0
151844.973,35.645,31.250,25.391,31.250,20.996,0
151844.977,38.574,32.715,37.109,34.668,50.293,0
151844.981,36.133,38.086,43.945,43.457,48.828,0
151844.985,27.344,31.250,35.645,41.992,26.855,0
151844.987,37.598,37.109,21.973,47.363,39.062,0
151844.990,43.945,41.992,24.414,52.246,41.016,0
151844.994,28.809,22.461,40.527,41.504,47.363,0
151844.998,23.926,16.602,54.199,36.133,83.008,0
151845.002,35.156,27.832,61.523,37.598,70.801,0
151845.006,36.133,32.715,47.852,39.062,58.594,0
151845.010,30.762,28.320,34.180,38.086,73.242,0
151845.014,27.832,23.926,39.062,32.227,43.457,0
151845.018,28.809,29.297,39.551,28.320,32.227,0
151845.022,29.785,33.691,29.785,25.879,33.203,0
151845.026,28.809,33.691,32.715,28.320,27.344,0
151845.030,30.762,31.250,47.852,34.668,52.246,0
151845.031,29.785,27.832,45.898,27.832,96.680,0
151845.035,28.320,28.809,34.668,24.902,52.734,0
151845.039,26.855,29.785,33.691,31.738,3.906,0
151845.043,30.762,30.273,38.086,37.109,40.039,0
151845.047,41.016,35.156,35.156,41.992,57.617,0
151845.051,43.945,35.645,30.273,42.480,50.293,0
151845.055,36.133,33.203,31.738,41.992,21.484,0
151845.059,27.344,31.250,33.203,39.551,9.277,0
151845.063,27.344,28.809,34.668,36.621,14.160,0
151845.067,29.297,33.203,42.480,34.668,7.324,0
151845.071,23.438,29.785,54.199,34.180,-1.465,0
151845.074,16.602,24.414,48.340,31.250,-1.465,0
151845.077,19.043,31.738,38.086,28.809,17.578,0
151845.080,24.414,32.227,32.227,33.203,12.695,0
151845.084,25.391,24.902,26.367,32.227,21.484,0
151845.088,30.762,31.250,30.762,38.086,18.555,0
151845.092,37.598,33.203,34.180,41.992,34.668,0
151845.096,38.574,19.043,36.133,38.574,28.809,0
151845.100,39.062,19.043,34.668,36.621,-0.488,0
151845.104,44.434,39.551,43.945,40.527,28.320,0
151845.108,43.945,42.480,48.340,43.945,54.688,0
151845.112,37.598,39.062,34.668,36.133,54.199,2
151845.116,32.227,33.203,35.645,26.367,32.227,0
151845.120,28.320,30.762,44.922,26.855,11.230,0
151845.123,29.785,33.691,40.039,31.738,11.230,0
151845.127,34.180,33.691,35.645,29.297,29.785,0
151845.131,31.250,32.227,32.715,24.902,23.438,0
151845.135,35.156,35.645,33.691,31.738,25.879,0
151845.138,43.457,44.434,38.086,38.086,12.207,0
151845.142,41.992,42.480,31.250,36.621,10.742,0
151845.146,42.969,39.062,26.855,35.156,8.789,0
151845.150,42.969,35.645,34.668,32.227,9.277,0
151845.154,37.598,31.738,41.504,30.762,21.484,0
151845.158,39.551,35.156,39.062,38.086,5.371,0
151845.162,33.691,32.227,38.574,32.715,-9.277,0
151845.166,22.461,24.414,36.133,20.020,-10.254,0
151845.182,22.461,25.391,32.227,24.902,33.691,0
151845.186,24.902,28.809,36.621,35.645,88.867,0
151845.189,22.461,31.250,39.062,32.715,80.566,0
151845.193,20.508,35.156,36.133,25.879,31.250,0
151845.197,24.414,34.180,31.738,28.320,-6.348,0
151845.201,27.832,31.738,32.715,31.250,-27.832,0
151845.205,28.809,38.574,32.227,29.785,-9.277,0
151845.209,31.250,44.922,36.133,30.762,48.828,0
151845.213,27.832,36.133,35.645,24.414,30.273,0
151845.217,20.508,25.391,33.691,23.438,14.648,0
151845.221,26.855,28.320,44.922,30.762,41.504,0
151845.225,32.227,33.691,46.875,30.273,56.641,0
151845.227,33.691,35.645,45.410,29.297,37.109,0
151845.230,39.551,38.574,43.457,38.086,56.152,0
151845.234,43.457,38.574,38.574,42.969,105.469,0
151845.238,41.504,35.645,35.156,39.551,63.965,0
151845.242,36.621,26.367,25.879,33.691,32.715,0
151845.246,32.715,25.879,25.391,30.762,35.645,0
151845.250,29.297,32.227,30.762,30.762,68.359,0
151845.254,31.738,31.250,32.227,31.738,87.891,0
151845.258,35.645,23.926,36.133,29.785,49.805,0
151845.262,32.715,23.438,41.504,31.250,31.738,0
151845.266,27.344,28.809,38.086,33.203,62.988,0
151845.270,22.949,30.273,30.273,25.879,106.934,0
151845.272,31.250,38.574,25.879,30.273,60.547,0
151845.275,36.621,32.715,38.574,37.109,-13.184,0
151845.279,30.273,23.926,50.293,36.133,11.719,0
151845.283,26.855,29.785,47.852,27.344,34.668,0
151845.287,30.762,28.809,37.598,24.902,1.953,0
151845.291,31.250,21.973,26.855,24.902,-4.395,0
151845.295,31.738,29.785,31.738,28.320,18.555,0
151845.299,40.039,41.992,41.504,38.086,33.203,0
151845.303,41.992,38.574,42.480,32.227,33.691,0
151845.307,35.645,29.785,34.668,22.949,26.855,0
151845.311,37.109,33.691,38.086,29.785,31.250,0
151845.315,38.086,41.504,40.527,39.551,31.250,0
151845.317,36.621,36.133,35.156,39.551,69.336,0
151845.320,41.992,38.574,38.574,42.480,83.008,0
151845.324,45.410,50.293,52.246,50.293,32.715,0
151845.328,38.574,43.457,55.176,47.852,23.926,0
151845.332,31.250,31.738,42.969,37.598,57.129,0
151845.336,33.691,28.320,37.598,35.645,52.246,0
151845.340,34.180,26.855,35.645,36.133,8.789,0
151845.344,38.574,39.062,39.062,39.062,22.461,0
151845.348,41.992,46.387,39.062,42.969,62.012,0
151845.352,31.250,39.062,26.367,34.180,87.402,0
151845.356,30.273,40.527,27.832,25.391,81.055,0
151845.360,38.574,44.434,36.133,26.855,93.262,0
151845.362,35.156,35.156,35.645,25.879,106.445,0
151845.365,28.809,30.762,32.227,25.391,77.148,0
151845.369,30.762,38.086,32.715,24.902,38.574,0
151845.373,28.809,36.621,35.645,20.020,52.246,0
151845.377,32.227,33.691,35.156,24.414,65.430,0
151845.381,39.551,39.062,39.062,30.273,65.430,0
151845.385,41.992,39.062,36.621,28.809,58.105,0
151845.389,38.574,34.668,33.203,24.902,-20.508,0
151845.393,36.621,45.410,41.016,27.832,18.066,0
151845.397,43.457,48.828,43.945,36.621,77.148,0
151845.401,41.992,36.621,38.574,34.668,29.785,0
151845.405,37.109,34.180,31.250,30.762,23.926,0
151845.407,36.621,32.715,28.320,33.203,43.945,0
151845.410,39.551,34.668,37.598,37.598,78.613,0
151845.414,42.480,38.086,44.922,42.480,46.387,0
151845.418,39.062,39.062,40.527,36.621,-16.113,0
151845.422,36.133,36.133,39.062,27.832,24.414,0
151845.426,36.621,36.621,41.992,35.645,71.289,0
151845.430,33.691,38.086,37.109,39.062,40.527,0
151845.434,35.645,30.273,29.297,35.156,13.672,0
151845.438,45.410,27.832,27.832,39.551,52.734,0
151845.442,50.293,29.297,30.273,51.758,89.844,0
151845.446,46.875,29.297,33.691,52.246,110.840,0
151845.450,47.852,30.273,40.527,49.805,70.801,0
151845.452,50.781,37.109,41.504,49.805,19.043,0
151845.455,47.852,38.086,38.574,43.945,10.254,0
151845.459,49.805,40.527,30.273,47.363,34.180,0
151845.463,44.922,44.434,23.926,43.457,45.898,0
151845.467,45.898,40.527,38.574,41.016,3.418,0
151845.471,49.805,37.598,49.805,50.781,-14.160,0
151845.475,39.551,26.367,46.875,48.340,5.859,0
151845.479,35.645,21.484,44.922,40.039,15.625,0
151845.483,38.574,25.391,46.875,37.598,43.945,0
151845.487,43.457,30.762,48.828,41.992,50.781,0
151845.491,50.293,38.574,45.898,46.875,33.203,0
151845.494,47.852,45.898,41.504,43.945,36.133,0
151845.497,43.457,43.945,34.180,40.039,56.152,0
151845.500,38.574,33.691,29.297,37.598,56.641,0
151845.504,32.227,29.785,28.320,37.109,47.852,0
151845.508,27.832,33.691,32.227,41.016,70.312,0
151845.512,23.438,34.668,39.551,37.109,93.750,0
151845.516,20.020,30.273,41.992,38.086,70.312,0
151845.520,17.578,30.762,36.621,41.016,43.457,0
151845.524,18.066,31.738,33.203,35.156,31.738,0
151845.528,23.438,27.832,39.062,32.715,12.695,0
151845.532,30.273,32.227,42.480,33.203,6.836,0
151845.536,32.715,44.922,39.551,36.621,43.945,0
151845.540,37.109,41.504,34.668,45.410,91.797,0
151845.557,42.969,33.203,31.250,45.410,72.754,0
151845.560,43.945,35.156,38.086,32.715,17.090,0
151845.564,40.039,36.133,46.875,30.762,3.418,0
151845.568,40.039,36.133,46.387,35.156,41.504,0
151845.572,37.109,43.457,37.598,32.227,62.012,0
151845.576,36.133,44.434,39.062,32.715,-12.207,0
151845.580,34.180,36.621,39.062,30.273,-32.715,0
151845.584,30.273,40.527,35.156,27.344,32.715,0
151845.588,29.785,38.574,31.250,26.367,24.902,0
151845.592,26.367,32.227,30.762,20.996,-19.531,0
151845.596,23.926,34.668,39.551,16.602,24.902,0
151845.599,24.414,35.645,50.781,21.484,75.684,0
151845.603,31.250,34.668,43.945,26.367,52.246,0
151845.607,34.180,37.109,32.227,27.344,32.227,0
151845.611,31.738,38.574,39.062,26.855,26.855,0
151845.615,27.344,30.273,40.039,28.320,28.320,0
151845.618,24.414,29.785,44.922,34.180,8.301,0
151845.622,22.461,31.738,58.105,28.809,11.719,0
151845.626,20.508,29.297,51.758,22.461,15.625,0
151845.630,24.414,28.809,38.086,26.855,23.926,0
151845.634,31.250,38.086,41.992,30.273,37.109,0
151845.638,28.809,36.621,51.270,25.879,25.391,0
151845.642,23.926,33.203,30.762,20.996,49.316,0
151845.646,25.879,35.156,13.184,19.531,18.555,0
151845.648,27.832,31.250,27.344,22.949,-0.977,0
151845.652,29.297,35.156,42.969,30.273,46.875,0
151845.656,24.902,35.156,43.457,28.320,26.855,0
151845.660,31.250,37.109,41.504,29.297,13.672,0
151845.663,43.457,38.574,37.109,37.598,51.758,0
151845.667,43.945,32.227,35.645,43.945,59.082,0
151845.671,42.480,31.738,34.668,41.992,24.414,0
151845.675,47.363,36.133,27.344,40.039,18.066,0
151845.679,48.828,36.621,44.922,41.504,15.137,0
151845.683,41.992,35.156,50.293,33.691,6.348,0
151845.687,36.621,34.668,41.504,28.809,42.969,0
151845.691,36.621,34.668,43.945,23.926,41.992,0
151845.692,35.156,39.551,41.504,25.879,37.598,0
151845.696,37.598,40.527,37.109,36.621,59.570,0
151845.699,38.574,36.621,28.809,37.109,83.496,0
151845.703,38.574,31.738,33.203,31.250,70.801,0
151845.707,37.598,36.133,38.086,28.809,41.992,0
151845.711,35.156,43.457,34.668,33.691,70.312,0
151845.715,34.180,35.645,39.551,38.086,88.867,0
151845.719,32.227,31.738,37.598,33.203,61.523,0
151845.723,39.551,37.598,34.180,32.715,6.348,0
151845.727,39.551,37.598,33.203,33.691,30.273,0
151845.731,38.086,35.645,30.273,36.133,93.750,0
151845.735,41.504,37.109,30.273,35.645,76.660,0
151845.737,37.109,36.133,34.668,24.902,5.371,0
151845.740,31.738,31.250,36.621,20.996,-3.906,0
151845.744,32.715,28.320,36.133,26.855,34.180,0
151845.748,34.180,35.645,34.180,31.738,62.012,1
151845.752,33.691,41.992,31.250,32.227,33.691,0
151845.756,28.320,27.344,32.715,26.855,19.043,0
151845.760,33.203,23.926,36.621,34.668,77.148,0
151845.764,40.527,29.785,32.227,40.527,95.215,0
151845.768,37.109,29.297,29.785,30.762,55.664,0
151845.772,42.969,33.203,40.039,31.738,29.785,0
151845.776,44.922,34.180,46.387,38.086,26.367,0
151845.780,47.852,40.039,48.340,44.922,52.734,0
151845.782,53.711,41.992,43.457,46.387,34.180,0
151845.786,47.852,36.621,27.344,40.039,3.906,0
151845.789,37.109,33.691,31.738,37.109,33.691,0
151845.793,35.156,34.180,45.898,35.645,52.734,0
151845.797,39.551,32.227,42.480,30.762,41.504,0
151845.801,30.762,24.902,29.297,20.996,53.223,0
151845.805,20.508,25.391,29.785,22.461,56.641,0
151845.809,21.973,24.902,35.645,29.297,55.176,0
151845.813,34.668,32.715,42.969,33.203,83.496,0
151845.817,35.645,42.969,34.668,33.691,56.152,0
151845.821,33.203,42.480,18.555,34.180,-11.230,0
151845.825,41.992,39.062,31.738,41.016,15.137,0
151845.827,33.691,35.645,43.945,43.457,54.688,0
151845.830,23.438,35.645,49.316,41.504,10.742,0
151845.834,28.809,39.551,48.828,38.574,27.832,0
151845.838,32.227,38.086,41.504,38.086,65.430,0
151845.842,36.133,29.785,30.762,38.574,59.082,0
151845.846,43.945,30.762,31.738,44.434,57.617,0
151845.850,44.922,37.109,43.457,44.434,-12.695,0
151845.854,36.133,33.203,44.922,33.203,-23.926,0
151845.858,35.156,34.668,46.387,37.109,61.035,0
151845.862,33.203,37.598,47.852,35.156,51.758,0
151845.866,29.785,35.645,46.387,27.832,20.996,0
151845.869,29.297,36.621,43.457,27.344,1.953,0
151845.873,24.414,29.297,39.551,26.367,28.809,0
151845.877,28.320,25.391,38.574,29.785,23.926,0
151845.881,36.621,32.715,35.156,35.645,-9.766,0
151845.885,34.668,33.203,33.691,33.691,1.465,0
151845.888,29.297,32.227,33.691,33.203,39.551,0
151845.892,23.438,30.762,28.320,31.738,72.754,0
151845.896,19.531,30.273,31.738,22.949,36.133,0
151845.900,20.508,31.738,40.039,22.461,50.293,0
151845.904,21.973,32.227,39.551,23.926,57.617,0
151845.908,27.344,36.133,37.598,29.297,39.551,0
151845.912,31.250,38.574,32.227,30.762,55.176,0
151845.916,32.227,36.621,32.227,23.926,31.738,0
151845.932,32.227,32.715,35.645,21.973,42.969,0
151845.936,36.621,38.574,27.832,25.879,41.992,0
151845.939,41.016,38.086,29.785,28.320,23.926,0
151845.943,44.434,40.039,46.387,31.250,26.367,0
151845.947,40.039,44.434,41.016,33.691,32.227,0
151845.951,25.879,38.574,35.645,24.414,55.176,0
151845.955,25.391,35.645,47.852,21.973,55.664,0
151845.959,35.156,31.738,44.922,29.297,80.566,0
151845.963,32.227,31.250,34.180,28.320,87.891,0
151845.967,30.762,41.504,39.551,31.738,64.453,0
151845.971,31.250,35.156,40.039,32.227,85.938,0
151845.975,24.902,29.297,34.668,25.391,130.371,0
151845.977,26.855,35.156,36.621,28.809,83.008,0
151845.981,33.203,38.574,43.945,38.574,35.156,0
151845.985,37.109,37.598,49.316,47.852,85.938,0
151845.989,31.250,34.668,44.922,42.480,91.309,0
151845.993,28.809,28.809,37.109,31.738,53.223,0
151845.997,38.574,28.809,36.133,38.574,22.949,0
151846.000,41.992,30.762,20.996,44.434,9.766,0
151846.004,38.086,30.762,19.531,40.527,44.434,0
151846.008,41.504,38.574,39.062,39.062,6.836,0
151846.012,39.551,42.480,45.410,33.691,-65.430,0
151846.016,35.645,39.551,44.922,33.203,-19.043,0
151846.020,39.551,33.691,41.016,40.527,29.297,0
151846.022,42.480,27.832,33.203,36.133,6.348,0
151846.026,47.363,31.738,31.250,37.109,-20.996,0
151846.029,41.992,33.203,35.156,39.062,4.883,0
151846.033,43.945,38.574,40.527,41.504,49.805,0
151846.037,50.293,41.504,51.270,49.805,47.363,0
151846.041,35.645,28.320,51.270,44.434,18.066,0
151846.045,32.715,25.391,39.062,41.504,42.480,0
151846.049,34.668,32.715,31.250,43.945,101.074,0
151846.053,25.391,32.715,24.414,39.062,28.320,0
151846.057,20.508,26.855,22.461,30.762,-25.391,0
151846.061,21.973,26.855,29.297,31.738,28.809,0
151846.065,20.020,29.297,32.715,30.273,45.410,0
151846.067,23.926,32.227,41.016,29.785,47.852,0
151846.070,29.785,35.645,43.945,30.273,26.855,0
151846.074,28.320,38.086,46.875,34.180,-7.812,0
151846.078,29.785,33.203,37.109,42.480,16.113,0
151846.082,28.809,22.949,19.531,36.621,59.570,0
151846.086,26.855,19.531,26.855,30.762,16.602,0
151846.090,34.180,23.926,38.086,33.691,3.418,0
151846.094,36.621,30.273,48.828,32.227,27.344,0
151846.098,28.809,29.785,41.504,26.367,0.488,0
151846.102,32.715,34.668,31.738,28.320,50.293,0
151846.106,40.039,37.598,37.598,33.203,75.684,0
151846.110,38.086,33.691,40.039,35.645,40.527,0
151846.113,32.227,33.203,32.715,35.156,73.730,0
151846.117,27.344,31.738,29.297,31.250,78.125,0
151846.121,27.832,36.621,32.715,30.273,68.359,0
151846.125,31.250,40.527,32.227,32.227,52.734,0
151846.128,32.227,29.785,33.691,30.762,41.016,0
151846.132,31.250,28.320,31.250,27.832,56.152,0
151846.136,34.180,37.598,26.855,33.203,55.176,0
151846.140,37.598,40.527,26.367,34.180,18.066,0
151846.144,35.156,34.180,34.668,36.621,28.320,0
151846.148,34.668,33.691,40.039,41.992,105.469,0
151846.152,33.203,36.133,36.133,38.086,60.547,0
151846.156,36.133,36.133,40.527,35.156,18.066,0
151846.157,40.527,35.156,43.457,38.574,44.922,0
151846.161,41.504,30.762,40.039,44.922,47.363,0
151846.164,43.945,34.180,41.992,44.434,23.438,0
151846.168,39.551,39.062,39.062,36.621,-3.418,0
151846.172,38.086,38.086,27.344,38.086,-3.906,0
151846.176,38.086,35.645,32.227,41.504,24.414,0
151846.180,35.156,34.180,48.340,38.086,18.066,0
151846.184,30.762,33.691,40.527,25.879,-8.301,0
151846.188,28.320,35.156,30.762,20.996,40.527,0
151846.192,35.156,36.133,20.996,28.320,62.012,0
151846.196,44.922,42.969,21.973,31.738,64.453,0
151846.200,52.734,51.758,43.945,30.762,80.078,0
151846.202,53.711,47.363,47.363,34.180,59.082,0
151846.205,47.852,41.992,41.992,34.668,49.316,0
151846.209,43.945,36.621,39.062,30.762,26.855,0
151846.213,46.387,30.273,38.086,35.156,26.855,0
151846.217,52.246,36.621,40.039,40.039,22.949,0
151846.221,46.875,43.457,35.156,41.992,17.578,0
151846.225,34.668,37.109,31.250,33.203,42.480,0
151846.229,34.180,33.691,40.527,30.273,-2.441,0
151846.233,39.062,38.574,47.852,38.086,-6.836,0
151846.237,35.156,42.969,43.457,40.527,22.461,0
151846.241,28.809,39.551,29.785,39.062,31.250,0
151846.245,31.250,35.156,31.250,40.039,34.180,0
151846.247,35.645,36.133,38.086,41.504,4.883,0
151846.251,35.645,35.645,41.016,37.109,-9.277,0
151846.254,36.621,38.086,49.805,44.922,20.508,0
151846.258,41.992,45.410,51.758,42.969,45.898,0
151846.262,41.992,42.969,44.922,36.621,27.832,0
151846.266,39.062,36.621,37.109,40.039,25.879,0
151846.270,48.828,41.504,33.203,43.945,2.930,0
151846.274,51.270,44.434,40.527,45.410,19.043,0
151846.278,40.039,35.645,37.109,30.273,22.461,0
151846.282,43.945,36.621,42.480,27.832,-40.527,0
151846.286,43.457,35.645,44.434,30.273,-32.227,0
151846.290,44.434,36.621,41.504,32.227,44.922,0
151846.307,47.363,39.062,43.945,37.598,64.941,0
151846.311,41.016,33.203,33.691,35.156,57.129,0
151846.314,40.039,32.227,28.320,36.133,55.176,0
151846.318,35.156,28.809,36.133,35.645,77.148,2
151846.322,30.762,29.785,42.969,33.203,59.570,0
151846.326,36.133,36.621,41.504,32.227,23.926,0
151846.330,37.598,35.156,39.551,31.738,25.879,0
151846.334,38.086,28.809,34.668,32.715,33.203,0
151846.338,40.039,36.133,35.645,36.133,28.809,0
151846.342,35.156,39.062,41.992,32.227,26.855,0
151846.346,28.320,25.879,37.109,23.438,21.973,0
151846.350,29.297,29.785,38.086,25.879,56.152,0
151846.352,31.250,31.738,39.551,30.762,87.891,0
151846.355,28.320,32.227,31.250,28.320,44.434,0
151846.359,23.926,35.156,29.785,27.344,30.762,0
151846.363,23.926,32.227,31.250,34.668,62.988,0
151846.367,28.320,34.668,26.855,41.016,76.172,0
151846.371,27.832,39.062,40.527,36.133,30.273,0
151846.375,25.879,39.551,55.176,37.109,32.227,0
151846.379,25.391,36.621,42.969,41.504,53.223,0
151846.383,27.344,31.250,39.062,40.039,18.066,0
151846.387,25.879,32.715,42.480,34.668,20.996,0
151846.391,29.785,37.109,40.527,36.133,16.113,0
151846.395,35.645,38.086,38.574,41.016,-7.812,0
151846.397,32.227,37.598,33.691,41.504,-8.789,0
151846.400,36.621,32.227,36.133,40.039,13.184,0
151846.404,44.922,36.621,46.387,37.109,16.113,0
151846.408,42.480,42.969,46.875,38.574,0.000,0
151846.412,38.086,32.227,39.062,45.410,15.625,0
151846.416,39.551,28.809,32.227,45.898,44.434,0
151846.420,33.203,33.691,29.785,38.086,46.875,0
151846.424,30.762,31.738,41.016,36.133,19.043,0
151846.428,32.227,33.691,42.480,35.156,-1.953,0
151846.432,24.414,35.156,32.227,28.320,-5.371,0
151846.436,24.902,35.645,38.574,26.855,-10.254,0
151846.440,33.203,41.992,49.805,33.691,17.090,0
151846.442,37.598,43.945,50.293,41.504,46.387,0
151846.446,37.598,39.551,39.062,41.992,48.340,0
151846.449,37.598,38.574,28.320,47.363,70.312,0
151846.453,36.621,33.203,33.203,46.387,58.105,0
151846.457,29.785,30.273,35.156,32.227,15.137,0
151846.461,26.855,32.715,33.691,32.227,29.785,0
151846.465,31.738,33.691,42.480,39.551,58.105,0
151846.469,29.785,32.715,47.363,32.715,60.547,0
151846.473,34.180,34.668,48.828,28.809,35.645,0
151846.477,38.086,32.227,42.480,36.133,63.477,0
151846.481,41.504,33.691,33.203,43.457,69.336,0
151846.485,46.875,34.668,28.809,43.945,3.906,0
151846.487,47.363,32.715,33.203,36.621,-23.926,0
151846.491,47.852,33.691,46.387,39.551,-15.137,0
151846.494,46.387,32.715,47.363,41.504,25.879,0
151846.498,38.574,36.133,38.574,32.715,29.297,0
151846.502,35.156,39.062,36.621,23.926,5.371,0
151846.506,44.434,40.039,48.828,33.691,10.742,0
151846.510,39.551,33.691,43.457,38.574,51.270,0
151846.514,37.598,33.203,32.715,29.785,68.359,0
151846.518,41.992,39.062,37.109,28.809,17.090,0
151846.522,36.621,34.668,36.621,33.203,2.441,0
151846.526,36.621,32.715,32.227,41.504,21.973,0
151846.530,46.387,32.227,38.086,45.898,41.504,0
151846.532,53.711,38.574,38.574,43.457,54.688,0
151846.535,45.898,39.551,29.297,35.156,55.664,0
151846.539,37.109,27.344,37.109,32.227,33.203,0
151846.543,38.574,32.715,42.969,36.133,18.555,0
151846.547,42.480,37.598,35.645,37.598,41.016,0
151846.551,45.898,32.227,36.621,40.527,34.668,0
151846.555,42.480,30.762,38.086,40.527,15.625,0
151846.559,40.039,30.273,36.621,37.109,20.996,0
151846.563,41.992,27.344,45.898,38.574,64.941,0
151846.567,42.480,32.715,50.293,41.016,66.895,0
151846.571,43.945,42.969,33.203,44.922,61.035,0
151846.574,40.039,41.504,26.855,45.410,59.570,0
151846.578,35.156,31.738,35.156,43.945,43.945,0
151846.582,36.133,27.344,45.410,36.621,41.504,0
151846.586,39.551,31.250,49.316,35.645,22.949,0
151846.590,40.527,32.715,41.992,44.434,60.547,0
151846.594,40.039,35.156,30.273,42.969,103.516,0
151846.597,47.363,43.945,27.832,47.852,58.105,0
151846.601,52.246,43.945,29.297,46.387,12.207,0
151846.605,47.852,39.551,38.574,33.691,36.133,0
151846.609,41.504,36.621,48.340,34.668,77.637,0
151846.613,37.109,31.738,42.480,35.645,36.621,0
151846.617,44.434,36.133,45.898,37.109,35.645,0
151846.621,44.922,39.551,44.434,44.434,43.457,0
151846.637,46.875,43.945,37.598,49.805,54.199,0
151846.641,54.688,43.457,41.992,44.922,77.148,0
151846.645,43.945,38.574,38.574,34.180,53.711,0
151846.649,41.992,40.039,35.645,38.574,64.941,0
151846.653,45.898,37.598,38.574,42.480,80.566,0
151846.656,43.945,36.621,41.992,45.898,83.008,0
151846.660,40.039,36.133,41.504,45.898,20.020,0
151846.664,39.062,37.109,37.598,39.551,-20.996,0
151846.668,41.992,34.668,42.969,44.434,31.250,0
151846.672,39.062,28.809,43.945,49.316,70.312,0
151846.676,35.645,30.273,33.691,44.922,55.176,0
151846.680,35.645,30.762,36.621,41.992,74.707,0
151846.682,36.133,31.250,47.852,41.992,87.891,0
151846.686,34.668,33.691,47.363,42.480,60.547,0
151846.690,33.203,33.691,43.457,42.480,43.457,0
151846.693,30.762,28.320,42.480,35.156,-16.602,0
151846.697,30.762,29.297,43.457,38.086,-23.926,0
151846.701,36.133,39.551,44.922,43.945,0.977,0
151846.705,29.785,37.109,37.598,34.180,7.812,0
151846.709,29.297,34.180,31.250,27.344,21.973,0
151846.713,38.574,36.621,34.668,29.785,24.414,0
151846.717,33.203,34.180,38.574,30.273,8.789,0
151846.721,36.133,35.156,38.086,33.691,10.742,0
151846.725,39.551,37.109,35.645,35.645,23.926,0
151846.742,35.645,36.133,37.598,33.691,29.297,0
151846.746,29.297,35.156,39.551,35.645,39.062,0
151846.749,28.809,39.551,36.621,35.156,62.988,0
151846.753,29.297,37.109,34.668,29.785,85.938,0
151846.757,30.762,33.203,36.621,27.832,49.805,0
151846.761,34.668,36.133,36.621,31.250,53.223,0
151846.765,32.715,35.156,37.109,32.227,38.086,0
151846.769,33.691,30.762,35.645,31.250,37.109,0
151846.773,38.574,32.227,39.551,31.738,12.695,0
151846.777,35.645,41.992,40.039,29.785,-46.387,0
151846.781,28.320,38.086,33.691,25.391,3.906,0
151846.785,25.391,28.320,35.645,24.414,72.754,0
151846.772,25.391,34.668,36.621,21.484,88.379,0
151846.776,25.391,32.715,37.109,20.508,51.270,0
151846.779,25.879,28.320,41.992,25.391,15.137,0
151846.783,22.949,30.762,38.574,24.902,36.621,0
151846.787,23.926,32.715,33.203,26.855,48.340,0
151846.791,29.297,39.062,34.668,29.785,17.578,0
151846.795,22.461,43.457,32.227,24.414,-0.977,0
151846.799,22.949,44.434,34.668,26.367,39.062,0
151846.803,29.297,40.527,31.738,26.367,40.527,0
151846.807,31.250,36.621,21.973,20.020,23.438,0
151846.811,33.691,35.156,30.762,26.367,51.270,0
151846.815,34.180,31.250,41.992,32.715,49.805,0
151846.817,36.621,33.691,44.434,31.250,23.438,0
151846.820,32.715,29.297,42.969,27.344,2.441,0
151846.824,32.715,29.785,43.457,30.762,12.207,0
151846.828,32.715,40.527,37.598,35.645,40.527,0
151846.832,29.785,43.457,19.531,30.762,70.312,0
151846.836,32.715,45.410,26.367,24.414,56.641,0
151846.840,33.691,41.016,44.434,26.367,4.395,0
151846.844,34.668,35.156,46.387,35.156,22.949,0
151846.848,34.180,37.598,38.574,37.109,59.570,0
151846.852,39.062,42.480,38.086,37.598,66.895,0
151846.856,40.527,41.016,42.480,40.527,44.922,0
151846.860,39.551,36.621,38.574,39.551,24.902,0
151846.863,40.527,33.203,39.551,41.504,59.082,0
151846.867,39.062,35.645,45.898,45.410,66.406,0
151846.871,34.180,39.062,44.434,41.016,65.430,0
151846.875,29.297,32.227,41.504,33.203,83.984,0
151846.878,27.832,29.785,45.898,36.133,50.293,0
151846.882,24.414,26.855,41.504,32.227,32.227,1
151846.886,30.762,27.832,34.180,33.203,19.043,0
151846.890,34.668,28.320,36.621,39.062,-24.902,0
151846.894,24.414,25.879,38.574,32.227,11.230,0
151846.898,17.578,31.250,38.086,27.832,104.492,0
151846.902,20.508,33.691,38.574,24.902,89.355,0
151846.906,23.926,33.691,38.574,24.414,60.547,0
151846.907,25.391,33.691,40.039,30.762,39.062,0
151846.911,34.668,39.551,38.574,38.574,45.898,0
151846.914,36.621,41.504,36.621,37.598,64.941,0
151846.918,28.809,30.762,38.086,29.297,24.414,0
151846.922,26.367,27.344,39.062,31.250,21.973,0
151846.926,28.809,30.762,38.574,34.668,20.508,0
151846.930,28.320,34.180,41.016,33.203,3.418,0
151846.934,28.320,33.203,37.109,27.832,-25.879,0
151846.938,25.391,28.809,27.344,22.461,-11.230,0
151846.942,28.320,27.344,30.762,29.785,47.363,0
151846.946,28.809,30.762,38.574,28.809,61.523,0
151846.950,26.855,41.504,38.574,25.391,38.086,0
151846.952,29.297,42.480,40.039,30.273,36.621,0
151846.955,25.391,28.320,37.109,33.691,63.965,0
151846.959,26.855,23.926,38.086,40.527,47.852,0
151846.963,29.785,28.320,41.016,40.039,47.852,0
151846.967,27.832,27.344,38.574,34.668,70.312,0
151846.971,38.574,22.949,37.598,38.574,71.289,0
151846.975,42.969,20.508,38.574,35.156,33.203,0
151846.979,47.852,43.457,47.852,38.086,9.277,0
151846.983,51.270,54.199,49.316,44.434,36.621,0
151846.987,35.156,33.203,40.527,36.621,19.043,0
151846.991,30.762,26.367,39.551,37.109,4.395,0
151846.995,36.133,28.809,37.109,35.156,30.762,0
151846.997,38.574,31.250,32.227,31.738,37.109,0
151847.000,35.645,31.738,31.250,34.180,0.000,0
151847.004,31.250,29.297,33.691,34.668,-3.906,0
151847.008,31.738,27.344,38.086,33.691,47.363,0
151847.012,41.504,35.645,46.387,34.668,62.988,0
151847.016,46.875,33.203,48.828,36.133,54.199,0
151847.020,43.945,26.367,35.645,38.086,30.273,0
151847.024,48.340,28.320,30.273,41.504,32.227,0
151847.028,56.152,32.715,43.457,45.410,59.082,0
151847.032,55.176,38.086,50.781,44.922,52.246,0
151847.036,47.363,39.062,41.992,43.457,35.645,0
151847.040,49.805,44.922,39.062,47.363,41.504,0
151847.057,51.758,48.828,44.922,45.410,52.246,0
151847.061,44.922,42.480,41.504,38.086,-1.953,0
151847.064,39.062,38.086,24.414,31.738,-7.324,0
151847.068,43.457,40.527,22.949,35.156,19.043,0
151847.072,48.828,39.551,35.645,41.992,19.531,0
151847.076,44.922,39.062,41.992,44.922,5.371,0
151847.080,38.086,35.645,43.457,43.945,11.230,0
151847.084,36.133,36.621,43.457,43.457,62.012,0
151847.088,34.668,36.133,42.969,41.016,57.129,0
151847.092,35.645,31.250,47.363,40.527,18.555,0
151847.096,43.457,35.645,47.852,48.828,-0.977,0
151847.100,39.062,33.691,37.598,47.363,23.438,0
151847.102,34.668,34.180,35.645,36.133,76.172,0
151847.106,37.598,38.574,40.039,32.715,85.449,0
151847.110,36.133,35.156,41.504,29.785,36.133,0
151847.114,35.645,37.598,38.574,35.645,4.395,0
151847.118,38.086,34.668,35.156,41.504,10.254,0
151847.122,38.086,32.227,37.109,38.574,20.996,0
151847.126,39.062,34.180,41.016,40.039,-3.418,0
151847.130,38.574,37.598,47.363,42.969,-9.277,0
151847.134,37.109,41.016,44.434,49.316,21.484,0
151847.137,35.156,35.156,40.527,45.410,11.230,0
151847.141,35.156,32.715,40.527,41.016,38.574,0
151847.145,36.133,32.715,37.598,43.945,77.637,0
151847.147,31.250,31.250,33.203,43.457,89.355,0
151847.151,33.691,34.180,25.391,41.016,105.957,0
151847.155,35.156,35.156,25.879,35.156,86.426,0
151847.159,34.180,34.668,40.527,29.785,71.777,0
151847.163,38.086,37.598,43.945,33.691,68.848,0
151847.167,35.156,33.203,42.969,38.574,63.477,0
151847.170,36.133,33.203,43.457,34.668,41.504,0
151847.174,41.016,39.062,44.434,34.668,15.137,0
151847.178,41.504,38.086,43.945,38.574,-0.977,0
151847.182,38.574,29.785,31.738,33.203,-18.066,0
151847.186,39.062,23.438,24.414,30.273,0.977,0
151847.190,39.551,25.391,29.785,36.133,28.809,0
151847.192,38.086,36.133,33.691,36.621,29.297,0
151847.195,38.574,35.156,31.250,33.203,35.156,0
151847.199,45.410,29.785,31.250,35.645,68.848,0
151847.203,55.176,43.457,36.133,41.504,39.551,0
151847.207,52.246,43.457,43.945,38.574,11.230,0
151847.211,41.504,29.785,43.457,34.668,38.574,0
151847.215,39.551,26.855,36.621,35.645,29.785,0
151847.219,41.992,31.250,36.621,35.645,1.465,0
151847.223,41.992,34.180,37.598,31.250,-6.348,0
151847.227,41.504,35.156,37.109,29.785,15.625,0
151847.231,41.992,37.109,37.598,35.645,56.152,0
151847.235,45.410,37.109,35.156,37.598,44.434,0
151847.237,50.781,41.016,37.109,39.062,36.133,0
151847.241,53.223,48.340,41.504,40.039,20.020,0
151847.244,50.781,42.480,34.180,38.086,41.992,0
151847.248,47.852,32.715,29.297,36.133,86.426,0
151847.252,51.758,36.133,37.109,38.086,65.918,0
151847.256,52.246,33.203,31.738,40.527,38.086,0
151847.260,45.410,31.738,29.297,44.922,66.406,0
151847.264,41.504,41.016,40.527,42.969,52.246,0
151847.268,41.504,43.945,44.434,37.109,10.254,0
151847.272,37.598,41.992,44.922,38.574,40.039,0
151847.276,35.156,42.480,43.945,45.898,43.945,0
151847.280,39.551,47.852,36.133,50.781,56.641,0
151847.282,36.621,44.922,33.203,47.852,51.758,0
151847.285,34.668,37.598,36.621,47.852,24.414,0
151847.289,40.527,38.574,32.227,48.340,21.484,0
151847.293,42.480,37.598,41.504,43.945,14.648,0
151847.297,34.180,32.715,47.852,34.668,17.090,0
151847.301,34.180,38.574,43.945,31.250,17.090,0
151847.305,38.086,47.363,44.434,34.668,-8.789,0
151847.309,36.133,44.434,42.480,34.180,0.000,0
151847.313,39.062,46.875,37.598,37.598,13.672,0
151847.317,37.598,47.363,34.180,35.645,11.230,0
151847.321,30.762,34.180,40.039,28.320,-11.230,0
151847.325,30.762,32.227,40.039,27.832,5.371,0
151847.328,35.156,36.133,36.621,35.156,43.945,0
151847.332,31.738,33.203,36.133,29.297,-2.441,0
151847.336,29.297,33.691,42.969,22.949,-41.016,0
151847.340,25.879,36.133,44.434,28.809,-9.277,0
151847.344,21.484,40.527,36.133,31.250,51.758,0
151847.347,23.438,45.410,39.062,34.668,23.926,0
151847.351,25.391,41.016,46.387,30.762,-11.719,0
151847.355,25.391,34.180,40.527,22.949,10.742,0
151847.359,26.367,30.762,34.668,27.832,52.734,0
151847.363,24.414,28.320,36.133,32.227,69.336,0
151847.367,28.320,31.738,32.715,31.738,41.016,0
151847.371,35.645,38.086,28.809,34.180,6.836,0
151847.372,35.645,40.039,35.645,38.574,21.973,0
151847.376,35.156,41.504,47.363,39.062,14.648,0
151847.379,36.621,42.969,48.340,31.738,8.789,0
151847.383,35.156,36.621,45.898,27.832,16.113,0
151847.387,28.809,28.320,42.480,31.250,73.242,0
151847.391,26.855,26.855,33.691,33.203,96.191,0
151847.395,33.203,29.297,37.598,34.180,62.988,0
151847.399,39.062,29.297,40.039,34.668,43.457,0
151847.403,36.133,30.273,33.691,37.109,32.227,0
151847.407,33.691,33.203,35.645,39.551,59.570,0
151847.411,33.691,30.762,39.062,40.527,57.617,0
151847.415,36.621,30.273,36.133,41.992,50.781,0
151847.432,42.480,38.086,41.504,47.852,49.805,0
151847.435,42.480,36.621,41.016,49.805,49.316,0
151847.439,45.410,35.156,26.367,51.270,57.129,0
151847.443,48.828,36.621,23.438,48.340,32.227,0
151847.447,41.992,32.715,35.645,39.551,-16.113,0
151847.451,34.668,36.133,44.434,37.109,-1.465,0
151847.455,34.180,38.086,44.434,35.645,35.645,0
151847.459,44.434,33.691,48.340,37.598,37.598,0
151847.463,51.270,37.109,42.480,44.922,18.555,0
151847.467,43.457,35.156,36.621,43.945,7.812,0
151847.471,40.039,35.645,37.109,40.527,40.039,0
151847.475,38.086,36.621,26.367,39.062,76.172,0
151847.477,34.180,29.785,33.203,33.691,53.711,0
151847.481,32.715,26.367,42.969,32.715,5.859,0
151847.484,35.645,27.344,41.016,37.109,18.555,0
151847.488,39.551,34.668,41.504,40.039,44.922,0
151847.492,37.109,40.527,32.715,35.645,2.930,0
151847.496,33.691,40.039,27.832,32.227,-12.207,1
151847.500,36.621,41.992,43.457,36.621,9.766,0
151847.504,37.598,40.527,44.434,35.156,19.043,0
151847.508,35.156,37.598,36.621,32.227,17.578,0
151847.512,35.156,38.574,38.086,31.738,-15.137,0
151847.516,41.504,40.039,44.434,37.598,27.832,0
151847.520,41.504,34.180,42.969,38.574,65.430,0
151847.522,34.180,32.227,37.109,25.879,48.340,0
151847.525,34.180,34.668,34.180,20.020,56.641,0
151847.529,34.180,30.762,33.203,24.414,53.711,0
151847.533,29.785,30.273,34.180,29.785,40.039,0
151847.537,34.180,33.203,30.273,27.344,38.574,0
151847.541,40.527,37.598,28.809,25.879,41.504,0
151847.545,40.527,37.598,28.809,29.297,52.734,0
151847.549,36.621,31.738,23.926,31.250,53.223,0
151847.553,35.645,31.250,30.762,27.344,13.184,0
151847.557,34.180,32.715,40.527,25.879,-16.113,0
151847.561,25.879,28.320,40.039,25.391,22.461,0
151847.565,25.391,31.250,41.504,26.855,29.785,0
151847.567,32.715,33.203,46.387,33.691,44.434,0
151847.570,39.551,27.832,44.922,39.062,60.059,0
151847.574,42.480,34.668,40.039,42.969,60.059,0
151847.578,37.109,37.598,36.621,44.434,68.848,0
151847.582,28.809,31.250,36.133,34.180,58.594,0
151847.586,33.203,38.086,45.410,30.273,43.457,0
151847.590,38.574,36.621,43.457,35.156,48.828,0
151847.594,35.645,21.484,41.016,35.645,37.109,0
151847.598,29.785,19.043,43.945,32.715,12.207,0
151847.602,29.297,28.809,36.621,24.902,54.688,0
151847.606,36.133,39.062,40.527,26.367,48.828,0
151847.609,33.691,41.504,42.969,32.227,17.090,0
151847.612,30.273,38.086,32.715,34.180,44.922,0
151847.616,33.691,40.527,34.668,33.691,66.895,0
151847.620,38.574,42.480,46.387,34.180,84.473,0
151847.623,37.109,32.715,44.922,34.668,48.828,0
151847.627,26.367,25.391,36.133,25.391,47.852,0
151847.631,25.879,25.391,29.785,25.391,43.945,0
151847.635,34.668,30.762,33.203,29.785,15.137,0
151847.639,35.156,37.598,42.969,29.297,-27.344,0
151847.643,39.551,41.504,42.969,33.691,-22.949,0
151847.647,44.434,44.922,37.598,37.109,59.082,0
151847.651,37.598,42.969,32.715,32.227,79.590,0
151847.655,36.621,41.992,39.062,28.809,41.992,0
151847.657,35.645,37.598,38.086,31.250,51.270,0
151847.661,40.527,30.762,30.762,37.109,34.180,0
151847.664,42.480,30.273,35.645,37.109,19.043,0
151847.668,36.621,37.598,40.527,30.762,32.715,0
151847.672,34.668,37.598,45.898,34.668,17.090,0
151847.676,32.227,31.738,42.969,39.551,23.438,0
151847.680,32.227,34.668,35.645,34.668,52.734,0
151847.684,26.367,39.551,30.273,27.344,20.020,0
151847.688,21.973,32.715,29.297,26.367,-18.066,0
151847.692,20.996,26.855,29.785,28.809,42.969,0
151847.696,23.438,31.738,38.574,34.668,58.105,0
151847.700,26.367,25.879,40.527,30.273,9.277,0
151847.702,26.367,24.902,32.715,21.973,1.465,0
151847.706,31.250,30.273,39.062,30.762,33.691,0
151847.709,41.504,31.250,47.852,47.852,67.871,0
151847.713,38.574,36.621,46.387,42.480,50.781,0
151847.717,29.297,42.480,35.156,21.484,6.348,0
151847.721,33.203,42.480,23.926,22.461,-1.953,0
151847.725,31.250,38.574,27.832,28.809,26.855,0
151847.729,26.855,35.156,39.062,30.762,43.945,0
151847.733,28.809,36.133,40.039,33.203,33.691,0
151847.737,35.645,36.621,38.086,35.645,-12.695,0
151847.741,40.527,39.062,34.668,38.574,-24.414,0
151847.745,38.574,42.480,35.156,38.086,26.855,0
151847.747,38.086,34.180,40.039,31.250,43.945,0
151847.750,35.156,27.832,45.410,28.809,44.434,0
151847.754,31.738,29.785,45.898,35.156,55.176,0
151847.758,28.809,30.273,44.434,32.715,94.238,0
151847.762,30.273,27.832,46.387,28.320,93.262,0
151847.766,31.250,20.020,43.457,28.809,64.941,0
151847.770,31.738,24.902,43.457,34.180,57.129,0
151847.774,32.227,30.273,42.480,37.598,65.918,0
151847.778,23.438,18.555,39.062,35.156,73.730,0
151847.782,28.809,13.672,41.016,41.504,26.855,0
151847.786,34.180,20.996,37.598,42.969,31.250,0
151847.790,26.855,32.715,33.691,28.809,68.359,0
151847.793,32.227,50.293,29.297,25.879,60.547,0
151847.797,41.992,53.711,24.902,30.762,25.879,0
151847.801,38.086,42.480,28.320,29.785,35.645,0
151847.805,33.691,36.133,30.762,31.250,92.773,0
151847.809,34.668,32.227,35.156,30.762,91.797,0
151847.813,35.645,33.203,37.109,30.762,-0.977,0
151847.816,44.434,38.574,35.156,41.504,-29.297,0
151847.820,47.363,38.086,32.227,49.316,14.648,0
151847.824,41.992,36.133,26.855,47.852,34.668,0
151847.828,41.016,36.133,32.227,46.875,-15.137,0
151847.832,41.016,36.621,29.785,41.992,-64.941,0
151847.836,41.016,34.180,23.438,41.016,7.812,0
151847.852,43.945,36.133,34.180,45.410,66.406,0
151847.856,44.922,39.062,38.086,43.457,46.875,0
151847.859,45.410,40.039,36.621,37.109,52.734,0
151847.863,47.363,36.621,41.016,42.969,64.453,0
151847.867,44.922,33.203,38.574,46.387,53.711,0
151847.871,43.457,35.156,33.691,41.992,40.039,0
151847.875,43.945,40.039,32.715,38.574,11.230,0
151847.879,48.828,41.992,31.738,40.527,1.953,0
151847.883,55.664,37.109,38.086,51.270,32.715,0
151847.887,50.781,38.086,42.480,51.758,53.223,0
151847.891,43.945,36.621,39.062,41.504,35.645,0
151847.895,45.898,33.691,33.203,46.387,-3.906,0
151847.897,46.875,38.086,33.691,57.129,26.855,0
151847.901,46.875,38.086,34.180,57.617,80.566,0
151847.904,47.363,37.109,35.645,51.270,65.918,0
151847.908,40.527,37.109,39.062,42.969,32.227,0
151847.912,36.133,39.062,38.086,40.039,25.391,0
151847.916,38.574,39.062,33.691,43.457,65.430,0
151847.920,33.691,32.715,26.855,41.504,55.664,0
151847.924,31.738,32.227,35.645,38.574,9.766,0
151847.928,33.691,36.133,47.852,36.133,-41.016,0
151847.932,28.320,34.180,48.340,33.691,-29.297,0
151847.936,31.738,36.621,45.898,36.621,15.625,0
151847.940,38.574,38.574,45.898,34.180,10.254,0
151847.942,32.715,33.691,38.086,30.762,27.344,0
151847.945,24.902,33.203,21.973,28.809,45.410,0
151847.949,25.391,38.574,23.438,28.320,65.918,0
151847.953,27.832,37.598,30.273,24.902,38.086,0
151847.957,31.250,37.598,32.227,19.043,12.695,0
151847.961,34.180,34.180,41.992,24.902,-3.906,0
151847.965,27.344,29.297,46.387,29.785,6.836,0
151847.969,20.508,31.250,42.969,22.461,40.527,0
151847.973,23.438,37.598,39.551,19.531,-30.273,0
151847.977,25.879,42.480,35.645,25.391,-11.230,0
151847.981,31.250,44.434,27.832,30.762,34.668,0
151847.985,35.156,45.898,25.391,32.715,21.973,0
151847.987,34.668,40.527,28.809,29.785,34.668,0
151847.990,35.645,36.621,33.691,30.762,7.812,0
151847.994,36.621,40.039,38.086,35.645,9.277,0
151847.998,35.645,41.992,39.062,35.645,35.156,0
151848.002,32.227,43.945,40.527,33.691,24.902,0
151848.006,31.250,37.598,36.133,37.109,4.395,0
151848.010,30.762,28.320,30.762,38.086,6.348,0
151848.014,33.203,34.180,34.180,34.668,-9.766,0
151848.018,41.992,42.969,37.109,36.621,-21.973,0
151848.022,34.180,37.598,33.203,30.762,-7.812,0
151848.026,22.949,34.180,29.297,23.438,13.672,0
151848.030,24.902,39.551,25.879,24.414,43.945,0
151848.032,31.738,43.457,29.785,24.902,45.898,0
151848.035,34.668,40.527,40.527,30.273,21.484,0
151848.039,27.832,32.227,44.922,32.715,20.020,0
151848.043,23.926,28.320,41.992,32.227,46.387,0
151848.047,26.855,34.668,41.504,30.762,64.941,0
151848.051,31.738,35.156,40.527,33.203,55.664,0
151848.055,38.086,35.156,39.551,38.086,20.996,0
151848.059,40.039,40.527,38.086,36.621,-15.625,0
151848.063,36.133,39.551,38.086,30.762,39.551,0
151848.067,40.527,36.133,36.133,30.273,38.574,0
151848.071,48.828,37.598,31.738,35.156,-12.695,0
151848.075,45.898,39.062,33.203,34.668,4.883,0
151848.078,49.805,39.062,39.551,41.504,49.805,0
151848.082,59.082,43.945,44.922,48.340,37.598,0
151848.086,46.875,41.992,49.805,38.574,-4.883,0
151848.090,27.832,34.180,46.875,36.133,-8.789,0
151848.094,25.879,29.785,43.457,39.551,-11.719,0
151848.098,30.273,30.273,49.805,36.621,-1.465,0
151848.101,31.738,31.738,52.734,32.715,-20.996,0
151848.105,31.250,30.762,46.875,34.180,-32.227,0
151848.109,28.809,35.156,47.852,37.109,37.109,0
151848.113,34.668,37.598,51.758,42.480,83.984,0
151848.117,32.227,26.855,46.387,41.992,68.848,0
151848.121,23.438,25.391,39.551,33.691,54.199,0
151848.122,22.949,30.762,40.039,32.715,55.664,0
151848.126,25.879,32.227,43.945,35.156,62.988,0
151848.129,28.809,36.133,37.598,28.809,78.125,1
151848.133,26.367,34.668,30.273,23.438,48.828,0
151848.137,23.438,29.297,35.645,22.461,11.719,0
151848.141,25.391,27.832,41.992,25.879,30.762,0
151848.145,30.762,34.180,41.504,25.391,-7.812,0
151848.149,33.203,37.109,39.551,20.996,-21.973,0
151848.153,32.227,36.621,41.016,26.367,52.734,0
151848.157,34.180,36.133,41.504,33.691,94.727,0
151848.161,39.062,39.551,41.992,37.598,115.234,0
151848.165,37.598,37.109,42.969,34.668,87.402,0
151848.182,36.133,33.203,37.598,34.180,31.250,0
151848.186,35.156,34.668,30.273,34.668,47.852,0
151848.189,37.598,34.180,38.086,33.203,51.758,0
151848.193,42.969,35.645,49.316,34.180,33.203,0
151848.197,43.457,39.062,48.828,37.598,15.137,0
151848.201,36.133,32.715,36.133,37.598,1.953,0
151848.205,32.715,28.809,27.832,34.668,21.484,0
151848.209,38.574,38.574,35.645,34.180,20.508,0
151848.213,39.551,41.992,38.574,32.227,10.742,0
151848.217,30.273,31.738,40.039,25.879,13.672,0
151848.221,28.809,25.879,44.922,27.344,-7.812,0
151848.225,38.574,35.156,44.922,32.227,-24.902,0
151848.227,29.785,38.574,37.109,17.090,-22.949,0
151848.231,24.414,34.180,33.203,17.090,-0.977,0
151848.234,29.297,35.156,36.621,26.367,11.230,0
151848.238,23.926,36.133,30.273,20.020,45.898,0
151848.242,23.926,35.156,24.902,20.508,44.434,0
151848.246,27.344,35.156,34.180,26.855,43.457,0
151848.250,30.273,41.016,39.551,34.668,46.387,0
151848.254,31.250,42.480,36.621,34.668,44.922,0
151848.258,28.809,34.180,30.762,29.297,37.109,0
151848.262,34.180,34.180,36.133,31.738,-5.859,0
151848.266,35.645,35.156,41.992,36.133,44.922,0
151848.270,24.902,30.273,32.227,28.809,111.816,0
151848.272,19.531,31.250,24.414,21.973,57.129,0
151848.275,21.973,27.344,27.832,23.438,37.109,0
151848.279,25.879,26.855,34.180,30.273,70.801,0
151848.283,32.227,30.273,43.945,34.668,89.355,0
151848.287,31.738,32.715,45.410,31.250,58.105,0
151848.291,33.691,35.645,42.969,32.227,12.207,0
151848.295,37.598,39.551,45.410,37.109,29.297,0
151848.299,36.621,39.062,43.457,40.039,32.227,0
151848.303,36.133,36.621,36.621,37.109,31.738,0
151848.307,38.574,43.457,31.250,36.133,52.734,0
151848.311,37.109,41.504,24.902,36.133,34.180,0
151848.315,41.992,36.133,30.762,44.434,19.043,0
151848.318,50.781,37.598,43.457,51.270,34.180,0
151848.322,46.387,37.109,47.363,42.480,33.691,0
151848.326,35.156,31.250,40.039,34.180,33.203,0
151848.330,26.367,27.832,28.809,31.250,52.734,0
151848.334,24.902,34.180,31.738,29.785,44.922,0
151848.338,27.832,39.551,35.645,25.391,22.949,0
151848.341,30.273,39.062,36.621,23.438,23.438,0
151848.345,30.762,33.203,42.969,31.250,0.000,0
151848.349,32.715,37.109,40.527,35.645,12.207,0
151848.353,31.250,38.574,31.250,26.855,58.594,0
151848.357,33.691,34.668,33.203,26.367,36.133,0
151848.361,41.504,38.574,42.480,34.180,-1.465,0
151848.362,42.480,40.039,42.480,32.715,45.410,0
151848.366,42.969,36.133,34.668,32.227,63.477,0
151848.370,45.898,37.598,27.832,33.203,19.531,0
151848.374,47.852,41.016,31.250,36.621,35.156,0
151848.377,46.387,41.992,38.574,42.480,68.848,0
151848.381,41.016,40.039,40.527,41.504,65.918,0
151848.385,34.180,34.668,39.062,32.227,61.035,0
151848.389,30.762,33.203,37.109,26.855,7.812,0
151848.393,36.621,40.527,38.086,31.250,-1.465,0
151848.397,40.039,41.016,38.086,35.645,64.453,0
151848.401,34.668,29.785,32.715,24.414,45.410,0
151848.405,37.109,35.156,29.297,20.508,-7.812,0
151848.422,33.691,39.551,23.438,33.691,11.230,0
151848.426,28.320,31.738,24.414,37.598,59.082,0
151848.430,28.320,36.621,26.855,25.391,61.523,0
151848.433,27.344,43.945,27.344,18.066,27.344,0
151848.437,25.391,38.086,38.086,21.973,-20.996,0
151848.441,21.484,32.715,43.457,24.902,30.762,0
151848.445,26.367,30.273,39.551,26.367,86.914,0
151848.449,37.109,28.320,37.109,26.367,13.184,0
151848.453,41.504,35.645,38.086,31.738,6.348,0
151848.457,38.574,40.039,35.645,36.133,38.086,0
151848.461,32.227,36.133,28.809,33.691,34.180,0
151848.465,29.297,32.227,29.297,28.320,29.785,0
151848.452,29.785,29.297,31.250,28.809,25.391,0
151848.456,31.738,35.156,34.180,36.133,36.621,0
151848.460,39.551,38.086,36.621,35.156,-1.465,0
151848.463,36.133,31.738,25.879,22.461,-10.742,0
151848.467,35.645,34.668,25.879,27.832,19.043,0
151848.471,38.086,34.180,25.879,36.133,41.016,0
151848.475,31.738,23.438,23.926,32.715,25.391,0
151848.479,31.738,20.996,31.738,27.832,36.133,0
151848.483,31.250,28.320,41.016,20.020,50.293,0
151848.487,33.203,40.039,50.781,21.484,3.418,0
151848.491,31.250,36.621,46.387,26.855,-20.996,0
151848.495,25.879,28.809,34.668,21.484,-3.906,0
151848.497,28.320,31.738,43.457,20.508,21.484,0
151848.500,33.691,32.715,47.852,24.414,25.879,0
151848.504,32.227,30.273,32.227,20.508,14.648,0
151848.508,30.273,29.297,31.250,20.508,57.617,0
151848.512,35.156,32.715,36.133,27.832,89.355,0
151848.516,37.109,29.785,39.551,27.832,71.289,0
151848.520,34.180,30.273,46.387,25.391,71.777,0
151848.524,28.809,36.133,41.016,25.391,89.355,0
151848.528,29.785,32.227,42.480,30.273,73.730,0
151848.532,30.762,22.461,44.434,30.273,60.059,0
151848.536,25.879,24.902,34.668,30.762,70.312,0
151848.540,27.832,35.645,33.691,37.598,66.895,0
151848.543,31.250,34.668,40.039,35.156,39.551,0
151848.547,27.344,32.715,38.086,25.879,0.488,0
151848.551,26.855,31.250,33.691,30.762,14.648,0
151848.555,32.715,28.320,34.180,40.039,51.758,0
151848.559,33.203,29.297,39.551,40.527,62.012,0
151848.562,36.621,35.156,42.969,40.039,64.453,0
151848.566,36.133,38.086,40.527,39.062,52.734,0
151848.570,33.691,38.574,35.645,39.551,34.668,0
151848.574,35.156,41.992,35.645,38.574,50.781,0
151848.578,34.668,42.480,32.715,30.273,41.504,0
151848.582,41.504,41.016,31.738,31.738,23.438,0
151848.586,45.898,46.875,38.574,37.109,34.668,0
151848.602,39.062,41.016,42.480,36.133,67.871,0
151848.606,36.621,27.832,34.180,34.668,45.898,0
151848.610,34.180,22.461,24.902,26.367,7.812,0
151848.613,25.391,24.414,31.250,20.020,1.465,0
151848.617,29.785,32.227,42.969,28.809,5.859,0
151848.621,33.691,36.621,43.945,32.715,-8.301,0
151848.625,32.715,40.039,44.434,30.762,9.766,0
151848.629,28.809,31.250,46.875,31.250,34.180,0
151848.633,22.949,22.461,35.645,30.762,4.395,0
151848.637,24.902,27.344,30.762,27.344,4.883,0
151848.641,25.391,28.809,38.574,28.809,25.391,0
151848.645,25.391,29.785,44.434,32.715,-11.230,0
151848.647,25.391,33.203,43.945,33.691,-36.621,0
151848.651,27.832,37.598,41.992,37.109,-12.207,0
151848.655,30.762,36.621,41.504,34.668,35.645,0
151848.659,34.668,34.180,40.527,31.738,23.438,0
151848.663,35.156,32.715,41.016,33.203,-18.555,0
151848.666,36.133,39.551,41.992,35.645,-4.883,0
151848.670,33.691,40.039,35.645,32.715,0.488,0
151848.674,27.832,27.832,35.645,24.902,-7.812,0
151848.678,29.297,31.250,40.527,23.926,-17.090,0
151848.682,29.785,36.621,36.133,28.320,-1.465,0
151848.686,29.297,34.668,35.645,27.832,65.918,0
151848.690,26.855,32.227,35.156,24.414,61.035,0
151848.692,26.855,35.156,30.273,23.926,44.434,0
151848.696,26.855,35.156,36.133,21.973,69.824,0
151848.700,28.320,37.109,37.598,20.020,79.590,2
151848.703,28.320,41.992,32.715,22.949,37.598,0
151848.707,26.855,40.527,32.227,30.762,17.578,0
151848.711,32.715,39.062,35.645,36.133,62.988,0
151848.715,35.645,38.574,38.086,41.504,68.848,0
151848.719,37.598,40.039,41.504,41.992,29.297,0
151848.723,39.551,37.598,43.457,40.527,9.277,0
151848.727,36.133,30.273,44.434,41.016,37.598,0
151848.731,36.133,34.180,48.828,42.969,83.008,0
151848.735,34.668,42.969,51.758,44.434,50.293,0
151848.737,34.180,36.133,44.922,40.527,35.156,0
151848.741,38.574,31.250,32.227,41.504,66.406,0
151848.744,39.062,38.574,25.879,43.457,60.059,0
151848.748,42.969,44.434,28.809,42.969,60.059,0
151848.752,45.898,43.457,38.086,43.457,48.828,0
151848.756,37.598,34.668,41.992,36.621,37.598,0
151848.760,40.527,35.645,44.434,39.062,55.176,0
151848.764,44.922,41.504,49.316,47.363,40.039,0
151848.768,41.016,37.598,45.410,41.016,6.348,0
151848.772,38.086,34.180,32.227,36.621,17.578,0
151848.776,37.109,35.156,28.809,41.016,45.898,0
151848.780,35.645,40.527,35.156,42.480,58.105,0
151848.783,31.738,39.062,36.133,34.668,41.504,0
151848.787,32.715,35.156,36.621,29.297,36.621,0
151848.791,33.203,34.668,34.668,26.367,51.270,0
151848.795,40.527,41.504,32.227,31.250,91.797,0
151848.799,55.664,46.875,35.645,41.504,118.652,0
151848.802,37.109,36.133,37.598,33.203,91.797,0
151848.806,14.160,28.809,35.156,21.484,50.293,0
151848.810,16.602,31.738,34.668,22.461,14.648,0
151848.814,21.973,31.250,46.875,27.832,43.457,0
151848.818,20.996,26.367,48.340,21.484,86.426,0
151848.822,22.949,25.391,41.016,19.531,41.504,0
151848.826,27.344,27.344,43.457,29.785,0.488,0
151848.827,30.762,27.832,46.875,34.180,18.555,0
151848.831,32.715,30.762,43.457,32.715,19.043,0
151848.835,36.621,36.133,37.109,32.227,7.324,0
151848.838,35.645,35.156,35.156,32.715,0.000,0
151848.842,31.250,29.785,39.551,35.156,23.438,0
151848.846,38.086,23.438,44.434,47.852,50.293,0
151848.850,44.434,28.320,42.480,46.875,0.000,0
151848.854,35.156,41.504,37.598,28.809,-13.672,0
151848.858,32.227,47.852,30.273,30.762,13.184,0
151848.862,38.086,49.316,23.926,32.715,-1.953,0
151848.866,36.621,51.270,28.809,26.855,-20.020,0
151848.870,38.086,44.922,31.250,29.785,-19.531,0
151848.872,40.039,37.109,26.855,30.273,-1.465,0
151848.876,40.527,38.574,31.250,30.762,35.645,0
151848.879,48.828,42.969,37.109,31.250,21.484,0
151848.883,48.340,37.109,35.156,31.738,10.742,0
151848.887,41.992,35.156,29.297,35.645,40.039,0
151848.891,42.969,41.016,28.809,39.062,80.566,0
151848.895,42.969,37.598,29.785,35.645,46.875,0
151848.899,42.969,32.227,26.855,33.203,12.207,0
151848.903,43.945,35.645,27.344,42.480,59.570,0
151848.907,42.969,40.039,25.391,40.527,78.125,0
151848.911,42.969,38.574,26.855,35.645,51.270,0
151848.915,42.480,36.621,32.715,34.180,38.086,0
151848.932,35.156,34.668,34.668,33.691,45.410,0
151848.936,36.133,37.109,37.598,37.109,35.645,0
151848.940,35.156,35.156,34.180,33.691,32.715,0
151848.943,38.574,37.109,30.762,34.668,20.020,0
151848.947,43.457,37.109,30.762,38.574,6.348,0
151848.951,38.086,35.645,31.250,33.691,23.926,0
151848.955,35.645,38.574,31.250,32.715,13.672,0
151848.959,33.691,38.574,22.461,27.344,7.812,0
151848.963,33.203,37.598,23.438,23.926,29.785,0
151848.967,36.133,39.551,39.062,30.762,20.020,0
151848.971,35.645,41.992,40.527,30.273,11.719,0
151848.975,32.715,38.574,29.785,30.762,32.227,0
151848.977,33.691,33.203,30.273,35.156,2.930,0
151848.981,34.180,34.180,34.180,37.109,-3.906,0
151848.985,38.086,41.504,36.621,39.062,39.062,0
151848.989,39.551,40.039,36.133,40.527,42.480,0
151848.992,36.621,30.273,29.785,36.621,0.977,0
151848.996,34.668,29.785,29.297,34.668,-24.414,0
151849.000,38.574,41.016,37.598,42.480,17.090,0
151849.004,43.945,41.992,42.969,47.363,34.180,0
151849.008,38.574,29.785,36.621,35.156,35.156,0
151849.012,34.668,26.855,34.668,27.832,52.734,0
151849.016,34.668,27.832,37.109,32.715,66.406,0
151849.020,38.574,31.738,40.039,38.574,82.520,0
151849.022,38.574,35.156,31.738,36.133,37.598,0
151849.026,36.621,31.250,22.461,35.645,29.297,0
151849.030,37.598,31.738,27.832,35.156,59.082,0
151849.034,34.668,38.086,29.297,32.227,74.707,0
151849.038,32.227,36.621,30.273,33.203,41.992,0
151849.041,32.227,34.668,35.645,33.203,-15.137,0
151849.045,33.203,33.691,33.691,37.109,28.809,0
151849.049,42.480,35.156,31.738,43.457,71.289,0
151849.053,41.992,36.133,38.574,36.621,41.504,0
151849.057,29.785,34.668,42.969,20.508,27.832,0
151849.061,25.879,34.180,37.109,22.949,24.414,0
151849.065,25.391,37.109,27.344,30.762,32.227,0
151849.067,26.367,35.156,33.203,30.762,60.059,0
151849.071,28.809,29.785,48.340,31.250,78.613,0
151849.075,26.367,30.273,48.828,30.762,60.059,0
151849.078,25.879,29.297,40.039,31.738,62.012,0
151849.082,26.367,30.762,38.086,27.832,75.684,0
151849.086,27.832,35.156,38.086,24.414,51.270,0
151849.090,32.227,38.574,34.180,31.738,35.645,0
151849.094,33.691,42.480,29.297,37.598,29.297,0
151849.098,34.180,44.434,29.785,36.133,11.719,0
151849.102,35.156,40.039,39.062,34.180,14.648,0
151849.106,34.668,34.668,37.598,35.156,31.250,0
151849.110,37.109,38.086,32.227,34.668,69.336,0
151849.112,40.039,38.574,36.621,33.203,85.938,0
151849.116,43.945,44.922,35.156,38.086,63.477,0
151849.120,49.805,52.246,33.203,40.527,33.203,0
151849.123,46.875,44.922,39.062,40.527,-5.371,0
151849.127,43.457,39.062,39.062,43.945,-10.742,0
151849.131,39.062,39.551,36.133,40.527,41.504,0
151849.135,35.645,33.691,38.086,35.156,47.852,0
151849.139,36.621,32.227,36.621,28.320,-9.277,0
151849.143,33.691,36.621,35.156,27.344,-16.113,0
151849.147,30.273,35.156,34.180,29.297,59.082,0
151849.151,38.574,36.133,32.227,28.809,47.363,0
151849.155,39.551,41.504,34.668,28.809,-21.484,0
151849.157,29.297,38.086,35.156,25.879,4.883,0
151849.161,25.391,36.133,36.621,26.855,47.363,0
151849.165,26.367,37.598,36.621,23.926,78.613,0
151849.168,32.227,40.039,35.645,23.926,76.660,0
151849.172,30.762,41.992,31.250,27.832,59.570,0
151849.176,26.367,38.086,28.809,28.320,73.242,0
151849.180,29.785,40.039,42.969,31.250,67.871,0
151849.184,34.180,40.527,50.781,25.391,24.414,0
151849.188,30.762,35.645,44.922,22.949,41.504,0
151849.192,26.855,34.668,39.062,28.809,61.523,0
151849.196,35.645,42.969,32.227,28.320,53.223,0
151849.200,38.086,48.340,30.762,20.996,53.223,0
151849.202,28.809,44.922,32.715,13.672,60.059,0
151849.206,23.926,39.551,34.180,17.090,51.270,0
151849.210,23.438,32.715,33.203,21.484,71.289,0
151849.214,25.391,33.691,28.809,16.113,57.129,0
151849.217,26.855,38.086,32.227,24.414,36.133,0
151849.221,25.879,37.598,38.086,40.039,43.457,0
151849.225,26.367,39.551,35.645,39.062,28.809,0
151849.229,26.367,38.086,31.738,34.180,-8.301,0
151849.233,27.344,33.203,39.551,31.738,-38.086,0
151849.237,27.832,34.668,41.016,33.203,-19.531,0
151849.241,25.879,33.203,32.227,34.668,7.324,0
151849.245,28.809,28.809,35.156,32.715,17.090,0
151849.248,24.902,29.297,39.551,29.785,0.977,0
151849.252,22.949,37.109,36.621,32.227,-10.742,0
151849.256,30.273,41.504,35.156,39.551,19.043,0
151849.260,36.133,38.574,36.133,38.574,0.977,0
151849.264,40.527,41.016,46.875,35.645,-20.508,0
151849.267,39.551,41.992,50.781,36.621,11.719,0
151849.271,32.715,37.109,41.992,39.062,5.371,0
151849.275,31.250,31.250,31.738,35.645,9.277,0
151849.279,39.062,31.250,28.320,31.738,45.410,0
151849.283,44.434,38.086,41.504,31.738,21.484,0
151849.287,41.016,40.039,50.781,34.668,37.598,0
151849.291,39.551,37.598,48.340,40.039,80.566,0
151849.308,33.203,36.621,45.410,40.527,103.516,0
151849.312,32.227,35.645,41.504,37.598,122.559,0
151849.316,34.668,38.574,40.527,38.086,99.121,0
151849.320,31.250,38.574,39.551,36.133,72.754,0
151849.324,32.227,34.180,37.109,34.180,88.379,0
151849.327,30.273,32.715,40.527,26.855,49.316,0
151849.331,25.879,32.715,39.062,21.484,-16.602,0
151849.335,24.902,34.180,34.180,26.855,48.340,0
151849.339,28.809,38.574,39.062,31.250,63.477,0
151849.343,33.691,41.504,36.621,27.832,1.465,1
151849.347,31.738,34.180,37.109,23.438,-10.254,0
151849.351,30.762,31.250,42.969,25.879,-14.648,0
151849.352,32.715,35.645,41.504,27.832,23.438,0
151849.356,29.785,36.621,35.156,25.879,52.246,0
151849.360,32.715,38.086,28.809,28.320,29.785,0
151849.363,36.621,39.062,31.738,37.598,72.754,0
151849.367,32.715,31.738,29.785,33.203,75.684,0
151849.371,32.715,28.320,26.367,21.973,9.766,0
151849.375,37.598,32.715,27.832,22.461,31.250,0
151849.379,40.039,32.227,27.344,27.832,49.316,0
151849.383,40.039,35.645,23.438,28.320,5.859,0
151849.387,41.016,34.668,28.320,25.879,19.043,0
151849.391,41.504,30.273,41.504,24.414,33.691,0
151849.395,35.156,31.250,39.551,20.996,-4.883,0
151849.397,32.227,38.086,31.250,22.949,-29.297,0
151849.401,38.086,39.551,31.738,24.414,18.066,0
151849.405,36.133,29.785,29.297,19.531,69.336,0
151849.408,34.668,27.832,25.391,21.484,48.340,0
151849.412,35.156,31.738,26.855,28.809,33.203,0
151849.416,31.738,36.133,35.156,31.738,39.551,0
151849.420,31.738,34.668,38.086,29.785,43.457,0
151849.424,28.320,25.879,29.785,22.949,19.043,0
151849.428,28.320,33.203,28.320,23.438,-20.508,0
151849.432,32.227,41.016,36.621,28.320,30.762,0
151849.436,27.832,30.762,38.574,28.320,59.570,0
151849.440,28.320,25.391,34.180,21.973,23.438,0
151849.442,32.715,29.785,34.668,18.066,19.531,0
151849.446,26.367,27.832,36.621,22.461,36.133,0
151849.450,23.926,26.367,35.156,27.344,48.828,0
151849.453,32.715,33.203,38.574,25.879,38.086,0
151849.457,33.691,36.621,38.086,23.438,-9.766,0
151849.461,33.691,36.133,35.645,29.785,-15.625,0
151849.465,37.598,36.621,39.062,33.691,25.879,0
151849.469,37.109,33.691,41.504,28.320,28.320,0
151849.473,32.715,29.785,35.645,24.902,-3.906,0
151849.477,35.645,27.344,35.645,32.227,47.852,0
151849.481,32.715,21.973,35.645,37.109,101.562,0
151849.485,26.367,22.461,30.762,33.691,73.730,0
151849.487,37.598,28.809,35.645,32.227,72.754,0
151849.491,36.621,33.691,34.668,32.227,65.430,0
151849.495,28.320,33.203,31.250,28.809,103.516,0
151849.498,38.086,32.715,34.180,28.809,97.656,0
151849.502,33.691,38.574,34.668,28.320,63.965,0
151849.506,25.879,35.156,30.762,27.344,33.203,0
151849.510,33.691,24.902,35.156,32.715,27.344,0
151849.514,33.691,25.879,42.480,30.273,70.801,0
151849.518,30.273,36.133,43.457,28.320,45.898,0
151849.522,32.227,35.156,41.016,34.180,17.578,0
151849.526,29.297,26.855,36.133,33.691,40.527,0
151849.530,26.367,29.297,33.203,34.180,47.852,0
151849.533,26.855,32.227,38.086,29.785,50.781,0
151849.537,29.785,35.645,47.363,32.227,48.828,0
151849.541,31.738,33.203,47.363,36.621,41.016,0
151849.545,37.109,29.785,41.504,36.133,40.527,0
151849.549,41.992,35.156,37.598,35.156,65.918,0
151849.553,43.457,31.738,42.969,35.645,65.430,0
151849.556,40.039,29.785,41.016,36.133,52.246,0
151849.560,31.738,37.109,29.297,35.156,33.691,0
151849.564,30.273,38.086,29.785,34.668,39.551,0
151849.568,31.738,37.109,41.504,35.645,56.152,0
151849.572,32.715,36.133,50.293,36.133,47.852,0
151849.576,35.645,34.180,49.805,41.992,71.289,0
151849.577,33.203,37.109,42.480,43.457,71.289,0
151849.581,24.902,38.086,39.551,32.227,73.730,0
151849.585,26.367,36.621,37.598,30.762,57.129,0
151849.589,35.645,40.527,32.715,41.992,56.641,0
151849.593,37.109,34.668,35.156,45.898,42.969,0
151849.596,32.715,27.832,30.762,37.598,36.133,0
151849.600,35.645,29.297,33.691,40.527,33.691,0
151849.604,32.715,33.203,45.898,41.504,-17.578,0
151849.608,31.738,35.645,40.039,32.227,-2.441,0
151849.612,39.551,38.574,32.715,35.645,46.387,0
151849.616,41.992,38.086,33.691,36.133,41.504,0
151849.620,40.527,36.133,33.203,36.133,-2.930,0
151849.622,44.434,41.016,38.086,44.434,-7.324,0
151849.626,33.691,37.109,33.203,41.504,48.340,0
151849.630,26.855,28.809,30.762,34.668,55.664,0
151849.633,26.855,20.508,38.574,28.320,1.465,0
151849.637,26.855,22.461,36.621,26.855,-19.043,0
151849.641,34.180,31.738,30.762,32.715,-9.277,0
151849.645,41.992,35.156,30.273,33.691,16.113,0
151849.649,41.016,37.109,37.109,33.691,36.621,0
151849.653,36.621,35.156,39.551,33.203,29.785,0
151849.657,40.527,39.551,41.016,36.133,44.434,0
151849.661,44.434,38.574,40.527,38.574,17.578,0
151849.665,44.434,32.715,33.203,33.691,18.555,0
151849.682,38.574,32.227,34.180,33.203,22.949,0
151849.686,32.227,28.809,41.992,34.180,9.277,0
151849.690,38.574,32.715,41.992,35.645,37.109,0
151849.694,43.457,34.180,35.156,34.180,29.297,0
151849.697,36.133,22.949,31.250,30.762,0.977,0
151849.701,38.574,21.973,33.203,37.109,-1.953,0
151849.705,48.828,31.250,34.180,43.457,30.273,0
151849.709,48.340,30.273,32.715,42.480,47.852,0
151849.713,47.852,29.785,35.156,45.898,66.406,0
151849.717,53.223,38.086,42.480,54.199,29.785,0
151849.721,60.059,36.621,46.387,55.176,-16.113,0
151849.725,58.594,27.832,43.945,52.246,11.230,0
151849.727,51.758,24.414,40.527,48.828,-9.277,0
151849.731,55.176,28.320,43.945,49.805,-31.250,0
151849.735,61.523,31.250,37.109,53.223,5.859,0
151849.738,59.570,29.785,29.297,51.758,16.602,0
151849.742,60.059,31.738,37.598,50.293,1.953,0
151849.746,58.594,35.645,34.668,50.293,0.977,0
151849.750,58.105,35.645,33.691,52.246,0.977,0
151849.754,57.129,32.227,41.504,48.340,33.691,0
151849.758,49.316,32.227,41.504,41.992,59.082,0
151849.762,45.410,33.203,35.156,40.039,6.348,0
151849.766,50.293,36.133,30.273,45.898,9.277,0
151849.770,52.734,40.039,36.621,51.758,72.754,0
151849.772,48.828,39.551,36.621,43.945,54.199,0
151849.776,49.316,44.434,33.203,42.969,19.043,0
151849.780,51.270,43.945,34.668,52.734,32.227,0
151849.784,45.898,41.504,30.762,47.852,49.316,0
151849.788,36.621,40.039,23.926,35.156,40.039,0
151849.792,37.109,32.715,30.273,33.691,26.855,0
151849.796,38.086,29.297,35.645,36.621,47.363,0
151849.800,36.133,28.809,35.645,35.156,55.176,0
151849.804,44.434,35.156,42.969,42.969,42.969,0
151849.807,45.898,38.086,44.922,43.945,35.645,0
151849.811,39.062,28.320,40.527,35.156,67.871,0
151849.815,36.133,31.738,40.527,38.574,72.754,0
151849.817,37.598,45.898,35.645,40.039,58.594,0
151849.821,34.180,41.992,27.344,33.691,49.805,0
151849.825,38.086,36.133,29.297,34.180,31.250,0
151849.829,39.062,37.598,34.668,41.504,26.855,0
151849.832,28.809,34.668,34.668,36.621,37.598,0
151849.836,26.855,33.203,33.691,24.414,63.965,0
151849.840,36.133,38.574,37.109,26.367,58.594,0
151849.844,45.898,43.457,39.551,38.086,33.203,0
151849.848,45.410,44.434,33.203,41.016,47.363,0
151849.852,40.039,43.945,32.715,40.527,79.102,0
151849.856,35.645,36.621,38.086,35.156,82.520,0
151849.860,32.227,31.738,38.574,28.320,42.480,0
151849.862,27.832,32.227,34.668,29.297,53.711,0
151849.866,32.227,33.691,34.180,31.738,77.637,0
151849.870,39.551,34.668,38.574,27.832,63.477,0
151849.873,39.551,41.016,37.109,26.855,52.734,0
151849.877,42.480,39.062,30.762,31.738,51.270,0
151849.881,42.969,36.621,35.156,37.598,36.133,0
151849.885,43.457,46.387,38.574,39.551,32.715,0
151849.889,45.410,46.875,34.668,37.598,12.695,0
151849.893,38.086,37.598,39.062,34.180,14.648,0
151849.897,31.738,29.785,37.598,29.785,76.172,0
151849.901,38.086,32.227,26.367,28.320,71.777,0
151849.905,36.133,34.180,28.320,26.367,21.973,0
151849.907,33.691,32.715,34.668,30.762,52.246,0
151849.911,40.527,37.109,37.598,37.598,67.871,0
151849.915,38.574,41.504,37.598,37.109,67.871,0
151849.918,38.574,40.527,31.738,36.621,68.848,0
151849.922,40.527,33.691,23.438,36.133,49.316,0
151849.926,42.480,37.109,30.273,40.039,27.832,0
151849.930,44.434,44.434,44.434,40.527,41.992,0
151849.934,42.480,37.598,45.898,38.086,24.902,0
151849.938,41.016,36.133,45.410,35.645,7.812,0
151849.942,40.039,41.016,41.992,33.203,44.922,0
151849.946,36.133,40.039,35.156,34.180,29.785,0
151849.950,36.133,36.621,32.227,28.320,29.297,0
151849.952,37.598,38.086,26.367,26.855,37.598,0
151849.956,32.227,41.016,27.344,29.297,15.625,0
151849.960,33.691,42.969,29.297,35.645,31.250,0
151849.963,42.969,43.945,33.203,41.016,17.090,0
151849.967,50.293,47.852,37.109,41.504,-20.996,0
151849.971,48.340,44.434,32.715,44.434,-25.391,0
151849.975,37.109,38.086,35.156,41.504,-6.348,0
151849.979,30.762,42.969,40.039,35.156,-24.902,0
151849.983,35.645,40.039,31.250,35.156,-13.184,0
151849.987,41.504,36.621,27.344,36.621,18.555,0
151849.991,38.086,36.133,32.227,34.668,34.180,0
151849.995,36.133,29.785,36.621,35.645,55.664,1
151849.998,38.086,31.250,37.598,35.645,50.293,0
151850.002,39.062,38.086,38.086,36.621,20.996,0
151850.006,41.504,42.480,46.387,41.504,43.457,0
151850.010,41.504,42.480,41.016,42.969,66.895,0
151850.014,40.527,41.016,26.855,39.062,72.266,0
151850.018,37.598,40.527,30.762,34.180,24.902,0
151850.022,34.180,38.574,37.109,35.156,-11.230,0
151850.026,40.039,41.504,39.062,43.945,50.781,0
151850.030,39.551,35.156,39.551,40.527,48.828,0
151850.034,32.715,33.203,37.109,32.227,30.762,0
151850.037,36.133,38.086,35.645,36.621,52.246,0
151850.041,34.668,33.203,35.156,33.691,46.875,0
151850.057,28.320,35.645,34.180,23.438,31.738,0
151850.061,32.715,37.598,36.133,25.879,13.672,0
151850.065,32.715,33.691,40.527,31.250,35.156,0
151850.069,31.738,33.203,34.668,32.715,50.293,0
151850.072,38.086,35.645,33.203,37.109,72.266,0
151850.076,37.598,42.480,33.691,36.621,55.176,0
151850.080,34.668,43.457,34.180,37.598,13.672,0
151850.084,35.156,41.016,39.551,37.598,39.551,0
151850.088,37.109,44.434,38.086,29.297,60.059,0
151850.092,38.086,37.598,41.016,25.879,45.410,0
151850.096,37.598,29.297,44.922,33.691,56.152,0
151850.100,26.855,28.809,35.156,34.668,63.965,0
151850.102,15.625,26.367,26.855,25.391,71.289,0
151850.106,19.043,30.762,35.156,27.344,40.527,0
151850.110,26.855,37.109,41.992,30.762,-17.578,0
151850.113,22.949,33.691,36.133,31.250,-11.230,0
151850.117,23.438,28.809,32.227,39.551,11.719,0
151850.121,26.855,31.738,35.156,38.574,14.648,0
151850.125,28.809,37.109,34.180,30.273,16.602,0
151850.129,29.785,27.344,29.297,29.785,37.598,0
151850.133,33.203,25.879,32.227,31.738,51.758,0
151850.137,38.574,38.574,36.133,27.344,13.672,0
151850.141,33.691,39.551,36.621,23.438,-18.066,0
151850.145,33.691,39.062,37.109,32.227,-21.484,0
151850.147,26.855,31.738,31.250,32.227,-5.859,0
151850.151,22.461,29.297,28.809,25.391,28.320,0
151850.155,28.809,34.180,33.203,20.508,27.832,0
151850.158,33.691,36.621,36.133,22.461,-1.465,0
151850.162,32.715,38.574,42.969,28.809,26.855,0
151850.166,35.645,38.086,51.758,29.297,83.008,0
151850.170,38.086,36.133,46.875,28.809,55.176,0
151850.174,36.621,39.062,32.227,24.414,22.949,0
151850.178,36.133,44.434,33.203,27.832,28.320,0
151850.182,28.320,33.691,30.762,25.391,66.406,0
151850.186,27.832,24.902,25.879,20.508,100.586,0
151850.190,32.715,28.809,29.785,21.484,44.434,0
151850.192,34.668,34.180,27.344,24.414,10.742,0
151850.196,40.039,37.109,36.133,34.180,62.988,0
151850.200,40.039,34.180,41.016,36.133,84.961,0
151850.203,36.133,31.738,35.156,32.715,65.918,0
151850.207,41.504,32.227,41.016,40.039,34.668,0
151850.211,43.945,36.621,41.016,42.480,41.992,0
151850.215,37.109,32.715,28.320,35.645,63.477,0
151850.219,40.039,30.762,28.809,34.180,56.152,0
151850.223,42.480,32.227,38.086,30.273,22.461,0
151850.227,39.062,36.133,43.945,31.738,23.438,0
151850.231,39.062,34.668,42.969,36.133,59.570,0
151850.235,34.668,28.320,34.180,32.715,86.914,0
151850.237,28.320,31.738,33.691,28.809,67.383,0
151850.241,22.949,32.227,35.156,24.902,43.457,0
151850.245,23.926,33.203,38.086,32.227,25.391,0
151850.249,23.926,39.062,43.945,32.715,15.137,0
151850.253,14.648,36.621,41.016,21.484,17.578,0
151850.257,11.719,31.738,34.668,20.996,2.930,0
151850.261,18.555,32.715,32.715,30.273,-19.043,0
151850.265,20.996,35.156,38.574,34.668,-30.273,0
151850.269,23.926,35.645,36.133,26.367,-4.395,0
151850.272,33.203,34.668,28.320,28.809,16.113,0
151850.276,45.410,40.527,39.062,35.156,10.742,0
151850.280,47.852,45.410,46.387,32.715,25.879,0
151850.282,42.969,41.992,46.875,37.598,28.809,0
151850.286,44.922,39.551,47.852,32.227,45.410,0
151850.290,38.574,37.109,37.598,26.855,26.367,0
151850.294,31.250,37.109,36.621,33.203,6.348,0
151850.297,33.691,33.691,41.016,30.762,13.672,0
151850.301,30.273,32.227,41.504,28.809,-10.742,0
151850.305,28.809,38.574,39.551,34.180,-16.113,0
151850.309,31.250,39.062,38.574,35.156,7.812,0
151850.313,28.809,32.227,37.109,32.715,33.203,0
151850.317,28.320,29.297,38.574,30.762,14.160,0
151850.321,29.785,33.691,43.945,29.785,-49.316,0
151850.325,29.785,32.227,41.016,31.738,-51.758,0
151850.342,26.855,32.227,40.527,32.227,1.465,0
151850.346,23.438,36.621,34.668,24.414,8.301,0
151850.350,21.973,29.297,27.832,19.531,6.836,0
151850.353,19.531,27.344,34.180,23.926,6.836,0
151850.357,22.461,31.738,40.527,26.367,31.250,0
151850.361,27.344,32.227,39.551,23.926,28.320,0
151850.365,27.832,31.250,31.738,18.555,-42.480,0
151850.369,30.273,31.738,35.645,21.973,-37.109,0
151850.373,36.133,33.691,45.898,31.250,10.254,0
151850.377,40.527,38.574,45.410,35.156,36.621,0
151850.381,40.527,46.387,45.898,33.203,0.977,0
151850.385,37.598,40.527,40.527,33.203,-57.617,0
151850.372,41.504,31.738,32.715,42.969,-48.340,0
151850.376,40.527,30.762,34.180,43.945,-24.414,0
151850.380,44.434,30.762,36.621,41.992,17.090,0
151850.383,48.340,32.227,30.762,41.504,16.113,0
151850.387,47.852,39.551,34.180,48.340,69.824,0
151850.391,45.410,42.480,41.504,49.805,107.422,0
151850.395,36.621,39.551,37.598,36.621,38.574,0
151850.399,38.086,32.715,40.039,30.762,9.277,0
151850.403,44.922,24.414,40.039,35.156,-1.465,0
151850.407,41.016,25.391,29.785,35.156,16.113,0
151850.411,38.086,33.691,29.785,28.320,1.465,0
151850.415,37.109,36.621,33.203,28.809,-6.836,0
151850.432,30.762,33.691,26.367,29.785,2.441,0
151850.436,32.227,32.715,32.227,30.762,23.926,0
151850.440,33.203,32.715,43.457,30.273,84.473,0
151850.444,38.574,36.133,42.969,30.762,71.289,0
151850.447,42.969,42.480,37.109,32.715,57.129,0
151850.451,39.551,36.133,36.133,29.785,62.500,0
151850.455,38.086,29.785,36.133,29.785,61.035,0
151850.459,29.785,30.273,30.762,23.926,69.824,0
151850.463,30.273,32.227,40.527,24.414,44.434,0
151850.467,31.738,28.809,43.457,30.762,20.508,0
151850.471,37.109,31.738,36.133,30.273,27.832,0
151850.475,42.969,38.574,34.180,30.273,29.785,0
151850.477,37.598,35.645,35.645,30.762,53.711,0
151850.481,30.762,31.250,41.504,27.344,60.547,0
151850.485,25.391,22.461,45.898,22.461,65.430,0
151850.488,31.738,28.320,46.875,29.297,77.148,0
151850.492,36.133,38.086,39.062,32.227,54.199,0
151850.496,38.086,31.738,31.738,31.738,26.855,0
151850.500,39.551,28.320,23.926,31.250,48.340,0
151850.504,41.504,31.738,25.879,30.762,74.219,0
151850.508,45.410,37.109,39.062,33.691,37.109,1
151850.512,39.551,37.109,37.109,33.203,-8.789,0
151850.516,38.574,33.203,30.273,33.203,-0.488,0
151850.520,43.457,34.668,36.621,37.109,21.973,0
151850.523,40.527,36.133,38.086,34.668,-16.602,0
151850.527,35.156,34.180,34.180,29.297,-58.105,0
151850.531,30.762,31.250,38.574,30.273,-21.484,0
151850.535,32.227,30.762,42.969,33.203,11.719,0
151850.539,31.250,29.297,39.062,31.738,11.230,0
151850.543,30.762,31.250,34.180,33.203,-5.371,0
151850.546,34.180,39.062,36.621,34.668,-9.766,0
151850.550,35.156,39.062,41.504,34.668,-4.883,0
151850.554,34.180,35.645,36.133,33.203,0.977,0
151850.558,33.691,39.551,31.738,32.227,17.090,0
151850.562,39.551,42.480,37.598,42.969,41.016,0
151850.566,39.062,35.645,38.574,47.852,44.922,0
151850.567,36.621,33.203,40.039,44.434,22.461,0
151850.571,39.551,36.621,42.480,42.969,9.277,0
151850.575,40.527,35.645,40.527,41.992,17.578,0
151850.578,42.480,36.133,40.039,49.316,39.551,0
151850.582,40.039,37.598,36.133,46.387,20.508,0
151850.586,36.133,36.621,26.855,37.109,3.906,0
151850.590,34.180,34.180,31.738,33.691,10.742,0
151850.594,32.227,34.180,37.109,34.180,20.020,0
151850.598,32.715,37.598,31.738,32.715,-7.812,0
151850.602,31.250,33.203,36.621,34.180,25.879,0
151850.606,31.738,30.273,44.434,34.180,37.598,0
151850.610,35.156,33.203,46.387,40.527,19.531,0
151850.612,36.133,38.574,46.387,51.758,40.039,0
151850.616,39.551,38.574,42.480,51.270,52.246,0
151850.620,38.574,37.109,36.621,46.875,28.320,0
151850.623,37.598,43.457,36.621,42.969,14.648,0
151850.627,41.016,44.922,40.527,39.551,58.594,0
151850.631,40.527,36.621,43.945,38.086,66.406,0
151850.635,38.086,36.133,36.133,33.691,44.922,0
151850.639,37.598,42.969,32.715,31.250,29.297,0
151850.643,37.109,41.016,34.668,31.250,23.438,0
151850.647,36.621,37.109,35.156,35.156,57.617,0
151850.651,38.086,39.062,40.527,34.180,76.172,0
151850.655,40.039,40.039,40.527,28.809,63.965,0
151850.657,35.645,35.645,39.062,30.273,40.039,0
151850.661,30.762,33.203,38.574,34.180,48.828,0
151850.665,36.133,33.203,36.133,34.180,48.340,0
151850.669,34.668,29.297,35.156,30.273,28.320,0
151850.672,32.715,35.645,36.133,31.250,34.180,0
151850.676,33.203,42.969,24.414,32.715,49.316,0
151850.680,41.992,39.062,24.414,37.109,31.250,0
151850.684,45.410,34.180,40.039,37.109,1.465,0
151850.688,35.156,32.227,37.598,29.297,-3.418,0
151850.692,34.180,30.273,35.156,30.762,19.531,0
151850.696,32.715,27.832,37.109,34.668,11.230,0
151850.700,29.785,31.250,40.039,34.180,-0.488,0
151850.702,30.762,32.227,40.039,30.762,17.090,0
151850.706,24.902,32.227,37.109,27.832,37.109,0
151850.710,23.438,37.598,40.527,25.391,61.523,0
151850.713,29.785,36.621,39.551,22.461,47.363,0
151850.717,33.203,32.715,42.480,27.344,35.645,0
151850.721,24.414,28.320,41.504,31.250,29.785,0
151850.725,24.414,28.809,38.574,29.297,3.906,0
151850.729,30.273,35.156,31.738,29.785,17.090,0
151850.733,30.762,40.527,30.273,32.227,52.246,0
151850.737,28.809,35.156,38.086,31.738,30.273,0
151850.741,30.273,37.598,38.086,36.133,74.219,0
151850.745,36.621,45.898,40.527,40.039,126.465,0
151850.748,29.785,27.832,33.691,30.762,119.141,0
151850.752,27.832,21.484,32.715,23.926,103.516,0
151850.756,27.344,32.715,36.133,27.344,100.586,0
151850.760,21.973,38.574,28.320,28.320,99.121,0
151850.764,22.949,36.621,28.809,25.879,56.641,0
151850.768,22.949,38.086,37.598,26.367,25.391,0
151850.771,20.508,42.969,29.785,21.484,-30.762,0
151850.775,25.879,40.527,31.738,22.461,-1.953,0
151850.779,29.785,41.016,40.039,28.320,75.195,0
151850.783,30.273,40.039,31.250,26.367,55.176,0
151850.787,28.809,33.691,26.367,26.367,74.219,0
151850.791,27.344,35.156,35.156,27.832,80.566,0
151850.807,29.297,38.574,40.527,26.855,81.543,0
151850.811,30.762,33.691,39.551,24.414,71.289,0
151850.815,30.762,31.738,34.180,27.344,14.648,0
151850.819,32.715,35.156,32.227,31.738,36.133,0
151850.822,35.645,39.062,41.016,30.762,63.965,0
151850.826,35.645,37.598,36.133,28.320,-4.883,0
151850.830,33.203,31.250,24.902,24.902,-42.480,0
151850.834,36.621,30.762,26.367,31.738,23.926,0
151850.838,37.109,32.715,33.203,37.598,67.383,0
151850.842,33.203,33.691,39.062,32.227,26.855,0
151850.846,38.574,34.668,38.086,39.062,32.227,0
151850.850,37.598,32.715,33.203,43.945,85.938,0
151850.852,38.086,40.039,37.109,42.480,112.305,0
151850.856,38.086,44.922,36.621,38.574,91.309,0
151850.860,29.785,28.809,28.809,26.855,50.293,0
151850.864,29.785,20.508,30.273,28.809,72.266,0
151850.867,33.203,25.391,38.574,36.621,84.473,0
151850.871,31.250,30.273,40.039,34.180,77.148,0
151850.875,28.809,33.691,35.156,26.367,27.344,0
151850.879,33.203,36.621,34.180,27.832,-10.742,0
151850.883,32.227,33.691,35.156,28.809,5.859,0
151850.887,30.273,32.227,33.691,26.367,-9.277,0
151850.891,33.691,40.527,27.344,29.785,-16.113,0
151850.895,36.133,43.457,26.367,34.180,-5.859,0
151850.897,36.621,38.086,32.227,40.039,19.043,0
151850.901,40.527,35.645,35.156,44.434,41.504,0
151850.905,43.945,35.645,46.387,43.457,8.301,0
151850.908,41.016,36.621,47.363,45.410,3.418,0
151850.912,41.016,34.180,33.203,46.875,45.898,0
151850.916,45.898,35.645,30.762,51.758,41.016,0
151850.920,46.387,44.922,31.738,50.781,48.828,0
151850.924,41.016,44.434,24.414,37.598,37.598,0
151850.928,40.527,42.969,28.809,36.621,0.488,0
151850.932,37.109,39.062,36.133,37.109,1.953,0
151850.936,37.598,31.738,32.715,35.645,38.086,0
151850.940,44.922,33.691,35.645,38.086,19.043,0
151850.942,44.434,39.062,40.527,39.062,-9.766,0
151850.946,36.621,32.715,39.062,34.180,27.344,0
151850.950,40.039,35.156,33.203,37.598,46.387,0
151850.953,46.387,44.922,23.438,38.086,37.109,0
151850.957,40.527,43.457,23.926,28.320,-13.184,0
151850.961,38.086,41.016,37.598,29.297,21.484,0
151850.965,35.645,40.527,42.480,31.738,84.473,0
151850.969,25.391,36.133,34.180,20.996,25.391,0
151850.973,19.531,32.227,30.762,14.648,-27.344,0
151850.977,26.367,38.086,32.715,22.949,3.906,0
151850.981,31.250,41.504,38.574,33.203,34.180,0
151850.985,22.461,36.621,37.109,24.414,41.016,0
151850.988,16.602,31.250,30.762,15.625,39.551,0
151850.992,18.066,28.320,27.344,19.531,20.996,0
151850.996,18.066,28.809,31.250,24.902,35.156,0
151851.000,17.090,33.691,32.227,21.973,49.805,0
151851.004,18.066,33.203,28.809,16.113,48.340,0
151851.008,16.113,27.344,31.250,17.578,18.066,0
151851.012,21.484,36.133,33.691,20.996,60.547,0
151851.015,27.344,42.969,34.668,23.926,87.402,0
151851.019,26.855,34.180,31.738,19.531,45.898,0
151851.023,27.832,28.320,33.691,17.090,40.527,0
151851.027,28.809,27.344,36.621,21.973,20.508,0
151851.031,31.738,25.879,35.156,28.809,49.316,0
151851.032,40.527,29.297,34.180,33.691,89.355,0
151851.036,48.340,34.668,31.250,36.133,53.711,0
151851.040,47.852,37.598,31.738,40.527,48.340,0
151851.044,45.410,40.527,34.180,39.062,76.172,0
151851.047,45.898,35.645,30.762,30.762,76.172,0
151851.051,42.480,30.273,31.250,28.320,52.734,0
151851.055,35.156,32.715,35.645,32.715,39.062,0
151851.059,34.180,32.715,29.297,36.133,26.367,0
151851.063,41.504,32.715,29.297,37.109,35.156,0
151851.067,41.504,35.645,35.156,34.180,11.719,0
151851.071,42.969,43.945,40.039,38.574,-12.207,0
151851.075,49.316,44.434,41.992,47.363,8.301,1
151851.077,44.434,29.297,33.691,46.875,26.855,0
151851.081,41.504,27.344,29.785,41.016,31.738,0
151851.085,42.480,37.109,37.598,41.016,15.137,0
151851.089,40.039,38.574,41.504,44.434,25.879,0
151851.092,37.109,34.668,44.434,36.621,36.621,0
151851.096,36.621,37.109,38.574,29.297,20.020,0
151851.100,34.668,38.086,29.785,23.926,-1.953,0
151851.104,28.809,37.109,32.227,21.973,10.742,0
151851.108,24.414,41.992,34.668,26.367,75.684,0
151851.112,25.391,40.527,39.551,28.320,91.797,0
151851.116,25.391,30.762,45.898,25.879,62.500,0
151851.120,23.926,25.391,44.922,29.297,47.852,0
151851.122,27.832,29.297,37.109,35.156,28.320,0
151851.126,28.809,31.250,32.715,31.250,14.648,0
151851.130,24.414,26.855,32.715,20.508,30.762,0
151851.133,26.855,27.832,28.809,19.531,43.945,0
151851.137,31.250,34.668,30.762,27.344,56.641,0
151851.141,36.621,42.969,41.992,38.574,69.336,0
151851.145,41.504,45.410,47.363,41.016,50.781,0
151851.149,35.156,35.645,42.480,33.691,82.031,0
151851.153,34.180,26.855,37.109,32.715,83.984,0
151851.157,41.504,28.809,39.551,37.109,32.227,0
151851.161,40.039,35.156,34.668,35.156,22.461,0
151851.165,42.969,40.527,23.926,29.785,9.277,0
151851.182,48.340,42.480,28.320,33.691,3.418,0
151851.186,43.457,41.504,35.645,36.621,25.879,0
151851.190,43.945,40.039,39.551,36.621,25.391,0
151851.193,52.246,43.457,44.922,35.645,32.715,0
151851.197,52.734,41.992,42.969,36.621,31.250,0
151851.201,46.387,39.551,36.133,37.598,31.738,0
151851.205,45.410,38.086,32.227,35.645,64.453,0
151851.209,45.898,35.645,31.738,32.715,65.918,0
151851.213,44.434,40.039,31.738,28.809,34.180,0
151851.217,41.016,41.016,32.715,26.367,24.414,0
151851.221,39.062,40.039,30.762,27.832,62.012,0
151851.225,43.457,45.898,34.180,36.133,71.289,0
151851.227,50.293,50.781,40.039,41.504,35.156,0
151851.231,44.922,44.434,34.668,36.621,34.180,0
151851.235,37.109,39.062,32.715,39.551,35.645,0
151851.238,35.156,39.062,29.785,44.922,48.828,0
151851.242,32.715,45.410,26.855,43.457,38.086,0
151851.246,32.715,42.969,38.086,39.062,18.555,0
151851.250,30.273,32.227,42.480,37.109,24.902,0
151851.254,29.297,30.273,38.086,38.086,52.246,0
151851.258,37.598,40.527,42.969,37.598,37.109,0
151851.262,42.480,48.828,42.480,37.109,5.371,0
151851.266,39.062,46.875,36.621,37.109,44.922,0
151851.270,39.062,41.504,37.109,40.527,83.008,0
151851.272,39.551,36.133,35.156,40.039,55.176,0
151851.276,36.621,33.691,36.621,36.621,15.625,0
151851.280,35.645,37.109,35.645,33.203,3.906,0
151851.284,36.133,36.133,35.156,29.297,36.133,0
151851.288,37.109,29.785,39.551,31.250,70.312,0
151851.291,37.109,26.855,43.945,33.203,41.016,0
151851.295,39.062,31.738,43.945,36.133,22.949,0
151851.299,39.062,38.574,37.598,35.645,29.785,0
151851.303,38.574,38.574,32.715,33.691,-8.789,0
151851.307,42.969,37.109,39.551,35.645,-48.828,0
151851.311,45.410,38.086,44.434,36.621,-31.738,0
151851.315,41.504,34.180,33.691,31.738,-4.883,0
151851.317,36.133,26.367,27.832,26.855,25.391,0
151851.321,30.273,23.926,30.273,20.508,56.152,0
151851.325,29.785,26.855,30.273,23.438,43.457,0
151851.328,30.762,31.250,32.227,32.715,49.805,0
151851.332,26.855,32.715,35.156,33.691,64.941,0
151851.336,29.297,35.645,36.621,28.320,32.227,0
151851.340,31.738,33.203,38.086,30.273,19.531,0
151851.344,31.738,32.227,39.062,33.203,8.789,0
151851.348,28.809,32.715,38.086,28.320,2.441,0
151851.352,30.273,33.203,33.691,27.344,19.043,0
151851.356,34.180,32.227,33.203,29.297,33.691,0
151851.360,33.203,32.715,37.598,31.250,16.602,0
151851.362,34.668,34.180,34.180,29.785,19.531,0
151851.366,37.598,28.809,25.879,27.832,44.922,0
151851.370,36.621,27.344,19.043,28.320,26.855,0
151851.373,29.785,31.250,23.438,27.344,-4.395,0
151851.377,29.785,40.527,40.039,32.715,-1.953,0
151851.381,34.180,41.504,42.480,30.273,28.320,0
151851.385,36.133,34.180,32.715,27.344,59.570,0
151851.389,36.133,37.109,31.250,34.180,32.715,0
151851.393,40.039,45.898,35.645,35.156,38.574,0
151851.397,41.992,41.016,33.691,35.156,107.910,0
151851.401,42.480,38.574,29.785,36.621,88.379,0
151851.405,37.598,40.527,32.715,31.738,42.480,0
151851.407,35.645,34.180,29.297,27.832,41.992,0
151851.411,41.504,34.180,24.902,29.297,61.035,0
151851.415,45.898,39.551,34.180,30.273,84.473,0
151851.418,43.945,36.621,41.504,26.367,49.805,0
151851.422,41.504,41.992,39.062,24.902,49.805,0
151851.426,42.480,43.457,33.203,29.297,89.844,0
151851.430,43.457,34.668,33.691,34.668,57.129,0
151851.434,38.574,27.344,29.785,35.645,12.207,0
151851.438,34.180,29.785,26.367,28.320,26.855,0
151851.442,40.527,35.156,29.297,33.203,65.918,0
151851.446,42.480,32.227,27.832,39.062,62.500,0
151851.450,34.668,35.156,33.203,32.715,17.090,0
151851.453,31.250,36.621,38.574,26.367,26.855,0
151851.457,38.086,43.457,35.645,26.855,54.688,0
151851.461,40.527,50.293,23.438,31.738,15.625,0
151851.465,35.156,40.527,19.043,29.297,-3.906,0
151851.469,34.668,33.203,31.738,25.391,23.926,0
151851.473,37.598,31.250,37.109,31.250,43.457,0
151851.476,38.086,32.715,34.180,36.621,18.555,0
151851.480,39.551,35.645,33.691,38.574,46.387,0
151851.484,45.410,39.551,41.016,42.480,111.816,0
151851.488,46.875,41.504,44.434,42.969,80.078,0
151851.492,37.598,33.691,34.668,41.016,49.805,0
151851.496,33.203,28.320,33.691,37.109,65.430,0
151851.497,37.598,33.691,33.691,31.738,56.641,0
151851.501,37.598,33.691,30.762,31.250,16.602,0
151851.505,34.668,27.344,34.180,35.156,3.418,0
151851.508,31.250,25.879,34.180,34.180,58.594,0
151851.512,30.762,30.273,36.621,29.785,81.055,0
151851.516,33.691,33.691,41.016,30.273,22.949,0
151851.520,30.273,31.250,40.527,28.809,13.672,0
151851.524,23.926,27.832,38.086,26.367,40.039,0
151851.528,20.996,30.762,35.645,29.785,77.148,0
151851.532,23.438,33.203,34.668,30.273,28.809,0
151851.536,28.320,35.156,34.180,29.785,28.809,0
151851.540,36.621,34.180,37.598,36.621,102.539,0
151851.557,40.527,33.203,39.551,41.504,63.965,0
151851.561,39.551,31.738,39.062,44.922,23.438,0
151851.565,41.016,30.273,41.992,49.805,17.090,0
151851.568,41.504,32.227,37.109,41.992,39.551,0
151851.572,42.480,33.691,35.645,34.668,53.711,0
151851.576,41.016,35.156,40.039,33.203,26.855,0
151851.580,38.574,34.180,35.645,33.203,27.344,0
151851.584,37.109,31.250,38.086,39.062,50.781,0
151851.588,34.668,29.785,40.527,39.062,59.570,0
151851.592,35.645,36.621,32.715,33.691,40.527,0
151851.596,38.086,35.156,32.715,30.273,4.883,0
151851.600,35.156,25.879,31.250,31.738,26.855,0
151851.602,33.203,28.809,27.832,38.574,60.547,0
151851.606,35.645,34.668,33.203,37.109,22.461,0
151851.610,34.180,33.203,38.574,35.645,-23.438,0
151851.613,33.203,36.133,41.992,45.410,-17.578,0
151851.617,33.691,31.250,45.410,52.246,8.301,0
151851.621,29.785,28.809,49.805,41.016,24.902,0
151851.625,27.344,35.156,44.922,28.320,27.832,0
151851.629,27.344,27.344,35.156,24.414,37.109,0
151851.633,26.855,26.855,34.180,24.414,63.965,0
151851.637,22.461,35.156,36.621,21.484,28.809,0
151851.641,21.484,34.668,33.691,24.414,40.039,0
151851.645,25.879,25.879,29.785,29.785,60.059,0
151851.647,28.320,28.809,35.156,29.297,35.156,0
151851.651,33.691,38.086,41.504,30.273,40.039,0
151851.655,35.156,33.691,40.527,29.785,42.480,0
151851.658,29.297,26.367,39.062,22.949,44.434,0
151851.662,28.809,27.832,39.551,24.902,72.266,0
151851.666,30.273,31.738,34.668,28.320,77.637,0
151851.670,26.855,32.227,30.273,22.461,9.766,0
151851.674,24.414,31.250,23.926,18.555,16.602,0
151851.678,27.832,38.086,23.926,20.996,38.086,0
151851.682,29.297,39.551,33.691,27.832,45.410,0
151851.686,25.879,29.297,33.691,27.344,76.172,0
151851.690,21.973,27.832,34.668,22.461,14.648,0
151851.692,24.414,27.344,41.016,23.438,-27.832,0
151851.696,31.250,26.855,39.551,28.320,13.672,0
151851.700,32.715,30.762,38.574,32.227,21.973,0
151851.703,28.320,32.715,40.527,30.762,8.301,0
151851.707,26.855,34.180,31.250,31.250,4.395,0
151851.711,29.785,36.133,32.715,37.598,38.086,0
151851.715,28.320,33.203,39.062,35.156,62.012,0
151851.719,28.809,28.320,36.621,29.297,1.465,0
151851.723,29.297,29.297,38.574,28.320,6.836,0
151851.727,27.344,29.297,40.039,28.320,59.082,0
151851.731,32.227,25.879,33.691,32.227,81.543,0
151851.735,34.180,27.832,31.738,29.297,88.379,0
151851.738,30.762,29.297,34.668,23.438,35.645,1
151851.742,26.367,31.250,33.203,24.902,62.500,0
151851.746,27.344,35.156,36.621,29.297,83.984,0
151851.750,25.391,34.668,39.062,24.902,19.531,0
151851.754,25.391,33.691,37.109,21.484,23.438,0
151851.758,29.297,31.250,35.645,27.344,58.594,0
151851.761,34.180,31.250,28.809,36.133,73.242,0
151851.765,36.621,35.156,30.273,33.203,66.895,0
151851.769,32.227,35.156,40.039,24.414,37.109,0
151851.773,32.227,35.156,38.574,28.320,30.762,0
151851.777,41.016,41.504,34.180,33.691,23.438,0
151851.781,39.551,43.945,27.832,31.738,52.246,0
151851.782,35.156,41.504,31.250,25.391,78.125,0
151851.786,41.016,36.133,41.016,28.320,76.660,0
151851.790,39.551,33.691,40.039,31.738,71.777,0
151851.793,43.457,34.668,37.598,38.574,60.547,0
151851.797,48.340,31.738,39.062,44.434,22.461,0
151851.801,41.504,32.227,38.086,34.180,17.578,0
151851.805,39.551,38.086,41.016,30.273,41.992,0
151851.809,36.621,38.086,41.504,34.180,22.461,0
151851.813,31.738,39.062,38.086,32.715,47.363,0
151851.817,37.598,44.922,33.691,35.156,31.738,0
151851.821,37.109,42.969,31.738,36.133,32.227,0
151851.825,34.668,34.668,35.645,35.645,55.664,0
151851.827,38.574,29.297,36.621,37.598,49.316,0
151851.831,40.039,31.250,36.133,36.621,59.570,0
151851.835,36.621,33.691,40.039,32.227,46.875,0
151851.839,33.691,32.715,40.527,31.250,40.039,0
151851.842,38.086,36.621,38.086,33.203,37.109,0
151851.846,38.574,38.574,36.133,29.297,36.133,0
151851.850,34.668,39.062,39.551,27.344,-0.488,0
151851.854,37.598,40.039,41.504,28.809,-13.184,0
151851.858,39.062,41.992,37.598,30.762,51.270,0
151851.862,39.551,43.457,35.645,33.691,77.637,0
151851.866,39.062,41.016,35.645,34.180,30.762,0
151851.870,35.645,37.109,33.691,33.691,36.621,0
151851.872,37.598,32.715,34.668,35.156,99.609,0
151851.876,39.062,31.738,36.133,34.668,84.473,0
151851.880,41.992,37.109,39.062,35.645,20.508,0
151851.883,41.992,36.621,40.527,40.039,13.672,0
151851.887,37.109,32.227,37.109,42.480,46.387,0
151851.891,35.645,34.668,38.574,38.086,63.477,0
151851.895,36.621,44.922,41.016,30.273,41.992,0
151851.899,35.645,44.434,38.086,31.250,30.762,0
151851.903,31.738,38.086,33.691,30.762,35.156,0
151851.907,33.203,37.598,32.227,24.414,32.227,0
151851.911,33.203,33.691,33.203,22.461,49.316,0
151851.915,37.109,41.016,35.156,25.879,44.434,0
151851.932,39.551,45.898,39.551,30.762,4.883,0
151851.936,32.715,32.715,38.574,29.297,-21.484,0
151851.940,32.715,32.715,35.645,29.785,-16.602,0
151851.944,33.203,39.551,36.621,28.809,-2.441,0
151851.947,31.738,35.645,37.109,23.926,-10.742,0
151851.951,33.691,30.762,36.621,29.785,-20.020,0
151851.955,36.621,35.156,37.109,37.109,20.508,0
151851.959,36.133,38.086,38.086,35.156,32.715,0
151851.963,36.133,33.203,38.086,36.621,4.395,0
151851.967,37.109,40.527,37.598,39.062,-20.996,0
151851.971,39.062,43.945,42.969,38.086,-12.695,0
151851.975,45.898,38.086,50.781,43.945,0.977,0
151851.978,44.922,37.109,48.828,45.898,-2.441,0
151851.982,42.969,37.109,42.480,44.922,-11.719,0
151851.986,45.898,38.574,37.598,42.969,13.184,0
151851.990,47.363,41.016,37.598,39.551,50.781,0
151851.994,46.875,37.598,44.922,40.039,51.758,0
151851.998,46.387,34.668,46.387,40.527,43.457,0
151852.001,48.340,41.992,34.668,45.898,73.730,0
151852.005,44.434,41.504,30.273,45.898,83.496,0
151852.009,41.992,36.133,30.273,38.086,79.102,0
151852.013,41.992,37.598,31.738,32.715,37.598,0
151852.017,41.992,38.574,40.039,35.645,10.742,0
151852.021,41.992,39.062,48.340,40.527,50.293,0
151852.022,46.875,41.016,51.270,42.969,44.434,0
151852.026,48.340,38.574,44.434,42.480,3.418,0
151852.030,48.340,37.598,41.016,41.016,15.625,0
151852.034,53.223,40.039,38.574,43.945,80.078,0
151852.037,55.176,43.457,33.691,44.434,89.844,0
151852.041,57.129,50.293,40.039,49.805,32.227,0
151852.045,44.434,42.969,36.133,47.363,-21.973,0
151852.049,33.691,28.320,23.438,38.574,22.949,0
151852.053,34.668,29.785,31.738,38.574,26.367,0
151852.057,33.203,37.109,47.852,37.109,-12.695,0
151852.061,29.297,33.691,44.434,34.668,30.762,0
151852.065,29.785,26.367,34.668,33.203,29.297,0
151852.067,35.156,29.785,31.250,28.809,-17.578,0
151852.071,35.645,34.180,30.273,27.832,-25.879,0
151852.075,35.156,35.645,27.832,34.668,-29.297,0
151852.078,38.574,38.086,29.785,39.551,-4.883,0
151852.082,37.109,37.598,33.203,39.551,16.113,0
151852.086,31.250,33.203,27.832,33.203,18.066,0
151852.090,32.227,30.273,30.273,33.691,24.414,0
151852.094,38.574,35.645,36.621,45.410,28.320,0
151852.098,41.992,34.668,38.086,45.410,8.789,0
151852.102,43.457,32.227,47.363,37.598,1.953,0
151852.106,41.016,32.715,45.410,34.180,-18.066,0
151852.110,36.133,31.250,31.738,34.180,25.879,0
151852.112,37.109,33.203,29.297,34.180,94.238,0
151852.116,38.086,35.156,31.250,30.273,55.664,0
151852.120,33.203,35.645,34.668,28.320,20.020,0
151852.124,35.645,41.504,41.016,33.203,58.105,0
151852.127,42.480,38.574,39.062,33.691,81.055,0
151852.131,42.969,32.227,36.133,34.668,76.660,0
151852.135,39.551,30.273,34.668,34.668,63.965,0
151852.139,36.621,27.344,26.855,29.297,7.812,0
151852.143,39.551,30.762,23.438,31.738,17.578,0
151852.147,44.922,37.109,35.156,41.016,60.547,0
151852.151,41.016,39.551,45.410,41.504,36.621,0
151852.155,37.109,38.574,46.387,33.691,25.391,0
151852.157,37.598,38.086,41.016,30.762,34.180,0
151852.161,35.645,33.691,35.156,29.297,57.129,0
151852.165,30.273,32.715,32.227,23.926,64.941,0
151852.169,24.414,30.273,31.250,20.508,54.688,0
151852.173,23.438,30.762,30.273,20.996,21.973,0
151852.177,26.367,34.668,26.855,23.926,-4.395,0
151852.181,30.762,36.621,27.832,24.902,3.418,0
151852.185,29.297,37.109,38.574,16.602,0.488,0
151852.189,30.273,36.133,40.039,19.043,12.207,0
151852.193,39.551,32.227,32.715,32.227,31.738,0
151852.196,40.039,36.133,31.250,36.621,20.996,0
151852.200,33.691,35.156,37.598,35.156,42.480,0
151852.203,34.668,32.227,44.922,37.109,50.781,0
151852.207,32.715,35.645,42.969,37.598,-10.254,0
151852.211,29.297,37.598,35.645,30.762,-12.207,0
151852.215,30.273,33.691,34.180,28.320,6.348,0
151852.219,29.785,31.250,37.598,35.156,12.695,0
151852.223,29.785,36.621,35.156,32.715,-1.953,0
151852.227,30.762,39.062,34.668,25.391,-31.738,0
151852.230,30.273,36.133,43.457,25.391,17.090,0
151852.234,23.926,29.297,43.457,25.391,68.359,0
151852.238,22.461,33.203,37.109,21.973,41.992,0
151852.242,24.902,38.086,33.691,27.344,28.809,0
151852.246,33.203,39.062,35.645,33.691,42.480,0
151852.247,33.691,36.133,35.156,29.297,24.902,0
151852.251,28.809,33.203,36.133,29.297,0.488,0
151852.255,33.691,37.598,40.527,36.133,8.301,0
151852.259,33.203,37.598,37.598,31.738,36.133,0
151852.262,36.133,40.039,33.691,29.297,22.461,0
151852.266,44.434,45.898,33.203,37.109,-16.602,0
151852.270,39.062,41.016,36.133,34.668,-41.992,0
151852.274,33.691,29.785,34.180,28.320,-12.695,0
151852.278,32.715,25.391,32.227,28.809,64.453,1
151852.282,27.344,31.250,36.133,29.785,62.988,0
151852.286,32.715,39.551,42.969,35.156,65.430,0
151852.290,36.621,37.109,46.387,38.086,103.027,0
151852.307,28.809,33.203,41.504,29.785,85.449,0
151852.311,27.344,43.945,36.133,29.297,59.082,0
151852.315,28.320,43.945,32.715,31.250,76.660,0
151852.319,28.809,35.156,32.227,29.297,69.336,0
151852.322,28.320,37.109,28.320,30.273,46.387,0
151852.326,31.738,34.668,29.785,28.320,-12.695,0
151852.330,31.250,31.738,40.527,30.273,-64.941,0
151852.334,26.855,30.762,46.387,33.203,-30.762,0
151852.338,25.391,33.691,47.363,34.180,24.902,0
151852.342,29.297,37.598,51.758,33.691,37.109,0
151852.346,31.738,38.574,44.922,34.668,43.457,0
151852.350,24.414,37.598,31.738,36.133,70.801,0
151852.352,26.855,34.668,29.785,28.809,61.035,0
151852.356,36.133,34.668,33.203,26.367,39.551,0
151852.360,39.551,37.598,41.016,30.273,35.645,0
151852.363,41.016,32.227,43.945,32.715,35.156,0
151852.367,43.457,32.715,44.922,37.109,22.949,0
151852.371,47.852,38.086,48.828,38.574,24.902,0
151852.375,44.922,37.109,36.621,35.645,25.879,0
151852.379,37.598,35.156,27.832,34.668,-0.488,0
151852.383,37.598,29.785,39.062,33.691,-11.230,0
151852.387,38.086,31.738,46.387,34.180,4.883,0
151852.391,37.598,39.062,48.340,35.156,9.277,0
151852.395,38.086,38.086,50.781,33.691,41.016,0
151852.397,35.156,33.203,45.410,33.691,22.949,0
151852.401,36.133,34.180,36.621,33.691,-8.789,0
151852.405,42.480,39.551,36.133,37.598,-11.230,0
151852.408,42.480,35.645,34.180,38.574,-13.184,0
151852.412,34.668,30.762,30.762,31.738,13.184,0
151852.416,38.086,32.715,35.156,36.621,31.250,0
151852.420,41.992,32.227,45.410,42.480,41.504,0
151852.424,38.086,37.109,44.922,37.598,46.875,0
151852.428,40.039,40.527,38.086,37.598,36.621,0
151852.432,42.480,37.598,41.016,38.574,57.129,0
151852.436,39.062,40.527,35.645,37.598,82.520,0
151852.440,35.156,37.109,26.855,31.738,51.270,0
151852.443,31.738,28.320,31.250,30.762,41.016,0
151852.447,32.715,28.320,38.086,34.180,50.293,0
151852.451,34.668,31.250,42.480,34.180,59.570,0
151852.455,34.180,36.133,41.992,34.180,53.711,0
151852.459,35.156,34.668,39.062,34.180,15.137,0
151852.463,34.180,32.227,36.133,33.691,25.879,0
151852.466,33.203,39.062,31.738,34.668,69.336,0
151852.470,33.691,38.574,30.762,33.691,54.688,0
151852.474,31.250,29.297,29.785,24.902,-2.441,0
151852.478,33.203,28.809,26.855,24.902,11.230,0
151852.482,30.273,28.809,31.738,29.297,81.543,0
151852.486,27.344,27.832,36.133,29.785,86.914,0
151852.487,34.668,34.668,37.109,29.297,61.523,0
151852.491,32.227,37.598,38.086,24.902,79.590,0
151852.495,32.227,37.109,40.039,32.227,94.238,0
151852.499,37.598,36.133,35.645,36.621,54.199,0
151852.502,32.715,28.809,31.738,29.785,44.434,0
151852.506,26.367,23.926,39.551,27.344,40.527,0
151852.510,25.879,24.414,40.527,29.785,30.762,0
151852.514,26.367,31.250,32.715,30.762,34.668,0
151852.518,29.785,38.086,30.762,31.250,3.418,0
151852.522,30.762,34.180,37.598,32.227,-7.324,0
151852.526,27.344,35.156,41.504,33.691,11.230,0
151852.530,32.227,36.621,32.715,39.062,65.918,0
151852.532,36.621,30.762,33.203,43.945,73.730,0
151852.536,32.715,29.297,37.598,34.668,25.879,0
151852.540,31.738,28.809,38.574,29.785,20.508,0
151852.543,33.691,28.320,39.062,32.715,42.480,0
151852.547,36.621,33.203,34.668,32.715,62.012,0
151852.551,40.527,36.621,36.621,37.598,86.914,0
151852.555,35.645,36.133,36.621,37.109,55.176,0
151852.559,34.668,41.992,37.598,38.086,1.465,0
151852.563,39.551,41.016,38.574,42.969,42.969,0
151852.567,35.645,30.762,39.551,39.062,56.641,0
151852.571,36.133,28.809,45.410,37.598,7.324,0
151852.575,37.109,31.250,41.016,40.039,30.273,0
151852.577,33.203,34.180,38.574,42.969,56.641,0
151852.581,34.668,36.133,39.062,40.039,51.758,0
151852.585,36.621,41.504,38.086,37.598,25.879,0
151852.589,39.062,46.387,40.039,41.504,35.156,0
151852.592,41.992,44.922,37.598,42.480,52.734,0
151852.596,41.992,40.527,38.086,42.480,42.969,0
151852.600,38.086,33.691,41.016,39.062,5.859,0
151852.604,33.203,30.273,43.457,39.551,-26.855,0
151852.608,29.785,29.785,41.016,36.133,53.711,0
151852.612,29.785,29.785,34.668,29.297,64.453,0
151852.616,34.180,30.273,33.203,28.320,10.742,0
151852.620,32.715,30.762,31.738,27.344,-2.930,0
151852.622,32.227,32.227,31.250,35.156,23.926,0
151852.626,35.156,29.297,35.645,37.598,61.035,0
151852.630,41.016,32.227,33.203,39.062,40.527,0
151852.633,43.945,32.227,31.738,40.039,32.715,0
151852.637,39.062,26.855,32.227,40.527,42.969,0
151852.641,37.109,27.832,35.156,39.062,53.223,0
151852.645,39.062,31.738,40.039,31.738,40.527,0
151852.649,40.527,29.297,40.039,29.297,8.301,0
151852.653,38.574,30.273,38.086,34.180,1.953,0
151852.657,36.621,36.133,35.156,38.086,31.250,0
151852.661,34.180,31.738,34.180,33.203,56.641,0
151852.665,27.832,31.738,32.227,33.203,33.691,0
151852.668,22.461,28.809,34.668,39.062,21.484,0
151852.672,26.855,23.926,39.551,39.062,46.387,0
151852.676,28.809,25.879,40.527,36.133,43.945,0
151852.680,23.926,24.414,28.320,28.320,78.613,0
151852.684,26.855,28.320,26.855,26.855,105.957,0
151852.688,32.227,29.785,38.574,35.156,90.820,0
151852.691,29.297,24.414,35.645,32.227,76.172,0
151852.695,29.297,31.738,31.250,27.832,66.895,0
151852.699,33.691,37.598,28.809,33.203,48.340,0
151852.703,32.715,33.691,33.203,34.668,59.082,0
151852.707,29.297,33.203,40.039,32.227,71.289,0
151852.711,25.879,35.156,37.109,31.738,47.363,0
151852.727,21.484,32.715,33.691,28.320,28.809,0
151852.731,21.973,27.832,24.902,23.926,14.160,0
151852.735,26.855,25.879,22.461,23.926,31.738,0
151852.739,25.391,30.762,27.344,23.438,45.898,0
151852.742,24.902,34.180,32.715,24.902,12.207,0
151852.746,29.785,33.203,40.527,31.738,-22.461,0
151852.750,29.785,31.250,40.527,33.203,-22.461,0
151852.754,28.809,30.273,38.086,32.227,30.273,0
151852.758,32.227,28.809,34.668,33.203,49.805,0
151852.762,30.762,23.438,30.273,30.273,24.902,0
151852.766,24.414,26.367,35.156,30.762,54.199,0
151852.770,27.832,32.715,31.738,35.645,82.031,0
151852.772,33.691,32.227,26.855,33.203,56.152,0
151852.776,28.809,27.832,34.180,27.832,11.230,0
151852.780,27.344,29.785,38.574,30.762,33.203,0
151852.783,31.250,33.203,40.039,32.227,67.871,0
151852.787,29.297,29.297,38.086,28.320,61.523,0
151852.791,29.297,30.273,35.156,30.273,7.324,0
151852.795,34.180,33.203,31.250,39.062,10.742,0
151852.799,40.039,35.156,29.297,42.480,40.039,0
151852.803,36.621,37.109,27.832,34.668,12.207,0
151852.807,36.133,37.598,29.785,28.320,-3.418,0
151852.811,40.039,30.762,33.691,31.738,6.348,0
151852.815,38.574,27.344,38.086,38.574,47.363,0
151852.817,40.527,28.320,38.574,39.062,47.363,0
151852.821,40.039,30.273,40.527,32.715,-3.906,0
151852.825,39.551,28.809,37.109,35.645,-12.207,0
151852.829,44.434,31.738,27.832,42.969,0.000,0
151852.832,41.992,37.109,32.715,40.527,33.691,0
151852.836,38.086,34.180,39.062,34.180,16.113,0
151852.840,39.062,33.203,36.621,30.273,3.418,0
151852.844,34.668,35.645,34.668,27.344,45.898,0
151852.848,29.297,34.668,41.992,27.344,36.133,0
151852.852,27.344,29.785,43.457,29.297,31.250,0
151852.856,27.832,23.926,35.156,23.926,42.969,0
151852.860,27.344,28.320,37.598,26.855,15.137,0
151852.862,26.855,31.250,45.410,35.156,59.082,0
151852.866,20.508,29.297,39.551,29.297,81.055,0
151852.870,18.066,38.574,36.621,21.484,18.555,0
151852.873,20.996,35.645,39.551,23.926,9.766,0
151852.877,24.902,28.809,38.086,28.809,44.922,0
151852.881,28.320,36.133,35.645,25.391,90.820,0
151852.885,31.250,39.551,29.785,21.973,58.105,0
151852.889,36.133,38.086,27.832,23.438,6.348,0
151852.893,37.109,39.551,35.645,28.320,-18.555,0
151852.897,36.621,36.133,41.504,28.809,22.949,0
151852.901,37.598,30.762,38.086,26.367,54.688,0
151852.905,37.109,31.738,35.645,26.855,-7.812,0
151852.907,39.551,40.039,42.969,33.691,-26.855,0
151852.911,39.551,37.109,39.551,33.203,15.137,0
151852.915,43.457,38.086,33.691,31.250,24.902,0
151852.919,42.969,43.457,33.691,28.809,17.090,0
151852.922,35.645,38.086,32.715,24.902,22.949,0
151852.926,35.645,34.180,31.738,30.273,43.457,0
151852.930,37.109,30.273,32.227,30.762,63.965,0
151852.934,32.715,29.785,37.598,25.879,17.090,0
151852.938,32.715,31.738,41.992,28.320,25.391,0
151852.942,39.551,36.621,45.410,39.062,79.590,0
151852.946,39.062,39.551,41.992,34.668,64.941,0
151852.950,37.109,35.156,36.133,24.902,34.668,2
151852.952,36.133,31.738,37.109,27.344,50.781,0
151852.956,32.227,32.715,38.574,33.691,59.570,0
151852.960,26.855,30.762,39.062,28.809,35.645,0
151852.964,24.414,35.645,36.133,21.484,41.016,0
151852.967,27.344,40.527,38.086,22.949,33.203,0
151852.971,30.273,37.109,42.480,24.902,14.160,0
151852.975,29.785,34.668,34.668,20.996,16.602,0
151852.979,33.203,34.180,30.273,21.484,33.203,0
151852.983,35.645,34.668,32.227,26.367,43.945,0
151852.987,35.156,36.133,31.738,28.809,67.871,0
151852.991,36.133,35.645,30.273,30.762,74.707,0
151852.995,39.062,36.621,37.109,30.762,43.457,0
151852.997,41.016,38.574,41.992,29.297,22.949,0
151853.001,33.203,34.668,40.527,29.785,44.922,0
151853.005,29.785,29.785,37.598,31.250,75.684,0
151853.008,32.715,33.203,37.109,31.738,82.520,0
151853.012,32.227,37.109,34.668,30.273,73.730,0
151853.016,32.227,40.039,35.156,30.273,46.875,0
151853.020,26.855,37.598,37.598,25.879,35.645,0
151853.024,24.902,32.715,39.062,23.438,70.312,0
151853.028,30.762,36.621,42.480,27.832,102.539,0
151853.032,36.133,41.504,42.969,27.832,59.570,0
151853.036,40.527,44.922,41.992,36.621,29.297,0
151853.040,35.645,40.039,29.785,31.738,71.777,0
151853.057,37.109,33.203,29.785,29.297,74.219,0
151853.061,45.410,32.715,41.992,37.598,25.391,0
151853.065,38.574,33.691,43.945,37.598,5.859,0
151853.069,31.250,33.691,41.992,35.156,2.441,0
151853.072,30.273,26.367,40.039,35.156,28.320,0
151853.076,29.785,24.902,42.480,27.832,8.301,0
151853.080,35.645,34.180,43.945,27.832,-12.207,0
151853.084,37.109,41.016,42.969,35.156,25.879,0
151853.088,36.133,48.828,41.992,38.574,24.902,0
151853.092,36.133,51.758,35.645,30.762,3.906,0
151853.096,35.156,43.457,36.621,24.902,20.508,0
151853.100,35.156,37.109,40.039,34.668,77.637,0
151853.117,37.109,35.645,37.109,40.527,119.141,0
151853.121,39.551,35.156,40.527,39.551,66.895,0
151853.125,38.574,29.785,45.898,31.250,45.410,0
151853.129,38.086,25.879,35.645,27.832,78.613,0
151853.132,36.621,31.250,29.785,28.809,73.242,0
151853.136,38.574,41.016,36.621,30.273,45.898,0
151853.140,40.527,38.574,39.551,29.297,34.180,0
151853.144,35.156,32.227,38.574,30.273,17.578,0
151853.148,35.156,36.133,40.527,37.598,17.578,0
151853.152,36.621,36.621,37.109,32.227,47.363,0
151853.156,40.039,39.551,32.227,25.879,43.945,0
151853.160,43.457,42.969,28.809,31.250,36.621,0
151853.147,43.945,38.086,30.273,38.086,28.320,0
151853.151,42.969,38.086,34.668,40.039,31.738,0
151853.155,45.410,45.898,37.598,42.480,14.648,0
151853.159,51.270,48.340,43.945,45.410,-6.348,0
151853.162,41.992,40.527,39.062,42.969,10.742,0
151853.166,34.180,36.621,30.762,36.133,38.574,0
151853.170,28.809,32.715,34.668,30.273,44.434,0
151853.174,30.273,33.691,40.527,31.738,43.945,0
151853.178,36.133,39.062,45.410,38.086,47.363,0
151853.182,36.133,40.527,41.504,39.062,25.879,0
151853.186,38.086,37.109,38.574,39.062,62.012,0
151853.190,41.504,36.621,42.480,39.062,95.215,0
151853.193,46.875,41.992,36.621,38.574,37.598,0
151853.197,46.387,41.992,29.297,38.086,4.883,0
151853.201,44.922,41.992,32.715,37.109,48.828,0
151853.205,41.504,44.434,33.203,34.668,29.297,0
151853.209,35.645,44.922,34.668,31.738,-13.672,0
151853.213,37.598,39.551,46.387,38.086,0.977,0
151853.217,38.574,33.691,45.410,40.527,29.297,0
151853.220,38.086,31.738,37.598,40.039,59.082,0
151853.224,40.527,31.250,37.598,41.016,8.789,0
151853.228,38.086,34.180,38.574,36.621,-3.906,0
151853.232,33.203,35.156,37.109,37.109,31.738,0
151853.236,37.598,33.203,38.574,39.551,29.785,0
151853.237,40.527,35.645,47.363,34.180,37.598,0
151853.241,38.574,40.039,47.363,31.250,28.809,0
151853.245,38.574,40.527,34.180,36.133,37.598,0
151853.249,38.086,38.086,28.809,38.086,60.059,0
151853.253,40.527,40.039,32.227,34.668,28.320,0
151853.256,43.945,39.062,32.715,34.668,23.926,0
151853.260,41.992,36.133,36.133,35.156,26.855,0
151853.264,39.551,39.062,41.504,32.715,4.395,0
151853.268,39.551,38.086,41.504,31.738,-1.953,0
151853.272,42.969,38.574,41.992,35.156,-9.277,0
151853.276,43.945,39.062,45.898,40.527,-1.953,0
151853.280,44.922,39.062,44.922,44.434,42.480,0
151853.282,42.969,38.086,39.551,41.016,60.547,0
151853.286,39.551,39.062,38.574,34.668,26.855,0
151853.290,41.992,40.039,36.621,36.133,13.184,0
151853.294,45.410,34.668,29.297,41.504,43.945,0
151853.297,44.434,35.645,30.273,38.574,38.086,0
151853.301,41.992,32.715,35.156,33.203,16.602,0
151853.305,42.480,30.762,38.574,35.645,29.785,0
151853.309,41.992,34.668,44.434,38.086,15.625,0
151853.313,40.527,38.086,43.945,35.645,17.090,0
151853.317,40.527,40.527,37.109,35.645,41.016,0
151853.321,41.016,41.992,36.133,37.598,20.020,0
151853.325,36.621,41.504,42.969,33.691,-7.324,0
151853.327,32.715,37.109,42.969,32.715,5.371,0
151853.331,35.645,38.574,39.551,33.203,0.488,0
151853.335,35.645,37.109,37.109,27.832,-18.066,0
151853.339,31.738,31.250,33.691,23.926,-26.855,0
151853.342,31.738,32.227,32.227,22.461,0.000,0
151853.346,33.691,36.133,30.762,20.996,-3.418,0
151853.350,33.691,38.574,31.250,20.996,-3.906,0
151853.354,35.156,38.086,39.551,20.020,36.133,0
151853.358,35.645,40.039,40.527,21.484,50.293,0
151853.362,32.227,39.062,37.598,24.902,44.922,0
151853.366,33.203,36.621,38.086,23.926,42.969,0
151853.370,33.691,38.086,36.133,21.973,33.203,0
151853.372,32.227,36.621,37.598,24.414,43.945,0
151853.376,28.320,32.715,38.574,25.879,47.363,0
151853.380,27.344,26.367,32.227,20.508,44.922,0
151853.383,33.203,30.762,34.180,22.949,38.574,0
151853.387,32.227,36.621,39.551,30.762,30.273,0
151853.391,26.367,31.738,33.203,28.320,46.387,0
151853.395,23.926,28.320,34.180,24.902,21.973,0
151853.399,25.391,35.156,38.086,26.855,14.648,0
151853.403,32.227,41.992,31.250,33.203,33.203,0
151853.407,29.785,30.762,31.738,35.156,40.527,0
151853.411,19.531,23.438,39.551,26.855,56.152,0
151853.415,22.461,23.926,38.574,22.949,36.133,0
151853.418,29.785,26.855,38.086,29.785,26.367,0
151853.422,29.297,30.762,36.621,31.250,28.809,0
151853.426,29.297,31.738,31.738,25.391,34.180,0
151853.430,34.180,38.574,37.109,29.785,30.273,0
151853.434,36.133,37.109,35.156,39.062,29.297,0
151853.438,27.832,33.691,28.320,34.668,-1.465,0
151853.442,28.809,38.086,37.598,36.621,15.137,0
151853.445,34.668,36.133,38.086,42.480,18.066,0
151853.449,35.156,35.645,38.086,40.527,-2.930,0
151853.453,37.598,37.598,46.387,41.992,21.973,0
151853.457,36.621,29.297,39.551,41.992,33.203,0
151853.461,37.109,30.273,33.203,38.086,49.805,0
151853.477,40.039,36.621,28.809,37.598,62.500,0
151853.481,38.574,34.668,31.738,37.109,17.578,0
151853.485,37.109,39.062,41.016,32.715,33.203,2
151853.488,35.156,42.969,42.480,30.762,73.730,0
151853.492,33.691,38.086,41.992,32.715,53.711,0
151853.496,33.691,36.621,38.086,35.645,54.199,0
151853.500,29.297,35.645,34.668,37.109,35.645,0
151853.504,25.391,31.738,34.180,35.645,18.066,0
151853.508,25.391,31.250,36.133,29.785,0.977,0
151853.512,29.297,34.180,32.227,28.320,12.207,0
151853.516,36.133,35.645,28.320,35.645,56.152,0
151853.520,34.668,29.297,35.645,36.621,43.945,0
151853.522,33.691,23.926,37.598,27.344,20.996,0
151853.526,35.156,29.297,31.250,22.461,11.230,0
151853.530,30.762,33.691,27.344,24.902,-1.465,0
151853.533,28.809,32.227,32.227,26.367,16.602,0
151853.537,24.902,31.738,33.203,19.531,16.602,0
151853.541,25.391,37.598,34.180,16.602,-5.859,0
151853.545,26.855,38.086,37.109,20.020,-11.230,0
151853.549,21.484,35.645,26.855,19.531,31.738,0
151853.553,21.484,37.598,24.902,18.066,25.391,0
151853.557,23.438,34.668,37.109,18.555,-38.086,0
151853.561,26.855,33.691,44.434,27.832,-7.812,0
151853.565,30.273,34.668,42.480,32.227,30.273,0
151853.567,31.250,32.227,43.457,31.738,7.324,0
151853.571,31.738,29.297,41.992,30.762,-1.465,0
151853.575,35.645,32.227,37.598,32.227,-20.020,0
151853.578,36.133,34.668,34.668,34.180,2.930,0
151853.582,37.598,32.715,30.762,35.645,51.758,0
151853.586,41.016,35.156,37.598,38.574,29.785,0
151853.590,39.551,40.527,41.016,38.086,0.977,0
151853.594,34.180,37.598,37.109,38.086,40.039,0
151853.598,28.320,29.297,41.016,38.574,91.309,0
151853.602,29.297,26.855,41.992,33.203,94.238,0
151853.606,36.621,33.691,34.180,32.227,55.176,0
151853.610,42.480,40.527,29.297,37.109,50.293,0
151853.613,44.922,35.645,39.551,38.086,103.027,0
151853.617,43.457,27.344,42.969,35.645,103.027,0
151853.621,37.109,26.367,35.156,32.227,45.898,0
151853.625,37.598,30.762,33.203,38.086,31.738,0
151853.629,39.062,33.691,33.691,40.527,49.316,0
151853.633,34.180,36.133,34.180,37.109,54.688,0
151853.636,34.668,32.715,35.156,34.668,45.898,0
151853.640,37.598,28.320,34.180,32.227,15.137,0
151853.644,35.645,35.645,33.691,30.273,-0.977,0
151853.648,31.738,35.156,37.109,29.785,48.340,0
151853.652,30.762,28.320,41.016,26.855,23.438,0
151853.656,34.180,29.297,45.410,24.902,-20.020,0
151853.658,35.645,26.855,43.457,28.320,9.277,0
151853.662,37.109,28.320,37.598,29.297,60.547,0
151853.666,32.715,31.250,34.668,23.926,85.449,0
151853.670,27.344,32.715,33.691,22.949,35.156,0
151853.674,27.832,33.203,32.227,29.297,23.438,0
151853.678,35.156,36.621,35.645,37.109,36.133,0
151853.681,38.574,39.062,42.480,36.621,21.484,0
151853.685,33.691,30.273,37.598,26.367,-33.203,0
151853.689,38.086,30.273,37.109,28.809,-48.340,0
151853.693,39.062,34.180,45.410,37.109,38.574,0
151853.697,35.645,33.691,47.852,35.645,46.387,0
151853.701,37.598,35.156,43.945,35.156,12.207,0
151853.702,35.645,35.645,36.621,36.133,0.977,0
151853.706,37.109,38.574,34.180,43.457,2.930,0
151853.710,41.992,41.016,38.574,49.805,29.297,0
151853.714,37.598,34.668,37.109,39.062,17.578,0
151853.717,29.785,32.715,40.527,31.738,12.695,0
151853.721,32.227,36.621,47.363,40.527,12.207,0
151853.725,39.062,39.551,49.316,47.363,11.230,0
151853.729,40.527,47.363,41.992,41.016,33.203,0
151853.733,41.504,50.781,43.945,42.480,23.926,0
151853.737,42.480,43.945,53.711,47.363,4.395,0
151853.741,43.457,47.363,50.781,46.875,35.156,0
151853.745,38.086,46.387,43.457,42.480,48.828,0
151853.747,38.086,43.945,42.480,41.016,43.457,0
151853.751,42.969,43.457,42.480,41.016,24.414,0
151853.755,40.527,40.039,38.086,35.645,6.836,0
151853.759,38.086,39.551,39.062,35.156,34.180,0
151853.763,37.598,40.039,41.016,32.227,48.340,0
151853.767,32.715,39.551,42.969,26.855,27.832,0
151853.771,30.762,39.062,42.480,28.809,13.184,0
151853.775,37.109,45.898,41.016,26.855,45.410,0
151853.779,34.180,49.316,43.945,20.996,69.824,0
151853.782,33.691,42.480,41.504,19.043,55.176,0
151853.786,37.109,36.133,37.598,20.508,52.734,0
151853.790,38.574,37.598,37.109,27.344,77.637,0
151853.807,41.992,37.109,34.668,33.691,74.219,0
151853.811,39.551,34.180,30.273,27.832,32.227,0
151853.815,35.156,37.109,36.133,30.762,51.758,0
151853.819,36.133,37.109,39.551,41.504,71.777,0
151853.822,35.645,35.156,36.621,43.945,43.945,0
151853.826,29.785,39.551,38.574,35.156,31.738,0
151853.830,27.344,38.574,37.109,33.203,38.086,0
151853.834,32.227,33.691,33.203,40.527,82.520,0
151853.838,35.156,37.598,33.691,41.016,87.402,0
151853.842,35.156,39.062,30.762,34.668,28.320,0
151853.846,34.180,34.668,29.785,29.785,10.742,0
151853.850,36.621,37.598,30.762,34.180,67.383,0
151853.852,41.016,41.504,36.133,40.527,96.680,0
151853.856,38.574,36.133,39.062,38.086,56.641,0
151853.860,38.086,38.086,33.691,33.691,37.598,0
151853.863,38.574,42.969,27.344,35.156,62.012,0
151853.867,36.133,40.039,29.297,37.598,24.414,0
151853.871,39.062,36.621,28.809,35.645,29.297,0
151853.875,41.016,35.156,24.902,32.715,32.715,0
151853.879,41.992,34.668,29.297,34.180,-8.789,0
151853.883,47.363,39.551,37.109,38.574,14.648,0
151853.887,44.434,45.898,41.504,35.645,23.438,0
151853.891,34.668,41.016,41.504,27.344,-0.488,0
151853.895,31.250,32.227,39.062,23.438,-11.719,0
151853.897,31.250,35.645,36.133,25.391,-6.348,0
151853.901,32.715,38.086,34.180,26.367,-3.418,0
151853.905,32.227,32.715,33.691,24.414,-13.184,0
151853.908,29.297,32.715,36.133,28.809,-15.137,0
151853.912,25.391,33.203,32.715,30.273,-21.973,0
151853.916,30.762,35.645,33.203,27.832,-47.363,0
151853.920,39.551,44.434,40.527,32.715,-21.973,0
151853.924,35.645,44.922,33.203,26.855,-34.668,0
151853.928,31.250,38.086,23.926,20.996,-63.477,0
151853.932,34.668,40.527,31.738,24.902,-20.508,0
151853.936,32.227,36.133,38.086,23.926,46.387,0
151853.940,29.785,34.668,38.574,22.949,36.133,0
151853.942,31.250,33.203,38.574,26.367,-9.766,0
151853.946,29.297,26.855,37.109,27.832,21.973,0
151853.950,29.297,29.297,36.133,28.809,58.594,0
151853.954,31.738,36.621,38.574,25.391,53.711,0
151853.957,34.180,41.992,32.715,25.391,22.949,0
151853.961,39.551,47.852,36.621,33.203,30.762,0
151853.965,35.645,41.504,46.387,29.785,89.355,0
151853.969,27.832,28.809,38.086,22.461,41.016,0
151853.973,25.391,27.344,35.156,20.508,-17.090,0
151853.977,25.879,31.738,38.086,27.344,14.648,0
151853.981,32.715,32.715,41.016,35.645,50.293,0
151853.985,39.551,37.598,38.574,35.645,56.152,0
151853.987,45.898,36.621,33.691,39.551,34.180,0
151853.991,36.133,27.344,38.086,43.945,32.715,0
151853.995,27.344,31.250,52.246,38.574,59.082,0
151853.999,24.414,31.738,54.688,29.297,72.754,0
151854.002,20.020,23.438,46.875,21.973,67.383,0
151854.006,17.090,19.043,49.316,19.531,18.066,0
151854.010,16.113,16.113,55.664,27.344,13.672,0
151854.014,21.973,12.207,56.152,32.715,46.875,0
151854.018,21.973,15.137,49.316,24.414,55.664,0
151854.022,21.973,17.578,48.828,26.367,46.387,0
151854.026,28.809,17.578,45.410,39.551,33.203,0
151854.030,34.180,23.926,39.062,43.945,52.246,0
151854.032,39.551,27.832,41.992,41.016,44.434,0
151854.036,42.969,26.367,42.969,42.480,34.180,0
151854.040,39.062,24.902,41.992,43.457,40.039,0
151854.044,37.598,27.832,41.016,46.875,40.039,0
151854.047,37.109,28.809,41.992,46.387,52.734,2
151854.051,34.180,29.297,40.039,38.086,38.574,0
151854.055,35.156,25.879,41.504,41.992,25.391,0
151854.059,47.363,19.043,50.293,61.035,44.922,0
151854.063,48.828,27.344,41.016,57.617,62.012,0
151854.067,31.738,40.039,33.203,30.762,49.316,0
151854.071,35.645,44.922,36.621,26.855,20.508,0
151854.075,46.875,50.293,29.297,34.668,26.367,0
151854.077,40.527,42.969,26.855,32.227,78.613,0
151854.081,35.645,32.715,27.344,26.367,95.703,0
151854.085,44.434,34.180,28.320,37.598,77.148,0
151854.089,46.387,40.039,32.227,43.945,54.199,0
151854.092,43.457,45.898,30.273,34.668,55.664,0
151854.096,44.922,42.969,25.391,31.738,38.574,0
151854.100,43.457,39.062,27.344,34.668,-1.465,0
151854.104,48.340,45.410,27.832,36.133,7.324,0
151854.108,54.199,45.898,25.879,42.480,49.316,0
151854.112,54.199,40.527,28.320,49.805,37.598,0
151854.116,52.246,40.527,27.832,50.293,7.812,0
151854.120,47.363,40.527,29.297,51.270,20.996,0
151854.123,42.969,36.621,35.156,54.688,20.508,0
151854.127,44.922,34.668,38.086,51.270,33.691,0
151854.131,47.852,30.273,37.598,43.945,10.742,0
151854.135,46.875,29.785,30.762,41.992,-2.930,0
151854.139,42.480,33.691,23.438,40.527,1.953,0
151854.143,39.062,31.250,27.344,38.574,15.625,0
151854.147,37.109,29.297,34.668,35.156,1.953,0
151854.150,41.992,35.156,37.598,35.645,-32.227,0
151854.154,43.945,41.992,38.086,41.992,24.414,0
151854.158,42.480,39.062,36.621,42.969,54.688,0
151854.162,41.016,33.203,35.156,39.062,48.828,0
151854.166,39.551,29.785,32.715,34.668,31.738,0
151854.182,39.551,28.320,37.109,34.180,27.832,0
151854.186,37.598,30.273,41.016,32.715,23.438,0
151854.190,37.598,34.668,35.156,28.320,-1.465,0
151854.194,36.133,32.715,29.297,20.508,17.578,0
151854.197,34.180,27.344,32.227,21.484,32.715,0
151854.201,39.551,36.133,32.227,31.250,42.969,0
151854.205,40.039,41.504,32.227,33.203,65.430,0
151854.209,40.039,36.621,23.438,31.738,92.285,0
151854.213,47.363,34.180,24.414,36.621,77.148,0
151854.217,42.480,33.691,42.480,37.109,69.824,0
151854.221,36.621,31.738,46.875,35.645,92.773,0
151854.225,33.203,31.738,39.551,32.715,98.633,0
151854.227,31.250,31.738,34.668,31.250,65.430,0
151854.231,32.715,31.250,33.203,31.250,65.918,0
151854.235,34.180,35.645,31.738,30.273,114.258,0
151854.239,38.086,36.133,30.762,30.273,114.258,0
151854.243,39.062,38.574,30.762,29.785,74.219,0
151854.247,41.992,43.457,31.738,33.691,48.340,0
151854.250,46.387,40.039,37.109,36.621,49.805,0
151854.254,42.969,35.156,36.621,37.598,69.824,0
151854.258,41.016,37.598,36.621,34.180,65.430,0
151854.262,41.016,37.109,41.992,28.809,18.555,0
151854.266,34.180,35.156,39.062,25.879,24.902,0
151854.270,34.180,38.086,32.227,26.855,92.773,0
151854.272,38.574,38.574,30.273,23.926,65.918,0
151854.276,37.598,37.598,32.227,20.020,-9.277,0
151854.280,36.133,42.969,37.109,23.438,-22.461,0
151854.283,37.109,42.969,37.109,26.855,21.973,0
151854.287,38.574,37.598,29.785,22.949,42.969,0
151854.291,35.156,35.156,31.738,19.531,10.742,0
151854.295,35.645,31.250,40.527,23.926,7.324,0
151854.299,39.062,31.738,39.062,32.227,22.949,0
151854.303,41.504,41.016,34.668,34.180,36.133,0
151854.307,36.133,39.551,34.668,28.320,21.484,0
151854.311,30.762,36.133,35.156,28.320,-13.672,0
151854.315,29.785,38.574,37.598,31.738,23.438,0
151854.317,29.785,41.992,40.039,31.738,62.012,0
151854.321,32.715,40.039,37.598,25.879,49.316,0
151854.325,34.668,34.668,33.203,23.438,52.246,0
151854.329,37.598,37.598,33.691,29.297,58.594,0
151854.333,34.668,36.621,29.785,30.762,45.410,0
151854.337,30.762,31.250,27.344,28.320,50.781,0
151854.341,36.621,39.062,35.156,28.809,41.504,0
151854.344,32.715,41.992,36.133,24.902,9.277,0
151854.348,22.461,35.156,31.738,17.090,-0.977,0
151854.352,23.438,32.715,34.180,13.672,41.504,0
151854.356,29.297,32.227,33.691,13.184,42.969,0
151854.360,33.691,41.504,33.691,19.043,18.066,0
151854.362,31.738,39.551,39.551,22.949,10.742,0
151854.366,30.273,31.738,43.945,23.926,25.879,0
151854.370,34.668,40.039,36.621,24.902,61.035,0
151854.374,37.598,45.898,33.691,29.297,63.965,0
151854.378,37.109,39.062,35.645,32.227,39.062,0
151854.382,36.621,36.621,38.086,34.668,58.594,0
151854.385,33.691,38.086,38.086,32.715,65.430,0
151854.389,35.156,37.598,35.156,29.785,37.109,0
151854.393,39.551,33.691,37.109,36.133,21.973,0
151854.397,39.551,34.668,36.133,40.527,53.223,0
151854.401,39.062,35.156,35.156,34.668,50.781,0
151854.405,39.062,29.785,42.969,32.227,21.973,0
151854.408,39.551,37.109,41.992,35.645,35.156,0
151854.412,38.086,41.504,34.180,30.762,72.266,0
151854.416,33.691,36.621,33.691,24.902,58.594,0
151854.420,32.715,32.715,37.109,23.438,25.879,0
151854.424,31.738,24.414,38.086,26.367,76.172,0
151854.428,35.156,20.020,35.645,31.738,83.984,0
151854.431,37.109,25.391,34.180,32.227,59.570,0
151854.435,37.598,34.668,33.691,29.297,29.785,0
151854.439,34.668,35.156,31.738,26.855,24.414,0
151854.443,29.785,29.297,41.016,31.738,44.434,0
151854.447,30.273,28.320,51.270,33.203,46.875,0
151854.451,29.297,37.598,45.410,24.414,53.223,0
151854.452,27.832,35.156,37.598,23.926,34.180,0
151854.456,29.297,23.926,35.645,34.180,6.348,0
151854.460,30.273,25.879,32.715,35.645,18.555,0
151854.464,33.203,34.180,39.062,34.668,27.832,0
151854.467,33.691,36.133,41.504,36.133,-13.184,0
151854.471,29.785,28.320,38.574,33.203,-2.441,0
151854.475,28.809,29.785,38.574,31.250,20.020,0
151854.479,28.320,35.156,38.574,33.203,-15.625,0
151854.483,26.367,35.156,38.086,32.715,3.418,0
151854.487,25.391,37.598,38.086,26.855,33.691,0
151854.491,29.297,34.180,40.527,24.902,51.758,0
151854.495,27.832,27.832,39.062,19.531,85.938,0
151854.497,20.996,27.344,32.715,15.137,69.336,0
151854.501,20.996,28.320,31.738,21.973,33.203,0
