timestamps,TP9,AF7,AF8,TP10,Right AUX,Marker0
152220.894,20.996,35.156,38.574,30.762,-45.410,0
152220.898,29.297,32.227,52.734,31.738,-28.320,0
152220.902,46.875,30.273,41.504,34.180,49.316,0
152220.906,55.664,32.227,29.785,39.062,39.062,0
152220.910,45.410,29.785,36.621,40.527,-37.109,0
152220.914,30.273,30.273,47.852,36.133,-41.992,0
152220.918,39.551,35.645,42.480,30.762,26.367,0
152220.922,47.852,36.133,36.133,29.297,38.086,0
152220.926,27.832,33.203,28.320,26.367,-16.602,0
152220.929,11.230,27.832,25.391,25.391,-40.039,0
152220.933,31.738,29.785,15.625,34.180,-15.625,0
152220.937,50.781,38.086,3.906,37.109,35.156,0
152220.939,38.086,36.621,14.648,31.738,9.277,0
152220.943,20.996,34.180,29.297,30.273,-20.020,0
152220.947,30.762,30.273,40.527,34.668,20.508,0
152220.951,56.641,29.297,48.340,47.363,70.312,0
152220.955,58.105,45.410,28.320,49.805,76.660,0
152220.959,30.762,45.410,8.301,35.645,24.902,0
152220.962,21.973,35.156,30.273,28.320,6.836,0
152220.966,38.086,32.227,45.410,24.414,53.223,0
152220.970,39.062,31.250,35.645,22.949,48.828,0
152220.974,23.926,29.785,28.320,29.297,33.691,0
152220.978,21.973,31.738,25.391,31.250,26.367,0
152220.982,60.547,33.691,26.855,30.273,58.105,0
152220.986,60.547,29.785,40.039,35.645,100.098,0
152220.990,24.902,32.715,41.016,34.180,68.359,0
152220.994,24.414,41.016,39.551,27.832,17.578,0
152220.997,34.668,43.457,39.062,31.738,49.805,0
152221.001,54.688,44.434,28.320,40.039,109.863,0
152221.005,57.617,37.598,35.645,45.410,93.750,0
152221.009,20.020,26.855,50.293,33.691,12.207,0
152221.013,8.789,22.461,46.875,20.020,-6.836,1
152221.017,28.809,27.344,43.945,25.879,53.223,0
152221.021,24.414,32.715,42.969,27.832,59.570,0
152221.025,9.277,35.645,36.621,23.438,-18.066,0
152221.029,10.742,34.668,29.297,26.367,-6.836,0
152221.044,34.668,33.203,21.973,32.715,70.312,0
152221.048,40.039,33.691,22.949,27.832,28.320,0
152221.052,20.508,27.832,34.668,23.438,-34.180,0
152221.056,13.184,26.367,43.457,27.832,-9.766,0
152221.060,34.180,28.320,40.039,36.133,71.289,0
152221.064,46.387,29.297,40.039,37.598,73.730,0
152221.068,32.715,27.832,48.340,33.203,-15.625,0
152221.072,20.020,24.902,44.434,32.715,-12.207,0
152221.075,36.621,35.156,35.645,39.062,50.293,0
152221.079,56.641,41.504,29.297,45.898,68.359,0
152221.083,41.504,41.016,25.879,40.039,67.383,0
152221.087,14.648,40.039,20.020,26.855,9.277,0
152221.089,23.926,33.691,34.180,33.203,-7.324,0
152221.093,47.852,34.180,53.223,41.016,61.035,0
152221.097,41.016,37.109,42.480,33.203,35.156,0
152221.101,14.648,35.645,36.621,28.809,-45.898,0
152221.105,15.137,32.715,51.758,30.762,-33.691,0
152221.109,39.551,30.273,54.688,34.180,43.945,0
152221.113,38.574,23.926,41.992,27.832,70.801,0
152221.117,20.020,30.273,37.598,24.414,16.602,0
152221.120,13.184,40.039,36.133,32.227,-0.488,0
152221.124,26.367,34.180,30.273,36.133,22.461,0
152221.128,41.504,30.273,28.809,38.086,25.879,0
152221.132,38.574,33.691,34.668,35.156,29.785,0
152221.134,16.113,33.203,38.574,29.297,-10.254,0
152221.138,24.902,33.691,32.227,33.203,-2.441,0
152221.142,45.410,32.227,28.809,31.250,50.293,0
152221.146,27.832,29.297,32.715,22.461,38.086,0
152221.150,4.883,33.691,35.156,20.508,-20.508,0
152221.154,10.254,32.715,32.715,21.973,-28.809,0
152221.158,35.156,37.598,31.250,27.344,23.926,0
152221.161,35.645,40.527,46.875,22.461,15.625,0
152221.165,14.160,38.086,60.547,18.066,-58.594,0
152221.169,10.742,31.250,56.641,19.531,-72.754,0
152221.173,34.668,27.832,43.457,19.043,16.113,0
152221.177,41.992,32.227,33.691,20.996,71.777,0
152221.179,28.320,37.109,24.902,17.578,23.926,0
152221.183,27.344,36.621,19.531,22.461,4.395,0
152221.187,24.414,24.414,11.230,25.391,24.414,0
152221.191,24.902,13.672,15.137,17.578,46.387,0
152221.195,19.043,25.879,30.273,18.066,52.246,0
152221.199,5.859,38.574,44.434,14.648,-0.977,0
152221.203,14.160,41.016,52.734,18.555,4.395,0
152221.207,34.180,40.527,37.598,31.738,62.012,0
152221.210,31.738,37.598,25.879,29.785,33.691,0
152221.214,14.648,39.551,34.180,20.996,-22.461,0
152221.218,18.555,40.039,41.016,26.367,-13.184,0
152221.222,37.598,34.668,42.480,23.438,30.762,0
152221.225,41.504,37.109,41.992,18.555,33.203,0
152221.229,28.320,41.016,37.109,20.508,-20.020,0
152221.233,25.391,41.992,30.762,27.832,-11.719,0
152221.237,50.781,41.992,23.926,43.457,21.484,0
152221.241,58.594,39.062,22.461,41.504,7.812,0
152221.244,40.527,36.621,36.133,30.273,-12.695,0
152221.248,29.297,41.992,37.598,34.180,-7.812,0
152221.252,47.363,48.340,31.250,46.387,25.879,0
152221.256,57.129,41.016,47.852,40.527,57.129,0
152221.260,31.738,28.320,52.246,27.344,63.965,0
152221.264,19.531,34.180,46.875,28.809,10.254,0
152221.268,26.367,37.109,39.062,32.227,8.789,0
152221.270,39.062,32.227,26.367,32.715,71.289,0
152221.274,35.645,25.391,24.902,25.879,95.215,0
152221.278,14.648,28.320,42.480,23.438,17.090,0
152221.282,15.137,45.898,50.293,30.762,-6.836,0
152221.286,34.180,40.527,41.016,29.785,76.172,0
152221.290,38.574,33.691,34.180,29.297,85.449,0
152221.294,17.090,36.133,36.621,29.297,16.113,0
152221.298,7.812,36.133,46.387,29.785,-27.832,0
152221.302,29.297,35.156,45.410,35.156,7.324,0
152221.306,40.527,34.180,39.551,34.668,61.523,0
152221.310,34.180,41.016,39.551,38.086,-0.977,0
152221.313,28.809,45.410,36.621,46.875,-33.203,0
152221.314,36.621,38.086,31.250,43.945,34.180,0
152221.318,50.781,35.156,33.203,37.109,78.125,0
152221.322,35.645,34.180,24.902,24.902,47.363,0
152221.326,10.742,32.227,23.438,20.508,-13.184,0
152221.330,22.949,30.273,28.320,30.762,7.324,0
152221.334,49.316,33.203,32.715,36.621,83.008,0
152221.338,45.410,32.715,41.016,31.250,68.359,0
152221.341,22.461,30.273,42.480,18.066,-10.254,0
152221.345,25.391,32.715,43.945,17.090,-17.090,0
152221.349,49.316,34.180,39.062,28.320,34.180,0
152221.353,59.082,39.062,34.668,33.691,51.758,0
152221.357,42.969,41.504,36.621,32.227,20.508,0
152221.359,29.297,37.109,35.645,30.762,-11.230,0
152221.363,42.969,36.133,34.668,35.156,58.105,0
152221.367,50.293,38.574,29.297,36.133,131.348,0
152221.371,30.762,34.668,18.066,24.414,67.871,0
152221.375,17.578,34.668,17.090,20.020,22.461,0
152221.379,32.715,36.621,32.715,31.738,55.664,0
152221.383,49.805,26.855,17.090,36.133,106.934,0
152221.387,38.086,28.809,6.348,26.367,62.500,0
152221.390,14.160,40.527,41.992,21.484,-9.766,0
152221.394,21.484,41.504,57.129,24.902,15.625,0
152221.398,45.410,39.551,42.969,29.785,43.457,0
152221.402,48.340,41.504,36.621,37.109,40.527,0
152221.419,29.785,38.574,36.133,34.668,10.742,0
152221.423,23.926,37.598,36.133,33.203,-31.250,0
152221.427,50.293,46.387,24.414,45.898,11.719,0
152221.431,60.547,49.316,22.949,46.387,68.359,0
152221.435,34.668,41.992,30.762,29.785,45.410,0
152221.439,14.160,31.738,36.133,20.508,-13.672,0
152221.443,26.367,33.691,37.598,20.508,10.254,0
152221.447,41.504,35.645,33.203,24.902,76.172,0
152221.451,27.832,34.180,24.902,23.926,66.406,0
152221.454,11.719,33.203,32.715,22.949,12.695,0
152221.458,24.902,32.715,40.039,27.832,11.230,0
152221.462,44.922,39.062,21.973,32.715,59.570,0
152221.464,40.039,34.180,20.996,31.250,32.227,0
152221.468,26.855,32.227,45.410,26.855,-28.320,0
152221.472,26.855,37.598,52.734,25.391,-6.836,0
152221.476,51.758,42.480,42.969,30.762,68.848,0
152221.480,63.965,47.852,37.598,41.016,68.359,0
152221.484,38.086,37.109,33.203,32.227,-23.926,0
152221.488,28.809,31.250,37.598,28.320,-31.738,0
152221.491,52.246,30.273,33.203,39.062,26.855,0
152221.495,54.688,31.738,23.926,35.645,26.855,0
152221.499,28.809,30.762,35.645,26.367,-47.363,0
152221.503,12.207,24.414,42.480,25.879,-56.641,0
152221.507,27.832,24.414,29.297,36.621,15.625,0
152221.510,54.199,39.062,28.809,46.387,60.547,0
152221.514,42.480,41.016,43.457,38.574,53.711,0
152221.518,9.277,29.297,42.969,24.902,17.090,0
152221.522,14.648,25.879,38.086,20.996,27.344,0
152221.526,37.109,27.832,39.062,22.949,74.219,0
152221.530,33.691,17.090,27.832,23.438,97.168,0
152221.534,14.648,11.230,18.066,25.391,36.621,0
152221.538,13.184,32.715,22.461,25.879,-15.137,0
152221.542,40.527,47.852,34.180,31.250,40.527,0
152221.546,49.805,49.805,47.363,37.598,25.879,0
152221.549,35.156,46.875,44.922,29.297,3.418,0
152221.553,31.738,41.016,32.715,21.484,27.344,0
152221.554,39.062,36.621,32.715,29.785,49.316,0
152221.558,49.805,39.551,38.086,32.227,64.453,0
152221.562,36.621,41.504,20.996,21.973,64.941,0
152221.566,27.832,37.598,6.836,25.879,43.945,0
152221.570,44.434,36.621,25.391,38.574,58.594,0
152221.574,57.129,41.016,43.945,40.039,86.426,0
152221.578,50.781,40.527,40.039,36.133,41.992,0
152221.581,25.879,34.180,34.180,33.691,3.418,0
152221.585,28.320,27.344,47.852,34.180,4.883,0
152221.589,57.129,29.785,51.758,39.062,54.199,0
152221.593,52.246,32.715,45.898,41.016,67.383,0
152221.597,35.645,37.598,44.434,47.363,1.953,0
152221.599,48.828,40.527,41.504,57.129,2.441,0
152221.603,74.219,32.715,43.945,58.594,92.773,0
152221.607,57.617,28.809,35.156,52.246,155.762,0
152221.611,29.785,32.715,25.879,48.828,66.895,1
152221.615,31.738,36.621,38.086,45.898,-20.020,0
152221.619,48.828,32.227,48.340,47.852,52.246,0
152221.623,54.688,34.668,45.410,51.270,100.098,0
152221.626,40.039,43.945,38.574,45.410,30.273,0
152221.630,28.809,44.434,41.504,41.016,-47.363,0
152221.634,42.969,43.945,47.363,48.340,-3.418,0
152221.638,69.336,41.992,34.668,57.617,63.477,0
152221.642,78.125,42.969,30.762,53.711,41.504,0
152221.644,39.062,42.969,37.598,38.086,-20.020,0
152221.648,24.902,37.598,42.969,39.551,11.719,0
152221.652,61.035,38.086,39.551,50.293,85.449,0
152221.656,64.453,32.227,30.273,53.711,88.867,0
152221.660,41.504,25.879,36.133,46.875,16.602,0
152221.664,26.367,34.180,40.039,38.574,-17.090,0
152221.668,41.016,41.504,42.969,43.945,49.805,0
152221.671,45.410,42.480,49.316,46.875,51.758,0
152221.675,17.090,36.133,43.945,30.273,5.371,0
152221.679,3.906,29.785,33.691,26.367,-0.488,0
152221.683,22.461,31.738,39.062,37.598,39.062,0
152221.687,41.504,36.621,42.480,41.016,39.062,0
152221.690,31.250,35.156,33.691,34.180,14.160,0
152221.694,16.113,36.621,33.691,27.344,-13.672,0
152221.698,30.273,39.062,37.109,34.668,8.301,0
152221.702,52.246,33.691,35.645,40.527,89.355,0
152221.706,56.152,29.785,35.645,34.180,83.496,0
152221.710,43.945,32.715,37.598,23.438,24.902,0
152221.714,23.438,37.109,39.062,24.414,32.715,0
152221.718,39.062,37.598,29.785,33.203,61.523,0
152221.722,52.734,33.203,22.949,30.762,84.961,0
152221.726,26.367,33.203,26.367,25.391,62.988,0
152221.729,24.414,40.527,30.273,33.691,23.926,0
152221.733,46.387,40.039,25.391,41.016,57.617,0
152221.735,50.781,40.527,25.879,41.992,88.379,0
152221.739,34.180,43.457,37.109,41.016,47.852,0
152221.743,16.113,36.133,37.598,32.227,4.883,0
152221.747,30.273,34.668,34.180,35.156,20.020,0
152221.751,49.316,37.109,19.043,43.945,77.148,0
152221.755,37.598,40.039,14.648,42.480,71.777,0
152221.759,19.043,40.527,28.320,35.645,-5.859,0
152221.763,28.809,33.691,40.527,36.133,-33.203,0
152221.767,43.945,29.785,47.852,38.086,32.227,0
152221.771,41.016,37.598,47.852,36.621,50.293,0
152221.774,24.414,32.715,44.434,34.668,-15.137,0
152221.778,20.020,22.949,39.062,34.180,0.000,0
152221.794,43.945,38.086,11.719,38.574,119.629,0
152221.798,50.781,47.363,-8.301,37.109,95.703,0
152221.802,26.855,39.551,17.578,32.227,1.953,0
152221.806,18.555,39.062,44.922,27.344,-3.418,0
152221.810,35.645,37.109,47.852,27.832,35.645,0
152221.814,44.922,32.227,44.434,29.785,37.598,0
152221.818,40.039,32.715,41.504,21.973,-22.949,0
152221.821,15.137,39.551,40.527,23.926,-47.852,0
152221.825,19.043,36.133,39.062,35.156,7.324,0
152221.829,43.457,29.297,32.715,27.344,76.172,0
152221.833,41.016,40.039,30.762,23.438,66.406,0
152221.837,23.926,42.969,30.273,23.926,4.883,0
152221.839,18.066,33.203,23.926,17.090,8.789,0
152221.843,42.969,31.738,13.672,23.926,79.590,0
152221.847,49.316,41.016,11.719,33.691,53.711,0
152221.851,16.602,41.992,30.762,17.578,-0.977,0
152221.855,12.695,34.180,51.758,7.812,-8.789,0
152221.859,24.414,31.738,50.293,17.090,76.172,0
152221.863,17.090,36.133,35.156,16.602,107.910,0
152221.866,3.906,36.621,25.391,11.230,29.785,0
152221.870,0.977,31.250,22.949,10.742,22.949,0
152221.874,19.531,31.250,30.273,13.672,4.883,0
152221.878,31.738,36.133,28.809,13.672,20.508,0
152221.882,21.484,35.156,27.344,13.672,51.758,0
152221.884,7.324,34.668,32.227,17.578,10.742,0
152221.888,22.461,36.621,36.621,24.414,12.695,0
152221.892,48.340,33.691,38.086,27.832,48.340,0
152221.896,43.945,31.738,35.156,26.367,69.824,0
152221.900,28.320,37.109,33.691,27.832,-2.441,0
152221.904,28.320,40.039,24.902,33.203,-24.902,0
152221.908,53.223,41.016,16.113,41.504,58.105,0
152221.912,59.082,40.039,16.113,36.133,66.895,0
152221.916,32.715,37.109,33.691,22.949,-18.555,0
152221.920,27.832,41.504,50.781,23.438,-61.523,0
152221.923,42.480,38.086,40.527,25.879,40.527,0
152221.927,39.551,27.344,24.902,21.973,95.215,0
152221.929,24.902,31.738,26.855,20.508,28.320,0
152221.933,16.602,33.691,28.320,24.902,39.062,0
152221.937,29.297,30.762,23.438,24.414,101.562,0
152221.941,48.340,38.086,34.180,30.762,125.977,0
152221.945,43.457,42.480,33.691,35.645,70.312,0
152221.949,24.414,36.621,24.902,32.227,-1.465,0
152221.953,36.621,31.738,29.785,38.086,61.035,0
152221.957,58.105,34.668,33.691,42.969,122.070,0
152221.960,50.293,41.016,39.551,33.691,51.270,0
152221.964,34.180,38.086,39.062,30.273,-19.531,0
152221.968,32.715,32.715,33.691,35.156,-7.324,0
152221.972,48.340,31.250,32.227,34.180,39.062,0
152221.980,49.316,33.691,28.320,33.203,76.172,0
152221.984,31.250,35.156,19.043,29.297,57.129,0
152221.988,27.832,35.156,19.043,30.273,0.977,0
152221.992,44.434,35.156,35.156,35.645,14.648,0
152221.995,58.105,37.598,46.387,31.738,27.344,0
152221.999,44.922,42.969,41.016,29.785,-9.277,0
152222.003,28.320,41.992,27.344,35.156,-17.578,0
152222.007,48.828,39.062,28.809,43.457,30.273,0
152222.011,66.406,39.062,40.527,48.828,62.012,0
152222.015,47.363,39.551,37.598,43.945,54.688,0
152222.019,20.508,41.504,30.762,31.738,29.785,0
152222.023,23.926,36.621,29.297,29.785,34.180,0
152222.019,45.898,31.250,31.250,31.250,66.406,0
152222.023,43.945,34.180,31.250,31.738,27.832,0
152222.027,20.508,37.109,29.785,29.785,-16.113,0
152222.031,24.902,34.180,36.621,33.203,-13.184,0
152222.035,63.965,34.668,37.109,38.574,33.691,0
152222.039,54.688,39.062,32.227,36.621,63.477,0
152222.043,19.043,36.621,36.133,28.320,33.691,0
152222.047,18.555,36.621,37.109,24.902,15.137,0
152222.051,34.668,37.109,23.438,30.273,26.367,0
152222.054,46.875,32.715,16.113,30.762,34.180,0
152222.058,33.203,32.715,25.391,29.785,20.508,0
152222.062,19.531,37.598,36.621,35.156,-11.230,0
152222.064,26.367,37.109,39.551,31.738,16.602,0
152222.068,39.551,30.762,35.156,27.344,83.984,0
152222.072,29.785,30.273,39.062,30.762,43.457,0
152222.076,7.324,31.738,44.434,28.809,-3.906,0
152222.080,14.160,32.715,39.062,29.297,-18.066,0
152222.084,37.109,34.180,31.738,37.598,45.410,0
152222.088,37.598,36.621,31.250,41.504,64.453,0
152222.091,15.625,37.109,30.762,33.203,-26.367,0
152222.095,16.602,33.203,25.391,33.203,0.488,0
152222.099,38.574,29.297,21.973,39.551,114.258,0
152222.103,44.434,28.809,24.414,33.691,107.422,0
152222.107,23.438,25.879,33.203,25.391,-17.090,0
152222.109,23.438,25.391,39.062,22.949,-41.504,0
152222.113,45.410,28.320,37.598,28.320,28.809,0
152222.117,47.363,29.297,36.621,34.668,59.082,0
152222.121,38.574,35.156,39.062,30.273,37.109,0
152222.125,23.926,41.016,40.527,24.414,19.531,0
152222.129,34.668,39.551,37.109,30.273,36.621,0
152222.133,54.688,37.109,29.297,32.715,32.715,0
152222.136,42.480,35.645,26.855,21.484,0.488,0
152222.140,19.043,36.621,24.902,17.090,-18.066,0
152222.144,24.902,37.109,27.832,27.832,-26.855,0
152222.148,51.270,29.785,31.738,38.086,10.742,0
152222.152,45.898,25.391,26.367,33.203,33.691,0
152222.154,21.973,33.203,28.320,26.367,25.391,0
152222.158,33.203,35.645,37.109,26.855,31.250,0
152222.162,49.316,33.691,33.203,33.691,88.379,0
152222.166,47.363,32.715,33.691,38.574,91.309,0
152222.170,29.785,28.809,36.133,33.691,-20.508,0
152222.174,17.090,34.668,33.203,34.180,-64.941,0
152222.177,32.227,36.133,34.668,37.109,19.531,0
152222.181,46.387,33.691,37.598,33.203,78.125,0
152222.185,35.645,39.551,41.992,32.227,44.434,0
152222.189,21.973,43.457,41.016,36.621,-6.348,0
152222.193,33.203,44.922,33.691,39.062,8.789,0
152222.197,49.316,43.945,24.414,36.621,50.781,0
152222.214,42.480,40.039,24.414,36.133,55.664,0
152222.218,25.391,33.691,24.414,31.738,1.465,0
152222.222,19.531,30.273,24.902,26.367,-15.137,0
152222.226,42.480,28.809,32.715,28.809,60.547,0
152222.230,51.270,29.297,38.574,25.391,88.379,0
152222.234,19.043,32.227,42.969,23.926,42.969,0
152222.238,4.395,31.738,37.598,20.996,-16.113,0
152222.242,30.762,35.156,23.926,18.555,31.738,0
152222.246,46.875,43.457,24.902,24.414,99.609,0
152222.249,24.902,38.574,33.691,23.438,17.090,0
152222.253,4.883,32.715,40.527,15.625,-50.781,0
152222.257,25.391,34.180,48.340,22.461,30.273,0
152222.259,45.898,33.203,43.945,30.273,63.477,0
152222.263,28.809,31.738,34.668,21.973,29.297,0
152222.267,7.812,33.691,32.715,21.484,-1.465,0
152222.271,18.555,34.668,29.785,28.809,27.832,0
152222.275,37.598,34.180,26.367,30.762,100.586,0
152222.279,29.297,40.039,31.738,31.738,87.891,1
152222.283,5.859,41.992,33.691,30.273,28.320,0
152222.287,28.320,36.621,31.250,34.180,-1.953,0
152222.290,52.734,34.668,27.832,38.574,38.574,0
152222.294,32.227,29.785,31.250,28.320,53.223,0
152222.298,18.555,17.578,40.039,21.973,23.926,0
152222.302,20.996,21.973,44.922,28.320,11.719,0
152222.304,37.598,41.504,45.410,35.645,14.648,0
152222.308,45.898,41.016,41.992,35.156,53.223,0
152222.312,31.738,33.691,39.062,27.344,22.461,0
152222.316,22.461,33.691,36.621,26.367,-37.598,0
152222.320,37.598,37.109,33.691,34.668,1.465,0
152222.324,52.734,37.598,20.020,37.109,81.055,0
152222.328,44.434,34.668,12.207,38.086,57.129,0
152222.331,27.344,32.715,21.973,36.133,-4.395,0
152222.335,41.504,33.691,33.203,30.273,-32.227,0
152222.339,49.805,35.645,43.457,31.738,4.883,0
152222.343,35.645,37.109,49.805,31.738,77.637,0
152222.347,20.508,37.109,38.086,31.250,26.367,0
152222.349,21.484,34.668,25.391,35.645,-28.320,0
152222.353,39.551,31.738,28.809,43.945,49.316,0
152222.357,42.969,33.203,35.156,42.969,90.332,0
152222.361,31.250,34.180,40.039,36.621,42.480,0
152222.365,21.973,29.297,34.668,35.645,-2.441,0
152222.369,35.156,33.203,31.738,37.598,30.273,0
152222.373,48.828,35.156,41.992,44.922,69.824,0
152222.376,30.762,27.832,41.504,40.527,12.695,0
152222.380,7.812,30.762,35.156,23.438,-55.176,0
152222.384,17.578,26.855,29.297,23.438,6.836,0
152222.388,42.969,22.949,27.832,34.668,79.102,0
152222.392,36.621,30.762,31.738,36.621,82.520,0
152222.394,27.832,34.180,21.973,36.133,44.434,0
152222.398,37.109,35.156,23.438,44.922,47.852,0
152222.402,40.039,34.668,40.039,46.875,78.613,0
152222.406,37.598,29.785,44.434,34.668,65.918,0
152222.410,20.020,27.832,48.340,30.273,22.949,0
152222.414,17.578,29.785,47.363,34.180,4.883,0
152222.418,40.039,27.832,42.480,37.109,92.773,0
152222.421,50.293,33.203,47.852,35.156,86.914,0
152222.425,30.762,40.039,44.434,32.227,24.414,0
152222.429,14.648,34.668,38.574,28.320,10.742,0
152222.433,33.203,32.715,41.992,31.738,59.082,0
152222.437,55.176,37.109,41.992,43.945,119.629,0
152222.440,37.109,30.762,29.785,36.133,93.750,0
152222.444,15.137,29.297,15.137,26.367,46.875,0
152222.448,33.691,38.574,16.113,38.574,37.598,0
152222.452,52.734,38.574,27.832,43.457,105.469,0
152222.456,39.062,29.297,37.598,35.156,130.371,0
152222.460,20.020,29.297,48.828,36.621,34.180,0
152222.463,25.879,36.621,47.852,42.480,8.789,0
152222.467,49.316,35.645,47.363,40.039,60.547,0
152222.471,50.293,36.133,45.898,35.645,99.121,0
152222.475,28.320,33.691,41.992,34.668,56.152,0
152222.479,24.414,32.715,38.574,33.203,1.953,0
152222.483,40.527,30.273,20.996,40.527,54.199,0
152222.486,45.410,25.879,11.719,42.969,116.699,0
152222.490,44.434,35.645,24.902,35.645,111.328,0
152222.494,24.414,40.039,43.457,30.273,42.969,0
152222.498,21.484,35.645,50.781,33.691,25.879,0
152222.502,45.898,35.645,39.062,36.133,60.547,0
152222.505,39.062,38.086,34.668,30.762,68.848,0
152222.509,24.902,39.551,35.645,27.344,15.137,0
152222.513,33.691,40.039,32.227,31.738,-24.414,0
152222.517,47.363,37.109,31.250,37.598,37.109,0
152222.521,42.969,35.156,32.715,29.297,59.570,0
152222.525,20.508,33.691,32.715,24.414,42.969,0
152222.529,20.020,32.227,34.668,28.809,51.270,0
152222.529,45.898,38.086,44.922,33.691,81.055,0
152222.533,42.969,35.645,49.805,28.809,92.285,0
152222.537,18.555,31.250,42.969,25.391,13.672,0
152222.541,9.766,33.691,39.551,28.809,31.250,0
152222.545,34.668,42.480,42.969,38.086,139.160,0
152222.549,52.734,41.504,35.156,40.527,119.629,0
152222.553,33.691,24.414,22.461,27.832,43.457,0
152222.557,16.113,27.832,17.578,25.391,18.555,0
152222.560,28.809,36.621,27.832,30.273,53.223,0
152222.564,42.969,30.762,37.109,27.344,103.516,0
152222.568,35.156,25.879,32.227,23.926,89.355,0
152222.572,23.438,26.367,31.250,22.949,23.926,0
152222.589,12.695,31.738,29.297,23.438,24.414,0
152222.593,27.832,40.039,28.809,28.320,41.992,0
152222.597,39.551,39.551,37.598,30.762,16.113,0
152222.601,24.414,37.598,38.574,31.738,-14.160,0
152222.605,25.391,35.645,18.555,36.133,-0.977,0
152222.609,48.340,31.250,13.672,41.016,64.453,0
152222.613,56.152,38.086,34.668,43.457,82.520,0
152222.617,39.062,38.086,46.387,35.645,14.160,0
152222.621,29.297,33.691,47.363,26.367,-36.621,0
152222.624,45.898,37.109,45.410,28.809,29.785,0
152222.628,58.594,39.551,41.016,30.273,87.402,0
152222.632,48.340,43.945,29.297,27.832,71.289,0
152222.634,32.227,40.039,13.672,29.297,-5.859,0
152222.638,40.039,30.273,18.066,35.645,8.301,0
152222.642,53.223,29.297,37.109,42.480,100.098,0
152222.646,41.016,33.691,40.039,46.387,91.797,0
152222.650,17.090,35.156,35.645,41.992,20.508,0
152222.654,18.066,30.762,35.156,39.062,8.789,0
152222.658,37.598,30.273,35.156,41.504,80.078,0
152222.661,35.645,36.133,36.621,37.109,103.516,0
152222.665,15.625,36.133,39.551,37.109,0.000,0
152222.669,16.602,33.691,41.504,37.109,-61.523,0
152222.673,39.062,34.668,41.504,37.109,35.156,0
152222.677,46.387,35.156,26.367,34.668,46.875,0
152222.679,29.297,35.645,13.184,30.762,-13.184,0
152222.683,15.137,32.227,30.762,30.273,-6.348,0
152222.687,35.645,28.320,41.504,35.156,0.000,0
152222.691,50.781,31.738,41.504,36.621,48.340,0
152222.695,34.668,36.621,50.781,27.344,70.312,0
152222.699,16.113,39.062,41.504,25.391,-18.555,0
152222.703,28.320,36.133,18.555,30.762,-39.551,0
152222.706,49.805,35.645,29.297,32.227,35.645,0
152222.710,46.387,36.621,50.293,23.438,14.648,0
152222.714,41.992,36.133,56.152,19.043,-41.504,0
152222.718,34.668,34.668,43.945,29.297,-5.859,0
152222.722,35.156,32.715,34.668,33.691,62.500,0
152222.725,46.387,34.180,37.598,32.715,80.078,0
152222.729,33.203,36.621,33.203,33.203,11.719,0
152222.733,24.414,33.203,30.273,32.715,-9.766,0
152222.737,42.480,33.203,31.250,38.574,41.016,0
152222.741,52.734,36.621,30.762,43.457,73.730,0
152222.745,40.527,38.574,25.879,41.504,36.133,0
152222.749,29.785,38.086,25.879,39.551,-34.180,0
152222.753,41.504,40.039,33.691,41.016,5.859,0
152222.757,55.176,42.969,35.645,43.945,60.059,0
152222.761,41.016,37.109,36.133,34.668,20.996,0
152222.764,23.926,39.062,39.062,28.320,-33.691,0
152222.768,32.715,36.133,37.109,36.621,-0.977,0
152222.769,51.270,35.156,32.715,44.434,56.152,0
152222.773,49.316,36.621,24.414,41.504,28.809,0
152222.777,30.273,34.668,22.461,31.738,-14.648,0
152222.781,23.926,31.250,23.438,29.785,-15.625,0
152222.785,37.598,31.738,29.297,37.109,31.250,0
152222.789,41.992,32.715,32.715,38.086,76.172,0
152222.793,28.809,27.344,35.156,35.156,15.625,0
152222.796,25.391,30.273,41.016,39.551,-35.645,0
152222.800,41.992,34.180,33.203,46.387,36.133,1
152222.804,54.199,35.645,26.367,48.340,80.566,0
152222.808,40.039,37.109,35.156,38.086,23.438,0
152222.812,38.086,37.109,42.969,29.785,12.207,0
152222.814,44.434,36.133,41.504,34.668,62.988,0
152222.818,45.410,35.156,39.551,42.969,85.449,0
152222.822,43.457,36.133,33.691,41.016,62.500,0
152222.826,27.344,34.668,27.832,35.156,31.738,0
152222.830,34.180,35.645,28.320,40.527,55.176,0
152222.834,53.711,37.109,35.645,46.387,88.379,0
152222.838,55.664,33.691,44.922,40.527,73.730,0
152222.841,31.738,30.273,39.551,28.809,-7.324,0
152222.845,20.996,28.809,39.062,31.738,-43.945,0
152222.849,42.969,27.832,41.992,41.992,18.555,0
152222.853,43.945,30.762,34.668,34.180,25.879,0
152222.857,19.043,33.203,27.832,25.879,-10.742,0
152222.859,15.137,38.574,29.297,30.762,-5.859,0
152222.863,33.691,37.109,30.762,35.645,48.340,0
152222.867,42.480,35.645,29.785,32.227,76.172,0
152222.871,31.738,37.598,26.855,26.855,70.801,0
152222.875,19.531,36.621,22.461,27.344,44.434,0
152222.879,26.367,34.180,26.855,30.273,39.062,0
152222.883,45.898,32.715,36.621,32.715,84.961,0
152222.886,39.551,34.668,40.527,27.344,91.309,0
152222.890,20.020,35.645,37.598,21.484,77.637,0
152222.894,39.551,34.180,26.855,23.438,72.266,0
152222.898,51.270,29.785,15.137,26.855,92.285,0
152222.902,35.156,30.273,15.625,24.902,108.398,0
152222.904,18.066,34.180,24.414,21.484,62.500,0
152222.908,15.137,37.109,37.109,20.020,1.953,0
152222.912,38.086,39.062,35.156,24.902,29.297,0
152222.916,49.805,41.504,33.203,30.762,83.008,0
152222.920,29.785,36.621,37.598,22.949,14.160,0
152222.924,15.137,35.156,32.715,18.555,-10.254,0
152222.928,31.738,37.598,30.762,20.020,47.363,0
152222.932,50.781,36.133,23.926,20.996,73.242,0
152222.935,39.551,39.062,11.719,26.855,71.777,0
152222.939,20.508,41.504,15.137,25.391,31.250,0
152222.943,30.273,38.086,40.039,25.879,41.016,0
152222.947,44.434,34.180,53.711,29.785,79.590,0
152222.964,35.645,27.344,48.340,28.809,58.105,0
152222.968,18.555,29.297,38.086,24.902,8.789,0
152222.972,14.160,41.016,27.344,19.043,48.828,0
152222.976,32.227,44.434,30.273,25.391,123.535,0
152222.980,35.645,41.992,33.203,29.785,86.914,0
152222.984,33.691,38.574,32.227,24.902,-16.602,0
152222.988,26.367,37.109,27.344,26.367,-11.230,0
152222.992,18.555,35.645,23.926,31.738,77.148,0
152222.995,34.668,33.203,29.785,30.762,111.328,0
152222.999,28.809,33.203,26.855,26.855,53.223,0
152223.003,12.695,37.109,21.973,21.484,25.879,0
152223.007,28.320,35.645,40.039,28.320,63.477,0
152223.009,41.992,32.227,48.340,28.320,75.684,0
152223.013,29.785,32.227,38.086,20.996,47.852,0
152223.017,10.742,33.203,35.156,22.461,-0.488,0
152223.021,15.137,31.738,31.738,27.832,-3.418,0
152223.025,55.664,30.273,21.973,35.156,37.109,0
152223.029,43.457,31.738,29.785,29.785,67.871,0
152223.033,3.906,30.273,36.621,25.391,24.414,0
152223.036,18.555,30.762,34.668,35.645,8.301,0
152223.040,40.527,32.715,38.086,36.133,45.898,0
152223.044,36.621,35.645,38.086,25.391,40.039,0
152223.048,17.578,33.203,41.992,26.855,16.602,0
152223.052,13.184,27.344,44.434,29.297,-10.742,0
152223.054,23.926,33.203,37.109,24.902,47.363,0
152223.058,26.855,37.598,29.785,20.508,102.051,0
152223.062,15.625,36.133,26.855,19.531,73.242,0
152223.066,6.348,33.203,26.855,21.973,59.570,0
152223.070,21.484,37.598,27.832,33.203,56.152,0
152223.074,41.016,41.016,32.715,36.133,42.480,0
152223.078,29.785,34.180,34.180,26.855,12.207,0
152223.081,10.254,34.668,31.250,26.367,-10.742,0
152223.085,25.391,40.039,37.109,31.250,-15.137,0
152223.089,49.805,34.180,38.086,30.762,19.043,0
152223.093,46.387,26.855,39.551,31.738,47.852,0
152223.097,25.391,29.297,42.969,29.785,1.465,0
152223.114,22.461,37.109,37.598,31.250,-14.648,0
152223.118,41.992,39.551,38.086,38.574,51.758,0
152223.122,44.434,38.086,36.621,36.621,60.547,0
152223.126,23.926,36.621,32.227,30.762,-5.859,0
152223.130,11.230,34.180,33.691,25.879,-32.715,0
152223.134,29.785,31.738,33.203,30.762,22.461,0
152223.138,51.270,30.273,33.203,36.133,101.562,0
152223.142,44.434,32.227,21.973,31.250,90.820,0
152223.145,10.742,30.273,20.996,27.832,42.480,0
152223.149,12.695,31.250,35.156,30.762,84.473,0
152223.153,35.645,36.133,34.180,30.762,110.840,0
152223.157,28.320,36.621,26.367,26.855,70.312,0
152223.144,10.254,29.785,24.414,24.414,13.184,0
152223.148,13.184,31.250,25.391,29.297,38.086,0
152223.152,34.668,32.227,23.926,37.109,74.219,0
152223.156,39.062,32.715,20.020,36.621,63.477,0
152223.160,19.043,35.645,27.832,31.250,20.508,0
152223.164,16.602,34.668,43.457,30.273,-9.277,0
152223.168,43.457,33.691,27.832,39.062,47.852,0
152223.172,51.270,29.297,7.324,43.945,37.598,0
152223.175,27.832,27.344,42.969,34.668,-7.812,0
152223.179,11.230,26.855,60.547,28.809,-11.719,0
152223.183,25.391,27.344,43.945,33.691,31.250,0
152223.187,44.434,31.738,33.691,35.645,45.410,0
152223.190,32.715,32.227,17.090,30.762,-6.348,0
152223.194,15.137,31.250,27.832,24.902,11.230,0
152223.198,34.180,34.180,52.734,31.250,64.941,0
152223.202,58.105,38.574,48.828,37.598,106.934,0
152223.206,50.781,35.156,32.227,31.738,97.656,0
152223.210,32.227,27.832,30.273,27.344,33.203,0
152223.214,29.785,25.391,25.879,32.715,6.348,0
152223.218,48.340,31.250,23.926,36.621,61.523,0
152223.222,51.270,37.598,32.227,34.180,90.332,0
152223.226,31.250,33.203,33.203,32.227,13.672,0
152223.230,21.973,26.855,28.320,27.832,-1.953,0
152223.233,44.922,34.180,32.227,36.133,80.566,0
152223.234,57.617,39.551,36.133,45.898,111.816,0
152223.238,33.203,34.180,37.109,36.133,56.152,0
152223.242,19.043,30.762,34.180,32.715,-19.531,0
152223.246,56.152,36.621,21.973,46.875,16.602,0
152223.250,68.359,36.621,22.461,49.316,83.008,0
152223.254,36.621,24.902,30.273,37.598,33.691,0
152223.258,20.020,23.438,36.621,27.344,-24.902,0
152223.261,24.414,28.809,39.062,27.832,-3.906,0
152223.265,49.316,28.320,32.227,36.133,64.453,0
152223.269,51.758,34.180,30.273,34.668,73.242,0
152223.273,28.809,37.598,29.297,26.855,9.766,0
152223.277,23.438,35.645,21.973,28.809,39.062,0
152223.279,45.898,37.598,15.625,30.762,95.215,0
152223.283,59.082,39.062,9.277,33.203,69.336,0
152223.287,41.504,38.574,21.484,32.715,2.441,0
152223.291,26.855,37.109,40.527,28.809,-24.414,0
152223.295,42.969,40.039,39.551,29.785,36.133,0
152223.299,59.082,42.480,29.297,28.809,71.777,0
152223.303,45.898,41.504,23.438,23.438,-36.621,0
152223.306,32.715,45.410,29.785,21.484,-64.453,0
152223.310,46.387,45.410,39.551,32.227,19.531,0
152223.314,65.918,37.109,43.457,40.527,51.758,0
152223.318,62.988,39.062,40.039,36.621,26.855,0
152223.322,22.461,34.180,29.785,28.320,-7.324,0
152223.339,14.648,26.855,23.926,31.738,17.090,0
152223.343,45.410,31.738,24.902,35.645,75.684,0
152223.347,45.410,36.621,31.738,31.738,74.707,0
152223.351,25.879,37.598,35.645,30.762,9.766,0
152223.355,24.902,35.645,29.785,38.574,0.977,0
152223.359,58.105,31.250,26.855,43.457,43.457,0
152223.363,66.406,31.250,33.691,40.527,74.219,0
152223.366,26.367,37.109,36.133,35.645,28.809,0
152223.370,17.090,38.574,34.180,38.086,-14.160,0
152223.374,41.992,35.156,27.344,39.062,14.160,0
152223.378,57.617,35.645,21.484,38.086,40.527,0
152223.382,42.969,37.109,20.508,36.621,24.902,0
152223.384,23.438,32.715,29.297,31.738,-0.488,0
152223.388,34.668,32.227,39.551,36.621,-4.395,0
152223.392,51.758,34.668,35.645,38.574,45.410,0
152223.396,41.016,32.227,35.645,33.691,57.129,0
152223.400,20.508,32.715,35.645,34.180,-21.484,0
152223.404,24.414,36.621,35.156,34.180,-38.086,0
152223.408,44.922,36.133,43.457,31.738,11.230,0
152223.411,41.504,31.738,37.109,29.297,12.207,0
152223.415,17.578,29.785,21.973,22.461,-25.879,1
152223.419,25.879,33.203,19.043,24.414,-22.949,0
152223.423,37.598,33.691,26.855,30.762,35.156,0
152223.427,21.973,30.762,33.691,22.949,56.152,0
152223.429,8.301,33.691,24.414,18.066,16.113,0
152223.433,5.371,40.039,33.203,24.414,-17.090,0
152223.437,19.043,33.203,50.781,23.438,18.066,0
152223.441,33.691,24.902,48.340,24.902,61.523,0
152223.445,29.297,27.832,43.945,28.809,20.020,0
152223.449,15.625,32.227,37.598,22.949,-18.555,0
152223.453,44.922,29.785,30.273,28.320,3.418,0
152223.456,62.012,25.391,25.879,40.039,60.547,0
152223.460,39.551,31.250,34.668,36.133,51.270,0
152223.464,19.531,35.645,43.945,31.738,41.992,0
152223.468,14.648,34.668,40.527,35.645,31.738,0
152223.472,58.594,31.250,37.109,39.551,48.340,0
152223.474,55.176,24.414,27.832,32.715,53.223,0
152223.478,7.812,30.273,32.715,26.855,-5.371,0
152223.482,6.836,38.086,33.691,32.227,-15.137,0
152223.486,33.203,29.785,21.484,35.645,33.203,0
152223.490,45.410,25.879,29.785,35.645,41.504,0
152223.494,21.973,30.273,34.668,26.367,0.000,0
152223.498,2.441,32.715,36.133,16.602,-19.531,0
152223.502,20.020,33.691,39.551,21.973,31.738,0
152223.505,42.969,30.762,38.086,29.785,79.590,0
152223.509,33.203,30.273,37.109,25.879,60.547,0
152223.513,14.160,29.785,36.621,21.484,11.230,0
152223.517,17.578,27.832,37.598,23.926,-0.488,0
152223.519,56.152,28.809,33.691,29.785,62.988,0
152223.523,51.758,31.738,25.391,33.203,86.426,0
152223.527,7.324,33.691,29.297,32.715,-1.465,0
152223.531,15.625,33.691,37.598,35.645,-0.977,0
152223.535,40.527,31.250,38.086,38.086,83.984,0
152223.539,45.898,30.762,39.062,33.203,95.703,0
152223.543,26.855,35.645,44.434,24.902,21.973,0
152223.547,14.160,42.480,39.551,24.902,-30.762,0
152223.550,33.691,38.574,34.180,33.203,-6.348,0
152223.554,51.758,33.203,35.645,31.250,52.734,0
152223.558,36.133,33.203,42.969,26.855,54.688,0
152223.562,22.949,37.598,37.109,31.250,4.395,0
152223.564,45.898,38.574,22.949,35.645,19.531,0
152223.568,59.082,38.086,29.297,37.109,56.152,0
152223.572,38.574,38.086,31.250,32.715,42.969,0
152223.576,27.832,40.039,34.668,32.227,65.430,0
152223.580,42.969,43.457,41.992,30.762,55.664,0
152223.584,44.922,39.062,34.180,31.250,60.547,0
152223.588,35.645,33.691,34.668,32.227,85.449,0
152223.592,22.461,28.320,43.457,26.855,4.883,0
152223.595,21.973,29.297,41.992,30.273,-24.414,0
152223.599,46.875,33.203,40.039,41.992,94.727,0
152223.603,55.664,32.715,40.527,34.668,134.766,0
152223.607,34.180,32.227,39.062,28.320,43.457,0
152223.609,15.137,31.250,38.574,29.297,0.977,0
152223.613,34.668,37.109,43.945,32.227,22.461,0
152223.617,45.410,31.250,40.039,31.738,44.434,0
152223.621,36.133,22.949,39.551,23.926,28.809,0
152223.625,25.391,32.715,41.504,20.996,-22.461,0
152223.629,16.602,36.621,38.086,27.344,-9.766,0
152223.633,27.344,34.180,31.250,30.273,19.531,0
152223.636,30.273,33.203,17.090,27.832,-12.695,0
152223.640,15.137,32.715,17.578,29.297,-23.438,0
152223.644,23.438,33.203,33.203,35.645,-28.320,0
152223.648,51.758,38.086,40.039,47.363,21.484,0
152223.652,47.363,32.227,34.668,42.480,66.406,0
152223.655,21.973,25.879,31.738,27.832,48.340,0
152223.659,17.578,30.273,27.832,30.273,24.902,0
152223.663,41.016,34.180,29.785,36.133,41.992,0
152223.667,43.945,35.156,32.715,32.715,79.590,0
152223.671,41.016,37.598,35.156,32.227,32.227,0
152223.675,31.250,38.086,40.039,34.668,-32.715,0
152223.679,27.832,34.668,34.668,44.922,-1.953,0
152223.683,46.875,30.273,27.344,48.340,70.312,0
152223.687,39.551,34.180,35.156,43.457,55.664,0
152223.691,20.020,34.668,36.621,39.551,-22.461,0
152223.695,21.973,28.320,33.203,39.551,10.254,0
152223.698,36.133,26.855,34.668,40.527,77.637,0
152223.715,31.738,25.879,35.156,38.086,54.199,0
152223.719,13.672,25.879,36.133,35.156,-16.113,0
152223.723,16.113,27.344,28.320,40.527,-34.180,0
152223.727,41.016,33.203,14.160,46.875,33.691,0
152223.731,50.293,38.086,22.461,46.387,34.180,0
152223.735,31.250,36.621,45.410,40.039,-42.969,0
152223.739,15.625,32.715,51.758,30.273,-70.801,0
152223.743,38.574,34.180,43.457,35.156,2.441,0
152223.747,63.965,32.715,39.062,40.527,57.129,0
152223.751,33.203,31.250,36.133,31.738,13.672,0
152223.755,10.742,34.668,28.320,30.273,-23.438,0
152223.758,41.504,36.621,27.344,41.016,-9.277,0
152223.759,59.082,35.645,28.809,40.039,13.672,0
152223.763,48.340,33.691,33.203,37.109,37.109,0
152223.767,33.691,33.691,35.156,34.668,12.695,0
152223.771,38.086,34.668,28.809,30.762,18.066,0
152223.775,60.547,37.109,27.344,40.527,79.102,0
152223.779,61.523,42.480,31.738,43.457,64.941,0
152223.783,37.109,41.016,28.320,40.039,18.066,0
152223.787,41.016,37.109,24.414,42.969,4.883,0
152223.790,64.453,37.109,35.645,50.293,58.594,0
152223.794,66.895,36.621,41.504,47.363,40.527,0
152223.798,48.340,35.645,32.227,39.551,-39.551,0
152223.802,20.508,34.180,32.227,41.992,-24.902,0
152223.804,37.598,32.227,41.504,47.852,34.180,0
152223.808,57.129,29.785,33.691,46.387,64.941,0
152223.812,37.109,28.809,24.414,41.504,76.172,0
152223.816,21.484,31.250,29.297,35.645,22.461,0
152223.820,28.320,33.691,35.156,29.785,19.043,0
152223.824,44.434,33.203,36.133,29.297,73.242,0
152223.828,36.133,29.785,34.180,23.926,35.156,0
152223.831,25.879,31.250,25.879,19.043,5.371,0
152223.835,37.109,31.250,18.066,26.855,-18.555,0
152223.839,66.895,32.715,19.043,35.645,9.277,0
152223.843,68.848,32.715,27.832,35.645,66.406,0
152223.847,25.391,33.203,40.039,27.344,30.762,0
152223.849,21.484,37.598,42.969,26.855,1.953,0
152223.853,49.805,39.062,36.621,32.715,82.031,0
152223.857,53.711,40.039,31.250,29.297,110.840,0
152223.861,31.250,39.551,26.367,28.809,20.508,0
152223.865,37.109,34.180,23.438,28.320,-17.090,0
152223.869,52.246,30.762,25.391,33.691,35.645,0
152223.873,42.480,35.645,29.785,37.109,86.426,0
152223.876,40.527,40.527,38.086,30.762,44.922,0
152223.880,27.832,40.039,38.574,23.926,-26.855,0
152223.884,34.180,37.109,24.902,26.367,1.953,0
152223.888,53.223,35.645,4.395,31.738,57.129,0
152223.892,35.156,30.273,11.230,27.344,45.898,0
152223.894,5.859,26.367,34.180,20.508,-0.488,0
152223.898,14.648,27.344,42.480,23.438,11.230,0
152223.902,39.551,30.762,42.969,31.250,65.918,0
152223.906,39.062,31.738,42.969,28.809,74.707,0
152223.910,22.461,26.855,35.645,23.926,40.039,0
152223.914,21.484,26.855,26.367,26.367,3.906,0
152223.918,56.152,30.762,27.344,33.203,49.316,0
152223.921,66.895,36.133,37.598,37.109,18.555,0
152223.925,35.156,37.109,39.062,30.762,-60.059,0
152223.929,23.926,37.598,30.273,35.156,-21.973,0
152223.933,45.410,37.598,30.273,45.898,23.438,0
152223.937,59.082,33.203,41.016,41.992,55.664,0
152223.940,41.992,35.645,44.434,33.691,28.320,0
152223.944,26.855,41.016,41.504,34.180,-7.812,0
152223.948,33.691,36.621,32.227,37.598,11.719,2
152223.952,49.805,34.668,27.344,39.062,84.961,0
152223.956,41.992,32.715,36.621,36.133,103.027,0
152223.960,30.762,31.250,41.992,29.785,27.344,0
152223.964,25.879,33.691,41.992,32.227,6.348,0
152223.968,36.621,32.227,38.086,36.133,44.922,0
152223.972,46.875,31.738,27.832,33.691,80.078,0
152223.976,20.508,30.762,27.344,28.809,49.805,0
152223.980,8.301,28.320,35.156,27.344,8.789,0
152223.983,28.320,31.250,41.992,35.156,51.758,0
152223.985,36.621,28.320,43.457,36.133,104.980,0
152223.989,19.043,24.902,34.668,26.855,66.895,0
152223.993,3.906,26.367,32.715,24.414,8.789,0
152223.997,20.508,32.227,34.180,30.762,9.766,0
152224.001,53.223,32.227,27.832,33.203,17.578,0
152224.005,34.180,25.391,27.832,33.203,26.855,0
152224.008,6.348,29.297,36.133,31.250,-16.602,0
152224.012,22.461,37.598,34.668,21.484,-18.066,0
152224.016,38.574,34.668,28.320,21.484,62.500,0
152224.020,31.250,32.227,29.785,20.020,62.988,0
152224.024,9.766,33.691,28.809,18.066,-14.160,0
152224.028,14.648,30.762,30.762,22.461,-8.301,0
152224.044,38.086,31.250,37.109,30.273,62.988,0
152224.048,41.992,33.691,36.133,33.203,79.590,0
152224.052,23.438,35.645,31.738,23.926,19.043,0
152224.056,24.414,37.109,31.738,27.832,1.465,0
152224.060,46.387,33.203,34.180,34.668,70.312,0
152224.064,54.199,29.785,31.250,27.344,56.641,0
152224.068,48.340,26.855,31.250,20.020,-0.488,0
152224.072,30.762,29.297,25.391,21.973,9.277,0
152224.076,29.297,35.156,27.344,34.668,64.941,0
152224.079,52.246,29.785,37.109,37.109,73.242,0
152224.083,41.504,23.438,39.551,31.250,10.254,0
152224.087,19.043,26.855,33.691,28.809,-36.621,0
152224.089,21.973,32.715,32.227,32.715,5.859,0
152224.093,41.016,28.809,31.250,37.109,71.777,0
152224.097,39.551,28.809,22.461,36.133,76.172,0
152224.101,31.250,30.762,26.367,30.762,12.695,0
152224.105,35.156,26.855,34.180,36.621,-2.930,0
152224.109,41.992,20.996,37.109,54.688,48.828,0
152224.113,44.922,25.879,41.504,45.898,58.105,0
152224.117,27.344,35.156,41.504,22.461,6.348,0
152224.121,30.273,38.086,33.203,27.832,-20.996,0
152224.124,55.176,41.992,26.367,39.551,3.906,0
152224.128,62.012,42.969,25.391,37.109,28.809,0
152224.132,42.969,35.645,21.973,33.203,31.250,0
152224.134,27.344,31.250,25.879,31.738,5.371,0
152224.138,35.645,35.645,32.227,36.133,24.414,0
152224.142,54.688,41.016,18.555,38.086,87.891,0
152224.146,51.270,42.969,9.277,33.691,69.824,0
152224.150,34.180,41.504,20.508,27.832,22.461,0
152224.154,41.992,40.527,36.133,30.273,51.270,0
152224.158,45.410,38.086,40.527,34.180,92.773,0
152224.161,39.062,33.203,36.133,33.203,73.242,0
152224.165,32.715,33.203,25.879,32.715,17.090,0
152224.169,29.785,33.691,24.414,32.715,-15.625,0
152224.173,51.758,37.598,35.156,45.410,49.805,0
152224.177,62.012,37.109,39.551,53.223,99.609,0
152224.180,42.480,30.762,36.133,41.992,19.531,0
152224.184,37.109,31.250,33.691,40.039,-51.270,0
152224.188,54.199,32.227,28.320,46.875,35.645,0
152224.192,63.965,33.691,26.855,47.852,112.305,0
152224.195,64.453,35.156,31.738,46.875,38.574,0
152224.199,44.434,31.738,29.785,43.945,-49.805,0
152224.203,32.227,31.738,33.691,47.363,-28.320,0
152224.207,54.199,36.621,36.621,51.758,69.824,0
152224.211,49.805,33.691,32.227,43.945,69.336,0
152224.215,31.738,24.414,28.809,36.621,14.648,0
152224.219,34.668,28.320,24.414,42.480,39.062,0
152224.223,53.223,35.156,24.902,50.781,87.402,0
152224.224,56.641,31.738,22.949,47.363,84.473,0
152224.228,38.574,30.762,24.902,37.598,-2.930,0
152224.232,28.320,31.250,19.043,41.016,-37.598,0
152224.236,40.527,29.297,22.949,42.480,24.902,0
152224.240,63.965,23.926,45.410,40.527,58.105,0
152224.244,51.270,24.414,45.410,32.715,24.414,0
152224.248,7.812,33.691,37.109,22.461,-16.113,0
152224.252,18.555,38.574,36.133,25.391,-2.441,0
152224.255,47.852,36.621,33.691,29.785,20.020,0
152224.259,36.133,34.180,27.344,26.367,48.340,0
152224.263,17.090,37.598,24.414,25.391,12.695,0
152224.267,27.344,34.180,24.902,33.691,-17.090,0
152224.269,49.316,31.250,34.668,37.109,64.941,0
152224.273,58.105,32.715,42.969,36.133,94.727,0
152224.277,23.438,28.809,42.969,31.250,28.320,0
152224.281,4.883,30.762,38.086,23.926,-5.371,0
152224.285,30.273,31.250,36.621,28.809,70.312,0
152224.289,34.180,22.949,39.551,30.273,84.473,0
152224.293,17.090,22.949,35.645,28.809,12.695,0
152224.296,16.602,25.879,29.297,31.250,-15.625,0
152224.300,40.527,22.949,24.902,39.551,9.766,0
152224.304,49.805,23.926,27.344,44.434,44.434,0
152224.308,34.668,31.250,34.180,39.062,-1.465,0
152224.312,15.625,34.180,37.109,37.109,-41.016,0
152224.329,26.367,31.250,40.527,36.621,24.414,0
152224.333,47.852,32.715,42.480,37.598,85.938,0
152224.337,32.715,29.785,37.598,33.691,39.062,0
152224.341,8.301,28.320,30.762,25.879,-37.109,0
152224.345,22.461,29.785,30.762,30.762,0.000,0
152224.349,44.434,29.785,31.738,36.133,48.828,0
152224.353,38.086,30.762,27.344,28.809,20.996,0
152224.357,33.203,31.250,33.691,28.809,-46.387,0
152224.360,20.508,31.738,37.109,32.227,-53.223,0
152224.364,22.461,37.598,30.762,35.156,62.988,0
152224.368,36.133,35.156,33.203,29.785,83.008,0
152224.372,16.602,29.297,41.016,18.066,30.762,0
152224.359,5.371,31.738,44.922,18.555,13.184,0
152224.363,23.926,34.668,43.945,23.438,7.324,0
152224.367,37.109,34.668,37.598,22.949,51.758,0
152224.371,21.973,31.738,34.668,19.531,83.496,0
152224.375,6.348,29.785,33.203,16.602,16.113,0
152224.379,19.043,33.203,35.156,26.855,-1.953,0
152224.383,35.156,34.668,34.180,31.738,61.035,0
152224.386,26.855,31.738,28.320,21.973,49.805,0
152224.390,8.789,31.738,27.832,20.508,0.000,0
152224.394,23.926,33.203,36.133,25.879,-1.465,0
152224.398,46.387,35.645,38.086,28.809,44.434,0
152224.402,28.320,37.109,31.250,25.391,61.035,0
152224.405,7.812,33.691,30.273,25.391,6.836,0
152224.409,10.742,33.691,33.691,30.273,-30.273,0
152224.413,29.785,35.645,35.645,31.738,13.672,0
152224.417,39.062,40.527,33.691,30.273,52.246,0
152224.421,28.320,41.504,36.133,30.273,41.992,0
152224.425,17.090,37.109,37.598,27.344,-2.441,0
152224.429,29.785,37.598,33.691,24.414,-5.859,0
152224.433,42.969,31.738,31.250,24.902,54.688,0
152224.437,33.691,31.738,26.367,20.020,67.383,0
152224.441,14.648,36.621,21.973,15.625,26.855,0
152224.444,22.949,39.062,25.879,22.461,58.105,0
152224.448,44.434,43.945,35.156,25.879,94.238,1
152224.464,31.738,44.434,41.992,13.184,56.152,0
152224.468,2.441,41.016,39.062,5.859,10.254,0
152224.472,5.371,31.738,37.109,13.184,2.441,0
152224.476,33.691,32.715,35.645,20.996,51.758,0
152224.480,35.156,39.551,32.715,20.508,76.172,0
152224.484,26.855,39.551,38.574,20.020,18.066,0
152224.488,19.043,36.133,43.457,25.879,-9.766,0
152224.492,21.484,29.785,33.691,27.832,45.410,0
152224.495,40.527,32.227,20.020,27.344,77.637,0
152224.499,25.391,37.598,23.926,25.879,29.297,0
152224.503,11.230,35.645,33.691,23.926,-29.785,0
152224.507,32.715,37.598,34.668,30.762,26.367,0
152224.509,51.270,36.133,41.016,33.691,95.215,0
152224.513,38.086,35.645,44.434,29.297,83.496,0
152224.517,20.996,41.504,40.039,27.832,14.160,0
152224.521,30.762,42.480,34.180,33.203,14.160,0
152224.525,48.828,40.527,32.227,35.645,69.336,0
152224.529,44.434,38.574,36.621,30.762,62.500,0
152224.533,27.832,44.434,38.086,28.809,-9.766,0
152224.537,25.879,42.969,35.645,31.250,-15.137,0
152224.540,43.945,35.156,37.598,34.180,0.977,0
152224.544,45.410,36.133,40.039,29.785,12.207,0
152224.548,22.461,38.086,35.156,24.902,53.223,0
152224.552,14.160,37.109,34.180,29.785,-7.324,0
152224.554,35.156,35.645,38.574,36.133,20.020,0
152224.558,46.875,35.645,37.598,35.156,109.375,0
152224.562,32.715,37.109,35.645,29.297,78.125,0
152224.566,16.113,38.086,35.645,24.902,53.223,0
152224.570,27.832,38.086,38.086,29.785,45.410,0
152224.574,46.387,37.109,39.062,31.738,36.621,0
152224.578,33.691,35.645,38.086,20.996,19.043,0
152224.582,17.578,37.598,35.645,20.996,-5.371,0
152224.585,28.320,35.156,24.902,25.879,3.906,0
152224.589,61.035,35.156,11.719,28.809,53.223,0
152224.593,60.547,45.410,12.695,32.715,86.426,0
152224.597,19.043,40.039,29.785,27.344,27.344,0
152224.599,12.207,26.367,47.363,23.926,-23.926,0
152224.603,34.668,27.344,53.223,31.250,24.414,0
152224.607,40.527,34.180,52.734,38.086,61.523,0
152224.611,21.484,33.691,47.852,29.785,59.082,0
152224.615,6.836,32.715,42.969,29.785,52.246,0
152224.619,21.484,32.227,40.527,32.715,23.438,0
152224.623,36.621,31.250,36.621,27.832,17.090,0
152224.627,30.762,36.621,37.598,27.344,-24.414,0
152224.630,20.996,38.574,38.086,24.902,-71.289,0
152224.634,27.832,36.621,36.133,28.809,-13.184,0
152224.638,49.805,41.992,33.691,39.551,73.242,0
152224.642,51.270,41.992,30.762,42.969,32.715,0
152224.645,25.879,36.133,30.273,27.344,-38.086,0
152224.649,26.367,35.645,31.250,25.879,13.184,0
152224.653,67.383,39.551,33.203,36.133,82.520,0
152224.657,62.012,41.504,26.367,36.133,80.078,0
152224.660,23.438,41.992,23.926,32.715,45.410,0
152224.664,28.809,41.504,33.691,29.785,30.273,0
152224.668,47.363,41.992,43.945,33.691,63.965,0
152224.672,50.781,37.598,49.316,29.297,45.898,0
152224.676,28.809,34.180,49.316,22.949,-5.371,0
152224.680,16.602,35.156,50.293,30.762,-29.297,0
152224.684,35.156,33.203,45.410,37.598,-27.344,0
152224.688,52.246,29.785,36.621,37.598,38.086,0
152224.689,42.480,31.250,30.273,37.109,26.367,0
152224.693,28.320,29.297,30.273,39.551,-9.277,0
152224.697,35.645,23.926,34.668,44.922,22.461,0
152224.701,55.176,23.926,34.180,52.734,41.992,0
152224.705,51.758,33.203,36.621,53.711,37.598,0
152224.709,36.133,34.180,43.457,44.922,-4.395,0
152224.713,43.457,33.203,43.457,44.922,-13.184,0
152224.717,44.434,35.645,38.574,44.922,5.859,0
152224.721,39.062,30.762,35.156,37.109,31.250,0
152224.725,29.297,27.344,34.668,35.645,0.977,0
152224.728,26.367,29.297,35.156,36.621,-29.785,0
152224.732,49.316,34.180,33.691,41.504,72.266,0
152224.734,54.688,37.598,35.156,39.062,187.012,0
152224.738,38.574,39.551,42.480,38.086,137.695,0
152224.742,27.832,36.621,36.621,37.598,35.645,0
152224.746,41.016,36.621,21.973,37.109,74.219,0
152224.750,59.570,40.527,19.531,40.527,144.043,0
152224.754,44.434,40.527,24.414,34.668,98.633,0
152224.758,20.020,38.574,34.668,24.902,2.441,0
152224.762,24.414,41.016,38.574,22.949,-8.789,0
152224.766,45.898,41.504,33.203,30.762,54.199,0
152224.770,45.410,40.039,34.180,28.809,71.777,0
152224.773,22.949,40.039,34.180,22.461,-8.301,0
152224.777,28.809,40.527,35.156,27.832,-1.465,0
152224.779,69.336,41.504,32.715,34.668,95.703,0
152224.783,61.523,40.527,24.414,28.320,85.449,0
152224.787,27.344,46.387,28.809,20.996,54.688,0
152224.791,35.156,48.340,30.762,21.973,19.531,0
152224.795,53.711,33.203,18.555,26.855,48.340,0
152224.799,56.641,30.273,20.020,25.879,92.773,0
152224.803,45.898,40.039,36.133,21.973,60.547,0
152224.807,30.273,41.016,40.527,25.879,19.043,0
152224.810,43.945,40.039,31.250,35.645,43.945,0
152224.814,64.941,45.410,32.227,40.527,74.219,0
152224.818,51.758,48.828,38.574,35.156,27.832,0
152224.822,29.297,44.922,30.762,32.715,-1.465,0
152224.839,35.156,39.062,26.367,36.621,35.156,0
152224.843,54.199,43.945,33.691,40.039,101.074,0
152224.847,60.059,42.480,36.621,38.086,120.605,0
152224.851,51.270,35.645,35.645,30.762,30.762,0
152224.855,28.320,34.180,16.602,29.785,0.000,0
152224.859,40.527,34.180,6.836,40.039,79.102,0
152224.863,60.059,32.227,33.691,41.016,96.680,0
152224.867,38.086,28.809,45.898,34.668,62.012,0
152224.870,27.344,29.785,39.551,37.598,26.367,0
152224.874,47.363,31.738,36.133,38.086,20.020,0
152224.878,58.105,31.738,35.645,34.668,57.617,0
152224.882,37.598,32.715,32.227,32.227,9.766,0
152224.884,24.414,39.551,27.832,34.668,-35.645,0
152224.888,39.551,35.156,23.926,38.086,11.719,0
152224.892,62.500,32.227,21.484,38.086,57.617,0
152224.896,64.941,36.133,25.879,33.203,26.367,0
152224.900,27.832,35.156,28.320,24.902,-32.227,0
152224.904,22.949,36.133,34.668,30.273,-6.836,0
152224.908,47.363,35.156,40.527,39.062,43.457,0
152224.911,45.898,35.156,35.645,36.133,78.613,0
152224.915,29.785,34.668,31.250,29.297,34.180,0
152224.919,23.926,32.715,36.621,30.762,-27.344,0
152224.923,42.480,33.691,35.156,36.133,24.414,0
152224.927,49.316,35.645,34.668,36.621,37.598,0
152224.929,31.738,35.156,35.645,38.086,17.578,0
152224.933,25.391,29.785,27.344,39.062,20.508,0
152224.937,33.691,28.809,23.926,32.227,52.734,0
152224.941,45.898,37.598,28.320,33.203,86.914,0
152224.945,42.480,42.969,31.738,29.297,38.086,0
152224.949,11.230,38.574,32.227,21.484,1.465,0
152224.953,14.160,32.227,31.250,28.320,44.922,0
152224.957,38.574,28.809,31.250,38.086,96.191,0
152224.960,41.016,32.715,32.715,39.551,47.852,0
152224.964,26.367,39.551,36.133,36.621,-13.184,0
152224.968,30.273,43.457,36.133,39.062,-10.254,0
152224.972,57.129,41.504,36.133,46.875,35.645,0
152224.974,60.059,37.109,35.645,46.875,50.293,0
152224.978,42.969,36.621,25.879,39.062,0.000,0
152224.982,32.227,37.109,18.555,37.109,7.324,0
152224.986,47.852,36.621,27.344,42.969,75.195,0
152224.990,56.641,36.133,37.598,45.410,119.141,0
152224.994,43.945,36.621,35.156,37.598,68.848,0
152224.998,32.715,34.668,31.738,32.227,-22.949,0
152225.002,32.715,36.133,31.250,41.504,23.438,0
152225.005,49.316,41.504,32.227,47.363,89.355,0
152225.009,37.109,37.109,20.996,37.109,53.223,0
152225.013,22.461,30.762,17.578,34.668,1.953,0
152225.017,29.297,32.227,33.203,40.527,14.648,0
152225.019,41.016,33.203,42.480,43.457,60.059,0
152225.023,53.223,34.668,41.504,37.598,72.266,0
152225.027,23.926,33.691,41.016,28.320,23.438,0
152225.031,3.906,32.227,42.480,31.250,0.977,0
152225.035,39.551,33.203,40.527,39.551,49.316,0
152225.039,52.246,26.367,39.062,44.434,92.773,0
152225.043,28.809,28.320,27.832,38.086,32.715,0
152225.047,20.020,35.645,21.973,30.762,-23.438,0
152225.050,42.480,36.621,28.320,37.109,-15.137,0
152225.054,62.988,36.133,27.344,42.480,45.898,0
152225.058,48.828,35.156,28.320,36.133,20.996,0
152225.062,19.043,26.855,34.180,32.715,-55.664,0
152225.064,36.621,27.344,34.668,39.551,-8.301,0
152225.068,62.988,29.785,33.203,54.199,66.406,0
152225.072,39.551,26.367,36.621,53.711,60.547,0
152225.076,13.672,28.320,41.504,36.621,14.160,0
152225.080,23.926,29.785,50.293,31.738,20.508,0
152225.084,52.246,30.762,48.828,36.133,70.312,0
152225.088,55.664,35.156,44.922,36.133,47.363,0
152225.092,30.762,35.645,43.945,29.297,12.207,0
152225.095,39.062,32.715,36.621,32.227,15.137,0
152225.099,55.176,32.715,31.738,38.574,71.289,0
152225.103,41.992,31.738,29.297,39.062,88.379,0
152225.107,37.598,30.273,26.855,32.715,50.781,0
152225.109,32.715,29.785,28.809,22.949,42.969,0
152225.113,38.086,33.691,31.738,26.855,69.336,0
152225.117,52.246,41.504,33.691,32.715,101.074,0
152225.121,44.434,41.992,29.785,35.156,70.801,0
152225.125,20.020,38.086,21.973,32.227,41.016,0
152225.129,35.156,38.086,36.621,34.180,85.449,1
152225.133,62.500,33.203,45.898,41.504,118.652,0
152225.136,41.992,27.832,32.227,37.109,66.406,0
152225.140,20.996,30.273,30.762,23.926,-18.066,0
152225.144,21.484,30.762,35.645,23.926,-0.977,0
152225.148,35.156,35.645,31.250,33.691,57.617,0
152225.152,46.387,36.133,32.715,29.785,48.828,0
152225.155,29.297,35.156,34.668,24.902,19.531,0
152225.159,12.695,36.133,42.480,30.273,-1.953,0
152225.163,33.691,35.156,43.945,34.668,3.418,0
152225.167,44.434,37.109,36.133,31.250,-3.418,0
152225.171,25.879,34.668,37.109,24.414,2.441,0
152225.175,13.184,34.668,33.203,21.484,-28.809,0
152225.179,32.227,36.621,22.949,26.367,-1.465,0
152225.183,43.945,33.691,30.762,28.809,98.145,0
152225.187,43.945,28.809,39.551,27.832,78.125,0
152225.191,29.297,29.297,35.156,27.832,16.602,0
152225.194,22.461,34.668,28.320,35.645,18.555,0
152225.198,54.688,40.527,24.414,49.805,75.684,0
152225.214,57.617,32.227,33.691,48.340,113.281,0
152225.218,29.785,31.250,40.039,34.668,56.152,0
152225.222,28.320,41.504,41.016,34.668,12.695,0
152225.226,44.922,39.551,41.504,38.574,61.523,0
152225.230,47.363,35.645,26.855,39.062,73.730,0
152225.234,32.227,30.762,25.391,31.738,2.441,0
152225.238,27.832,27.832,39.062,27.832,-21.484,0
152225.242,55.176,25.391,41.992,36.621,52.246,0
152225.245,53.223,28.809,41.016,39.062,98.633,0
152225.249,22.949,37.109,39.551,37.109,51.758,0
152225.253,14.648,38.086,35.645,33.203,11.719,0
152225.257,37.598,36.621,40.527,35.156,11.719,0
152225.259,57.129,34.180,39.551,36.621,40.039,0
152225.263,41.992,34.668,37.109,28.809,48.828,0
152225.267,17.578,37.109,40.527,25.391,10.254,0
152225.271,33.203,29.785,37.109,33.691,8.301,0
152225.275,59.082,25.391,30.273,38.086,44.434,0
152225.279,33.203,30.273,31.738,32.715,20.020,0
152225.283,11.719,35.645,33.203,26.855,-42.480,0
152225.287,24.902,38.086,32.227,30.273,-32.227,0
152225.290,45.410,34.668,28.809,40.039,11.230,0
152225.294,45.898,32.227,24.902,33.203,3.906,0
152225.298,28.809,37.598,32.715,27.344,-47.363,0
152225.302,36.133,41.016,40.527,35.156,-27.344,0
152225.304,59.570,32.227,37.109,41.016,10.742,0
152225.308,42.969,27.832,35.645,37.598,31.250,0
152225.312,17.090,35.645,38.574,27.832,31.738,0
152225.316,13.672,41.992,35.645,30.762,6.836,0
152225.320,27.832,40.039,32.227,40.527,62.012,0
152225.324,49.805,34.180,20.508,35.645,106.445,0
152225.328,45.898,31.250,16.113,27.832,78.613,0
152225.332,8.789,36.133,23.438,26.367,40.039,0
152225.335,11.230,35.645,30.762,25.391,11.719,0
152225.339,38.086,26.855,37.109,28.320,34.668,0
152225.343,44.434,30.762,38.574,29.297,44.922,0
152225.347,27.344,35.645,26.855,22.949,13.184,0
152225.349,21.484,33.203,19.043,24.414,-35.156,0
152225.353,44.434,35.156,31.250,33.203,51.758,0
152225.357,48.828,36.133,35.645,40.039,89.355,0
152225.361,23.926,33.203,21.484,30.273,-19.043,0
152225.365,28.320,37.598,17.090,25.391,-24.902,0
152225.369,43.457,43.945,20.996,35.645,37.598,0
152225.373,34.180,41.016,11.230,37.598,67.871,0
152225.376,26.367,31.738,23.438,30.273,29.785,0
152225.380,13.184,29.785,43.457,20.996,-34.180,0
152225.384,21.484,37.109,39.062,26.367,10.742,0
152225.388,46.875,44.922,33.203,35.645,104.492,0
152225.392,42.969,41.016,31.250,27.344,58.594,0
152225.396,19.043,36.621,31.250,20.020,-1.465,0
152225.399,18.066,36.621,31.250,27.832,27.832,0
152225.403,50.293,37.109,17.578,32.227,50.293,0
152225.407,56.641,34.668,11.230,29.785,27.344,0
152225.411,12.695,28.809,25.391,29.785,-28.809,0
152225.415,5.371,30.273,35.156,34.180,-50.781,0
152225.419,30.762,35.156,34.668,33.203,27.832,0
152225.423,43.945,42.969,34.668,25.391,60.547,0
152225.427,28.809,45.898,33.691,19.043,22.949,0
152225.431,10.742,41.992,35.156,18.066,0.977,0
152225.435,23.438,39.062,31.738,18.555,6.348,0
152225.438,36.133,34.668,24.414,20.508,52.246,0
152225.439,29.785,35.156,25.391,19.531,53.711,0
152225.443,19.531,35.156,31.250,19.043,20.020,0
152225.447,25.879,36.621,38.574,27.832,35.156,0
152225.451,44.922,39.062,36.621,33.203,82.031,0
152225.455,39.551,41.504,21.973,30.273,46.387,0
152225.459,16.113,40.527,26.367,22.949,6.348,0
152225.463,20.508,39.551,37.598,25.879,28.320,0
152225.467,46.387,41.016,37.598,34.180,62.988,0
152225.470,46.387,38.086,32.715,30.273,61.035,0
152225.474,38.086,38.086,8.789,23.438,11.230,0
152225.478,24.902,40.039,10.742,22.949,10.254,0
152225.482,25.879,32.715,42.480,25.879,76.660,0
152225.499,36.133,30.762,48.340,25.391,99.121,0
152225.503,20.020,33.691,38.086,23.926,40.039,0
152225.507,9.277,28.809,36.621,21.484,0.488,0
152225.511,24.414,35.645,39.551,25.391,44.434,0
152225.515,43.945,39.551,38.086,30.762,105.957,0
152225.519,43.457,33.203,39.062,27.832,83.496,0
152225.523,24.414,34.668,38.086,25.391,19.531,0
152225.527,29.297,37.598,33.691,33.691,13.672,0
152225.530,60.059,41.992,35.645,43.457,77.148,0
152225.534,56.152,39.551,30.273,38.086,41.504,0
152225.538,32.227,29.785,20.508,29.297,-11.230,0
152225.542,37.109,40.527,25.391,36.133,17.090,0
152225.529,56.641,44.434,25.879,41.992,44.434,0
152225.533,55.176,38.574,33.691,36.621,46.387,0
152225.537,48.340,42.969,45.898,34.180,18.066,0
152225.541,29.785,42.480,37.109,33.691,-0.977,0
152225.545,30.273,40.527,23.438,38.574,30.762,0
152225.549,53.711,41.016,21.484,44.922,89.844,0
152225.553,43.945,36.621,31.738,37.109,32.227,0
152225.556,26.367,33.691,39.551,31.250,-21.484,0
152225.560,37.109,40.039,37.598,36.621,56.152,0
152225.564,57.617,41.992,38.574,44.434,97.656,0
152225.568,51.758,40.527,41.504,42.480,16.113,0
152225.572,28.809,36.621,43.457,32.227,-51.270,0
152225.589,25.879,30.762,36.133,36.133,-4.395,0
152225.593,58.594,32.715,30.273,38.574,57.129,0
152225.597,52.734,36.133,33.691,31.250,61.035,0
152225.601,10.254,34.180,29.785,26.855,25.879,0
152225.605,20.020,34.180,30.273,37.109,-3.418,0
152225.609,57.129,36.621,34.668,44.922,32.715,0
152225.613,61.523,39.062,36.133,40.039,59.570,0
152225.616,39.551,39.551,36.621,36.621,31.738,0
152225.620,20.508,35.156,33.203,33.203,-45.898,0
152225.624,48.340,32.715,31.738,34.668,-9.766,0
152225.628,64.453,35.156,34.180,37.109,62.012,0
152225.632,24.902,37.598,38.574,30.273,49.805,0
152225.634,8.301,40.527,40.527,23.926,-11.719,0
152225.638,23.926,40.527,39.062,27.832,-33.203,0
152225.642,48.340,34.668,29.785,32.715,18.555,0
152225.646,41.504,35.156,27.344,27.832,44.922,0
152225.650,29.297,38.574,36.621,23.926,15.625,0
152225.654,21.973,33.691,40.039,30.273,15.625,0
152225.658,30.273,32.227,27.344,38.574,60.059,0
152225.661,39.551,34.180,35.645,36.621,65.430,0
152225.665,20.020,31.250,49.316,27.832,-1.465,0
152225.669,14.648,29.785,37.109,24.414,-15.625,0
152225.673,36.621,27.832,20.508,30.762,77.637,0
152225.677,51.758,28.320,21.973,34.180,95.703,0
152225.679,35.645,32.227,40.527,32.227,16.113,0
152225.683,26.367,40.527,49.805,31.250,2.441,0
152225.687,50.781,41.016,42.969,37.109,38.574,0
152225.691,62.012,37.109,38.086,42.969,90.332,0
152225.695,51.758,35.645,36.133,43.457,76.660,0
152225.699,33.203,29.297,33.203,39.062,4.883,0
152225.703,20.020,26.855,25.879,40.039,47.852,0
152225.707,33.203,24.902,27.832,43.945,112.793,0
152225.710,34.668,30.273,37.109,38.086,73.730,0
152225.714,19.531,37.598,34.668,35.645,16.602,0
152225.718,20.508,36.621,35.645,37.598,45.410,0
152225.722,55.664,37.598,33.203,44.922,87.891,0
152225.724,54.688,34.668,20.996,40.527,81.055,0
152225.728,15.137,33.203,28.809,31.738,29.785,0
152225.732,16.113,35.156,38.574,33.203,7.812,0
152225.736,39.551,32.715,41.992,40.039,54.199,0
152225.740,49.316,29.297,51.758,40.527,83.984,0
152225.744,31.250,32.715,48.340,34.180,61.523,0
152225.748,20.996,33.691,37.598,36.621,17.090,0
152225.752,33.203,32.715,35.645,44.922,-11.230,0
152225.755,61.523,37.598,33.203,39.062,3.906,0
152225.759,56.152,38.086,29.297,27.344,27.344,0
152225.763,12.207,34.668,26.855,26.855,-1.465,0
152225.767,20.508,32.715,33.203,35.645,38.086,0
152225.769,48.340,30.273,39.551,43.945,86.914,0
152225.773,42.480,32.227,38.086,37.598,64.453,0
152225.777,25.879,32.227,34.668,31.738,14.648,0
152225.781,30.273,29.785,29.785,34.180,17.090,0
152225.785,48.340,29.785,26.367,35.156,65.918,0
152225.789,51.270,37.598,28.320,27.344,80.078,0
152225.793,48.340,42.969,25.879,20.996,48.340,0
152225.797,32.715,40.039,27.832,20.508,-12.207,0
152225.800,27.832,41.016,33.203,23.438,33.203,0
152225.804,46.387,38.086,28.320,25.879,96.191,0
152225.808,39.551,38.086,25.391,26.367,54.199,2
152225.812,30.273,37.598,24.902,27.832,7.324,0
152225.814,40.039,34.668,27.344,34.180,60.059,0
152225.818,54.199,39.062,33.203,37.598,98.145,0
152225.822,56.641,43.457,36.621,29.785,60.059,0
152225.826,41.504,40.527,38.086,27.832,9.766,0
152225.830,28.320,40.527,38.574,36.133,16.602,0
152225.834,47.852,41.016,38.086,44.434,35.156,0
152225.838,54.688,39.062,36.133,43.457,20.020,0
152225.842,35.645,41.504,35.156,34.180,0.000,0
152225.845,34.668,42.480,31.738,30.762,-14.160,0
152225.849,56.152,37.598,22.461,30.273,25.391,0
152225.853,62.988,37.109,22.461,29.297,29.785,0
152225.857,41.992,38.086,32.227,28.809,-12.207,0
152225.861,23.438,35.645,39.551,29.297,-19.043,0
152225.864,45.898,30.273,31.250,31.738,6.836,0
152225.868,68.359,34.180,21.973,33.203,26.367,0
152225.872,35.645,41.016,33.691,29.785,22.461,0
152225.876,8.789,39.551,43.945,26.367,-19.043,0
152225.880,22.461,39.062,41.992,30.273,0.977,0
152225.884,47.852,39.062,36.621,38.574,69.824,0
152225.888,43.457,37.109,38.086,33.691,46.875,0
152225.892,20.508,29.297,47.852,28.320,-27.832,0
152225.896,26.367,31.250,45.410,32.715,-34.668,0
152225.900,49.316,36.133,37.109,34.668,10.742,0
152225.903,47.363,34.668,37.598,32.715,16.602,0
152225.904,26.367,39.551,38.086,30.273,-11.230,0
152225.908,28.320,39.062,32.715,27.344,-16.113,0
152225.912,29.785,31.250,33.691,26.855,72.266,0
152225.916,23.926,27.832,35.645,25.879,121.094,0
152225.920,16.113,29.297,32.715,26.855,56.152,0
152225.924,15.137,34.668,32.715,28.809,-9.277,0
152225.928,38.574,36.621,37.598,34.180,21.973,0
152225.932,54.688,32.227,41.504,41.504,88.379,0
152225.936,41.992,30.273,41.016,36.133,69.336,0
152225.939,18.066,35.156,33.203,27.832,0.000,0
152225.943,33.203,37.598,26.367,33.691,25.879,0
152225.947,65.430,35.645,31.250,39.062,83.008,0
152225.966,40.039,38.086,35.645,28.809,56.152,0
152225.970,7.324,40.039,34.180,20.020,-15.625,0
152225.974,17.578,40.527,38.086,21.484,-23.438,0
152225.978,38.574,35.645,37.598,28.320,19.531,0
152225.982,37.598,31.250,33.203,29.297,61.523,0
152225.986,18.066,29.785,32.715,25.879,60.059,0
152225.990,13.184,33.203,23.926,27.344,-12.695,0
152225.993,35.645,37.598,24.902,33.203,23.926,0
152225.997,56.152,39.062,42.480,37.109,82.031,0
152226.001,36.133,34.180,45.410,26.855,8.789,0
152226.005,7.324,26.855,34.180,17.578,-26.855,0
152226.009,34.668,28.809,23.926,24.414,32.715,0
152226.009,51.758,33.691,22.461,34.668,73.242,0
152226.013,22.461,34.668,26.855,29.785,29.297,0
152226.017,13.672,33.691,30.762,25.879,-5.859,0
152226.021,29.785,36.133,33.691,32.715,24.414,0
152226.025,44.434,38.086,33.691,36.133,87.402,0
152226.029,38.574,42.969,36.133,37.598,94.238,0
152226.033,20.996,32.227,38.086,32.715,28.320,0
152226.037,15.625,20.996,31.250,25.879,23.926,0
152226.041,43.945,36.621,24.902,30.762,57.129,0
152226.045,51.270,42.480,27.832,31.250,27.832,0
152226.048,30.762,34.180,30.273,26.367,1.465,0
152226.052,32.715,35.645,30.273,31.250,-29.297,0
152226.054,37.598,35.645,28.809,33.691,7.812,0
152226.058,35.645,32.715,27.344,32.227,57.617,0
152226.062,24.902,34.180,33.203,27.832,18.555,0
152226.066,8.789,30.762,40.527,23.438,-15.625,0
152226.070,24.902,29.785,39.062,27.832,21.973,0
152226.074,46.387,26.855,35.645,32.227,53.223,0
152226.078,41.016,31.250,34.668,31.250,10.254,0
152226.082,19.043,38.086,19.531,28.320,-10.742,0
152226.085,21.484,35.645,14.648,32.715,1.953,0
152226.089,47.852,35.156,32.227,33.203,21.973,0
152226.093,41.504,33.691,41.504,26.855,75.684,0
152226.097,32.715,35.645,38.086,32.227,48.828,0
152226.099,43.457,43.945,31.250,41.016,-5.371,0
152226.103,39.551,45.410,25.879,40.527,107.910,0
152226.107,42.480,41.504,32.715,40.527,130.371,0
152226.111,32.715,44.434,45.898,37.598,17.578,0
152226.115,18.555,40.527,40.039,31.250,10.742,0
152226.119,36.133,33.203,30.273,33.691,22.949,0
152226.123,58.105,30.762,33.203,38.086,75.684,0
152226.127,47.363,30.273,35.645,32.227,22.461,0
152226.130,20.996,39.062,28.320,29.785,-83.496,0
152226.134,47.852,41.992,25.879,39.062,-36.621,0
152226.138,68.848,39.551,30.762,43.457,48.340,0
152226.142,38.574,40.039,30.762,34.668,91.309,0
152226.144,17.578,36.133,37.598,32.227,50.293,0
152226.148,22.949,31.738,41.016,41.504,1.953,0
152226.152,48.340,30.273,40.039,51.270,38.086,0
152226.156,54.199,32.227,40.527,51.758,37.109,0
152226.160,35.156,34.180,37.598,51.270,8.789,0
152226.164,30.762,33.203,35.156,56.152,-6.348,0
152226.168,56.641,31.738,34.668,60.059,21.484,0
152226.172,67.871,37.598,30.762,57.129,18.555,0
152226.175,47.363,40.039,27.832,46.387,-21.973,0
152226.179,30.762,40.527,33.691,45.410,-14.648,0
152226.183,41.016,42.480,34.668,46.387,10.742,0
152226.187,52.734,42.969,38.574,41.016,58.594,0
152226.189,38.574,37.109,41.016,39.062,20.020,0
152226.193,20.020,34.180,36.621,35.156,-80.566,0
152226.197,28.320,32.715,32.715,33.691,-37.598,0
152226.201,46.387,32.227,19.531,36.133,27.832,0
152226.205,45.898,38.574,21.484,33.691,1.953,0
152226.209,26.855,43.945,40.039,27.832,-36.133,0
152226.213,25.391,40.039,39.551,29.297,-43.457,0
152226.217,46.875,34.668,35.156,33.203,-3.418,0
152226.221,45.410,37.598,35.156,32.715,16.602,0
152226.224,22.949,38.574,37.109,28.320,2.441,0
152226.228,20.020,36.621,37.109,31.738,-44.922,0
152226.232,41.016,34.180,24.902,39.551,29.297,0
152226.234,59.570,36.133,21.484,35.645,81.543,0
152226.238,33.691,38.086,34.668,27.344,26.855,0
152226.242,-0.977,31.250,43.457,19.531,15.625,0
152226.246,15.625,27.832,41.992,23.438,59.082,0
152226.250,38.086,32.715,38.086,33.691,104.492,0
152226.254,35.156,29.785,33.691,34.668,28.809,0
152226.258,17.090,31.250,31.738,24.902,-37.109,0
152226.262,24.414,36.133,35.645,27.832,12.695,0
152226.265,42.969,34.180,36.133,37.109,76.172,0
152226.269,32.715,33.691,34.180,27.832,86.914,0
152226.273,14.160,30.762,32.715,15.137,66.406,0
152226.277,15.625,28.809,31.250,18.555,30.762,0
152226.279,38.086,28.320,34.180,33.691,91.797,0
152226.283,55.664,29.785,37.109,42.969,120.117,0
152226.287,40.527,35.645,29.785,41.992,38.574,0
152226.291,29.297,31.250,26.367,42.969,31.250,0
152226.295,48.828,27.344,35.645,48.340,94.727,0
152226.299,58.594,34.668,43.457,44.922,86.426,0
152226.303,42.969,40.039,41.992,36.133,15.137,0
152226.306,27.832,39.062,44.922,34.668,-5.859,0
152226.310,52.246,38.574,44.922,38.574,22.461,0
152226.314,78.125,35.156,39.062,39.062,57.617,0
152226.318,50.781,31.738,33.691,35.156,56.152,0
152226.322,21.484,30.762,29.785,32.715,-2.930,0
152226.325,26.855,33.203,29.785,39.062,3.906,0
152226.329,46.875,33.691,28.320,41.504,67.871,0
152226.333,44.922,37.109,22.949,41.504,67.871,0
152226.337,27.832,42.969,29.785,38.574,5.859,0
152226.341,27.832,39.551,40.039,38.574,-21.484,0
152226.345,52.246,38.574,41.992,49.316,23.926,0
152226.349,56.152,42.969,40.039,45.898,55.176,0
152226.353,28.320,39.551,33.691,29.297,8.789,0
152226.357,28.809,37.598,27.832,22.461,-51.758,0
152226.361,43.457,39.551,30.273,29.785,10.254,0
152226.365,34.180,36.133,36.621,32.715,27.344,0
152226.368,31.738,34.668,33.691,30.762,-19.043,0
152226.385,24.902,36.133,28.320,29.785,-31.738,0
152226.389,31.250,36.621,32.227,32.715,-19.043,0
152226.393,45.898,33.203,36.133,33.691,73.730,0
152226.397,40.039,36.621,38.086,32.227,89.355,0
152226.401,16.113,37.598,38.086,24.414,20.996,0
152226.405,17.578,35.645,36.621,22.949,-2.930,0
152226.409,41.016,39.551,39.062,29.297,67.383,0
152226.413,42.480,39.551,37.598,29.297,88.379,0
152226.417,19.043,34.668,35.156,25.391,9.766,0
152226.421,8.301,30.273,32.715,23.926,-4.883,0
152226.425,28.320,32.715,28.809,28.809,85.938,0
152226.428,41.016,35.156,32.715,28.809,114.258,0
152226.429,22.461,35.645,34.668,24.414,39.551,0
152226.433,5.859,37.109,31.738,20.508,6.348,0
152226.437,22.461,36.621,31.250,23.926,42.969,0
152226.441,39.551,36.133,32.227,26.855,99.121,0
152226.445,26.367,36.621,32.227,20.996,88.867,0
152226.449,7.812,37.598,29.785,18.066,-12.695,0
152226.453,18.066,38.086,28.809,24.902,-14.160,0
152226.457,41.992,36.621,26.367,27.832,58.594,0
152226.460,39.062,35.645,25.879,22.949,39.551,0
152226.464,16.602,32.715,33.203,21.484,-28.809,0
152226.468,20.020,33.691,31.738,29.785,0.977,2
152226.472,59.082,36.133,21.973,36.621,49.805,0
152226.474,58.105,29.297,26.367,31.738,50.293,0
152226.478,19.043,29.297,40.527,24.902,18.066,0
152226.482,14.160,38.574,44.434,25.879,-22.949,0
152226.486,35.645,40.039,32.227,27.344,23.926,0
152226.490,51.758,41.016,25.391,26.855,56.152,0
152226.494,38.574,38.086,36.621,27.832,-2.441,0
152226.498,24.414,35.156,33.203,31.738,-7.324,0
152226.502,41.992,35.645,27.344,36.621,28.320,0
152226.505,62.012,37.109,33.691,38.086,33.203,0
152226.509,51.270,38.086,35.645,30.273,29.297,0
152226.513,26.855,36.621,38.086,29.785,9.277,0
152226.517,31.738,33.203,39.551,35.645,16.113,0
152226.519,53.223,35.645,42.480,39.062,55.176,0
152226.523,50.293,38.086,42.480,38.086,41.504,0
152226.527,31.250,35.156,37.109,35.156,-20.996,0
152226.531,27.832,37.109,28.320,34.668,-8.789,0
152226.535,45.410,38.086,25.391,35.156,92.773,0
152226.539,48.828,36.621,25.879,34.668,85.449,0
152226.543,32.715,33.691,31.250,34.180,2.441,0
152226.547,23.926,32.715,35.156,30.273,-38.086,0
152226.550,47.852,30.762,28.809,30.762,26.855,0
152226.554,49.316,31.250,30.273,37.598,100.098,0
152226.558,23.926,33.691,36.621,38.574,51.758,0
152226.562,16.113,34.668,33.691,37.598,3.906,0
152226.564,31.250,36.621,23.926,41.504,38.574,0
152226.568,50.781,36.133,23.438,38.574,76.172,0
152226.572,48.340,34.180,30.273,31.738,68.359,0
152226.576,25.879,36.133,31.738,27.344,18.555,0
152226.580,22.461,37.109,37.109,32.227,34.180,0
152226.584,46.387,30.762,40.527,39.551,111.328,0
152226.588,45.410,27.832,42.480,37.109,98.633,0
152226.592,21.484,26.855,41.504,29.297,24.414,0
152226.595,16.602,28.809,35.645,28.809,-15.137,0
152226.599,34.668,32.715,34.668,36.621,62.988,0
152226.603,41.016,33.691,32.715,38.086,103.027,0
152226.607,25.391,41.016,29.785,35.156,28.320,0
152226.610,14.160,42.480,33.691,32.227,17.090,0
152226.614,33.203,39.551,36.621,30.273,62.012,0
152226.618,45.410,39.551,39.551,34.180,64.941,0
152226.622,42.969,36.621,39.062,32.715,62.500,0
152226.626,31.250,32.715,30.762,25.391,35.645,0
152226.630,21.973,34.668,30.273,27.344,57.129,0
152226.634,40.527,32.227,33.203,27.832,129.395,0
152226.638,39.551,30.273,32.715,20.996,83.008,0
152226.642,21.484,33.691,34.668,19.531,-25.879,0
152226.646,28.320,34.668,39.551,26.855,-25.391,0
152226.650,50.781,33.203,44.434,35.645,89.844,0
152226.653,52.734,33.691,45.410,35.645,95.215,0
152226.654,26.367,34.180,38.574,30.273,12.207,0
152226.658,20.996,37.598,36.621,31.738,-26.367,0
152226.662,44.434,42.969,31.250,41.016,51.270,0
152226.666,46.387,35.645,23.926,42.480,98.145,0
152226.670,28.809,34.668,39.551,39.062,18.555,0
152226.674,17.090,37.598,47.363,31.250,0.488,0
152226.678,20.996,29.785,38.086,29.297,20.996,0
152226.682,33.691,27.344,35.645,34.668,75.195,0
152226.685,27.832,25.391,41.992,30.762,84.473,0
152226.689,11.719,23.926,40.527,30.762,-15.625,0
152226.693,23.926,30.273,28.320,38.086,3.418,0
152226.697,53.223,38.086,25.879,41.504,85.449,0
152226.714,45.410,39.551,34.180,39.551,73.730,0
152226.718,8.789,35.156,36.621,29.297,14.648,0
152226.722,13.672,33.691,35.156,26.855,21.973,0
152226.726,41.992,31.250,31.250,30.762,95.215,0
152226.730,49.316,35.645,35.156,34.180,105.957,0
152226.734,30.273,36.133,36.133,33.203,9.766,0
152226.738,17.578,30.273,36.621,26.367,-37.109,0
152226.742,42.969,36.621,39.551,32.715,13.184,0
152226.746,59.082,37.598,31.738,35.645,38.086,0
152226.750,36.621,29.297,25.879,32.715,-3.418,0
152226.753,25.391,25.879,27.344,29.785,-35.645,0
152226.757,55.176,33.203,23.926,30.273,8.301,0
152226.759,55.664,36.621,23.926,34.180,68.359,0
152226.763,31.738,37.598,33.691,28.320,68.848,0
152226.767,25.879,40.039,38.086,24.414,25.391,0
152226.771,37.598,39.551,38.574,34.180,36.133,0
152226.775,57.617,39.062,39.062,39.062,80.566,0
152226.779,55.664,41.016,37.109,38.574,64.941,0
152226.783,33.691,42.480,29.785,36.621,18.066,0
152226.787,27.832,40.527,29.297,38.574,13.184,0
152226.791,57.129,36.621,36.133,47.852,45.898,0
152226.795,62.500,36.621,36.621,42.480,64.941,0
152226.798,34.180,39.062,27.344,33.691,43.457,0
152226.802,41.016,41.992,28.320,39.551,18.555,0
152226.804,60.547,42.969,39.551,51.758,30.762,0
152226.808,51.270,38.574,43.457,53.223,34.668,0
152226.812,38.574,36.621,44.434,46.387,20.996,0
152226.816,29.297,41.016,39.062,41.992,-30.273,0
152226.820,45.898,41.504,35.156,43.457,0.977,0
152226.824,62.500,36.621,38.574,45.898,53.223,0
152226.828,52.246,34.180,32.715,40.039,18.555,0
152226.832,34.180,34.180,23.438,30.273,5.371,0
152226.835,39.062,36.621,21.973,31.738,11.230,0
152226.839,59.570,38.574,27.832,37.109,74.219,0
152226.843,62.012,38.086,36.621,40.527,101.562,0
152226.847,38.574,40.039,38.086,41.016,7.812,0
152226.851,27.832,36.621,32.715,40.527,-34.180,0
152226.854,49.316,31.250,35.156,44.922,37.598,0
152226.858,52.734,33.691,39.551,39.551,104.492,0
152226.862,24.414,37.598,35.645,29.785,49.316,0
152226.866,15.137,37.598,26.855,27.832,-30.273,0
152226.870,47.363,32.715,29.297,33.203,34.668,0
152226.874,49.316,33.203,37.598,37.598,112.793,0
152226.878,26.367,35.645,35.156,35.645,42.969,0
152226.882,19.043,35.645,26.855,32.227,-9.766,0
152226.886,30.762,42.969,19.531,33.203,35.156,0
152226.890,50.781,37.598,22.949,31.738,98.145,0
152226.893,43.457,35.645,31.250,26.855,61.035,0
152226.894,24.902,42.969,38.086,25.879,-4.395,0
152226.898,30.273,41.504,37.598,27.832,22.461,0
152226.902,48.340,43.945,31.738,34.668,67.383,0
152226.906,44.922,43.457,31.738,38.086,66.406,0
152226.910,26.367,37.109,34.668,27.832,0.977,0
152226.914,27.832,36.133,36.621,31.250,-23.438,0
152226.918,53.223,36.133,38.574,42.969,62.012,0
152226.922,55.176,34.668,37.598,39.551,76.660,0
152226.926,35.645,37.598,32.715,31.250,-16.113,0
152226.929,22.949,34.668,32.227,37.109,-8.789,0
152226.933,35.645,37.109,31.250,43.945,63.477,0
152226.937,53.223,37.598,38.086,38.086,68.848,0
152226.955,42.480,34.180,46.387,30.273,67.383,0
152226.958,20.020,34.668,43.457,22.461,51.270,0
152226.962,26.367,31.738,40.527,29.785,47.852,0
152226.966,44.434,29.297,36.133,36.621,80.566,0
152226.970,42.480,33.691,34.180,29.297,63.965,0
152226.974,26.855,36.133,31.250,17.090,13.672,0
152226.978,21.973,34.180,30.762,18.066,0.977,0
152226.982,43.457,31.738,35.645,26.855,37.109,0
152226.986,49.316,27.832,38.086,28.809,48.828,0
152226.990,27.344,31.738,34.668,25.391,11.230,0
152226.994,21.973,33.691,32.227,28.320,0.488,0
152226.998,44.922,27.832,31.250,39.551,42.480,0
152226.984,60.547,26.367,31.738,41.992,76.172,0
152226.988,37.109,30.762,33.203,32.227,70.312,0
152226.992,28.320,38.086,40.527,30.762,-13.184,0
152226.996,38.574,38.086,47.363,39.062,-14.160,0
152227.000,38.574,35.156,41.992,43.457,62.500,0
152227.004,33.691,33.691,32.227,34.180,45.898,0
152227.008,16.602,31.738,32.715,22.461,-9.766,0
152227.012,26.855,31.738,41.992,30.273,-11.230,0
152227.015,51.758,31.738,46.387,40.527,52.246,0
152227.019,41.992,31.738,39.551,30.762,36.621,0
152227.023,16.113,34.180,31.250,25.391,-41.016,0
152227.027,19.043,38.574,33.203,29.297,-52.246,0
152227.029,43.457,37.598,37.109,31.250,37.598,0
152227.033,47.852,35.645,43.945,29.297,86.914,0
152227.037,22.461,39.551,39.551,23.926,18.555,0
152227.041,8.789,37.109,27.832,20.996,-3.906,0
152227.045,24.902,30.762,25.391,25.391,47.363,0
152227.049,39.062,33.203,33.203,28.320,83.496,0
152227.053,29.297,32.715,37.598,25.391,40.039,0
152227.057,19.043,32.715,35.156,27.344,2.441,0
152227.060,30.762,36.621,35.156,37.109,28.809,0
152227.064,47.363,35.156,31.250,38.574,65.918,0
152227.068,42.480,35.156,29.785,33.691,68.848,0
152227.072,23.438,33.203,36.621,33.203,21.484,0
152227.076,23.438,29.297,35.645,35.156,55.176,0
152227.079,44.434,29.297,32.227,38.086,76.660,0
152227.083,40.039,30.762,30.762,31.250,62.500,0
152227.087,20.020,32.715,33.203,26.367,37.109,0
152227.091,23.438,30.273,38.086,28.809,0.488,0
152227.095,53.223,23.926,33.203,35.645,36.621,0
152227.099,52.734,29.785,23.438,38.574,53.711,0
152227.103,20.508,31.250,27.832,37.598,-6.836,0
152227.107,9.277,27.832,37.109,31.738,-17.578,0
152227.111,28.809,37.109,37.598,29.785,41.504,0
152227.115,46.875,40.039,37.109,33.691,56.152,0
152227.118,34.668,36.621,37.109,29.297,13.184,1
152227.134,16.602,35.156,33.691,29.785,-45.898,0
152227.138,27.344,38.086,32.227,38.086,-30.273,0
152227.142,47.363,36.133,32.227,44.922,23.926,0
152227.146,45.898,33.203,34.180,40.039,31.250,0
152227.150,29.785,33.691,25.879,33.203,11.719,0
152227.154,41.016,31.250,22.949,38.574,24.414,0
152227.158,48.828,32.227,41.016,37.109,81.543,0
152227.162,29.297,38.574,45.410,33.691,97.168,0
152227.166,20.996,40.527,37.109,31.250,54.199,0
152227.169,16.113,35.645,33.691,27.832,6.348,0
152227.173,34.180,31.738,32.227,29.785,47.852,0
152227.177,57.617,34.180,34.180,22.949,98.145,0
152227.179,32.227,34.180,36.621,18.555,35.156,0
152227.183,1.465,33.691,35.156,22.461,-2.930,0
152227.187,26.367,36.133,32.715,22.949,40.039,0
152227.191,41.992,31.738,31.738,23.926,71.777,0
152227.195,25.879,26.367,32.227,22.461,68.359,0
152227.199,8.789,30.762,36.133,17.090,10.742,0
152227.203,19.043,38.086,36.133,21.484,6.348,0
152227.207,41.504,41.504,29.785,27.344,39.062,0
152227.211,36.133,41.504,26.855,22.949,28.809,0
152227.215,25.879,41.992,25.879,21.973,9.277,0
152227.218,31.250,40.527,29.785,30.762,46.875,0
152227.222,46.875,38.574,38.086,34.668,122.559,0
152227.224,45.410,37.598,41.504,29.297,99.121,0
152227.228,19.531,35.156,43.457,23.438,25.879,0
152227.232,12.207,31.738,44.434,27.344,3.906,0
152227.236,33.691,31.250,38.086,35.645,30.273,0
152227.240,44.434,31.250,31.250,36.133,31.250,0
152227.244,24.902,31.250,30.273,29.785,-5.859,0
152227.248,13.184,39.062,32.715,25.879,-20.020,0
152227.252,43.945,39.062,30.273,32.715,10.742,0
152227.256,47.363,33.691,21.484,33.691,32.227,0
152227.259,20.508,35.156,25.391,26.367,-20.020,0
152227.263,20.996,40.039,36.133,20.020,-53.711,0
152227.267,30.762,40.039,31.738,18.066,-10.742,0
152227.269,35.645,35.156,26.367,21.484,54.199,0
152227.273,32.715,32.715,27.832,19.043,70.801,0
152227.277,19.531,29.297,28.320,18.066,19.043,0
152227.281,20.020,28.809,27.344,24.902,7.812,0
152227.285,42.480,31.738,27.344,31.250,62.500,0
152227.289,42.969,32.227,27.344,33.691,54.688,0
152227.293,22.949,36.621,30.762,36.133,14.648,0
152227.297,16.602,41.016,36.133,29.785,-36.133,0
152227.300,32.227,43.457,34.668,26.855,-8.301,0
152227.304,49.805,48.340,34.668,29.297,69.336,0
152227.308,36.621,44.434,40.039,27.832,25.879,0
152227.312,20.508,39.062,41.504,29.297,-26.367,0
152227.329,54.688,40.527,33.691,34.180,0.000,0
152227.333,62.012,40.527,32.227,38.574,31.250,0
152227.337,29.785,39.551,36.133,31.738,12.207,0
152227.341,18.555,38.086,41.504,32.715,-12.695,0
152227.345,28.320,30.762,38.574,41.992,20.996,0
152227.349,48.340,32.715,25.391,42.480,49.805,0
152227.353,47.852,41.504,24.902,37.109,14.648,0
152227.357,24.902,45.898,39.551,26.855,-71.777,0
152227.360,14.648,39.062,39.551,20.996,-88.379,0
152227.364,33.691,31.250,29.297,29.297,37.109,0
152227.368,48.340,36.621,32.715,29.785,87.891,0
152227.372,34.668,40.039,40.039,24.902,28.320,0
152227.359,19.043,38.574,38.574,26.367,1.953,0
152227.363,35.156,38.086,34.668,28.809,60.059,0
152227.367,54.688,38.574,37.109,34.668,80.078,0
152227.371,44.434,40.039,33.691,33.203,28.320,0
152227.375,27.344,37.109,34.180,27.832,2.441,0
152227.379,33.691,35.156,41.992,36.621,9.766,0
152227.383,51.270,31.738,36.133,41.504,50.781,0
152227.387,56.641,33.203,27.344,33.203,26.367,0
152227.390,27.344,35.156,29.785,26.855,-13.672,0
152227.394,17.090,34.180,33.203,32.227,36.621,0
152227.398,47.363,37.109,33.203,36.621,99.609,0
152227.402,46.875,37.109,38.086,28.320,114.746,0
152227.404,19.531,34.668,41.016,22.949,44.434,0
152227.408,7.324,31.250,34.668,20.020,8.789,0
152227.412,26.855,27.832,31.738,20.996,78.613,0
152227.416,39.551,29.785,34.668,27.344,98.145,0
152227.420,29.785,32.227,35.156,26.855,45.898,0
152227.424,25.879,37.598,30.762,22.949,11.719,0
152227.428,39.062,30.762,29.297,29.785,51.270,0
152227.432,47.363,25.879,30.762,35.156,82.520,0
152227.435,31.250,36.133,30.762,26.855,31.738,0
152227.439,15.625,40.527,37.109,24.414,-43.457,0
152227.443,26.855,39.062,40.039,29.785,-28.809,0
152227.447,45.898,36.133,38.574,34.668,66.406,0
152227.464,43.457,37.109,34.668,36.133,63.965,0
152227.468,25.879,38.086,32.715,35.156,-5.371,0
152227.472,26.855,34.180,38.086,32.227,14.648,0
152227.476,48.340,33.691,43.945,37.598,41.016,0
152227.480,53.223,34.180,39.062,40.527,67.383,0
152227.484,26.367,33.691,32.227,30.273,32.715,0
152227.488,15.137,34.668,35.156,33.691,2.441,0
152227.492,33.691,36.133,36.621,36.621,40.527,0
152227.495,48.828,38.086,35.645,35.645,42.480,0
152227.499,34.180,34.668,32.227,34.668,8.789,0
152227.503,24.414,29.297,31.738,24.414,-42.969,0
152227.507,36.133,30.762,38.574,28.320,-1.465,0
152227.510,39.062,34.180,46.387,34.180,68.359,0
152227.514,32.227,33.203,44.434,30.273,33.691,0
152227.517,15.137,32.227,36.621,28.320,7.812,0
152227.521,24.902,32.227,32.715,32.715,30.273,0
152227.525,53.711,33.691,30.762,40.039,72.266,0
152227.529,50.293,33.691,22.949,36.133,53.711,0
152227.533,28.320,34.180,24.902,27.344,24.902,0
152227.537,26.855,35.156,35.645,30.273,34.180,0
152227.541,40.039,29.785,41.016,40.527,51.270,0
152227.545,41.016,27.832,42.969,34.668,70.801,0
152227.549,29.785,38.574,44.922,33.203,47.852,0
152227.553,21.484,42.969,37.598,38.086,3.906,0
152227.554,36.133,36.621,36.133,38.574,17.090,0
152227.558,48.828,37.109,39.062,43.457,31.250,0
152227.562,34.180,37.598,34.180,41.504,29.785,0
152227.566,27.832,37.598,34.668,39.062,25.879,0
152227.570,45.410,35.645,32.715,42.480,63.965,0
152227.574,51.758,31.738,32.715,51.758,104.004,0
152227.578,38.574,35.645,35.156,42.969,84.961,0
152227.582,16.113,38.086,41.016,32.227,34.180,0
152227.585,24.414,36.133,37.598,37.109,7.324,0
152227.589,42.969,36.621,28.320,33.203,88.379,0
152227.593,41.016,38.086,29.785,29.297,115.234,0
152227.597,33.203,41.016,31.250,30.273,47.363,0
152227.600,23.926,38.086,33.203,28.809,43.457,0
152227.604,36.133,36.621,30.273,34.180,117.676,0
152227.608,52.734,36.621,23.438,33.203,137.695,0
152227.612,42.480,35.645,30.273,26.855,54.688,0
152227.616,48.340,38.086,39.551,30.762,-6.348,0
152227.620,60.059,37.109,34.668,37.598,50.781,0
152227.624,51.758,35.156,26.855,40.039,85.449,0
152227.628,38.086,31.738,26.855,39.551,23.438,0
152227.632,26.367,31.250,40.039,41.016,-30.762,0
152227.636,41.992,38.086,49.316,45.898,-4.395,0
152227.640,55.664,41.504,42.969,48.828,70.312,0
152227.643,45.898,38.574,40.527,45.410,73.242,0
152227.644,21.484,35.156,40.039,41.992,47.363,1
152227.648,21.484,34.668,36.621,45.898,62.500,0
152227.652,52.734,32.715,30.273,52.246,96.680,0
152227.656,48.340,33.691,22.949,46.387,127.930,0
152227.660,20.508,32.715,29.297,29.785,93.262,0
152227.664,19.531,33.691,38.086,27.344,4.883,0
152227.668,44.434,41.016,41.992,42.969,44.922,0
152227.672,51.758,40.527,41.992,44.434,96.680,0
152227.675,31.250,39.062,38.086,33.691,47.852,0
152227.679,29.297,44.434,41.016,33.203,17.090,0
152227.683,55.176,42.969,41.016,39.062,31.250,0
152227.687,51.270,35.156,35.156,34.668,33.691,0
152227.689,33.691,31.250,33.691,27.344,1.953,0
152227.693,25.391,33.203,28.320,28.320,-26.367,0
152227.697,30.762,40.039,22.461,31.738,-7.812,0
152227.701,52.734,40.527,31.738,35.645,44.434,0
152227.705,49.805,35.156,46.875,35.156,25.391,0
152227.709,24.414,34.180,46.387,29.297,0.000,0
152227.713,20.020,32.715,39.551,31.738,3.906,0
152227.717,46.875,33.203,37.598,40.527,46.875,0
152227.720,53.711,38.574,30.273,37.109,66.895,0
152227.724,27.832,41.016,29.785,23.926,23.438,0
152227.728,11.230,40.527,31.250,15.625,14.160,0
152227.732,29.785,36.133,25.879,13.184,79.102,0
152227.734,45.898,35.156,28.809,10.742,119.141,0
152227.738,15.137,39.062,38.574,12.207,71.777,0
152227.742,5.859,40.527,38.574,20.020,-11.719,0
152227.746,29.297,35.645,28.320,29.297,3.906,0
152227.750,39.551,31.250,24.902,29.297,66.895,0
152227.754,33.691,37.109,34.180,27.832,50.293,0
152227.758,14.648,38.574,41.016,27.832,-16.113,0
152227.762,19.043,36.621,41.016,28.320,-41.016,0
152227.765,40.527,32.227,39.551,34.668,53.223,0
152227.769,40.039,31.250,29.785,34.180,91.797,0
152227.773,20.020,37.598,20.020,27.344,-2.441,0
152227.777,17.578,37.109,28.809,28.809,-27.344,0
152227.779,39.062,36.133,36.133,36.621,54.688,0
152227.783,46.875,41.016,35.156,37.598,72.754,0
152227.787,27.832,34.668,32.227,31.250,-3.906,0
152227.791,19.043,30.273,34.668,29.297,-17.578,0
152227.795,39.551,34.180,39.551,34.180,77.637,0
152227.799,48.340,29.785,36.133,33.203,89.355,0
152227.803,28.809,26.855,28.320,22.461,6.836,0
152227.806,9.766,24.902,25.879,17.578,-25.879,0
152227.810,25.879,30.762,30.762,23.438,19.043,0
152227.814,45.410,37.109,36.621,26.367,95.215,0
152227.818,34.668,32.227,42.969,24.414,104.004,0
152227.822,13.184,31.250,41.016,24.414,41.504,0
152227.826,18.555,32.715,31.738,28.320,43.457,0
152227.829,40.527,35.156,30.273,30.273,83.984,0
152227.833,37.598,35.645,29.297,27.344,72.754,0
152227.837,17.578,30.762,21.973,21.484,16.602,0
152227.841,16.113,31.738,22.461,22.949,-16.113,0
152227.845,37.109,33.203,31.738,29.785,43.457,0
152227.849,42.480,27.832,30.273,32.715,71.777,0
152227.853,27.344,28.809,19.531,28.320,49.805,0
152227.857,18.066,35.645,27.832,27.344,53.223,0
152227.861,34.180,37.598,42.480,31.250,52.246,0
152227.865,48.340,34.180,43.945,32.715,69.336,0
152227.869,45.410,30.273,32.715,27.832,66.895,0
152227.884,20.508,33.691,27.832,24.414,-14.160,0
152227.888,19.531,39.551,30.273,31.250,-2.930,0
152227.892,49.316,39.062,27.832,36.621,104.980,0
152227.896,37.109,33.691,26.855,30.762,104.004,0
152227.900,17.578,34.668,23.926,28.320,14.648,0
152227.904,28.320,36.133,28.809,34.180,-19.531,0
152227.908,48.340,32.227,38.086,35.156,45.898,0
152227.912,46.387,31.250,44.922,34.180,69.336,0
152227.915,24.414,34.180,43.457,32.227,18.066,0
152227.919,23.438,37.598,32.227,38.086,3.906,0
152227.923,50.293,38.086,32.715,45.410,69.824,0
152227.927,57.129,39.062,38.574,39.551,97.656,0
152227.929,29.785,39.551,36.621,28.320,55.176,0
152227.933,14.648,41.504,35.156,23.926,2.441,0
152227.937,32.227,39.551,32.227,26.855,7.324,0
152227.941,44.434,32.715,30.273,25.391,33.691,0
152227.945,32.715,32.227,30.762,23.438,3.906,0
152227.949,13.672,36.133,34.668,27.832,-45.410,0
152227.953,17.578,36.621,33.203,32.227,-45.410,0
152227.957,40.039,37.598,29.297,39.062,28.320,0
152227.960,41.016,37.109,35.645,38.574,38.086,0
152227.964,21.484,36.133,39.551,30.273,-37.109,0
152227.968,26.855,35.156,37.109,30.273,5.859,0
152227.972,51.758,35.156,33.203,37.109,72.754,0
152227.974,45.898,39.062,32.715,35.156,61.035,0
152227.978,25.879,38.086,32.715,31.738,37.109,0
152227.982,25.391,37.598,35.645,39.062,21.973,0
152227.986,36.133,39.551,33.691,38.574,70.801,0
152227.990,45.410,35.645,31.738,38.574,91.797,0
152227.994,30.762,31.738,39.062,37.109,27.832,0
152227.998,15.137,34.180,41.016,31.738,3.418,0
152228.002,32.715,36.133,36.621,35.645,43.457,0
152228.006,49.805,38.086,30.762,34.668,62.012,0
152228.010,37.598,41.504,28.320,31.738,57.129,0
152228.013,23.926,40.527,25.391,32.227,1.465,0
152228.017,35.156,37.109,23.926,31.250,8.301,0
152228.019,52.734,36.133,31.250,37.109,66.895,0
152228.023,51.758,39.062,39.062,41.504,82.520,0
152228.027,34.668,39.062,40.527,38.574,15.625,0
152228.031,32.715,35.645,32.715,43.945,6.836,0
152228.035,57.129,35.645,22.949,52.246,58.105,0
152228.039,62.988,37.109,26.855,48.340,54.199,0
152228.043,38.574,39.062,35.645,41.992,11.230,0
152228.047,33.691,38.574,40.527,41.504,-25.879,0
152228.050,53.223,37.598,44.922,46.875,4.395,0
152228.054,55.176,32.715,46.387,45.410,41.992,0
152228.058,41.992,33.691,42.969,38.086,29.785,0
152228.062,28.809,38.086,40.527,39.551,-27.344,0
152228.066,48.340,34.180,38.086,43.945,-30.273,0
152228.070,62.500,30.762,30.273,40.527,50.293,0
152228.074,33.203,33.203,29.785,36.133,65.918,0
152228.078,16.602,38.086,36.133,31.738,-3.418,0
152228.082,30.273,42.480,32.227,29.785,-3.418,0
152228.086,54.688,38.086,30.273,39.062,106.934,0
152228.090,55.176,37.598,38.086,40.039,130.859,0
152228.093,25.879,44.922,39.551,23.926,38.574,0
152228.097,20.996,48.340,38.574,22.949,20.508,0
152228.101,45.898,41.504,38.574,29.297,91.309,0
152228.105,47.852,39.062,37.598,28.809,125.000,0
152228.109,31.250,38.086,34.668,24.414,84.473,0
152228.109,19.043,34.180,24.902,21.973,16.602,0
152228.113,32.227,33.691,27.832,30.273,48.828,0
152228.117,47.363,32.715,37.109,33.203,83.496,0
152228.121,32.227,28.809,39.551,28.809,16.113,0
152228.125,18.555,28.809,41.016,24.902,-40.527,0
152228.129,32.715,32.715,40.527,33.203,-15.625,0
152228.133,47.363,33.691,38.086,42.480,23.926,0
152228.137,36.621,37.598,30.762,33.691,-11.230,0
152228.141,18.555,40.527,26.367,29.785,-37.109,0
152228.144,19.531,33.691,25.879,38.574,-3.418,0
152228.148,46.875,34.180,35.156,44.434,41.992,0
152228.152,56.641,30.762,38.086,42.480,58.105,0
152228.154,31.738,29.785,37.109,38.574,25.391,0
152228.158,25.391,38.574,39.062,41.504,22.949,0
152228.162,46.387,39.062,38.086,45.410,50.781,0
152228.166,54.199,44.922,40.527,45.898,60.059,0
152228.170,39.062,49.316,40.527,41.016,31.738,0
152228.174,26.367,40.527,37.598,32.227,-30.762,0
152228.178,41.504,37.109,40.039,37.109,-37.598,0
152228.182,54.688,40.527,37.598,37.109,40.527,0
152228.185,43.457,36.133,37.109,32.227,24.414,0
152228.189,26.855,30.762,42.480,34.668,-67.383,0
152228.193,29.785,29.297,45.410,36.133,-50.293,0
152228.197,47.363,28.320,41.504,36.133,36.621,0
152228.214,41.504,31.250,41.504,31.738,79.102,0
152228.218,23.438,35.645,37.109,27.344,-19.043,0
152228.222,22.461,35.156,25.879,25.879,-53.223,0
152228.226,39.551,33.691,25.879,29.785,41.992,0
152228.230,39.551,28.809,32.227,29.297,82.031,0
152228.234,19.043,26.855,34.668,29.297,28.809,0
152228.238,9.766,31.250,31.738,37.109,-3.418,0
152228.242,39.062,37.109,31.250,41.504,39.551,0
152228.246,61.523,37.598,30.273,37.598,80.078,0
152228.249,27.344,34.668,34.668,34.180,47.363,0
152228.253,15.625,34.668,41.992,34.180,-35.156,0
152228.257,44.434,34.668,41.504,41.016,16.113,0
152228.259,53.223,34.668,36.621,41.504,129.395,0
152228.263,46.387,40.039,37.109,42.480,69.336,0
152228.267,36.133,43.457,40.039,44.922,-32.227,0
152228.271,35.645,44.434,35.645,40.039,5.371,0
152228.275,53.711,45.410,37.109,42.969,41.016,0
152228.279,54.199,38.574,38.574,44.922,42.969,1
152228.283,36.133,37.109,34.668,40.527,24.414,0
152228.287,35.156,38.574,37.109,38.574,42.969,0
152228.291,55.176,38.574,40.039,41.016,55.664,0
152228.294,62.988,39.062,38.086,39.551,23.926,0
152228.298,44.922,36.133,37.109,31.738,7.324,0
152228.302,25.391,39.062,38.574,31.738,11.719,0
152228.304,35.645,38.086,37.109,38.574,52.246,0
152228.308,47.852,35.156,34.180,38.574,55.664,0
152228.312,35.156,42.480,36.133,35.645,47.363,0
152228.316,20.508,40.527,33.691,31.250,15.625,0
152228.320,29.297,32.715,32.715,32.227,32.715,0
152228.324,45.898,29.297,33.691,37.598,75.195,0
152228.328,34.180,28.809,30.273,35.156,34.668,0
152228.332,21.973,31.738,32.715,34.180,-25.391,0
152228.335,39.551,33.203,39.551,37.598,-29.297,0
152228.339,41.016,35.645,41.016,39.062,33.691,0
152228.343,28.809,37.598,35.156,35.156,60.547,0
152228.347,19.531,36.621,30.762,35.156,1.953,0
152228.349,24.414,31.250,33.203,37.109,-13.184,0
152228.353,47.852,33.691,37.598,41.992,75.195,0
152228.357,49.805,40.527,30.273,40.039,84.961,0
152228.361,27.344,37.598,33.203,28.320,-3.906,0
152228.365,15.625,35.156,42.969,20.996,-22.461,0
152228.369,35.645,36.133,40.039,25.391,39.062,0
152228.373,48.828,33.691,36.133,23.438,67.383,0
152228.377,31.250,28.320,30.762,14.648,42.480,0
152228.381,20.020,32.715,27.344,13.184,-21.973,0
152228.384,31.738,39.551,28.809,18.555,32.715,0
152228.388,45.898,39.551,25.879,17.090,84.473,0
152228.392,43.945,42.969,23.926,11.719,57.617,0
152228.394,21.973,39.551,29.297,11.230,8.789,0
152228.398,32.715,34.180,27.344,11.230,-10.742,0
152228.402,60.547,38.574,26.855,18.555,67.871,0
152228.406,34.668,37.598,36.133,20.996,97.656,0
152228.410,7.812,32.227,36.133,19.531,33.203,0
152228.414,13.184,31.738,32.227,29.297,16.113,0
152228.418,36.621,37.109,31.250,36.621,42.480,0
152228.422,42.969,39.062,36.133,39.551,31.250,0
152228.425,23.926,39.551,39.551,40.527,-3.906,0
152228.429,7.324,38.574,33.691,35.156,-16.602,0
152228.433,25.391,33.203,34.180,38.574,15.625,0
152228.437,38.574,27.344,36.621,40.039,75.684,0
152228.439,24.414,25.391,34.180,33.203,70.801,0
152228.443,12.695,27.832,29.785,30.273,-2.930,0
152228.447,27.344,30.273,28.809,32.715,11.230,0
152228.451,51.270,34.180,31.738,35.156,87.402,0
152228.455,46.875,35.645,31.250,25.879,91.309,0
152228.459,23.438,34.668,33.691,15.625,47.363,0
152228.463,19.531,36.621,34.668,21.484,61.035,0
152228.467,48.828,36.133,30.273,30.273,77.637,0
152228.471,56.641,31.738,27.832,29.785,60.059,0
152228.474,17.090,32.227,25.391,22.461,53.223,0
152228.478,6.348,33.691,27.344,20.996,15.625,0
152228.482,38.574,29.785,30.273,30.273,37.598,0
152228.484,51.270,31.250,37.598,35.645,66.406,0
152228.488,30.273,35.156,42.480,29.297,-8.789,0
152228.492,16.113,36.133,44.434,27.832,-91.309,0
152228.496,32.715,35.645,41.992,40.039,-69.336,0
152228.500,48.828,34.180,33.203,43.457,28.320,0
152228.504,36.621,24.414,26.367,34.668,76.660,0
152228.508,15.625,23.926,34.668,27.832,12.207,0
152228.512,19.043,28.320,40.039,29.785,-15.137,0
152228.515,38.086,27.832,37.598,36.621,64.453,0
152228.519,33.203,32.227,30.762,30.273,64.941,0
152228.523,17.090,33.203,26.855,25.879,11.230,0
152228.527,27.344,33.691,32.227,33.691,16.113,0
152228.531,52.246,37.109,34.668,39.062,79.590,0
152228.534,60.059,36.621,33.203,36.621,80.566,0
152228.538,40.527,36.133,29.297,31.738,-0.488,0
152228.542,31.738,38.086,31.250,29.785,-20.508,0
152228.546,58.594,39.062,37.598,37.109,37.598,0
152228.550,56.641,39.062,36.133,39.551,50.293,0
152228.554,31.738,39.551,31.250,31.738,6.348,0
152228.558,17.090,36.133,33.203,28.809,-66.895,0
152228.562,26.367,36.133,31.738,35.156,-32.227,0
152228.566,44.434,37.598,26.367,42.480,49.316,0
152228.570,38.574,37.109,33.203,40.527,63.477,0
152228.573,17.578,32.715,41.504,32.227,11.230,0
152228.589,23.438,32.715,41.016,37.109,-0.488,0
152228.593,48.340,35.156,43.457,43.457,57.129,0
152228.597,41.992,30.273,42.969,35.645,27.832,0
152228.601,11.719,26.855,37.598,28.809,-41.016,0
152228.605,10.254,30.762,37.598,31.738,-28.809,0
152228.609,29.785,30.273,40.039,36.133,12.695,0
152228.613,28.320,31.738,37.598,27.344,6.836,0
152228.617,9.766,33.203,40.527,21.484,-37.109,0
152228.621,-0.488,32.715,40.527,26.855,-62.500,0
152228.624,23.438,33.203,35.156,32.715,13.672,0
152228.628,46.387,34.668,38.086,36.133,36.133,0
152228.632,30.762,31.738,35.645,33.691,0.488,0
152228.634,20.996,25.879,31.250,32.227,-39.551,0
152228.638,40.039,30.273,25.879,32.715,8.789,0
152228.642,54.688,40.039,18.066,34.180,82.520,0
152228.646,47.363,42.480,23.438,29.297,29.297,0
152228.650,30.762,41.992,30.762,21.484,-24.414,0
152228.654,28.809,36.133,34.180,22.461,-20.996,0
152228.658,46.387,33.691,37.109,28.809,23.926,0
152228.662,46.875,40.039,32.227,26.367,39.551,0
152228.665,23.926,41.504,21.973,19.043,-45.410,0
152228.669,12.207,36.133,17.578,18.066,-79.590,0
152228.673,23.926,29.785,21.484,17.578,17.578,0
152228.677,33.203,30.762,30.762,20.020,66.895,0
152228.679,15.625,35.645,38.574,20.996,11.719,0
152228.683,5.859,33.691,36.133,15.625,-46.387,0
152228.687,25.879,29.297,31.250,20.508,-26.855,0
152228.691,41.992,26.367,31.738,28.320,45.898,0
152228.695,29.297,26.855,33.691,27.344,35.156,0
152228.699,12.695,27.832,30.762,28.809,-54.688,0
152228.703,23.438,29.297,24.414,38.574,-41.504,0
152228.707,43.945,29.785,24.902,43.457,65.918,0
152228.710,41.992,34.180,33.203,39.062,39.551,0
152228.714,21.484,33.691,34.668,36.621,-29.785,0
152228.718,27.832,31.738,31.250,43.457,8.789,0
152228.722,59.082,36.133,33.691,52.246,60.547,0
152228.724,67.383,38.574,37.109,53.223,87.402,0
152228.728,46.875,35.156,37.109,43.457,38.086,0
152228.732,34.180,31.738,34.668,41.992,-1.953,0
152228.736,57.129,32.715,30.762,46.387,52.734,0
152228.740,68.359,34.180,23.926,42.969,98.633,0
152228.744,44.434,35.156,29.297,40.039,64.453,0
152228.748,27.832,32.227,36.621,37.109,6.836,0
152228.752,38.574,31.250,38.574,40.527,22.949,0
152228.755,53.711,35.156,41.016,42.969,63.965,0
152228.759,45.410,37.109,38.574,37.598,52.246,0
152228.763,27.344,36.133,36.621,38.086,17.578,0
152228.767,30.762,35.156,38.574,45.410,14.160,0
152228.769,48.828,28.809,38.574,44.434,65.430,0
152228.773,49.805,26.367,31.738,36.133,75.684,0
152228.777,28.809,28.320,30.762,35.156,27.344,0
152228.781,22.461,27.832,28.320,33.691,29.297,0
152228.785,60.547,26.855,24.902,37.109,87.402,0
152228.789,79.102,32.715,33.691,37.109,99.121,0
152228.793,34.180,36.133,33.691,25.391,38.086,0
152228.797,14.648,34.180,30.273,23.926,18.066,0
152228.800,39.062,38.574,30.273,30.762,62.012,0
152228.804,50.781,42.969,22.949,29.297,76.660,0
152228.808,37.109,41.504,22.461,20.508,44.434,0
152228.812,22.949,39.551,30.273,19.531,15.137,0
152228.816,32.227,40.527,29.785,24.902,23.438,0
152228.819,47.852,40.527,27.344,30.273,62.500,0
152228.823,35.156,40.527,28.809,29.785,35.156,0
152228.827,14.160,37.598,30.273,21.973,-36.133,0
152228.831,17.578,33.691,29.297,21.484,-20.508,0
152228.835,38.086,34.180,24.902,26.855,45.410,0
152228.839,35.645,33.203,26.855,24.902,45.410,0
152228.843,28.809,35.645,29.785,19.531,-25.391,0
152228.847,32.227,37.109,28.809,21.484,-21.973,0
152228.851,31.738,38.574,30.273,26.855,50.293,0
152228.855,36.621,41.992,32.715,27.832,98.145,0
152228.858,24.414,33.691,33.691,23.438,48.340,0
152228.859,18.066,30.762,29.785,22.461,-1.465,0
152228.863,41.992,34.180,28.320,35.645,42.969,0
152228.867,56.641,35.156,26.855,38.574,68.848,0
152228.871,42.480,38.086,17.578,33.691,38.086,0
152228.875,27.344,37.598,20.020,36.133,-26.855,0
152228.879,39.062,34.668,34.668,46.875,13.184,0
152228.883,59.082,34.180,41.992,52.246,94.727,0
152228.887,50.293,36.133,32.715,41.504,62.500,0
152228.890,28.809,32.715,26.855,33.691,4.883,0
152228.894,30.273,32.715,27.344,37.109,21.484,0
152228.898,45.898,37.109,21.973,43.457,66.406,0
152228.902,43.457,34.180,18.555,38.574,67.383,0
152228.904,20.020,34.668,20.996,27.344,40.527,0
152228.908,14.648,37.598,29.297,25.879,19.043,2
152228.912,43.945,39.551,34.668,28.809,45.898,0
152228.916,49.316,36.621,33.691,25.391,67.383,0
152228.920,36.621,34.668,33.691,24.902,41.016,0
152228.924,32.715,40.039,31.738,27.832,-4.883,0
152228.928,37.109,45.410,25.879,31.738,15.625,0
152228.932,54.688,42.480,24.414,35.156,89.355,0
152228.935,41.504,30.762,27.344,32.227,68.848,0
152228.939,15.137,27.344,33.691,24.902,-16.113,0
152228.943,20.996,33.691,33.691,28.809,10.742,0
152228.947,41.016,37.109,29.785,31.738,98.633,0
152228.964,40.527,39.551,34.180,27.344,91.309,0
152228.968,17.578,41.992,41.992,25.879,41.992,0
152228.972,12.207,36.621,40.039,20.508,45.410,0
152228.976,33.203,34.180,36.133,21.484,65.430,0
152228.980,36.133,38.574,33.691,24.902,71.777,0
152228.984,22.949,37.109,24.902,20.020,30.273,0
152228.988,17.578,35.645,23.926,20.996,-5.371,0
152228.992,49.805,36.621,28.320,24.902,37.598,0
152228.995,58.105,37.109,28.320,23.926,60.547,0
152228.999,23.926,42.480,31.738,20.996,17.090,0
152229.003,14.160,42.480,33.691,20.508,-5.859,0
152229.007,31.738,42.480,33.203,29.297,31.738,0
152229.011,54.688,43.945,26.367,33.691,63.965,0
152229.014,47.363,41.992,20.996,30.762,32.715,0
152229.018,20.508,43.457,23.926,25.391,15.625,0
152229.022,27.832,43.457,28.809,29.785,22.461,0
152229.026,50.781,38.574,33.691,38.574,19.043,0
152229.030,45.898,37.109,36.133,33.691,7.812,0
152229.034,23.438,41.016,36.133,29.785,-44.434,0
152229.038,27.832,39.551,32.715,33.691,-33.203,0
152229.042,48.828,31.738,35.645,35.156,25.879,0
152229.046,52.734,26.855,37.598,38.086,11.719,0
152229.050,55.664,33.203,31.738,38.574,-16.602,0
152229.053,41.504,33.203,30.273,33.691,-8.301,0
152229.071,31.738,25.391,33.691,38.086,37.598,0
152229.074,45.898,34.668,34.180,40.527,24.902,0
152229.078,34.668,37.598,32.227,29.297,0.977,0
152229.082,20.020,33.203,29.785,21.484,-6.836,0
152229.086,32.227,36.621,23.926,22.461,10.742,0
152229.090,48.828,35.645,27.344,25.879,77.637,0
152229.094,41.992,32.227,37.109,21.484,107.422,0
152229.098,21.484,30.273,39.062,14.648,68.359,0
152229.102,21.973,36.621,35.645,21.973,6.348,0
152229.106,36.621,41.504,30.762,29.297,21.973,0
152229.110,30.273,36.133,31.738,24.414,62.500,0
152229.114,12.207,35.156,35.156,17.578,23.926,0
152229.099,10.742,38.086,33.691,20.020,0.000,0
152229.103,28.809,36.133,28.809,30.273,57.617,0
152229.107,35.645,28.320,30.762,33.203,90.332,0
152229.111,20.020,25.391,34.180,28.809,50.781,0
152229.115,10.742,33.691,32.715,30.762,2.930,0
152229.119,25.879,35.645,40.039,34.668,24.902,0
152229.123,38.574,34.180,40.527,28.809,79.102,0
152229.127,27.344,35.645,36.133,23.926,41.992,0
152229.131,12.695,34.668,31.738,23.438,-17.578,0
152229.135,28.320,31.250,28.320,23.926,20.020,0
152229.138,68.848,38.574,31.738,27.832,56.152,0
152229.142,53.711,46.387,28.809,28.809,24.902,0
152229.144,17.578,37.598,24.414,22.461,-14.648,0
152229.148,28.320,32.715,29.785,22.949,61.523,0
152229.152,47.363,37.109,33.203,24.414,107.422,0
152229.156,43.945,41.504,29.297,17.090,63.965,0
152229.160,29.785,41.992,24.902,9.766,14.160,0
152229.164,24.902,44.922,27.344,10.254,-12.695,0
152229.168,40.039,46.387,27.832,21.484,39.551,0
152229.172,47.363,41.016,26.855,23.926,52.246,0
152229.175,27.344,37.109,26.855,14.160,-5.371,0
152229.179,13.184,37.109,30.762,17.090,-10.254,0
152229.183,30.273,40.039,40.039,32.227,26.855,0
152229.187,49.316,43.457,39.551,41.504,49.805,0
152229.189,50.293,39.551,36.133,34.668,29.785,0
152229.193,27.344,35.156,38.086,32.715,-12.695,0
152229.197,18.066,35.645,41.016,39.062,16.602,0
152229.201,47.363,33.203,39.551,45.410,89.844,0
152229.205,42.480,33.691,32.715,42.969,86.914,0
152229.209,16.113,37.598,30.273,35.645,48.828,0
152229.213,22.461,34.668,35.156,34.180,83.008,0
152229.217,42.969,31.738,37.598,29.297,106.445,0
152229.221,40.039,36.133,35.645,24.902,101.562,0
152229.224,21.973,36.621,36.133,21.484,55.664,0
152229.228,14.648,36.621,36.621,20.996,8.789,0
152229.232,30.273,37.109,32.715,24.414,70.312,0
152229.234,42.480,32.715,30.273,21.973,129.883,0
152229.238,25.391,35.156,33.203,17.090,79.590,0
152229.242,28.809,36.621,41.016,22.461,-15.625,0
152229.246,44.922,33.203,44.922,25.879,4.883,0
152229.250,42.480,35.645,47.363,28.809,43.457,0
152229.254,42.969,39.062,45.410,29.297,0.488,0
152229.258,27.344,35.156,35.156,17.090,-38.574,0
152229.262,22.949,30.273,27.832,10.742,-27.832,0
152229.266,29.785,32.227,30.273,14.648,28.809,0
152229.269,30.273,36.621,38.574,18.066,60.059,0
152229.273,21.484,41.992,43.945,24.902,23.438,0
152229.277,21.484,38.086,42.969,33.691,8.301,0
152229.281,42.969,33.203,37.598,40.527,80.078,0
152229.284,51.270,34.180,38.574,43.457,77.148,0
152229.288,32.227,29.785,42.969,37.109,4.395,0
152229.292,24.414,30.762,41.504,35.156,-10.254,0
152229.296,41.992,38.574,35.645,42.969,38.574,0
152229.300,55.176,42.480,32.715,48.828,57.617,0
152229.304,46.387,41.504,29.297,48.340,48.340,0
152229.308,36.621,33.691,31.250,44.434,12.695,0
152229.312,51.270,33.203,31.738,49.805,14.160,0
152229.316,69.824,43.457,27.832,51.270,74.219,0
152229.320,62.500,44.922,32.715,43.457,57.129,0
152229.323,41.992,43.457,35.645,41.992,2.930,0
152229.339,47.852,43.457,34.668,43.457,56.152,0
152229.343,68.359,39.551,37.598,42.969,83.984,0
152229.347,61.035,38.574,37.109,39.551,46.875,0
152229.351,33.691,38.086,30.273,31.250,2.930,0
152229.355,27.344,35.156,29.297,26.855,-1.465,0
152229.359,49.316,35.645,39.062,34.668,31.738,0
152229.363,54.199,36.133,41.016,32.227,24.414,0
152229.367,31.738,37.598,34.668,23.926,7.812,0
152229.370,22.461,37.109,38.086,32.227,-12.695,0
152229.374,37.598,31.250,39.551,43.945,50.293,0
152229.378,46.875,27.832,38.086,44.434,104.492,0
152229.382,26.367,27.344,38.574,39.551,47.363,0
152229.384,8.789,30.273,40.527,39.062,8.789,0
152229.388,25.879,29.785,37.598,40.527,21.484,0
152229.392,44.434,28.320,33.203,35.645,91.797,0
152229.396,31.738,33.203,33.691,30.762,111.328,0
152229.400,10.254,36.621,34.668,31.250,12.207,0
152229.404,32.227,40.527,37.109,34.180,-2.930,0
152229.408,57.617,43.945,34.668,29.297,63.477,0
152229.412,29.785,33.203,36.133,23.438,89.844,0
152229.415,19.531,28.320,42.480,26.855,30.273,0
152229.419,21.973,40.039,36.621,18.066,-30.273,0
152229.423,28.809,42.480,25.391,6.836,52.246,0
152229.427,33.203,38.086,29.785,11.230,73.242,0
152229.429,15.625,35.156,38.574,12.695,-7.812,0
152229.433,2.441,34.668,37.109,14.160,-44.922,0
152229.437,21.484,33.203,32.715,26.855,8.789,0
152229.441,44.434,31.250,36.621,36.133,61.035,0
152229.445,34.180,35.645,40.039,31.738,51.270,0
152229.449,18.555,33.691,30.273,23.926,-13.672,0
152229.453,40.527,39.062,21.973,35.645,-28.809,0
152229.457,67.383,44.922,19.043,46.875,51.758,0
152229.460,58.594,34.668,30.273,41.992,2.930,0
152229.464,33.203,30.762,39.062,38.574,-66.895,0
152229.468,35.156,33.203,39.062,42.969,-1.465,0
152229.472,62.012,36.621,43.945,51.270,70.801,0
152229.474,58.105,37.109,47.363,44.434,80.566,0
152229.478,28.809,29.297,45.898,37.109,52.734,0
152229.482,21.484,26.367,42.969,41.504,43.945,0
152229.486,41.016,28.809,34.180,51.758,78.613,0
152229.490,50.781,29.297,30.762,51.758,98.145,0
152229.494,35.156,31.250,40.039,43.457,31.738,0
152229.498,21.973,30.273,37.109,41.016,-16.602,0
152229.502,35.645,27.832,31.250,44.434,26.855,0
152229.505,56.152,32.227,36.621,43.457,62.988,0
152229.509,60.547,35.156,41.016,37.109,35.156,0
152229.513,36.133,36.621,42.480,33.691,-7.324,0
152229.517,25.391,36.621,43.945,36.133,-20.508,0
152229.521,47.852,35.645,43.945,45.898,24.902,0
152229.524,50.781,36.133,34.180,46.875,25.391,0
152229.528,33.203,38.574,22.949,42.969,-26.855,0
152229.532,32.715,36.621,28.809,45.410,-30.762,0
152229.536,50.293,25.391,36.621,47.363,47.363,0
152229.540,50.293,26.367,38.574,38.574,59.570,0
152229.544,30.762,36.133,43.457,30.762,-4.395,0
152229.548,18.066,36.133,42.480,30.273,-13.184,0
152229.552,29.297,36.621,39.551,34.668,8.789,0
152229.556,41.992,33.203,37.109,36.133,52.734,0
152229.560,26.367,25.391,34.668,29.297,59.082,0
152229.563,9.766,29.785,35.156,25.879,-5.371,0
152229.564,24.414,36.621,31.250,29.297,-8.301,0
152229.568,42.480,33.691,33.691,28.320,37.109,0
152229.572,34.180,29.785,40.039,22.949,22.461,0
152229.576,14.160,30.762,44.434,17.578,-16.602,0
152229.580,20.996,34.668,47.363,20.020,0.488,0
152229.584,41.016,38.086,43.457,28.809,77.637,0
152229.588,41.504,41.504,38.086,29.297,56.152,0
152229.592,22.461,42.969,37.109,23.926,-23.438,1
152229.595,13.184,34.180,35.156,21.484,20.996,0
152229.599,42.969,28.320,41.504,32.715,87.402,0
152229.603,80.566,33.203,44.434,40.039,64.941,0
152229.607,49.316,33.203,31.738,35.156,27.344,0
152229.609,14.160,34.180,26.367,33.203,4.883,0
152229.613,42.480,36.133,28.809,41.504,41.992,0
152229.617,62.012,37.598,32.227,47.363,87.891,0
152229.621,45.898,37.109,43.457,40.527,36.621,0
152229.625,26.367,37.598,48.340,38.086,-4.395,0
152229.629,41.016,36.621,41.016,39.062,20.020,0
152229.633,60.547,33.691,30.762,39.062,50.293,0
152229.637,48.828,35.645,30.273,37.109,44.922,0
152229.641,26.367,34.180,34.180,34.668,41.504,0
152229.644,32.227,30.273,33.691,40.039,47.363,0
152229.648,56.641,30.762,30.762,41.992,75.684,0
152229.652,64.941,34.668,31.250,38.086,97.168,0
152229.654,42.969,36.621,28.809,30.762,55.176,0
152229.658,26.367,37.109,25.391,23.438,23.438,0
152229.662,44.922,36.621,30.762,27.832,59.082,0
152229.666,50.293,37.109,32.227,28.809,106.445,0
152229.670,42.969,41.992,32.715,29.297,59.082,0
152229.674,39.551,41.016,27.344,32.715,6.836,0
152229.678,33.691,31.250,18.066,31.250,48.828,0
152229.682,44.922,30.762,18.066,32.227,83.496,0
152229.685,40.039,32.715,26.367,33.203,23.438,0
152229.689,28.320,32.227,28.320,30.273,-55.664,0
152229.693,41.992,32.715,27.832,38.086,-37.598,0
152229.697,55.176,36.133,31.250,41.504,32.227,0
152229.714,41.992,39.551,36.621,36.621,42.969,0
152229.718,19.043,39.062,37.109,35.156,-42.480,0
152229.722,21.973,37.598,36.133,36.621,-68.848,0
152229.726,44.434,38.574,26.367,37.598,24.414,0
152229.730,49.805,38.574,17.090,32.715,33.691,0
152229.734,28.809,29.297,24.902,27.832,-49.805,0
152229.738,17.090,27.832,31.738,25.391,-36.133,0
152229.742,32.715,35.156,32.227,28.320,34.668,0
152229.745,40.039,41.992,29.297,27.832,66.895,0
152229.749,24.902,40.039,28.809,22.461,27.832,0
152229.753,8.789,37.598,30.273,25.391,-10.254,0
152229.757,36.621,38.574,27.344,32.227,16.113,0
152229.759,55.176,35.645,32.227,30.273,61.035,0
152229.763,15.137,32.227,42.969,24.414,68.359,0
152229.767,-3.906,31.738,44.922,24.414,24.414,0
152229.771,16.113,34.180,42.969,29.785,30.273,0
152229.775,42.480,35.645,41.016,36.133,90.332,0
152229.779,38.574,35.156,39.062,35.156,67.871,0
152229.783,13.184,32.227,41.992,24.414,1.465,0
152229.787,12.695,33.203,43.457,25.391,21.973,0
152229.791,40.039,32.715,31.738,39.551,54.199,0
152229.794,50.781,31.738,26.367,34.668,49.805,0
152229.798,27.832,32.227,28.320,22.949,12.695,0
152229.802,17.090,32.715,31.738,27.832,19.043,0
152229.804,40.039,36.133,37.598,35.645,55.664,0
152229.808,48.340,39.062,41.992,33.203,83.496,0
152229.812,47.363,38.086,47.852,29.297,47.363,0
152229.816,25.879,34.180,43.945,27.832,5.859,0
152229.820,15.625,34.180,35.645,31.738,16.602,0
152229.824,37.598,25.879,36.621,34.180,23.438,0
152229.828,35.645,26.855,37.598,28.809,18.066,0
152229.832,19.043,35.156,28.320,27.344,-4.395,0
152229.836,27.344,33.691,24.902,36.621,-24.902,0
152229.839,52.246,34.180,28.809,39.551,-2.930,0
152229.843,47.852,32.715,29.297,35.645,27.344,0
152229.847,25.391,31.250,36.133,31.738,-11.719,0
152229.849,24.414,38.086,42.480,35.645,-18.555,0
152229.853,47.363,37.598,44.434,46.387,37.598,0
152229.857,52.734,32.227,43.457,43.457,62.988,0
152229.861,33.203,31.250,35.645,33.691,16.602,0
152229.865,20.508,32.227,33.203,34.668,-6.836,0
152229.869,34.180,31.738,33.691,38.086,24.902,0
152229.873,42.480,33.203,26.855,37.109,79.102,0
152229.877,31.250,34.180,25.879,40.527,51.270,0
152229.880,26.855,32.715,28.809,38.086,-47.852,0
152229.884,38.086,34.180,27.832,38.086,-8.789,0
152229.888,63.965,36.621,27.344,41.016,85.938,0
152229.892,60.059,37.598,34.668,40.527,70.801,0
152229.894,20.508,33.203,38.574,34.668,-6.348,0
152229.898,27.832,30.762,35.156,32.227,6.348,0
152229.902,55.664,34.668,34.668,35.645,55.664,0
152229.906,50.781,34.180,35.156,31.250,65.430,0
152229.910,25.879,29.297,28.809,25.879,66.406,0
152229.914,17.578,30.273,21.484,25.391,42.480,0
152229.918,36.621,32.715,24.902,33.691,73.242,0
152229.922,44.922,33.203,29.785,34.668,91.797,0
152229.926,25.879,34.668,34.668,22.949,19.043,0
152229.929,18.555,33.203,40.527,23.438,16.602,0
152229.933,38.574,36.621,42.480,34.180,90.820,0
152229.937,46.387,36.621,40.039,35.645,114.258,0
152229.939,32.715,35.645,34.668,25.879,62.988,0
152229.943,23.926,40.527,29.785,21.973,3.906,0
152229.947,35.156,42.480,32.715,32.227,7.812,0
152229.951,55.664,46.875,32.715,39.062,70.801,0
152229.955,51.758,46.387,32.715,34.668,39.062,0
152229.959,29.297,40.039,36.621,32.227,-19.531,0
152229.963,34.180,36.621,30.273,35.645,-3.418,0
152229.967,57.617,36.621,31.738,45.410,10.254,0
152229.970,56.641,37.598,33.203,45.898,52.734,0
152229.974,32.715,33.691,28.320,37.109,51.270,0
152229.978,25.391,33.691,31.738,34.668,36.621,0
152229.982,62.500,35.645,33.203,40.039,59.082,0
152229.986,63.477,37.109,32.227,41.504,57.129,0
152229.990,27.832,39.551,37.598,37.598,38.086,0
152229.994,21.484,40.039,41.504,37.598,0.488,0
152229.998,34.668,39.551,40.527,42.480,56.641,0
152230.002,49.805,31.250,33.691,42.480,112.793,0
152230.006,41.992,29.785,29.297,34.180,78.125,0
152230.010,25.879,38.086,32.715,34.180,-7.812,0
152230.014,28.320,39.062,36.621,35.645,-35.645,0
152230.017,41.992,41.504,34.668,40.039,96.680,0
152230.021,35.645,40.527,35.156,39.551,112.793,0
152230.025,12.695,38.086,33.203,24.902,15.137,0
152230.029,10.254,36.133,31.250,20.996,14.648,0
152230.031,36.621,30.273,31.250,23.438,72.754,0
152230.034,53.223,29.785,26.367,21.484,91.309,0
152230.038,22.461,35.645,29.785,21.973,28.320,0
152230.042,3.418,33.691,33.203,21.484,36.621,0
152230.046,36.621,35.156,32.227,29.297,111.816,0
152230.050,55.176,36.621,30.273,33.691,120.117,0
152230.054,31.738,32.715,28.809,26.367,42.480,0
152230.058,4.883,34.180,27.344,20.020,-4.395,0
152230.062,22.949,32.715,29.297,26.367,40.039,0
152230.066,45.410,36.133,32.715,34.668,103.516,0
152230.070,43.457,39.062,31.738,29.785,90.820,0
152230.074,29.297,33.203,35.645,30.273,27.832,0
152230.089,35.156,31.250,40.527,40.527,36.621,0
152230.093,54.688,33.203,41.016,46.387,39.062,0
152230.097,35.645,36.621,37.598,42.480,34.180,0
152230.101,14.160,42.480,34.668,37.109,17.578,0
152230.105,22.461,41.504,34.668,41.504,-31.250,0
152230.109,45.410,40.039,31.738,48.828,7.324,0
152230.113,50.293,43.945,27.344,44.922,25.391,0
152230.117,32.715,44.922,30.273,38.574,-29.785,0
152230.121,20.020,38.574,34.180,38.086,-44.922,0
152230.125,43.457,34.668,31.738,41.504,2.930,0
152230.128,55.176,32.715,29.785,38.574,50.781,0
152230.132,39.551,34.668,35.156,30.273,52.734,0
152230.134,22.461,35.156,41.504,27.344,-0.488,0
152230.138,32.227,33.691,36.621,31.250,-3.418,0
152230.142,67.871,39.062,30.762,39.062,87.402,0
152230.146,53.223,38.574,33.691,36.621,95.703,0
152230.150,18.555,35.156,30.273,24.902,31.250,0
152230.154,34.180,33.691,33.203,28.809,4.883,0
152230.158,56.152,36.133,36.621,34.668,47.852,0
152230.162,48.340,36.621,30.273,29.297,77.148,0
152230.165,29.785,33.691,28.809,26.855,5.371,0
152230.169,27.832,35.645,24.902,27.344,-38.086,0
152230.173,52.734,33.691,30.762,32.715,40.527,0
152230.177,56.641,33.691,40.039,37.598,68.359,0
152230.179,32.715,40.039,44.922,30.273,16.602,0
152230.183,19.043,41.992,47.852,24.414,2.930,0
152230.187,38.086,41.016,38.574,29.785,44.922,0
152230.191,51.758,36.621,30.273,30.273,112.793,0
152230.195,34.668,31.738,28.809,22.461,84.961,0
152230.199,24.414,32.227,25.391,19.531,1.953,0
152230.203,20.508,25.879,28.320,29.785,-4.883,0
152230.207,39.551,25.391,40.527,42.480,60.547,0
152230.211,38.574,37.109,43.457,33.203,37.598,0
152230.214,10.254,41.504,38.086,17.090,5.371,0
152230.218,16.113,38.086,30.762,17.090,23.438,0
152230.222,34.180,36.133,27.832,27.832,33.691,0
152230.224,37.598,37.598,30.762,29.785,4.883,0
152230.228,22.461,39.062,32.715,24.902,0.977,0
152230.232,20.020,36.621,34.668,26.367,20.508,0
152230.236,43.457,36.133,36.621,35.156,48.828,0
152230.240,55.664,38.574,37.109,38.086,39.551,0
152230.244,37.109,38.086,37.109,29.297,0.000,1
152230.248,26.367,36.621,35.156,31.250,-23.438,0
152230.252,38.086,32.715,35.645,35.645,11.230,0
152230.255,45.410,32.715,33.203,32.715,59.570,0
152230.259,34.180,37.598,27.832,32.227,45.410,0
152230.263,15.137,36.133,29.297,33.203,22.461,0
152230.267,28.320,33.691,30.762,36.133,12.207,0
152230.271,56.152,33.203,33.203,44.922,79.102,0
152230.274,53.223,32.715,38.574,47.852,110.840,0
152230.278,31.738,35.156,38.086,41.992,33.691,0
152230.282,28.809,38.574,32.227,41.504,-9.277,0
152230.286,54.199,34.180,26.855,46.387,56.641,0
152230.290,62.988,31.738,23.926,42.480,76.660,0
152230.294,39.062,35.156,25.391,37.109,-1.953,0
152230.298,39.551,37.109,30.273,40.527,-37.109,0
152230.302,77.148,35.156,29.785,46.875,14.160,0
152230.306,66.406,34.180,27.344,49.805,40.527,0
152230.310,34.180,41.016,27.832,44.922,18.066,0
152230.314,26.367,34.668,28.809,37.598,-16.602,0
152230.314,44.434,23.926,29.785,41.504,-0.977,0
152230.318,62.012,25.879,27.832,45.898,57.617,0
152230.322,45.898,29.785,25.879,44.434,41.504,0
152230.326,27.832,31.738,37.109,42.480,-23.438,0
152230.330,33.691,29.297,47.363,43.457,-13.184,0
152230.334,56.641,31.738,43.945,46.875,80.078,0
152230.338,53.223,33.203,40.039,40.039,104.004,0
152230.342,26.855,29.297,35.645,28.809,7.324,0
152230.346,26.855,31.250,25.879,34.180,-11.719,0
152230.350,50.293,29.297,23.438,44.922,84.961,0
152230.353,57.617,26.367,30.273,45.898,104.004,0
152230.357,42.969,30.273,30.273,44.922,65.918,0
152230.359,35.645,36.621,28.809,52.734,38.086,0
152230.363,62.500,38.574,32.715,59.082,70.312,0
152230.367,78.613,36.621,36.621,60.059,87.402,0
152230.371,54.688,32.715,34.180,52.246,63.477,0
152230.375,30.273,33.691,33.691,42.969,59.570,0
152230.379,20.508,32.715,35.645,41.016,62.500,0
152230.383,35.156,31.250,32.715,39.551,72.266,0
152230.387,35.645,33.203,31.738,40.039,70.312,0
152230.390,18.066,34.180,36.621,26.367,49.805,0
152230.394,22.461,33.203,45.410,25.879,47.852,0
152230.398,47.852,36.133,41.504,36.621,93.750,0
152230.402,51.270,40.039,32.715,32.715,103.516,0
152230.404,29.785,34.180,30.762,28.809,55.664,0
152230.408,22.949,30.273,33.691,29.297,20.996,0
152230.412,43.945,34.180,34.668,37.598,69.336,0
152230.416,53.223,37.598,37.109,43.457,84.473,0
152230.420,29.297,37.109,37.109,35.156,35.645,0
152230.424,26.367,34.668,35.645,31.738,13.184,0
152230.428,51.270,30.273,35.645,41.016,15.625,0
152230.432,44.922,26.855,32.715,40.527,59.570,0
152230.436,28.809,29.785,38.086,32.715,54.199,0
152230.439,19.043,35.645,39.062,32.715,5.371,0
152230.443,30.273,40.039,33.203,38.574,5.371,0
152230.447,55.664,40.527,25.879,42.480,29.785,0
152230.464,46.387,35.645,26.855,34.668,62.988,0
152230.468,18.066,35.156,41.016,24.414,47.852,0
152230.472,16.113,39.551,47.363,26.367,1.465,0
152230.476,38.574,38.086,38.574,31.738,17.090,0
152230.480,41.992,32.715,32.227,28.809,98.145,0
152230.484,25.391,30.762,30.273,21.973,88.867,0
152230.488,21.973,32.715,29.785,24.414,61.035,0
152230.492,38.574,32.715,31.738,35.645,121.582,0
152230.495,46.387,36.133,33.691,33.691,87.402,0
152230.499,30.273,40.039,30.762,26.855,47.363,0
152230.503,19.043,41.992,25.391,29.785,46.387,0
152230.507,36.621,40.527,25.879,39.062,43.945,0
152230.509,57.129,33.691,36.133,44.434,49.316,0
152230.513,43.457,34.180,34.668,40.039,25.879,0
152230.517,22.461,37.109,27.344,29.785,-24.414,0
152230.521,43.945,36.621,32.227,36.621,-37.598,0
152230.525,52.246,35.645,34.668,43.457,46.875,0
152230.529,36.133,36.621,37.598,33.691,93.750,0
152230.533,24.414,41.992,37.109,23.926,1.465,0
152230.537,23.926,41.016,28.320,25.391,-9.766,0
152230.541,46.875,40.039,29.297,36.133,77.148,0
152230.544,55.664,38.574,40.039,32.715,51.270,0
152230.548,31.250,28.320,39.551,22.949,17.578,0
152230.552,13.184,32.715,36.133,24.414,41.016,0
152230.554,28.320,42.969,34.180,26.367,48.828,0
152230.558,41.504,38.574,28.809,27.832,53.223,0
152230.562,23.926,32.227,25.879,24.414,33.203,0
152230.566,5.371,35.156,29.297,23.438,-20.996,0
152230.570,25.391,37.109,34.668,28.320,-9.766,0
152230.574,42.969,35.156,37.109,28.320,44.434,0
152230.578,29.785,35.645,37.598,22.949,25.391,0
152230.582,15.625,33.203,37.109,20.020,-13.184,0
152230.586,22.949,37.109,37.109,22.949,-32.227,0
152230.589,42.480,39.062,32.227,23.438,12.695,0
152230.593,43.945,29.785,29.785,24.414,79.102,0
152230.597,25.391,32.227,31.250,28.320,30.273,0
152230.599,21.484,39.551,34.180,31.250,-39.551,0
152230.603,43.457,39.062,36.133,40.039,48.828,0
152230.607,54.688,36.133,33.203,40.527,89.844,0
152230.611,36.621,37.109,35.156,32.715,4.395,0
152230.615,28.809,35.645,37.109,34.668,-10.742,0
152230.619,53.223,28.809,29.785,42.480,32.715,0
152230.623,63.965,34.180,21.973,44.922,41.992,0
152230.627,41.016,40.527,20.996,32.715,31.250,0
152230.630,22.949,41.504,30.762,26.855,12.207,0
152230.634,34.668,40.039,37.598,34.668,32.227,0
152230.638,53.223,35.156,39.062,38.086,99.609,0
