timestamps,TP9,AF7,AF8,TP10,Right AUX,Marker0
152380.348,53.223,36.621,47.363,39.551,84.961,0
152380.352,34.180,31.738,48.828,36.133,86.426,0
152380.356,-5.859,16.602,46.387,13.672,34.180,0
152380.360,7.324,17.090,62.988,17.090,51.758,0
152380.364,39.062,27.344,50.781,25.391,77.148,0
152380.368,43.945,36.621,24.414,24.902,49.805,0
152380.372,19.043,20.020,9.277,14.648,-9.766,0
152380.376,10.254,15.625,10.254,17.578,-65.918,0
152380.380,40.527,22.461,31.250,34.180,5.859,0
152380.384,51.758,33.203,44.434,41.504,54.688,0
152380.387,24.414,40.039,49.805,30.273,2.930,0
152380.391,13.672,32.227,43.457,21.973,-10.742,0
152380.391,29.785,35.156,35.156,24.902,41.016,0
152380.395,44.922,40.527,33.203,24.414,81.543,0
152380.399,41.504,46.387,32.227,30.762,44.922,0
152380.403,28.320,40.039,45.898,35.645,-4.395,0
152380.407,40.527,31.738,52.734,36.621,42.480,0
152380.411,49.316,29.297,45.898,35.645,91.797,0
152380.415,38.574,27.832,33.203,32.715,62.988,0
152380.419,19.531,24.902,35.156,34.668,41.992,0
152380.423,22.949,28.320,41.016,36.621,43.945,0
152380.426,50.781,34.668,52.246,44.922,91.797,0
152380.430,48.340,31.250,41.016,46.387,107.910,0
152380.434,35.156,38.086,26.855,47.852,43.945,0
152380.438,23.438,34.180,28.320,39.062,7.324,0
152380.442,25.391,16.113,26.855,21.973,36.621,0
152380.445,38.086,24.902,38.086,20.508,63.965,0
152380.449,30.762,37.109,38.086,24.414,48.340,0
152380.453,20.996,37.109,27.832,30.273,9.766,0
152380.457,37.598,34.180,28.809,39.062,57.617,0
152380.461,56.152,37.109,39.062,41.992,103.027,0
152380.465,48.340,49.316,33.203,44.434,69.824,0
152380.469,31.250,47.852,33.691,41.016,17.578,0
152380.473,22.461,29.297,45.898,24.414,23.926,0
152380.477,30.762,20.996,39.551,19.043,90.820,0
152380.481,31.738,25.391,35.156,21.973,84.961,0
152380.496,13.672,26.367,44.922,21.484,-20.020,0
152380.500,19.531,24.414,46.875,30.273,2.930,0
152380.504,54.199,27.344,38.086,51.270,81.543,0
152380.508,56.152,36.133,33.203,47.852,49.805,0
152380.512,27.832,37.598,39.551,32.227,3.418,0
152380.516,29.297,41.504,44.434,38.574,-29.297,0
152380.520,45.898,41.992,26.855,36.621,6.348,0
152380.524,45.410,37.598,22.949,27.344,56.152,0
152380.528,28.320,27.344,24.414,25.391,1.953,0
152380.532,26.855,34.668,11.230,34.668,-20.020,0
152380.535,42.480,38.086,19.043,35.156,68.848,0
152380.539,42.969,15.137,47.363,23.926,92.285,0
152380.541,25.391,10.742,61.523,14.648,54.199,0
152380.545,6.348,24.414,62.500,14.160,-16.113,0
152380.549,18.066,34.180,53.223,28.809,-28.320,0
152380.553,44.922,33.691,41.992,40.527,38.574,0
152380.557,39.551,33.203,41.016,35.156,40.039,0
152380.561,18.555,37.598,20.996,31.738,-9.766,0
152380.565,31.738,43.457,16.113,45.410,-59.082,0
152380.569,50.293,40.039,38.086,50.293,-12.207,0
152380.573,41.992,31.738,43.457,36.621,20.508,0
152380.577,18.066,29.785,42.969,24.414,-44.434,0
152380.580,12.207,28.809,49.316,30.273,-35.156,0
152380.584,42.969,34.180,58.105,46.875,89.355,0
152380.586,56.641,32.715,39.062,45.898,115.723,0
152380.590,29.785,32.227,-0.977,31.738,34.668,0
152380.594,14.160,43.457,-0.488,27.832,7.812,0
152380.598,24.414,40.527,46.387,28.320,15.625,0
152380.602,32.227,29.297,56.152,20.996,46.387,0
152380.606,31.250,29.785,48.828,24.902,54.688,0
152380.610,38.574,48.340,60.059,43.457,-3.906,0
152380.614,45.410,40.039,36.621,41.504,23.438,0
152380.618,52.246,18.066,10.254,31.250,34.668,0
152380.622,55.664,20.996,14.648,38.086,8.301,0
152380.625,29.785,29.785,32.227,33.203,8.789,0
152380.629,18.066,40.039,49.805,22.949,-3.418,0
152380.631,40.039,41.992,47.852,30.273,2.441,0
152380.635,46.387,35.645,41.992,29.785,34.180,0
152380.639,26.855,30.762,36.133,20.020,26.367,0
152380.643,20.020,35.645,32.227,27.344,-39.551,0
152380.647,41.504,33.203,28.809,36.133,0.977,0
152380.651,60.059,30.273,17.090,41.016,51.758,0
152380.655,61.035,48.828,26.855,57.129,-0.488,0
152380.659,33.203,42.969,54.688,41.992,-41.016,0
152380.663,22.461,17.578,51.270,20.508,6.348,0
152380.666,46.387,20.508,37.598,29.785,77.637,0
152380.670,42.969,23.438,26.367,31.250,65.430,0
152380.674,23.926,17.090,1.465,28.809,20.020,0
152380.677,27.344,23.926,6.348,31.738,33.203,0
152380.681,48.340,30.762,41.992,35.156,105.957,0
152380.685,48.340,29.297,57.617,32.715,115.234,0
152380.689,22.461,32.715,40.039,25.879,20.508,0
152380.693,11.719,35.645,31.250,23.926,20.996,0
152380.697,52.246,45.898,57.617,49.316,69.824,0
152380.700,70.801,39.551,56.152,60.547,30.273,0
152380.704,18.555,17.090,28.320,21.973,-32.227,0
152380.708,-5.859,24.414,25.879,4.395,-43.457,0
152380.712,25.391,34.180,37.109,20.020,14.648,0
152380.716,50.781,37.109,36.133,36.133,65.430,0
152380.720,41.504,35.156,38.574,34.180,61.523,0
152380.721,20.508,25.879,10.254,32.715,9.277,0
152380.725,26.367,23.926,1.465,39.062,42.969,0
152380.729,41.992,31.738,45.410,39.551,104.492,0
152380.733,28.320,33.691,48.340,32.227,108.887,0
152380.737,4.395,27.344,36.133,25.391,54.199,0
152380.741,12.207,29.297,33.203,30.273,20.508,0
152380.745,41.504,30.762,36.621,40.527,71.777,0
152380.749,48.828,35.645,56.641,45.410,79.102,0
152380.753,27.344,37.598,59.570,33.203,51.758,0
152380.757,16.602,24.414,42.969,20.996,11.719,0
152380.760,42.480,22.949,42.480,35.156,56.152,0
152380.764,49.316,27.832,44.922,35.645,96.680,0
152380.766,26.367,30.273,30.762,23.926,85.449,0
152380.770,16.602,24.414,10.254,29.297,50.293,0
152380.774,38.574,24.902,20.508,39.551,12.207,0
152380.778,56.152,40.527,35.156,38.574,16.113,0
152380.782,44.922,45.898,47.852,31.250,2.441,0
152380.786,28.809,53.223,56.641,38.086,-28.320,0
152380.790,29.785,42.969,35.156,36.621,-16.602,0
152380.794,46.387,30.273,38.086,35.156,57.617,0
152380.798,55.176,36.621,54.688,45.898,77.637,0
152380.801,38.086,41.016,47.363,43.945,15.625,0
152380.805,35.156,38.574,31.738,39.062,-18.555,0
152380.809,56.641,35.156,33.691,43.945,29.297,0
152380.826,55.664,38.574,38.086,41.504,58.105,0
152380.830,37.109,47.363,42.969,39.062,3.906,0
152380.834,27.344,42.480,40.527,28.320,-37.109,0
152380.838,43.945,33.691,33.203,30.273,8.301,0
152380.842,54.199,34.668,32.227,40.039,60.059,0
152380.846,35.156,40.039,35.156,32.227,49.316,0
152380.850,20.020,36.133,37.598,20.996,-14.648,0
152380.854,33.203,35.645,44.434,29.785,16.602,0
152380.858,55.176,43.457,45.410,43.457,67.383,0
152380.862,44.922,40.039,38.574,40.039,40.527,0
152380.865,22.949,32.227,27.832,32.227,-3.418,0
152380.869,31.250,29.785,8.301,35.645,32.227,0
152380.871,47.363,36.133,9.277,35.156,115.723,0
152380.875,36.133,40.039,41.504,24.414,117.676,0
152380.879,17.578,35.156,48.828,16.602,21.973,0
152380.883,17.578,34.180,42.969,18.066,-10.742,0
152380.887,34.180,36.133,42.480,22.461,59.082,0
152380.891,44.922,30.762,23.926,26.367,68.359,0
152380.895,28.320,22.949,9.277,27.344,18.066,0
152380.899,15.625,32.715,24.414,32.715,16.602,0
152380.903,34.668,43.457,56.641,41.992,55.664,0
152380.907,29.785,25.391,60.547,26.367,48.828,0
152380.910,3.418,12.207,51.270,9.766,29.297,0
152380.914,-2.930,23.438,50.781,9.277,19.043,0
152380.916,19.531,26.367,36.133,13.184,31.738,0
152380.920,42.969,27.344,31.250,22.461,52.734,0
152380.924,30.762,35.645,31.250,22.461,7.324,0
152380.928,2.930,37.598,20.508,17.090,-29.785,0
152380.932,14.160,34.180,30.762,24.414,-15.625,0
152380.936,47.363,30.762,32.227,40.527,13.672,0
152380.940,49.805,28.809,16.602,45.898,10.742,0
152380.944,27.344,30.273,41.016,40.039,-6.836,0
152380.948,20.020,28.809,61.523,32.227,-40.039,2
152380.951,36.621,26.367,51.270,26.367,-12.207,0
152380.955,44.922,30.273,42.480,32.227,62.012,0
152380.959,33.203,40.039,41.992,38.086,26.855,0
152380.963,32.715,41.016,30.762,43.945,-1.953,0
152380.967,56.641,35.645,12.207,54.688,64.941,0
152380.970,61.035,41.016,-2.441,43.457,82.520,0
152380.974,42.480,39.551,18.555,32.227,53.711,0
152380.978,29.785,31.250,66.406,29.297,-0.488,0
152380.982,37.598,33.691,70.801,29.785,-10.254,0
152380.986,33.691,30.273,51.270,20.020,65.430,0
152380.990,23.438,31.250,40.039,17.090,67.383,0
152380.994,20.996,34.180,39.551,25.391,-27.832,0
152380.998,18.555,28.809,35.156,21.484,0.000,0
152381.002,40.527,33.203,33.203,26.855,97.656,0
152381.006,49.316,33.203,33.203,31.738,44.434,0
152381.006,26.367,27.344,19.531,26.367,-7.324,0
152381.010,22.949,30.273,25.879,33.691,5.371,0
152381.014,52.246,38.086,35.645,50.781,41.992,0
152381.018,55.176,38.086,30.273,47.852,58.105,0
152381.022,25.879,34.180,41.016,35.645,22.461,0
152381.026,-0.488,26.855,41.992,25.391,4.395,0
152381.030,11.719,20.020,40.527,26.367,41.016,0
152381.034,41.016,27.832,43.945,35.156,59.082,0
152381.038,33.203,25.391,39.551,32.227,29.785,0
152381.042,15.137,16.602,40.527,32.227,32.715,0
152381.046,31.738,28.809,43.457,43.945,49.805,0
152381.049,56.641,37.109,33.203,45.410,73.730,0
152381.051,46.875,32.715,14.160,30.273,68.848,0
152381.055,29.297,35.645,20.508,31.250,9.277,0
152381.059,34.668,41.992,36.621,38.086,22.949,0
152381.063,57.617,39.062,23.926,41.504,40.527,0
152381.067,60.059,40.039,30.762,40.527,7.324,0
152381.071,40.527,39.062,49.805,39.551,-41.992,0
152381.075,25.879,31.738,44.922,38.574,-47.852,0
152381.079,38.574,27.344,46.875,39.062,-12.695,0
152381.083,51.758,25.879,46.387,43.945,14.160,0
152381.086,36.621,25.391,35.156,44.922,26.367,0
152381.090,27.832,35.156,34.180,46.387,-44.434,0
152381.094,41.504,34.180,42.480,44.434,-1.953,0
152381.096,58.105,25.879,45.410,42.969,78.125,0
152381.100,51.270,36.133,41.504,38.086,35.156,0
152381.104,37.598,35.156,36.621,36.621,10.742,0
152381.108,44.434,25.879,22.949,43.945,13.672,0
152381.112,60.547,24.414,24.902,46.387,45.898,0
152381.116,61.523,21.973,27.344,46.875,41.504,0
152381.120,46.387,41.016,35.156,46.387,-44.922,0
152381.124,44.922,60.059,59.570,48.828,-48.340,0
152381.128,59.082,52.246,53.711,49.316,56.152,0
152381.131,47.363,31.738,37.598,31.738,73.242,0
152381.135,20.020,19.043,31.738,14.648,8.789,0
152381.139,22.949,18.066,40.039,22.461,7.812,0
152381.141,44.922,24.414,30.762,32.715,74.219,0
152381.145,49.805,24.902,11.230,29.785,64.941,0
152381.149,33.691,29.785,16.602,19.043,5.371,0
152381.153,26.855,42.969,36.133,26.367,-16.602,0
152381.157,41.992,40.039,21.484,41.016,7.812,0
152381.161,49.316,27.344,2.930,32.715,31.738,0
152381.165,41.992,29.785,44.434,24.414,-7.812,0
152381.169,30.762,38.574,63.477,26.855,-51.270,0
152381.173,32.715,34.668,47.852,36.621,-14.160,0
152381.176,50.293,29.297,44.434,42.480,35.645,0
152381.180,56.152,20.996,34.180,41.992,28.809,0
152381.184,37.109,30.762,22.461,41.992,-9.277,0
152381.188,26.855,43.945,32.227,42.969,8.789,0
152381.192,51.758,43.457,46.387,56.152,66.406,0
152381.195,58.594,33.203,54.199,54.199,72.266,0
152381.199,30.762,31.250,54.688,32.227,56.152,0
152381.203,15.625,35.645,36.133,26.367,18.066,0
152381.207,28.320,27.832,22.461,30.762,30.273,0
152381.211,51.758,32.227,20.508,36.133,54.688,0
152381.215,58.105,43.457,19.531,41.992,29.785,0
152381.219,43.945,41.992,41.016,43.945,-30.762,0
152381.223,41.992,29.785,51.758,39.551,-16.113,0
152381.227,55.176,29.297,41.504,32.227,71.289,0
152381.231,45.898,34.668,34.180,23.926,44.922,0
152381.246,22.949,35.645,31.250,24.902,-24.902,0
152381.250,34.180,35.156,26.855,35.645,4.395,0
152381.254,68.359,38.086,19.531,47.363,59.082,0
152381.258,65.918,42.969,25.879,47.852,20.508,0
152381.262,35.156,35.156,32.227,36.621,-30.273,0
152381.266,21.484,29.785,6.836,29.297,-34.180,0
152381.270,42.480,38.086,20.996,33.691,37.109,0
152381.274,64.453,41.504,68.359,47.363,72.266,0
152381.278,40.039,32.715,61.035,38.574,-3.418,0
152381.282,10.254,27.832,38.086,20.996,-45.898,0
152381.286,26.367,32.715,41.016,27.344,7.812,0
152381.289,53.711,35.645,40.039,38.086,74.219,0
152381.292,50.781,40.527,24.902,38.574,40.039,0
152381.296,29.785,37.598,27.832,27.832,-0.488,0
152381.299,40.527,41.016,47.852,35.156,57.129,0
152381.303,53.223,36.133,32.227,33.203,102.051,0
152381.307,35.645,20.508,25.391,16.602,68.359,0
152381.311,16.113,15.137,45.898,20.508,18.555,0
152381.315,16.602,10.254,46.387,28.809,16.602,0
152381.319,36.621,23.926,38.574,31.250,83.496,0
152381.323,39.551,40.527,29.297,32.227,91.309,0
152381.327,20.020,27.344,33.691,23.438,31.250,0
152381.331,13.672,33.203,33.691,24.902,41.016,0
152381.335,39.551,46.875,27.344,43.945,93.262,0
152381.337,51.758,39.551,24.414,45.898,114.746,0
152381.340,36.621,32.227,20.020,37.598,51.270,0
152381.344,28.809,35.156,41.016,47.363,5.859,0
152381.348,40.527,35.645,62.500,52.734,51.270,0
152381.352,40.527,24.902,48.340,29.297,94.238,0
152381.356,21.484,18.066,36.621,15.137,53.223,0
152381.360,7.812,21.973,30.762,17.578,-4.395,0
152381.364,24.414,27.832,25.391,30.762,7.324,0
152381.368,50.293,34.180,24.902,34.668,25.391,0
152381.372,42.480,36.133,24.414,24.414,56.641,0
152381.376,21.973,33.691,33.691,25.879,37.598,0
152381.380,26.855,35.156,43.945,35.156,14.160,0
152381.381,44.922,30.273,42.969,35.156,67.383,0
152381.385,45.898,32.715,23.926,34.180,116.699,0
152381.389,26.855,36.621,26.855,31.250,91.309,0
152381.393,23.438,31.250,47.852,33.691,56.641,0
152381.397,46.387,32.227,38.574,41.992,50.781,0
152381.401,50.781,35.645,40.039,38.086,81.543,0
152381.405,23.926,30.273,47.852,24.414,79.590,0
152381.409,-3.906,25.391,37.598,5.859,4.883,0
152381.413,16.602,30.762,18.555,8.789,12.695,0
152381.417,40.039,31.250,19.043,22.949,78.613,0
152381.420,26.367,26.855,32.715,22.949,64.453,0
152381.424,11.719,29.785,32.715,27.832,-3.418,0
152381.428,26.855,26.367,36.133,35.645,-12.695,0
152381.432,47.363,21.973,44.434,35.156,23.438,0
152381.435,44.434,37.598,45.898,28.809,29.785,0
152381.439,29.785,46.387,35.645,29.297,-23.926,0
152381.443,25.879,43.945,26.367,33.203,-55.664,0
152381.447,31.738,36.133,13.672,27.344,3.418,0
152381.451,33.691,28.320,29.297,20.996,41.504,0
152381.455,19.043,24.414,37.109,10.254,-40.039,0
152381.459,13.184,29.785,37.598,10.742,-63.477,0
152381.463,30.273,33.203,51.758,28.320,25.879,0
152381.467,48.340,29.297,44.922,39.062,44.434,0
152381.471,42.969,34.180,35.645,39.062,17.578,0
152381.471,21.973,35.156,32.715,32.715,2.441,0
152381.475,33.203,44.434,40.527,41.016,57.617,0
152381.479,53.711,44.434,37.109,42.480,116.699,0
152381.483,32.227,26.855,22.949,22.461,101.562,0
152381.487,5.371,26.367,35.645,16.113,50.293,0
152381.491,9.277,28.320,41.504,20.996,17.090,0
152381.495,32.227,30.762,37.109,26.367,48.828,0
152381.499,36.621,33.691,35.156,24.902,51.270,0
152381.503,19.531,31.738,32.227,23.926,1.953,0
152381.506,18.555,33.691,25.879,26.367,-15.137,0
152381.510,36.621,36.133,25.879,33.691,30.273,0
152381.514,45.898,35.645,30.273,36.133,63.965,0
152381.516,37.598,35.645,31.738,36.133,27.832,0
152381.520,20.508,30.273,32.227,32.715,9.766,0
152381.524,27.832,21.484,35.156,29.785,17.578,0
152381.528,43.945,24.414,42.480,30.762,40.527,0
152381.532,31.738,32.715,41.504,29.297,39.062,0
152381.536,16.113,38.086,35.645,25.391,-20.020,0
152381.540,29.785,34.668,40.039,24.414,-60.547,0
152381.544,49.805,35.645,33.203,31.738,10.254,0
152381.548,49.805,40.527,28.320,39.062,41.504,0
152381.552,36.133,35.645,32.715,38.086,-48.340,0
152381.555,39.062,29.785,38.574,46.387,-48.828,0
152381.559,58.105,23.438,32.227,51.270,39.062,0
152381.576,54.688,37.598,26.367,33.691,74.219,2
152381.580,28.320,49.805,41.992,17.578,30.273,0
152381.584,19.043,35.156,53.711,20.020,7.324,0
152381.588,33.691,23.926,56.152,23.926,37.109,0
152381.592,40.039,30.273,50.293,27.832,63.477,0
152381.596,29.785,37.598,43.457,30.762,26.367,0
152381.600,19.531,37.109,33.203,35.645,-40.039,0
152381.604,26.367,27.832,17.090,37.598,-1.465,0
152381.608,36.133,24.414,20.996,27.344,83.008,0
152381.612,34.180,28.809,44.434,23.438,42.969,0
152381.615,16.602,28.809,44.922,24.414,-33.691,0
152381.619,19.531,33.203,38.574,27.344,-14.160,0
152381.621,44.434,34.180,37.598,30.762,43.945,0
152381.625,51.270,44.922,46.387,37.598,23.926,0
152381.629,31.250,42.480,30.762,33.691,-49.316,0
152381.633,29.785,31.738,34.668,33.203,-78.125,0
152381.637,49.316,39.062,42.480,42.480,-19.043,0
152381.641,53.711,31.250,24.414,41.504,38.086,0
152381.645,28.320,26.367,37.598,33.691,37.109,0
152381.649,11.230,35.645,40.039,32.715,15.137,0
152381.653,32.715,39.062,35.645,41.016,39.551,0
152381.656,43.457,41.992,36.133,39.062,60.059,0
152381.660,22.461,32.715,25.879,23.926,31.250,0
152381.664,9.766,14.648,41.504,16.602,-7.324,0
152381.666,29.785,23.438,56.641,29.297,-37.598,0
152381.670,50.293,34.668,44.434,35.645,18.555,0
152381.674,40.039,35.156,37.598,33.691,55.664,0
152381.678,20.508,33.203,41.992,27.344,4.883,0
152381.682,32.227,28.320,31.738,30.273,-0.488,0
152381.686,57.129,37.598,24.414,39.551,48.340,0
152381.690,45.898,41.504,21.973,32.715,62.500,0
152381.694,19.043,33.203,29.297,28.809,43.945,0
152381.698,20.508,29.297,47.363,32.715,3.906,0
152381.701,43.945,28.809,47.852,39.062,34.668,0
152381.705,36.621,24.414,29.297,29.297,119.629,0
152381.709,20.996,32.715,25.879,20.508,83.984,0
152381.711,17.090,36.133,40.527,20.508,27.832,0
152381.715,34.668,32.715,48.340,25.879,44.922,0
152381.719,51.758,37.109,31.250,33.691,63.965,0
152381.723,42.480,39.062,18.066,29.785,12.695,0
152381.727,30.273,27.832,35.645,26.855,-40.039,0
152381.731,40.527,20.020,34.180,35.156,-16.113,0
152381.735,58.594,38.574,33.203,43.945,36.621,0
152381.739,50.781,50.293,47.852,39.551,49.316,0
152381.743,31.738,41.992,37.109,30.273,-26.855,0
152381.747,38.574,37.598,27.344,36.133,13.672,0
152381.750,55.176,35.156,35.156,43.457,101.562,0
152381.754,51.270,40.039,43.945,41.992,42.480,0
152381.756,26.855,38.574,29.785,28.809,-29.785,0
152381.760,13.184,34.180,27.832,19.531,5.371,0
152381.764,37.109,37.109,49.316,27.344,82.520,0
152381.768,48.340,32.715,45.898,30.273,89.355,0
152381.772,30.762,31.250,42.480,32.227,35.156,0
152381.776,20.508,30.762,42.480,33.203,-27.832,0
152381.780,33.203,19.043,31.250,32.715,2.441,0
152381.784,46.875,19.043,29.297,34.668,85.938,0
152381.788,33.203,29.297,40.039,32.227,55.176,0
152381.792,11.719,32.227,48.340,29.297,-13.184,0
152381.795,28.809,32.715,48.828,39.062,8.789,0
152381.799,49.805,28.320,28.809,41.016,68.359,0
152381.801,45.410,28.809,26.367,38.574,61.523,0
152381.805,20.020,28.320,19.043,28.320,29.785,0
152381.809,26.367,32.715,0.000,35.156,48.828,0
152381.813,58.594,41.992,36.621,48.828,75.195,0
152381.817,46.387,34.668,58.594,33.203,69.336,0
152381.821,11.719,28.320,41.992,15.625,19.531,0
152381.825,10.742,33.203,46.387,21.973,25.391,0
152381.829,35.156,31.250,54.688,33.203,82.031,0
152381.833,32.715,26.855,37.109,21.484,92.285,0
152381.837,20.508,38.574,23.926,18.066,50.781,0
152381.840,20.020,32.227,30.762,32.715,-30.273,0
152381.844,34.180,21.484,35.645,37.598,-5.371,0
152381.847,58.594,45.898,31.250,45.898,85.938,0
152381.851,54.199,52.246,20.020,53.223,67.871,0
152381.854,22.949,43.945,19.043,37.598,35.156,0
152381.858,27.832,44.922,37.598,35.645,37.598,0
152381.862,58.105,41.016,53.223,49.316,63.965,0
152381.866,49.805,31.250,54.199,42.969,61.523,0
152381.870,20.020,27.832,54.199,26.855,-32.227,0
152381.874,25.391,37.109,37.109,32.715,-46.387,0
152381.878,53.223,35.156,27.832,54.199,74.219,0
152381.882,59.570,33.691,28.320,54.199,69.824,0
152381.886,30.762,37.109,27.832,32.715,35.156,0
152381.890,19.531,35.156,40.527,27.832,1.953,0
152381.893,42.969,37.109,46.875,34.668,34.668,0
152381.897,54.688,38.086,48.828,39.062,101.074,0
152381.900,46.387,42.480,50.781,40.039,27.832,0
152381.904,35.645,42.480,43.945,43.457,-3.418,0
152381.908,48.340,36.133,38.574,52.734,54.199,0
152381.912,65.430,31.738,39.062,56.641,97.168,0
152381.916,41.016,24.414,25.391,42.969,46.387,0
152381.920,11.719,21.484,10.742,34.668,-14.160,0
152381.924,25.879,29.785,18.066,43.945,30.762,0
152381.928,43.457,40.527,33.203,43.457,84.961,0
152381.932,40.527,41.504,40.039,38.086,49.316,0
152381.936,19.531,40.527,44.922,34.668,1.953,0
152381.951,16.602,45.898,41.504,41.016,-15.625,0
152381.955,39.062,39.551,27.832,45.898,24.414,0
152381.959,30.762,13.672,17.090,30.273,52.246,0
152381.963,16.602,19.043,26.855,26.855,14.648,0
152381.967,18.066,30.273,43.457,34.180,-8.301,0
152381.971,31.738,30.762,22.461,34.668,8.789,0
152381.975,46.387,36.133,16.113,31.738,72.754,0
152381.979,34.180,41.992,38.574,26.855,67.871,0
152381.983,20.996,47.363,42.480,30.762,-0.977,0
152381.987,34.180,42.480,36.133,35.645,18.066,0
152381.990,58.594,42.480,40.039,44.434,68.359,0
152381.994,56.641,44.922,52.246,44.922,27.832,0
152381.996,27.832,37.109,48.828,30.273,-18.066,0
152382.000,25.391,32.715,36.621,27.832,16.113,0
152382.004,44.922,30.273,27.832,29.785,86.426,0
152382.008,40.039,38.086,22.461,24.902,108.398,0
152382.012,20.508,43.945,17.578,16.113,70.312,0
152382.016,16.113,40.039,19.531,16.602,44.922,0
152382.020,32.227,37.109,25.879,23.438,94.238,0
152382.024,47.363,34.180,34.180,29.785,136.230,0
152382.028,32.227,25.391,38.574,25.879,66.406,0
152382.032,20.020,34.180,23.438,19.043,-8.301,0
152382.036,32.715,45.410,25.879,20.996,33.203,0
152382.039,39.551,40.527,32.715,23.438,83.008,0
152382.041,29.297,35.156,30.273,21.973,5.371,0
152382.045,13.184,32.227,41.016,18.555,-36.621,0
152382.049,23.438,32.715,45.898,23.438,62.988,0
152382.053,43.457,32.227,42.969,28.320,95.215,0
152382.057,41.504,35.645,40.039,28.320,38.086,0
152382.061,25.879,33.203,31.738,27.344,1.953,0
152382.065,28.320,29.785,31.250,31.250,-16.113,0
152382.069,47.363,34.180,18.555,34.180,41.992,0
152382.073,47.363,36.133,2.441,29.297,80.566,0
152382.077,28.809,39.062,17.578,27.344,25.391,0
152382.080,17.578,40.039,48.828,27.832,26.367,0
152382.084,31.738,34.180,53.711,30.273,53.711,0
152382.086,41.992,27.344,46.387,29.297,77.148,0
152382.090,26.855,26.855,40.039,22.461,88.379,0
152382.094,16.602,28.809,31.738,22.949,48.340,0
152382.098,39.062,27.344,25.879,30.273,70.801,0
152382.102,61.523,26.855,29.297,34.668,92.285,0
152382.106,50.293,42.480,35.645,29.297,45.410,0
152382.110,29.785,46.875,34.180,21.973,14.160,0
152382.114,41.504,40.527,29.297,31.738,20.508,0
152382.118,56.641,30.273,16.113,37.109,59.082,0
152382.122,60.059,36.133,26.367,41.504,67.383,0
152382.125,41.504,26.855,48.340,41.016,43.457,0
152382.129,20.996,13.672,45.410,30.273,19.531,0
152382.131,26.367,29.785,45.898,27.832,35.156,0
152382.135,29.297,32.715,45.410,24.414,63.965,0
152382.139,12.207,25.879,46.387,24.902,46.387,0
152382.143,6.836,25.879,45.898,31.250,6.348,0
152382.147,32.227,29.785,34.668,34.180,35.156,0
152382.151,49.316,29.297,28.809,36.133,49.316,0
152382.155,33.691,24.902,42.969,31.738,26.855,0
152382.159,19.043,26.855,49.316,31.250,-2.441,0
152382.163,41.504,30.762,45.410,41.992,18.555,0
152382.166,54.688,25.391,49.316,42.480,79.102,0
152382.170,35.156,25.879,42.480,31.250,97.656,0
152382.174,18.555,32.715,37.109,22.461,57.617,0
152382.178,26.367,27.832,24.414,26.855,40.039,0
152382.182,55.176,36.133,27.344,38.574,106.445,0
152382.185,57.617,43.457,43.945,38.574,88.379,0
152382.189,30.762,32.715,40.527,31.738,26.367,0
152382.193,31.738,32.227,21.484,36.621,38.574,0
152382.197,57.129,36.621,22.461,47.363,57.617,0
152382.201,62.988,37.598,37.109,46.875,92.285,0
152382.205,39.062,34.180,39.551,34.180,73.730,0
152382.209,24.414,33.203,40.039,31.738,4.883,0
152382.213,45.410,34.668,31.738,41.504,55.664,0
152382.217,54.688,36.621,26.855,41.992,90.820,0
152382.221,34.668,34.180,33.691,31.738,42.969,0
152382.221,25.391,30.273,34.668,30.762,-4.883,0
152382.225,41.992,35.156,24.902,44.434,23.438,0
152382.229,59.082,42.969,22.949,44.434,63.477,0
152382.233,53.711,43.457,35.645,38.574,54.688,0
152382.237,35.156,46.875,36.133,41.992,3.418,0
152382.241,24.902,35.645,27.832,29.297,3.418,0
152382.245,36.621,20.508,34.668,19.531,60.059,0
152382.249,29.785,21.484,47.852,19.531,23.438,0
152382.253,12.695,34.668,45.898,26.367,-35.156,2
152382.257,13.672,39.062,27.344,28.320,-30.273,0
152382.260,36.133,31.250,20.996,30.762,13.672,0
152382.264,46.387,25.391,20.996,39.551,62.012,0
152382.266,35.156,40.039,33.203,40.039,51.758,0
152382.270,24.902,45.898,52.246,38.086,-6.348,0
152382.274,33.691,30.273,54.688,37.598,28.809,0
152382.278,51.758,24.414,51.270,42.480,41.016,0
152382.282,40.527,34.668,42.480,37.598,-6.836,0
152382.286,21.973,37.109,34.668,29.297,-52.246,0
152382.290,31.738,37.598,30.762,30.762,-19.531,0
152382.294,43.945,42.480,18.555,31.250,54.688,0
152382.298,33.203,37.598,11.230,27.832,54.199,0
152382.302,12.695,29.785,27.344,20.508,1.465,0
152382.305,13.672,32.227,42.969,18.066,-15.625,0
152382.309,39.062,32.715,47.852,26.367,84.473,0
152382.326,39.551,27.344,47.852,28.809,100.098,0
152382.330,14.648,32.227,40.039,21.973,0.977,0
152382.334,7.812,37.109,24.902,22.949,-17.578,0
152382.338,23.926,32.227,17.090,28.320,46.875,0
152382.342,32.227,27.832,22.461,22.461,104.004,0
152382.346,17.090,33.203,32.227,15.625,54.688,0
152382.350,5.859,33.691,31.738,15.137,-25.879,0
152382.354,19.043,31.250,22.949,24.414,6.348,0
152382.358,36.133,37.109,37.598,29.297,74.219,0
152382.362,29.297,34.180,48.340,25.391,32.227,0
152382.365,7.812,25.391,23.926,19.531,-48.340,0
152382.369,8.301,20.508,-3.418,18.066,-11.719,0
152382.371,33.203,20.996,5.859,26.367,62.988,0
152382.375,41.504,37.598,38.086,30.762,50.293,0
152382.379,18.066,37.598,52.246,25.391,-17.090,0
152382.383,4.883,27.832,44.434,20.020,-22.461,0
152382.387,32.227,32.227,45.410,29.785,57.129,0
152382.391,42.480,37.598,47.363,37.109,67.383,0
152382.395,18.066,37.109,34.668,27.832,-34.668,0
152382.399,13.672,36.621,34.180,24.902,-63.965,0
152382.403,40.039,34.668,32.227,33.691,37.598,0
152382.406,54.688,34.180,30.762,33.203,80.078,0
152382.410,35.156,40.527,28.320,26.367,62.988,0
152382.414,14.160,42.480,24.902,23.926,49.316,0
152382.418,36.621,42.480,43.457,34.668,53.223,0
152382.422,57.617,41.016,46.875,38.574,104.004,0
152382.426,38.086,35.645,29.785,30.762,94.727,0
152382.429,24.902,38.086,30.762,30.273,1.953,0
152382.433,43.945,43.945,53.711,41.504,-34.668,0
152382.437,50.781,37.598,51.270,35.645,37.598,0
152382.441,35.645,28.809,24.414,24.902,49.805,0
152382.445,23.926,32.715,30.762,27.832,-31.738,0
152382.449,25.391,36.621,42.480,33.691,-41.992,0
152382.453,40.039,35.156,30.762,38.574,16.113,0
152382.457,40.527,28.809,31.738,31.250,35.645,0
152382.461,14.160,20.020,42.480,19.531,-4.883,0
152382.461,10.254,23.926,49.805,28.320,-24.902,0
152382.465,30.273,34.180,39.551,38.574,18.066,0
152382.469,46.875,37.109,37.598,45.898,55.176,0
152382.473,35.156,35.156,32.227,35.156,-6.348,0
152382.477,8.301,30.762,11.719,19.531,-27.832,0
152382.481,18.555,27.344,28.320,30.273,34.668,0
152382.485,36.621,32.227,37.109,28.809,61.035,0
152382.489,34.180,35.645,37.598,22.461,22.949,0
152382.493,15.625,34.180,46.875,20.020,-52.734,0
152382.497,18.066,34.180,44.922,22.461,-65.430,0
152382.500,44.922,34.180,41.992,29.297,29.297,0
152382.504,49.805,36.621,31.250,26.367,64.941,0
152382.506,28.809,37.109,31.250,21.484,-42.969,0
152382.510,21.973,33.203,41.992,22.949,-21.484,0
152382.514,41.504,29.297,40.527,32.715,104.492,0
152382.518,51.758,26.855,31.738,36.621,112.793,0
152382.522,39.062,31.250,40.039,27.832,62.500,0
152382.526,31.250,31.738,41.016,24.414,23.438,0
152382.530,48.340,41.016,41.992,39.062,71.289,0
152382.534,57.129,34.180,34.668,44.434,73.242,0
152382.538,54.199,30.762,15.137,42.480,23.438,0
152382.542,40.527,45.898,25.391,42.969,-3.906,0
152382.545,28.809,36.621,38.574,27.344,45.898,0
152382.549,40.039,29.785,39.551,28.809,103.027,0
152382.551,36.133,30.273,31.738,36.133,45.410,0
152382.555,20.996,29.785,12.695,29.785,21.973,0
152382.559,24.902,30.762,23.926,31.738,12.207,0
152382.563,48.828,33.203,48.340,39.551,61.523,0
152382.567,52.246,34.180,50.293,30.273,85.449,0
152382.571,34.668,35.156,42.480,28.809,25.879,0
152382.575,35.156,36.621,36.133,40.039,-13.672,0
152382.579,61.035,41.504,34.668,48.828,9.277,0
152382.583,72.754,44.922,30.273,50.293,67.871,0
152382.587,46.387,35.645,31.738,39.062,48.828,0
152382.590,32.715,36.133,31.250,30.273,-25.391,0
152382.594,56.152,35.156,22.949,40.527,0.977,0
152382.597,70.312,23.926,21.484,48.828,47.363,0
152382.601,58.594,44.922,33.691,43.945,8.789,0
152382.604,37.109,53.223,46.875,37.109,-16.113,0
152382.608,38.574,39.551,35.645,38.086,15.625,0
152382.612,57.129,42.969,21.973,41.992,49.805,0
152382.616,57.129,48.828,37.109,42.480,12.695,0
152382.620,43.945,47.852,45.898,43.457,-38.574,0
152382.624,34.180,34.180,30.762,35.645,-11.230,0
152382.628,45.898,27.832,24.902,34.180,66.406,0
152382.632,51.758,33.691,37.109,40.527,74.707,0
152382.636,38.086,40.039,42.969,41.016,17.578,0
152382.640,29.297,38.574,47.852,41.016,4.395,0
152382.643,36.133,34.668,41.504,38.086,52.246,0
152382.647,36.133,35.156,35.645,31.738,48.340,0
152382.651,21.973,29.785,43.457,29.297,3.418,0
152382.654,15.137,27.832,37.109,32.227,1.465,0
152382.658,36.621,32.227,26.367,38.574,20.020,0
152382.662,55.176,29.297,29.785,37.109,50.293,0
152382.666,46.387,35.156,47.363,35.156,42.969,0
152382.670,28.809,42.480,57.129,36.133,0.977,0
152382.674,25.879,35.645,49.805,36.133,15.137,0
152382.678,45.898,24.414,41.992,42.480,52.734,0
152382.682,45.410,25.879,36.133,36.621,31.738,0
152382.686,21.973,38.086,27.832,24.414,1.953,0
152382.701,22.461,35.156,21.973,27.344,-20.508,0
152382.705,47.852,34.668,32.227,35.645,33.203,0
152382.709,56.152,40.527,43.457,40.527,112.305,0
152382.713,29.785,38.574,42.969,33.691,59.570,0
152382.717,17.090,34.180,34.668,35.156,2.441,0
152382.721,39.551,34.180,34.668,42.480,36.133,0
152382.725,60.547,31.250,43.945,45.410,59.082,0
152382.729,47.852,28.809,41.992,41.016,56.152,0
152382.733,27.344,32.227,30.273,30.273,8.301,0
152382.737,39.062,35.156,32.715,38.574,44.922,0
152382.741,55.664,37.598,48.828,44.922,83.008,0
152382.744,37.598,29.785,41.504,32.715,61.523,0
152382.746,19.043,27.344,22.949,34.180,50.293,0
152382.750,35.645,31.250,29.297,45.898,41.504,0
152382.754,49.316,32.715,40.039,40.527,98.145,0
152382.758,44.922,39.062,38.086,34.180,75.684,0
152382.762,37.598,37.598,35.156,41.504,-32.715,0
152382.766,27.344,32.227,40.527,38.086,-44.922,0
152382.770,34.180,30.273,38.086,33.203,13.184,0
152382.774,40.039,28.809,32.227,37.109,47.363,0
152382.778,23.438,32.715,34.668,36.133,28.809,0
152382.782,12.695,35.645,38.574,32.227,-7.324,0
152382.785,32.227,30.762,35.645,36.133,4.883,0
152382.789,54.199,33.203,34.180,44.922,42.480,0
152382.791,43.457,37.109,34.180,41.504,33.691,0
152382.795,21.484,36.133,25.879,29.785,-10.742,0
152382.799,30.273,36.621,30.273,34.668,-5.859,0
152382.803,59.082,33.691,43.945,49.316,36.621,0
152382.807,51.758,29.785,39.062,43.457,23.926,0
152382.811,22.461,29.297,20.508,29.297,-42.969,0
152382.815,27.344,31.738,18.555,36.133,-23.926,0
152382.819,53.711,33.691,35.156,44.434,65.430,0
152382.823,51.270,33.203,36.133,35.645,53.223,0
152382.826,23.926,29.297,34.180,22.949,-58.105,0
152382.830,13.184,28.320,42.969,27.832,-30.273,0
152382.834,31.738,30.762,49.805,37.598,41.016,0
152382.836,44.922,31.250,52.246,41.504,51.270,0
152382.840,28.809,27.344,43.945,38.574,10.742,0
152382.844,12.695,25.391,26.855,40.527,-26.367,0
152382.848,25.879,29.785,26.855,42.969,45.898,0
152382.852,34.180,32.227,32.715,39.551,94.238,0
152382.856,23.438,29.297,35.156,31.250,40.527,0
152382.860,12.695,26.367,39.062,25.879,3.906,0
152382.864,18.555,33.691,21.973,33.203,38.574,0
152382.868,44.922,41.992,19.043,41.016,98.633,0
152382.871,53.711,41.504,31.738,44.434,105.469,0
152382.875,34.668,40.039,20.508,43.945,40.039,0
152382.879,29.785,34.180,33.203,36.621,36.621,0
152382.883,52.734,31.738,58.105,37.598,97.656,0
152382.887,50.293,31.250,53.711,36.133,100.586,0
152382.890,27.344,27.832,39.551,30.762,38.086,0
152382.894,25.391,28.809,38.574,34.180,10.254,0
152382.898,41.016,33.691,46.387,40.039,44.922,0
152382.902,52.246,39.062,36.133,43.457,74.707,0
152382.906,39.062,31.250,20.996,40.527,65.430,0
152382.910,21.973,25.879,34.668,35.156,19.043,1
152382.914,32.715,29.785,43.945,34.668,63.477,0
152382.918,56.152,29.297,39.551,37.109,140.625,0
152382.922,51.758,37.598,42.969,36.133,86.914,0
152382.926,27.344,40.527,37.109,28.320,31.738,0
152382.926,33.691,32.227,32.227,33.203,40.039,0
152382.930,53.711,25.391,35.645,42.480,101.562,0
152382.934,45.898,27.832,34.668,36.133,96.680,0
152382.938,26.855,38.086,30.273,31.250,12.695,0
152382.942,26.855,35.156,30.762,37.109,16.602,0
152382.946,50.781,24.902,39.062,42.969,82.520,0
152382.950,55.176,34.668,33.691,34.668,87.402,0
152382.954,34.180,43.457,19.043,26.855,24.902,0
152382.958,30.762,45.410,34.668,35.645,-16.113,0
152382.962,45.410,39.551,47.852,37.598,80.078,0
152382.965,48.340,34.180,34.180,34.668,132.324,0
152382.969,29.785,34.668,24.902,34.668,64.941,0
152382.972,13.672,35.645,34.668,28.809,19.531,0
152382.975,19.531,30.273,44.434,23.438,32.715,0
152382.979,41.992,27.344,49.805,30.762,48.340,0
152382.983,43.457,27.344,41.504,33.691,23.438,0
152382.987,24.902,28.809,32.227,27.344,-9.766,0
152382.991,26.855,30.762,27.344,27.344,18.066,0
152382.995,39.551,28.809,27.344,19.531,47.363,0
152382.999,37.109,37.109,44.434,18.555,12.207,0
152383.003,22.949,36.621,43.945,23.438,-17.578,0
152383.007,17.578,28.809,34.180,24.414,-13.672,0
152383.011,36.133,31.250,26.367,23.926,54.688,0
152383.014,48.828,30.273,23.926,23.438,83.008,0
152383.016,29.297,24.902,20.996,18.555,52.734,0
152383.020,22.461,35.645,27.344,25.391,9.766,0
152383.024,45.410,47.852,38.086,39.062,15.137,0
152383.028,47.363,32.715,31.250,28.809,62.500,0
152383.032,25.391,20.020,31.250,19.531,29.785,0
152383.036,11.230,36.133,40.527,21.973,-42.480,0
152383.040,20.020,38.086,41.016,26.855,-27.344,0
152383.044,40.039,32.227,28.809,34.180,32.227,0
152383.048,39.551,33.203,24.414,30.762,64.941,0
152383.052,24.414,27.832,24.414,25.391,-8.789,0
152383.055,29.297,36.621,20.020,29.297,-61.523,0
152383.059,50.781,49.316,35.156,32.227,21.484,0
152383.076,48.828,49.805,48.828,28.320,75.195,0
152383.080,23.926,45.898,38.086,22.949,18.555,0
152383.084,19.043,39.062,26.855,25.391,-12.207,0
152383.088,39.062,33.203,26.367,32.715,55.176,0
152383.092,41.016,28.320,24.414,28.809,84.961,0
152383.096,28.320,32.715,41.504,32.227,16.602,0
152383.100,30.762,34.668,50.293,40.527,-52.734,0
152383.104,45.410,31.738,40.039,37.598,-22.949,0
152383.108,45.898,32.227,33.203,29.297,16.113,0
152383.112,27.832,31.738,41.504,21.973,-8.301,0
152383.115,18.555,30.273,43.457,30.762,-41.992,0
152383.119,31.250,32.227,17.578,42.480,20.996,0
152383.121,61.523,38.086,26.855,52.734,68.359,0
152383.125,54.199,35.156,39.551,44.922,27.344,0
152383.129,18.555,24.414,29.297,25.391,-7.812,0
152383.133,20.508,24.414,41.016,28.320,-9.277,0
152383.137,42.969,28.809,46.875,30.273,54.688,0
152383.141,43.457,28.809,36.621,23.926,78.613,0
152383.145,19.531,38.574,35.645,19.531,31.738,0
152383.149,13.184,45.898,40.039,23.926,34.180,0
152383.153,31.738,41.504,40.527,33.691,63.477,0
152383.157,39.551,35.156,33.203,28.809,62.012,0
152383.160,23.926,33.203,20.508,16.602,21.973,0
152383.164,14.160,31.738,28.320,16.113,7.812,0
152383.166,40.039,27.344,43.945,32.715,15.137,0
152383.170,62.988,37.598,46.387,40.039,40.527,0
152383.174,38.574,49.805,36.133,29.297,38.086,0
152383.178,8.301,35.645,34.180,20.996,-17.578,0
152383.182,25.391,28.320,30.273,29.785,12.695,0
152383.186,56.641,33.691,12.695,45.410,79.102,0
152383.190,42.969,28.320,20.020,37.109,43.457,0
152383.194,16.113,30.273,45.410,25.879,24.902,0
152383.198,15.137,30.762,36.133,21.484,14.160,0
152383.202,38.086,27.832,21.484,27.344,23.926,0
152383.206,44.434,29.785,33.691,23.926,88.867,0
152383.209,24.902,29.297,51.270,17.090,35.645,0
152383.211,17.578,33.691,53.223,24.414,-7.324,0
152383.215,35.645,34.180,40.527,30.273,23.438,0
152383.219,54.688,27.832,24.902,34.668,96.680,0
152383.223,41.016,34.180,15.625,34.668,72.266,0
152383.227,20.996,43.945,14.648,30.762,-19.531,0
152383.231,35.645,45.410,19.043,31.250,30.762,0
152383.235,53.223,41.504,38.574,32.715,81.543,0
152383.239,35.645,31.250,47.852,23.438,28.809,0
152383.243,13.672,29.785,45.898,20.020,-52.734,0
152383.247,29.785,34.180,47.852,34.180,-20.508,0
152383.250,50.781,33.691,45.410,39.062,73.730,0
152383.254,44.922,34.668,33.691,33.203,79.102,0
152383.256,31.250,37.109,36.133,36.621,31.738,0
152383.260,32.715,38.086,25.391,41.992,-4.883,0
152383.264,47.852,34.180,7.812,41.504,24.902,0
152383.268,44.434,25.391,30.273,28.809,43.945,0
152383.272,19.531,20.508,46.875,17.090,7.324,0
152383.276,9.766,23.438,52.734,18.555,11.230,0
152383.280,30.273,27.344,53.223,24.902,60.547,0
152383.284,49.316,33.203,43.945,30.273,83.496,0
152383.288,31.738,30.273,33.203,26.367,73.730,0
152383.292,8.301,30.273,23.926,24.902,57.129,0
152383.295,25.391,35.156,23.438,34.668,38.086,0
152383.299,57.617,26.367,32.227,48.340,59.570,0
152383.301,47.363,27.344,30.762,44.434,78.125,0
152383.305,14.648,33.691,30.273,28.809,25.391,0
152383.309,29.785,42.480,47.852,44.434,3.418,0
152383.313,62.500,45.410,56.152,63.965,89.844,0
152383.317,53.223,32.715,42.480,49.316,119.141,0
152383.321,20.996,28.320,23.438,28.809,63.965,0
152383.325,18.066,32.227,20.996,29.785,36.621,0
152383.329,43.945,32.715,26.855,33.691,43.457,0
152383.333,56.641,36.621,30.762,34.180,71.289,0
152383.337,41.992,38.574,41.016,34.668,74.219,0
152383.340,32.715,38.086,41.992,34.668,24.902,0
152383.344,48.828,38.086,38.086,36.621,30.273,0
152383.348,59.082,32.227,42.969,33.203,77.637,0
152383.352,40.039,29.785,42.480,27.344,58.594,0
152383.356,20.996,38.574,37.598,27.344,-25.879,0
152383.359,31.250,39.062,27.832,32.227,-20.020,0
152383.363,45.898,31.250,20.020,33.691,46.875,0
152383.367,38.574,31.738,29.297,32.715,46.875,0
152383.371,17.090,34.180,47.363,30.762,6.836,0
152383.375,21.973,33.203,38.574,35.645,-10.254,0
152383.379,49.316,35.156,20.996,41.504,46.387,0
152383.383,55.664,40.527,34.668,42.969,90.332,0
152383.387,28.809,35.645,38.574,36.621,37.109,0
152383.391,9.277,30.762,32.715,28.320,0.977,0
152383.393,38.086,42.480,31.738,36.621,65.430,0
152383.397,62.012,53.711,34.668,43.457,107.910,0
152383.401,42.480,39.062,37.109,35.645,59.082,0
152383.404,27.344,37.109,41.992,35.156,6.348,0
152383.408,46.387,50.293,41.016,45.898,20.996,0
152383.412,51.758,37.598,22.461,37.598,48.340,1
152383.416,34.180,33.691,21.484,23.438,-6.836,0
152383.420,15.137,36.621,25.879,21.973,-58.594,0
152383.424,17.090,27.832,27.344,23.438,-19.043,0
152383.428,36.621,27.344,38.086,21.484,59.570,0
152383.432,32.715,29.297,45.898,20.508,80.078,0
152383.436,10.742,31.250,36.621,20.020,80.078,0
152383.451,5.859,31.738,34.668,17.090,67.383,0
152383.455,28.809,28.809,44.922,25.391,93.262,0
152383.459,33.203,27.832,42.480,33.203,108.887,0
152383.463,10.742,22.949,32.227,24.414,34.668,0
152383.467,14.160,20.996,40.039,32.227,-26.367,0
152383.471,44.922,23.438,43.457,50.293,-5.859,0
152383.475,61.035,31.738,29.785,53.711,83.496,0
152383.479,52.246,40.039,32.227,48.828,74.707,0
152383.483,36.621,42.480,41.016,43.945,27.832,0
152383.487,40.039,36.621,41.504,43.945,34.180,0
152383.491,54.199,35.645,44.922,41.992,56.641,0
152383.494,47.363,32.715,48.340,39.551,65.430,0
152383.496,30.273,30.273,43.457,36.133,-8.301,0
152383.500,35.156,34.668,36.621,40.039,-13.184,0
152383.504,51.270,31.738,30.273,41.504,49.316,0
152383.508,51.270,33.203,25.879,41.504,65.918,0
152383.512,29.297,36.133,25.879,35.645,24.414,0
152383.516,22.949,34.668,30.273,30.273,-7.324,0
152383.520,51.758,41.016,41.504,41.016,40.527,0
152383.524,57.129,40.527,39.062,43.457,20.020,0
152383.528,36.133,32.227,20.020,35.645,-57.129,0
152383.532,28.809,18.555,28.809,34.668,-89.355,0
152383.535,45.898,26.367,53.223,44.434,-1.465,0
152383.539,58.594,47.363,50.293,52.734,88.379,0
152383.541,37.598,39.551,30.762,41.016,24.902,0
152383.545,26.367,38.086,36.133,36.133,-41.504,0
152383.549,38.086,38.574,41.504,40.527,-14.648,0
152383.553,48.340,33.203,39.062,40.039,58.594,0
152383.557,41.504,34.180,44.922,38.086,33.691,0
152383.561,26.367,35.645,48.340,37.598,-33.691,0
152383.565,34.180,40.039,36.133,40.527,0.488,0
152383.569,57.129,35.645,13.672,44.434,98.145,0
152383.573,63.965,34.180,28.320,45.410,53.223,0
152383.577,39.551,39.551,50.781,31.738,-40.527,0
152383.580,19.531,34.668,45.410,22.461,-47.363,0
152383.584,33.203,30.273,29.785,23.926,39.551,0
152383.586,43.457,35.156,30.273,23.926,100.586,0
152383.590,25.391,38.086,37.598,12.695,60.059,0
152383.594,11.230,32.227,37.109,13.672,31.250,0
152383.598,31.738,31.250,34.180,33.203,54.199,0
152383.602,53.223,39.062,26.367,39.551,71.777,0
152383.606,34.180,35.645,28.320,25.391,18.555,0
152383.610,13.672,33.203,26.367,17.090,-11.230,0
152383.614,20.996,30.273,25.391,20.020,20.508,0
152383.618,36.621,28.320,42.480,27.344,17.578,0
152383.622,39.062,34.180,43.945,30.273,31.250,0
152383.625,27.832,36.621,40.527,24.414,25.391,0
152383.629,29.785,34.668,42.969,26.367,0.977,0
152383.633,46.387,27.832,41.504,30.762,81.543,0
152383.637,42.480,28.809,30.273,26.367,75.195,0
152383.640,19.531,31.738,27.832,18.066,-22.949,0
152383.644,18.066,35.645,29.297,18.555,-22.461,0
152383.648,36.133,39.551,20.020,27.344,29.785,0
152383.652,43.457,25.391,23.926,33.203,54.199,0
152383.656,31.250,23.926,38.086,32.715,11.230,0
152383.660,21.484,44.922,40.039,26.367,-67.383,0
152383.664,37.109,47.852,21.973,31.250,-45.898,0
152383.668,47.852,43.457,18.066,38.574,35.645,0
152383.672,33.203,37.109,39.551,30.273,-5.859,0
152383.676,5.371,24.414,35.156,14.648,-47.852,0
152383.676,5.371,22.949,32.715,13.672,2.930,0
152383.680,31.250,26.855,42.480,20.020,76.660,0
152383.684,35.156,22.949,48.340,21.973,63.477,0
152383.688,19.043,29.785,46.875,27.832,22.461,0
152383.692,19.043,37.109,29.785,34.180,47.363,0
152383.696,38.574,35.156,22.949,39.062,107.910,0
152383.700,49.805,38.086,36.621,35.645,76.660,0
152383.704,31.738,35.645,43.457,25.391,-38.086,0
152383.708,17.578,30.273,41.504,31.738,-20.508,0
152383.712,46.875,35.156,40.039,48.828,65.918,0
152383.715,55.176,37.109,31.738,40.527,75.195,0
152383.719,42.969,43.945,39.551,33.203,20.508,0
152383.721,37.109,45.410,41.504,35.156,-37.109,0
152383.725,37.109,33.203,20.508,28.320,10.742,0
152383.729,57.617,33.203,23.438,36.621,75.684,0
152383.733,49.805,31.250,29.297,34.668,76.660,0
152383.737,25.879,31.738,28.320,27.344,20.508,0
152383.741,33.691,36.133,37.598,38.574,-6.348,0
152383.745,48.828,32.715,45.410,41.992,76.660,0
152383.749,39.551,30.273,40.039,33.203,92.285,0
152383.753,20.508,36.133,32.227,31.738,39.062,0
152383.757,22.461,38.086,33.203,38.574,57.129,0
152383.760,38.574,36.621,31.250,45.898,78.125,0
152383.764,39.551,31.250,32.227,40.039,35.156,0
152383.766,26.367,34.668,40.039,41.992,-8.301,0
152383.770,23.926,41.504,47.852,49.805,-52.246,0
152383.774,44.434,38.574,46.875,51.758,-2.930,0
152383.778,53.223,34.180,26.367,47.363,87.402,0
152383.782,34.668,35.645,13.672,34.180,101.074,0
152383.786,20.996,41.016,23.438,28.809,29.785,0
152383.790,25.879,36.133,38.574,29.785,-13.672,0
152383.794,41.992,32.227,41.016,31.738,45.898,0
152383.798,40.527,24.414,39.551,31.738,71.289,0
152383.802,22.949,30.273,41.504,28.320,1.953,0
152383.805,26.855,43.457,24.414,27.344,11.230,0
152383.809,49.316,41.992,15.625,38.086,57.129,0
152383.827,52.246,38.086,27.832,41.016,58.105,0
152383.831,27.832,31.250,28.809,33.203,-40.039,0
152383.835,13.184,25.391,32.227,27.344,-85.449,0
152383.839,35.645,28.320,42.480,32.715,18.066,0
152383.843,51.758,34.668,47.363,40.039,61.523,0
152383.847,31.250,33.691,49.805,34.180,-7.324,0
152383.851,17.578,32.227,41.504,29.297,-48.340,0
152383.855,43.457,36.621,32.227,38.574,61.035,0
152383.858,59.570,33.203,31.250,35.645,116.699,0
152383.862,46.875,32.227,28.320,29.785,29.297,0
152383.866,34.180,37.109,27.832,37.109,-13.184,0
152383.870,36.621,32.715,25.391,34.668,32.227,0
152383.871,50.293,34.180,33.203,33.203,67.871,0
152383.875,50.293,39.062,47.363,34.180,47.852,0
152383.879,29.297,31.738,37.598,30.273,9.766,0
152383.883,18.555,27.344,21.484,29.297,12.207,0
152383.887,37.598,34.668,30.762,38.574,66.895,0
152383.891,38.574,29.297,43.457,35.645,78.125,0
152383.895,16.113,27.344,33.203,24.902,11.230,0
152383.899,18.555,41.504,27.832,29.297,-28.809,0
152383.903,39.062,40.039,38.086,38.086,0.977,0
152383.906,41.016,36.621,42.969,31.250,33.691,0
152383.910,19.043,36.621,41.992,17.578,3.418,0
152383.914,5.859,27.832,38.086,15.625,-44.434,0
152383.917,26.367,28.320,33.203,23.926,-16.113,0
152383.921,42.480,24.414,26.855,27.832,20.508,0
152383.924,28.320,24.902,24.902,18.066,30.762,0
152383.928,16.113,39.551,36.133,15.625,-29.785,0
152383.932,29.297,45.410,40.527,24.414,-60.547,0
152383.936,49.316,44.922,42.480,32.227,8.789,0
152383.940,35.156,35.156,35.156,23.438,31.738,0
152383.944,10.254,24.902,24.414,13.184,9.766,0
152383.948,9.766,31.738,29.297,16.602,-2.930,0
152383.952,30.273,38.574,24.902,23.438,26.855,0
152383.956,41.016,33.691,6.836,28.320,77.637,0
152383.960,27.832,38.086,5.371,33.691,73.730,0
152383.962,18.066,38.574,22.949,33.203,17.090,0
152383.966,36.621,38.086,41.992,31.250,36.621,0
152383.970,50.781,37.598,53.223,34.180,82.520,0
152383.974,30.273,29.297,46.875,26.367,30.273,0
152383.978,11.719,27.344,31.250,18.555,-2.441,0
152383.982,27.344,27.832,26.855,25.879,31.738,0
152383.986,50.781,31.738,27.832,35.156,75.684,0
152383.990,41.016,35.156,23.926,36.133,39.551,0
152383.994,20.996,35.156,30.762,31.738,-78.125,0
152383.997,29.785,40.039,40.039,32.227,-63.477,0
152384.001,42.969,35.156,34.180,31.738,38.086,0
152384.005,35.156,25.391,36.621,29.297,10.742,0
152384.007,21.973,30.762,43.945,30.273,-28.809,0
152384.010,23.438,37.598,32.715,32.715,-6.836,0
152384.014,40.527,36.621,30.273,34.180,30.273,0
152384.018,42.969,34.180,36.133,27.344,42.969,0
152384.022,20.996,31.250,37.598,19.531,-5.371,0
152384.026,12.695,30.273,34.180,19.531,-20.020,0
152384.030,29.785,28.809,27.832,24.414,39.062,0
152384.034,44.434,31.250,30.273,26.367,73.730,0
152384.038,32.715,38.574,37.598,21.973,-11.230,0
152384.042,16.602,40.039,38.086,20.508,-51.270,0
152384.046,28.320,38.574,33.203,26.367,33.203,0
152384.049,46.875,34.180,35.156,25.879,61.035,0
152384.051,43.945,32.715,33.691,24.902,44.922,0
152384.055,27.344,35.156,25.391,26.855,29.297,0
152384.059,28.809,38.086,32.715,33.203,41.504,0
152384.063,50.781,35.645,37.598,41.504,62.012,0
152384.067,60.059,37.109,24.902,42.480,32.227,0
152384.071,39.062,30.273,30.762,40.527,-9.766,0
152384.075,37.598,34.668,48.828,56.641,-5.371,1
152384.079,52.246,41.992,40.527,54.199,48.828,0
152384.083,35.156,30.762,28.809,30.273,62.500,0
152384.086,12.207,23.926,24.414,24.414,29.785,0
152384.090,7.324,19.531,31.250,27.344,2.930,0
152384.094,32.227,34.668,49.805,39.551,51.270,0
152384.098,45.410,37.598,46.387,38.574,79.102,0
152384.102,29.785,29.785,34.180,29.297,70.801,0
152384.105,17.090,22.949,38.574,29.297,27.832,0
152384.109,31.250,26.367,29.785,39.551,37.598,0
152384.113,51.270,33.203,28.320,42.969,116.699,0
152384.117,45.410,28.320,34.180,30.762,66.406,0
152384.121,26.367,28.320,35.156,27.344,-7.812,0
152384.125,32.227,33.203,36.621,30.273,-2.930,0
152384.129,52.246,25.391,28.320,30.762,88.379,0
152384.133,52.734,23.438,36.133,32.715,80.078,0
152384.137,37.598,33.203,43.945,33.691,-5.859,0
152384.141,31.738,33.203,44.922,38.086,-19.043,0
152384.141,48.340,22.949,37.109,40.527,25.879,0
152384.145,53.711,22.461,30.762,39.062,52.734,0
152384.149,35.156,32.227,32.227,33.691,13.672,0
152384.153,20.996,32.227,26.855,28.809,-28.320,0
152384.157,21.484,23.438,28.320,28.809,-2.930,0
152384.161,31.738,12.695,12.695,28.809,41.016,0
152384.165,27.832,15.137,4.883,25.391,-15.137,0
152384.169,15.137,24.414,35.645,25.391,-70.312,0
152384.173,26.367,23.926,54.199,30.762,-25.879,0
152384.176,41.992,22.461,49.316,31.250,50.781,0
152384.180,35.156,30.762,40.527,28.809,62.988,0
152384.184,16.602,33.203,31.250,30.273,24.414,0
152384.202,20.996,30.273,32.715,37.109,30.762,0
152384.206,43.457,30.762,35.156,38.574,80.566,0
152384.209,44.922,33.691,35.645,35.156,89.355,0
152384.213,21.973,35.645,33.691,25.391,40.527,0
152384.217,9.766,37.109,35.645,21.484,9.277,0
152384.221,25.391,32.227,39.551,23.926,54.688,0
152384.225,40.039,30.762,36.133,21.484,94.238,0
152384.229,26.367,34.668,30.762,18.066,33.691,0
152384.233,9.277,32.715,27.344,26.855,-32.227,0
152384.237,22.949,35.156,30.273,32.227,1.953,0
152384.241,42.969,36.133,27.344,24.902,49.316,0
152384.245,33.203,37.598,26.855,21.484,39.551,0
152384.247,16.113,45.410,29.785,26.367,22.461,0
152384.251,30.273,44.434,41.504,36.133,25.391,0
152384.255,49.805,42.969,37.109,40.527,55.664,0
152384.259,44.434,40.039,17.090,33.691,52.246,0
152384.263,31.738,38.574,25.879,30.762,-9.277,0
152384.267,25.879,38.574,39.062,33.691,-18.555,0
152384.271,45.410,36.133,43.945,36.621,41.504,0
152384.274,54.688,38.574,44.434,34.180,39.062,0
152384.278,34.180,29.785,40.527,28.320,13.184,0
152384.282,26.855,27.832,34.180,29.297,-5.859,0
152384.286,41.992,42.969,28.809,32.715,12.207,0
152384.290,54.688,49.316,29.785,38.086,84.961,0
152384.291,36.133,42.480,25.879,35.645,58.594,0
152384.295,16.602,39.551,22.461,25.391,-12.207,0
152384.299,41.992,51.758,43.457,40.527,42.480,0
152384.303,58.594,47.363,53.711,44.434,132.812,0
152384.307,35.156,31.250,25.879,24.414,118.164,0
152384.311,9.277,31.250,20.508,14.160,42.480,0
152384.315,8.789,32.227,43.457,15.625,61.523,0
152384.319,34.668,32.227,46.387,26.367,100.098,0
152384.323,37.109,25.391,33.691,21.484,51.758,0
152384.327,16.113,27.832,27.832,16.113,16.113,0
152384.330,13.672,35.645,34.180,26.367,54.688,0
152384.334,28.809,36.621,26.367,28.809,79.590,0
152384.336,32.227,41.992,25.391,23.438,47.363,0
152384.340,21.973,44.434,41.016,23.438,37.109,0
152384.344,19.531,39.062,36.621,26.855,45.410,0
152384.348,38.086,35.156,30.273,27.832,83.496,0
152384.352,57.617,35.156,33.203,31.738,112.305,0
152384.356,47.852,39.551,40.039,33.691,77.148,0
152384.360,24.902,41.016,40.527,34.668,52.734,0
152384.364,35.156,40.527,37.109,41.504,76.172,0
152384.368,55.664,41.992,30.762,39.551,98.633,0
152384.372,45.898,40.039,27.344,30.762,62.988,0
152384.375,24.414,36.621,34.180,21.973,23.926,0
152384.379,20.508,30.273,46.387,20.020,24.414,0
152384.381,39.062,31.738,48.828,30.273,49.805,0
152384.385,46.875,38.574,39.551,33.203,79.590,0
152384.389,26.367,42.480,31.250,25.879,57.617,0
152384.393,18.066,41.992,22.949,24.414,-6.836,0
152384.397,44.434,41.016,24.414,38.086,1.953,0
152384.401,57.129,41.504,39.551,47.363,41.992,0
152384.405,31.738,37.598,43.457,34.668,41.016,0
152384.409,12.695,32.227,34.668,22.949,1.465,0
152384.413,28.320,31.250,39.062,31.738,16.602,0
152384.417,42.480,34.180,43.945,39.551,102.539,0
152384.420,26.367,39.062,36.621,33.203,87.402,0
152384.424,20.020,49.316,28.809,34.668,19.531,0
152384.426,36.133,47.363,15.137,44.434,38.574,0
152384.430,47.363,28.809,20.996,41.016,86.914,0
152384.434,46.387,35.645,47.852,41.504,38.086,0
152384.438,27.344,40.039,50.293,36.621,-55.176,0
152384.442,20.996,31.738,38.574,28.320,-30.762,0
152384.446,47.363,35.645,41.992,39.551,61.523,0
152384.450,51.758,42.969,42.969,41.504,35.156,0
152384.454,21.973,41.016,34.180,22.949,-41.992,0
152384.458,11.230,37.109,35.645,18.555,2.441,0
152384.462,41.992,39.551,38.086,40.039,79.102,0
152384.465,58.105,40.039,36.621,51.758,95.215,0
152384.469,39.062,39.062,35.156,41.016,50.293,0
152384.471,26.855,38.574,34.180,37.109,2.441,0
152384.475,38.574,37.109,33.691,40.527,70.801,0
152384.479,49.805,39.551,36.621,40.527,114.258,0
152384.483,46.387,38.086,34.668,37.598,69.336,0
152384.487,28.809,32.715,34.668,32.227,-8.789,0
152384.491,36.133,32.715,40.039,37.598,-8.301,0
152384.495,52.734,32.715,33.203,40.039,73.242,0
152384.499,42.969,30.762,25.879,30.273,54.688,0
152384.503,28.809,43.457,34.180,31.250,-38.086,0
152384.507,30.762,46.387,39.551,39.062,-70.801,0
152384.510,43.457,33.691,28.809,37.109,9.766,0
152384.514,46.875,34.180,32.715,35.645,14.648,0
152384.516,31.738,36.133,44.922,32.227,-36.621,0
152384.520,16.113,35.156,34.180,27.832,-16.602,0
152384.524,27.832,39.551,24.414,31.738,37.598,0
152384.528,44.434,34.668,30.762,33.691,97.168,0
152384.532,31.250,28.809,41.992,24.902,61.523,0
152384.536,10.742,37.109,36.621,18.555,11.230,0
152384.540,28.320,44.434,41.992,27.344,17.090,0
152384.544,57.129,48.828,59.570,41.992,39.551,0
152384.548,38.086,39.062,42.969,31.250,83.496,0
152384.552,20.508,34.668,33.691,26.855,31.738,0
152384.555,25.391,37.598,30.762,30.762,-5.371,0
152384.559,33.691,29.785,22.949,31.738,43.945,0
152384.563,34.180,28.809,25.391,29.785,37.598,0
152384.567,15.137,36.133,30.273,16.602,-33.203,0
152384.570,8.301,33.203,31.250,14.160,-33.691,0
152384.574,32.715,34.180,35.156,23.926,36.621,0
152384.578,43.457,38.086,43.945,30.273,45.898,1
152384.582,23.926,38.574,39.062,29.297,-10.742,0
152384.586,10.742,38.086,25.879,26.855,-5.859,0
152384.590,23.438,27.832,29.785,26.367,31.250,0
152384.594,39.551,27.344,38.086,20.508,69.336,0
152384.598,33.203,39.551,40.527,17.578,43.457,0
152384.602,15.625,39.551,40.039,17.578,-27.832,0
152384.606,23.438,35.156,36.621,18.066,-0.977,0
152384.621,47.852,41.016,36.133,24.414,55.664,0
152384.625,42.480,42.969,34.668,23.926,13.672,0
152384.629,15.625,34.668,32.715,13.672,-42.480,0
152384.633,24.414,35.156,40.527,16.602,-13.672,0
152384.637,54.199,35.645,38.574,29.785,60.547,0
152384.641,56.641,32.227,18.555,33.691,68.359,0
152384.645,33.203,32.227,23.438,33.203,-3.418,0
152384.649,26.855,38.086,41.504,45.410,-4.395,0
152384.653,44.434,37.598,36.133,49.316,21.973,0
152384.657,44.922,31.250,41.504,37.598,44.922,0
152384.661,20.508,24.414,52.734,30.762,27.832,0
152384.664,6.836,24.902,52.734,33.203,-19.531,0
152384.666,26.855,30.273,46.387,41.992,-6.348,0
152384.670,50.293,40.039,44.434,51.758,38.574,0
152384.674,41.016,37.598,41.992,47.852,39.062,0
152384.678,17.578,29.785,33.691,35.156,-18.066,0
152384.682,24.414,36.621,29.297,35.156,21.973,0
152384.686,50.781,41.992,28.320,40.527,92.285,0
152384.690,42.480,34.668,24.902,28.809,83.984,0
152384.694,21.484,28.809,29.297,24.902,39.062,0
152384.698,26.855,34.668,36.133,33.203,10.254,0
152384.702,41.992,38.086,41.016,33.203,19.043,0
152384.705,49.805,37.598,42.480,34.180,40.039,0
152384.709,36.133,41.016,42.969,34.180,33.691,0
152384.711,18.066,38.574,40.527,30.762,-4.395,0
152384.715,29.297,39.062,41.016,30.762,-9.277,0
152384.719,44.434,29.785,43.945,29.785,50.781,0
152384.723,31.250,23.438,40.527,28.320,43.457,0
152384.727,15.625,39.551,33.203,28.320,-43.945,0
152384.731,33.691,44.922,30.273,36.133,-17.090,0
152384.735,48.340,39.062,23.438,32.227,78.613,0
152384.739,27.832,33.203,25.879,21.973,62.500,0
152384.743,12.695,24.414,37.598,19.531,-10.742,0
152384.747,20.996,26.367,41.992,23.438,-12.695,0
152384.750,40.039,34.668,48.828,32.715,67.871,0
152384.754,40.039,31.738,42.969,34.180,75.684,0
152384.756,14.648,35.645,26.367,28.320,26.367,0
152384.760,10.254,41.504,20.020,20.508,13.672,0
152384.764,37.598,41.504,20.996,23.438,45.898,0
152384.768,44.922,38.574,28.320,23.926,89.844,0
152384.772,22.949,37.109,38.086,19.043,44.922,0
152384.776,14.648,41.016,37.598,17.090,4.883,0
152384.780,37.598,37.598,22.461,22.461,32.715,0
152384.784,62.500,41.016,25.879,30.273,8.301,0
152384.788,48.340,39.551,30.762,27.344,6.348,0
152384.792,17.578,25.879,31.250,21.973,34.180,0
152384.796,20.996,24.414,36.621,25.391,67.871,0
152384.799,45.898,26.855,44.434,33.691,103.027,0
152384.801,40.039,24.902,55.664,30.762,92.285,0
152384.805,20.508,25.391,51.758,28.320,72.266,0
152384.809,31.250,31.250,43.945,37.109,75.195,0
152384.813,55.664,34.180,41.992,45.898,116.211,0
152384.817,50.781,29.297,36.133,41.504,79.102,0
152384.821,30.273,26.855,32.715,33.691,0.488,0
152384.825,27.832,30.762,32.715,35.156,0.000,0
152384.829,48.340,36.133,30.762,37.598,40.039,0
152384.833,52.734,34.668,28.320,36.621,91.309,0
152384.837,36.133,36.133,40.527,43.945,62.988,0
152384.841,24.902,40.527,48.828,41.992,-5.859,0
152384.844,29.297,33.203,31.250,28.320,16.602,0
152384.848,43.945,34.668,27.344,32.227,62.012,0
152384.852,37.109,39.062,43.457,28.809,53.711,0
152384.856,19.043,36.133,46.875,20.020,15.625,0
152384.859,27.344,36.133,41.992,26.367,24.414,0
152384.863,47.852,31.738,39.062,32.227,81.543,0
152384.867,47.363,33.203,32.227,32.715,77.637,0
152384.871,31.738,42.480,19.043,29.785,-14.160,0
152384.875,35.645,45.410,17.090,29.785,-9.277,0
152384.879,52.734,39.062,28.809,35.645,85.449,0
152384.883,51.270,33.203,29.297,36.133,103.516,0
152384.887,35.156,32.227,32.715,37.598,57.617,0
152384.891,28.809,32.715,42.480,41.504,34.668,0
152384.891,44.922,33.691,42.969,40.527,53.711,0
152384.895,52.246,37.109,40.039,40.039,58.105,0
152384.899,37.109,37.109,29.785,43.457,-1.953,0
152384.903,28.809,36.133,23.438,40.527,-20.020,0
152384.907,45.410,40.527,30.273,43.457,36.621,0
152384.911,59.570,37.109,32.715,50.781,70.801,0
152384.915,43.457,32.715,30.762,38.086,10.742,0
152384.919,34.180,40.527,34.668,34.668,-35.645,0
152384.923,51.758,39.551,33.691,50.781,28.809,0
152384.927,62.012,25.391,29.297,46.387,51.270,0
152384.931,45.410,25.879,38.574,34.180,40.039,0
152384.934,26.855,32.227,42.969,33.203,18.066,0
152384.951,32.227,33.203,38.086,36.621,-1.465,0
152384.955,53.223,30.762,38.086,43.945,48.340,0
152384.959,59.570,31.250,34.180,43.457,69.336,0
152384.963,38.086,37.598,27.344,40.527,37.598,0
152384.967,32.715,37.598,28.809,44.434,0.488,0
152384.971,55.664,34.668,33.203,51.758,-26.367,0
152384.975,67.383,36.133,34.180,56.152,0.488,0
152384.979,54.199,40.527,28.809,53.223,-0.977,0
152384.983,27.344,35.645,37.109,42.969,-2.441,0
152384.987,31.250,17.090,42.969,35.645,15.625,0
152384.991,49.805,19.043,42.969,41.016,60.059,0
152384.994,40.527,36.133,44.434,41.992,53.711,0
152384.996,32.227,43.945,38.574,42.480,-21.484,0
152385.000,41.992,43.945,27.832,49.805,11.719,0
152385.004,56.641,41.992,24.414,49.316,91.309,0
152385.008,54.688,45.410,24.902,47.363,83.496,0
152385.012,30.762,41.016,28.809,42.480,11.719,0
152385.016,28.809,34.668,42.480,35.156,14.648,0
152385.020,52.734,33.691,54.688,41.016,97.168,0
152385.024,53.223,32.227,47.852,41.992,95.215,0
152385.028,30.762,33.203,38.086,29.785,23.438,0
152385.032,16.602,32.227,28.320,20.996,-19.531,0
152385.035,30.273,35.156,19.531,25.879,51.758,0
152385.039,42.969,41.992,29.785,28.809,106.445,0
152385.041,29.297,41.992,45.410,26.855,53.711,0
152385.045,8.789,33.691,35.645,20.996,5.859,0
152385.049,19.043,29.297,19.531,20.020,57.617,0
152385.053,43.945,32.227,26.367,28.809,114.258,0
152385.057,40.527,33.691,46.387,31.250,84.473,0
152385.061,21.973,38.574,28.320,24.902,34.668,0
152385.065,22.949,36.133,11.230,25.391,41.992,0
152385.069,46.387,31.738,32.715,34.180,99.609,0
152385.073,45.898,33.691,46.875,36.133,79.590,0
152385.077,13.672,25.879,45.410,22.949,3.906,0
152385.080,11.719,21.973,40.527,20.508,20.996,0
152385.084,40.527,28.809,40.527,32.227,83.496,0
152385.088,49.316,38.086,43.457,37.109,73.730,0
152385.092,31.250,39.062,33.203,29.785,17.090,0
152385.096,14.648,35.156,26.855,25.879,-17.578,0
152385.099,33.691,39.551,36.133,32.715,29.297,0
152385.103,46.387,36.621,30.273,32.227,104.004,0
152385.107,30.273,36.621,26.367,22.461,76.172,0
152385.111,14.648,39.062,34.668,20.508,23.438,0
152385.115,21.973,35.645,36.621,28.809,35.156,0
152385.119,42.480,34.668,33.691,31.738,62.012,0
152385.123,36.621,33.691,34.668,21.973,56.641,0
152385.127,13.184,36.621,36.621,16.113,-2.441,0
152385.131,18.066,39.062,35.645,23.438,1.953,0
152385.131,39.551,33.691,34.180,29.297,60.059,0
152385.135,41.016,32.227,32.227,29.785,70.312,0
152385.139,23.438,36.621,33.203,26.367,3.906,0
152385.143,20.020,39.062,31.250,22.949,-29.785,0
152385.147,38.574,38.574,35.156,25.391,16.602,0
152385.151,41.992,38.574,39.062,24.414,45.898,0
152385.155,22.461,34.668,32.227,16.602,23.438,0
152385.159,11.230,35.645,31.250,17.090,-72.754,0
152385.163,26.367,37.598,38.086,27.832,-67.383,0
152385.167,40.039,34.668,43.945,31.738,15.137,0
152385.171,27.344,32.227,34.180,22.461,7.812,1
152385.174,7.324,26.855,24.902,15.137,-11.719,0
152385.177,16.113,31.250,30.273,20.508,19.043,0
152385.180,40.039,43.945,37.598,25.391,93.750,0
152385.184,30.762,40.527,44.434,20.996,70.312,0
152385.188,2.441,32.715,33.203,9.277,2.441,0
152385.192,9.277,35.156,24.902,11.719,-10.254,0
152385.196,41.504,36.133,32.227,25.879,52.246,0
152385.200,40.039,32.715,29.785,23.926,85.938,0
152385.204,18.066,29.785,32.715,20.996,8.789,0
152385.208,7.324,26.367,40.039,20.020,-6.348,0
152385.212,20.996,26.367,40.527,20.020,50.293,0
152385.216,40.527,33.691,41.992,26.855,63.965,0
152385.219,23.926,33.691,42.969,21.973,24.414,0
152385.221,6.836,27.344,44.922,17.090,-30.762,0
152385.225,22.461,26.855,37.109,20.996,15.137,0
152385.229,38.086,29.297,30.273,21.973,89.355,0
152385.233,28.809,33.203,25.879,23.438,73.730,0
152385.237,16.602,35.156,27.832,25.391,54.199,0
152385.241,33.203,30.762,41.016,33.691,59.082,0
152385.245,55.664,36.621,26.367,37.598,46.875,0
152385.249,47.363,34.180,11.719,25.391,21.484,0
152385.253,21.484,29.785,35.645,14.160,9.277,0
152385.257,16.113,38.086,53.223,18.066,8.789,0
152385.260,36.133,33.691,47.852,31.250,64.941,0
152385.264,45.410,32.227,47.363,31.250,82.520,0
152385.266,29.297,38.574,48.340,26.367,20.020,0
152385.270,14.648,34.180,39.062,24.902,33.203,0
152385.274,36.133,30.762,30.273,30.762,79.102,0
152385.278,53.223,37.598,30.273,36.133,102.539,0
152385.282,34.180,43.945,28.320,30.762,73.730,0
152385.286,18.555,40.039,30.762,31.738,12.695,0
152385.290,33.203,30.762,34.180,38.574,18.555,0
152385.294,52.246,31.250,34.668,41.504,64.453,0
152385.298,38.574,35.156,34.180,36.133,31.250,0
152385.302,19.531,31.738,34.180,31.738,-19.043,0
152385.305,24.902,31.250,40.039,35.156,-22.461,0
152385.309,44.434,34.668,40.039,36.133,66.406,0
152385.313,43.945,34.668,36.133,36.621,97.168,0
152385.317,25.879,34.668,36.133,35.156,9.766,0
152385.321,27.832,32.227,34.668,36.621,-8.789,0
152385.324,50.781,35.156,28.320,41.016,57.129,0
152385.328,52.734,42.480,30.762,38.574,71.289,0
152385.332,27.832,33.203,36.133,25.879,2.441,0
152385.336,11.230,24.902,34.668,17.090,-41.504,0
152385.340,21.484,29.785,33.691,19.531,37.598,0
152385.344,32.715,34.180,36.133,20.508,61.035,0
152385.348,21.484,36.621,39.551,17.578,9.766,0
152385.352,5.859,36.621,32.715,20.020,16.113,0
152385.356,17.090,38.086,18.066,28.809,71.777,0
152385.371,37.109,36.133,21.484,31.250,105.957,0
152385.375,39.551,31.738,34.180,30.273,68.848,0
152385.379,22.949,35.645,35.645,26.855,21.484,0
152385.383,23.438,37.598,39.062,28.809,-6.836,0
152385.387,52.246,37.598,41.016,36.133,3.418,0
152385.391,56.641,41.504,37.109,37.598,-2.930,0
152385.395,38.086,42.480,34.668,36.621,-31.250,0
152385.399,34.668,42.480,39.062,40.039,-28.809,0
152385.403,49.805,36.133,33.691,39.062,18.066,0
152385.407,56.641,35.645,33.691,38.574,62.988,0
152385.411,36.621,34.668,42.480,38.086,45.898,0
152385.414,18.555,25.391,37.598,32.715,8.301,0
152385.416,36.621,31.250,39.551,38.574,22.461,0
152385.420,54.688,38.574,46.875,39.062,73.242,0
152385.424,40.527,33.691,39.551,29.297,65.430,0
152385.428,20.996,29.297,32.227,27.344,-5.371,0
152385.432,26.855,27.344,36.133,33.691,1.953,0
152385.436,45.410,30.273,37.598,35.156,75.684,0
152385.440,36.133,32.227,32.227,28.809,68.359,0
152385.444,15.137,35.156,32.227,26.367,38.574,0
152385.448,22.461,33.203,33.691,25.879,43.457,0
152385.452,44.922,32.715,30.762,30.273,44.434,0
152385.455,45.410,38.574,22.461,26.855,44.434,0
152385.459,26.367,38.086,23.438,21.484,-3.906,0
152385.462,19.531,37.598,32.227,26.367,-38.574,0
152385.466,40.527,36.133,33.203,28.809,-3.906,0
152385.470,54.199,30.762,32.715,26.855,39.551,0
152385.473,38.574,34.180,34.180,23.438,41.992,0
152385.477,22.461,38.086,31.250,24.414,-12.695,0
152385.481,38.574,43.457,32.715,35.645,-6.348,0
152385.485,53.711,37.109,33.691,39.062,55.176,0
152385.489,42.969,28.809,30.273,34.180,37.109,0
152385.493,26.855,32.715,30.762,32.715,-1.953,0
152385.497,31.250,34.180,33.203,38.086,15.137,0
152385.501,51.270,35.645,35.156,43.457,93.750,0
152385.505,45.898,36.621,35.645,40.527,88.867,0
152385.506,21.484,34.180,37.109,31.738,4.883,0
152385.510,26.367,38.574,37.109,29.785,15.137,0
152385.514,47.852,41.504,29.785,33.203,62.500,0
152385.518,47.363,37.109,26.855,32.227,79.590,0
152385.522,25.879,32.227,34.180,25.879,36.621,0
152385.526,23.926,34.668,34.668,29.297,-18.066,0
152385.530,48.828,39.551,36.133,42.969,33.203,0
152385.534,55.176,39.062,37.109,41.504,74.219,0
152385.538,34.668,40.039,29.297,28.809,10.742,0
152385.542,20.020,38.086,33.203,26.367,-4.883,0
152385.545,36.621,34.180,44.922,32.715,30.762,0
152385.549,51.270,33.691,42.480,32.715,58.105,0
152385.553,43.945,37.109,35.156,30.273,41.504,0
152385.557,22.461,37.109,29.785,31.738,-10.742,0
152385.560,21.973,36.621,31.738,39.062,-0.977,0
152385.564,45.410,36.133,31.738,42.480,59.570,0
152385.568,38.086,32.227,29.297,40.039,94.238,0
152385.572,17.578,27.344,36.133,40.039,41.992,0
152385.576,23.926,30.273,37.109,41.992,14.160,0
152385.580,51.758,38.574,34.668,46.875,43.945,0
152385.584,53.711,39.551,43.457,41.992,52.734,0
152385.588,26.855,33.691,48.828,36.621,18.555,0
152385.592,16.113,35.156,43.457,39.062,-26.367,0
152385.596,42.969,40.039,31.250,43.457,23.438,0
152385.596,56.641,34.180,18.555,38.086,79.102,0
152385.600,34.668,28.809,25.879,29.785,62.500,0
152385.604,18.555,30.273,43.945,32.227,-4.883,0
152385.608,36.133,34.180,51.758,39.551,10.742,0
152385.612,57.129,35.645,51.758,41.504,97.656,0
152385.616,49.316,34.180,44.434,37.109,86.426,0
152385.620,25.391,36.621,39.551,33.691,7.812,0
152385.624,24.414,32.227,38.574,32.227,-48.828,0
152385.628,54.199,31.250,41.016,43.945,8.301,0
152385.632,60.547,34.668,32.715,44.922,59.570,0
152385.636,28.809,33.691,18.066,31.250,18.555,0
152385.639,22.461,35.156,31.738,37.598,-0.488,0
152385.641,50.781,35.156,40.039,47.363,80.566,0
152385.645,54.688,38.086,40.527,42.480,117.188,0
152385.649,30.762,37.598,47.363,33.691,52.246,0
152385.653,15.625,37.109,44.434,28.320,16.602,0
152385.657,33.203,33.203,35.156,30.762,66.895,0
152385.661,51.270,27.344,29.297,32.715,106.445,0
152385.665,41.504,34.668,27.344,31.250,38.574,0
152385.669,24.902,38.086,26.367,31.250,-46.875,0
152385.673,32.715,40.039,33.691,38.086,3.418,0
152385.677,45.410,38.574,38.086,34.180,91.309,0
152385.680,33.691,33.691,35.645,23.438,77.637,0
152385.684,13.184,35.645,30.273,17.090,19.531,0
152385.701,12.207,32.227,29.297,13.672,43.457,0
152385.705,39.551,32.227,29.785,22.949,92.285,0
152385.709,47.852,34.668,24.902,27.344,57.129,0
152385.713,25.391,33.203,34.180,18.066,-0.977,0
152385.717,19.531,33.691,44.434,18.555,-51.270,0
152385.721,39.551,40.039,38.086,28.320,-9.277,0
152385.725,55.664,43.457,31.250,26.855,55.176,0
152385.729,36.133,35.156,28.320,19.531,13.184,0
152385.733,20.020,31.250,30.273,23.926,-33.691,0
152385.737,41.992,31.738,38.574,33.691,-0.977,0
152385.740,57.129,28.809,42.480,37.109,23.438,0
152385.744,45.410,31.250,35.645,35.156,24.414,0
152385.746,30.762,34.668,31.250,33.691,15.625,0
152385.750,40.527,32.715,37.109,38.574,44.922,0
152385.754,57.129,29.785,37.109,45.410,116.211,0
152385.758,50.293,32.715,27.344,44.434,128.418,0
152385.762,29.785,34.668,25.391,38.574,60.059,0
152385.766,29.785,34.668,36.621,38.574,31.250,0
152385.770,55.176,35.645,40.039,41.504,77.148,0
152385.774,54.199,29.785,38.086,37.598,60.547,0
152385.778,29.297,28.809,39.062,30.762,0.488,1
152385.782,23.926,37.598,36.133,29.785,-13.672,0
152385.785,41.992,37.109,32.715,31.250,25.391,0
152385.789,50.781,26.855,26.367,25.879,55.176,0
152385.806,36.133,26.367,29.297,22.949,12.207,0
152385.810,16.602,30.762,26.855,21.484,-49.805,0
152385.814,26.855,32.715,20.996,24.414,-0.977,0
152385.818,44.922,29.785,31.738,30.273,69.824,0
152385.822,37.598,30.273,40.039,28.809,61.523,0
152385.826,21.484,35.156,36.621,29.785,6.348,0
152385.830,25.391,34.668,37.109,35.645,12.695,0
152385.834,48.828,29.785,36.133,46.387,72.266,0
152385.838,48.828,31.738,21.973,35.645,54.199,0
152385.842,22.461,28.809,24.414,15.137,-13.184,0
152385.845,16.602,25.391,30.762,13.672,-5.859,0
152385.849,34.180,28.809,33.203,24.902,46.875,0
152385.836,40.527,26.367,34.668,26.367,36.621,0
152385.840,35.156,32.715,35.156,26.367,0.000,0
152385.844,31.738,37.598,31.738,34.180,-44.922,0
152385.848,40.527,31.250,27.344,34.180,13.672,0
152385.852,48.340,30.273,33.691,32.715,46.387,0
152385.856,34.668,27.832,39.551,31.738,-26.367,0
152385.860,19.531,22.949,36.621,31.250,-73.730,0
152385.864,26.367,27.344,33.691,30.762,-39.062,0
152385.868,44.922,32.227,31.738,35.645,13.672,0
152385.872,41.016,32.227,37.598,37.598,0.488,0
152385.875,21.484,27.832,43.945,33.691,-48.340,0
152385.879,24.902,23.438,42.969,32.715,-16.602,0
152385.881,47.852,28.809,37.598,36.133,53.711,0
152385.885,46.875,35.645,30.762,32.227,63.965,0
152385.889,24.902,33.691,24.902,26.367,37.109,0
152385.893,20.508,32.715,29.785,28.320,21.973,0
152385.897,41.016,24.414,33.691,33.203,78.125,0
152385.901,46.387,20.508,26.855,29.297,112.305,0
152385.905,28.320,31.738,41.016,21.484,58.105,0
152385.909,16.113,34.180,51.758,16.602,-14.160,0
152385.913,34.668,33.691,47.363,19.043,-2.441,0
152385.917,46.387,36.621,40.039,23.926,67.383,0
152385.920,33.691,33.691,29.297,27.344,43.457,0
152385.924,22.461,32.227,24.414,24.902,3.418,0
152385.926,36.133,33.203,26.367,33.203,61.523,0
152385.930,61.035,36.133,27.344,42.969,96.680,0
152385.934,53.223,38.086,23.926,35.645,57.129,0
152385.938,31.738,39.062,23.926,27.344,-8.789,0
152385.942,26.367,40.527,37.109,30.273,-2.930,0
152385.946,41.504,39.062,39.551,39.062,39.551,0
152385.950,41.992,33.691,33.203,34.668,38.574,0
152385.954,21.973,32.715,32.715,25.879,-2.930,0
152385.958,13.184,29.785,34.668,23.926,-6.348,0
152385.962,34.180,25.879,31.250,31.738,49.805,0
152385.965,49.805,28.809,31.250,38.574,72.754,0
152385.969,34.180,33.691,34.668,30.762,60.059,0
152385.974,23.438,37.109,34.668,28.809,13.672,0
152385.977,42.480,39.551,35.645,41.992,20.508,0
152385.981,57.617,36.621,28.320,41.992,74.219,0
152385.985,37.598,34.668,24.902,24.902,44.922,0
152385.989,20.508,41.016,32.227,24.414,21.484,0
152385.993,34.180,39.551,41.992,31.250,62.500,0
152385.997,51.270,30.273,41.504,28.320,70.312,0
152386.001,43.945,31.738,39.062,27.344,27.832,0
152386.005,21.973,38.086,38.086,25.391,3.418,0
152386.009,20.996,34.668,33.203,24.414,0.000,0
152386.013,44.434,30.273,34.668,31.738,58.105,0
152386.017,53.711,37.109,43.457,31.250,96.191,0
152386.018,32.715,41.992,37.598,26.367,55.664,0
152386.022,19.531,41.016,17.090,24.902,29.297,0
152386.026,31.738,38.086,15.137,27.344,70.801,0
152386.030,46.875,34.180,28.809,34.668,97.656,0
152386.033,32.227,31.250,36.133,31.250,59.082,0
152386.037,16.113,30.273,39.062,27.832,-10.254,0
152386.041,31.738,30.762,38.574,33.691,-15.625,0
152386.045,46.875,36.621,37.598,36.621,54.688,0
152386.049,33.691,34.668,35.645,34.180,74.219,0
152386.053,14.648,28.320,35.156,32.715,23.438,0
152386.057,19.043,31.738,34.180,33.203,50.293,0
152386.061,41.504,33.691,33.203,35.156,79.102,0
152386.063,40.527,30.273,33.203,32.227,51.270,0
152386.067,17.578,29.297,32.715,27.344,-0.977,0
152386.071,13.184,32.227,36.621,31.738,-14.160,0
152386.074,35.156,34.180,37.109,36.133,63.965,0
152386.078,41.992,34.668,31.250,33.691,55.176,0
152386.082,19.531,31.738,31.738,23.926,-25.391,0
152386.086,12.695,30.762,34.668,24.902,-41.992,0
152386.090,32.715,28.320,36.621,35.645,21.973,0
152386.094,40.527,26.855,33.691,31.738,74.707,0
152386.098,26.367,30.273,30.273,28.809,29.785,0
152386.102,17.090,35.156,33.203,32.227,-24.902,0
152386.106,32.715,39.062,34.668,36.621,4.883,0
152386.121,53.711,38.086,37.109,42.480,71.289,0
152386.125,53.711,32.715,35.156,42.480,65.430,0
152386.129,37.109,29.297,33.203,35.645,-9.277,0
152386.133,37.598,30.273,35.156,38.086,-29.785,0
152386.137,60.547,36.133,38.574,48.340,-2.930,0
152386.141,64.941,40.527,38.574,49.316,-2.441,0
152386.145,40.527,39.062,29.785,37.598,0.488,0
152386.149,33.203,38.574,26.855,34.668,12.207,0
152386.153,52.246,36.133,31.738,45.410,60.547,0
152386.157,58.105,32.227,38.574,46.875,75.195,0
152386.161,40.527,26.367,38.574,40.527,33.691,0
152386.164,32.227,24.414,40.527,43.457,20.020,0
152386.166,50.293,27.344,41.992,52.246,26.855,0
152386.170,67.383,30.762,41.992,54.688,62.012,0
152386.174,57.617,36.133,37.109,48.828,45.410,0
152386.178,39.551,33.691,33.203,50.293,-23.438,0
152386.182,43.945,28.320,31.738,52.734,-43.457,0
152386.186,59.570,29.297,29.297,52.246,4.883,0
152386.190,52.734,31.250,30.762,46.875,30.762,0
152386.194,33.203,35.156,30.273,40.039,0.488,0
152386.198,37.109,38.086,28.809,42.480,0.000,0
152386.202,54.688,30.762,20.996,41.016,24.902,0
152386.205,53.223,31.738,19.531,34.180,52.734,0
152386.209,34.180,29.785,31.738,29.297,14.648,0
152386.211,31.250,16.602,32.715,38.574,13.672,0
152386.215,55.176,21.484,24.902,45.898,111.816,0
152386.219,57.129,27.832,26.855,31.250,139.648,0
152386.223,43.945,36.133,31.250,27.832,49.805,0
152386.227,33.203,42.969,29.297,31.250,-26.855,0
152386.231,38.574,40.527,23.926,34.180,1.953,0
152386.235,56.641,38.086,25.391,41.504,47.852,0
152386.239,46.875,30.762,28.809,38.574,32.715,0
152386.243,28.320,30.273,29.785,31.738,-48.340,0
152386.247,39.551,36.621,32.715,35.645,-20.996,0
152386.251,56.641,39.062,33.203,39.062,78.125,0
152386.254,50.293,36.621,34.668,36.133,50.781,0
152386.256,34.668,34.180,30.273,34.180,-21.484,0
152386.260,34.668,36.621,25.391,40.039,-8.301,0
152386.264,53.223,36.133,33.691,49.805,81.543,0
152386.268,54.199,28.809,39.062,50.781,74.219,0
152386.272,26.855,26.367,37.598,37.109,16.113,0
152386.276,24.414,33.203,37.598,38.574,-37.109,0
152386.280,46.387,36.621,33.203,52.734,15.137,0
152386.284,53.711,32.715,35.645,45.898,62.988,0
152386.288,37.109,31.250,40.039,34.180,-13.672,0
152386.292,24.414,31.250,38.086,35.645,-28.809,0
152386.295,39.551,29.297,38.574,42.480,9.766,0
152386.299,56.641,27.832,38.574,43.457,54.688,0
152386.303,48.340,34.180,30.273,38.574,60.059,0
152386.307,29.297,36.133,23.926,35.156,12.695,0
152386.310,35.645,28.320,28.809,40.039,56.641,0
152386.314,59.570,23.926,39.551,49.805,120.605,0
152386.318,58.105,27.344,44.922,46.875,79.102,0
152386.322,41.992,42.969,41.992,36.133,42.969,0
152386.326,47.363,55.176,38.086,37.598,19.043,0
152386.330,54.199,41.992,22.461,35.645,37.109,0
152386.334,52.246,29.297,24.902,35.645,50.781,0
152386.338,44.434,32.227,35.645,38.574,-7.812,0
152386.342,30.273,34.180,27.344,33.203,-43.945,0
152386.346,44.922,32.227,35.156,42.969,43.945,0
152386.346,58.594,31.250,39.551,43.457,104.980,0
152386.350,44.922,37.109,35.645,35.156,47.852,0
152386.354,28.809,32.227,27.832,33.691,-1.465,1
152386.358,33.203,17.578,18.555,35.645,52.734,0
152386.362,45.898,22.949,16.602,40.039,110.840,0
152386.366,38.086,34.668,24.902,38.574,54.199,0
152386.370,20.996,39.062,36.133,38.574,-1.953,0
152386.374,22.949,34.668,38.086,46.387,-30.762,0
152386.378,41.992,31.738,29.785,47.852,49.805,0
152386.382,43.945,33.203,29.297,40.039,75.684,0
152386.385,22.949,29.785,37.109,36.133,6.348,0
152386.389,16.602,28.809,37.598,41.016,48.340,0
152386.391,41.504,29.297,32.715,47.852,106.934,0
152386.395,58.105,33.203,28.809,47.852,108.398,0
152386.399,38.086,34.180,30.273,42.969,65.918,0
152386.403,22.949,31.250,38.574,39.062,17.090,0
152386.407,41.992,32.227,44.922,43.945,26.855,0
152386.411,55.664,36.621,38.086,45.898,68.359,0
152386.415,38.574,38.574,32.227,39.062,15.137,0
152386.419,20.020,37.109,30.762,27.344,-42.480,0
152386.423,29.297,37.598,29.297,23.438,46.875,0
152386.427,47.363,37.598,36.621,29.297,86.914,0
152386.430,40.039,32.715,38.086,30.762,5.371,0
152386.434,22.461,31.250,28.809,24.902,-19.043,0
152386.451,29.785,32.715,28.320,28.320,12.207,0
152386.455,48.828,34.180,32.715,34.668,55.176,0
152386.459,47.852,38.086,28.809,28.809,72.754,0
152386.463,28.809,39.551,29.297,26.367,27.832,0
152386.467,30.762,39.551,31.250,33.203,-6.348,0
152386.471,56.152,38.574,29.297,41.992,26.855,0
152386.475,55.664,32.715,24.414,33.203,31.738,0
152386.479,38.086,35.156,30.762,26.367,7.324,0
152386.483,22.461,40.039,39.062,20.996,18.066,0
152386.487,34.180,34.180,39.062,20.508,32.715,0
152386.490,56.152,31.738,40.527,31.738,48.340,0
152386.494,46.875,31.250,40.039,29.785,50.293,0
152386.496,34.180,32.715,41.504,29.785,-8.301,0
152386.500,47.852,36.621,37.598,38.574,17.578,0
152386.504,61.035,41.016,29.785,41.016,103.027,0
152386.508,45.898,37.598,22.461,34.180,80.078,0
152386.512,21.973,33.203,27.344,27.832,23.438,0
152386.516,20.996,33.203,39.062,33.203,23.438,0
152386.520,38.086,26.855,39.062,40.527,74.707,0
152386.524,39.062,28.320,40.527,41.504,91.309,0
152386.528,15.137,33.691,41.504,30.762,36.133,0
152386.531,12.207,31.250,35.645,26.855,-8.301,0
152386.535,36.133,30.273,27.832,31.738,17.578,0
152386.539,48.828,35.645,27.344,34.180,59.570,0
152386.541,37.598,35.156,28.320,35.645,40.039,0
152386.545,15.625,29.785,29.297,28.320,-1.953,0
152386.549,21.484,29.297,36.621,22.461,18.066,0
152386.553,41.016,31.250,38.574,22.461,109.375,0
152386.557,28.809,36.133,40.039,16.113,103.516,0
152386.561,11.230,35.645,40.039,15.137,4.883,0
152386.565,21.484,29.785,32.715,21.973,7.324,0
152386.569,33.203,27.344,23.926,18.555,77.637,0
152386.573,27.832,26.855,24.902,17.090,80.078,0
152386.577,18.066,33.691,30.762,20.020,25.391,0
152386.580,20.020,32.715,27.832,21.484,25.879,0
152386.584,30.762,29.785,29.297,22.461,82.520,0
152386.586,34.180,35.645,32.715,17.578,107.910,0
152386.590,20.996,35.645,31.250,14.648,35.645,0
152386.594,12.207,34.668,28.809,18.555,5.859,0
152386.598,31.250,36.133,33.691,27.344,37.598,0
152386.602,45.410,33.203,36.133,28.809,74.707,0
152386.606,30.762,32.715,33.203,28.809,76.172,0
152386.610,13.672,37.109,28.320,28.809,16.602,0
152386.614,25.879,41.016,27.832,30.273,27.832,0
152386.618,47.363,39.551,35.156,37.598,65.918,0
152386.622,41.504,34.180,28.320,33.203,46.387,0
152386.626,18.555,36.621,18.066,21.484,36.621,0
152386.629,22.949,37.598,24.902,20.996,26.855,0
152386.631,42.480,33.203,34.668,25.879,65.918,0
152386.635,42.969,38.574,40.527,21.484,95.703,0
152386.639,30.762,46.387,35.645,18.066,37.598,0
152386.643,36.133,45.410,41.504,28.320,10.254,0
152386.647,62.988,40.527,41.016,38.574,45.898,0
152386.651,62.500,33.203,25.879,35.156,63.477,0
152386.655,30.273,29.785,24.414,23.926,19.531,0
152386.659,18.555,32.227,25.879,15.137,-29.785,0
152386.663,31.738,35.645,27.832,17.090,-8.301,0
152386.667,43.945,39.551,35.156,25.879,63.477,0
152386.670,38.086,37.598,37.598,32.227,41.992,0
152386.674,16.113,31.738,30.273,23.438,-21.973,0
152386.676,25.879,38.086,32.715,30.762,0.977,0
152386.680,47.852,40.039,29.785,36.621,42.480,0
152386.684,40.527,30.762,29.297,25.391,30.762,0
152386.688,22.461,28.320,31.738,22.949,-8.789,0
152386.692,22.461,29.785,25.391,25.879,-3.906,0
152386.696,48.340,28.809,29.785,36.133,66.895,0
152386.700,48.340,25.879,30.762,36.621,62.988,0
152386.704,32.227,39.062,38.086,31.250,-24.414,0
152386.708,39.551,52.734,48.828,41.504,-32.715,0
152386.712,44.434,37.598,29.297,36.621,21.484,0
152386.715,45.410,28.809,22.461,20.508,59.570,0
152386.719,30.762,35.156,33.203,14.160,30.762,0
152386.721,21.973,33.203,34.180,22.461,-22.461,0
152386.725,41.992,30.273,26.855,37.109,45.410,0
152386.729,55.664,28.320,23.438,38.086,81.055,0
152386.733,45.898,29.785,27.832,33.203,35.645,0
152386.737,35.156,38.086,38.574,39.551,6.836,0
152386.741,37.109,42.969,47.852,41.016,8.789,0
152386.745,50.781,37.598,43.457,35.156,55.664,0
152386.749,43.945,30.762,39.062,27.344,20.996,0
152386.753,16.113,30.762,37.109,20.996,-9.766,0
152386.757,16.602,26.855,36.621,29.297,14.648,0
152386.761,44.922,28.809,31.738,40.039,49.805,0
152386.764,54.688,37.109,25.391,41.504,87.402,0
152386.768,32.227,36.133,29.785,36.133,41.016,0
152386.772,29.785,30.762,39.062,40.039,-19.043,0
152386.776,51.758,35.156,37.598,55.176,9.277,0
152386.779,56.152,42.480,34.180,52.246,68.359,0
152386.783,36.133,39.551,37.598,39.551,45.898,0
152386.787,18.066,32.715,37.598,31.738,-13.184,0
152386.791,34.180,33.203,35.156,32.227,21.973,0
152386.795,54.688,36.621,31.250,40.527,86.914,0
152386.799,34.668,31.250,25.879,31.738,103.027,0
152386.803,14.648,26.367,25.879,21.484,54.199,0
152386.807,24.902,27.344,32.227,33.203,13.184,0
152386.811,42.480,27.344,38.574,45.898,47.852,0
152386.826,40.527,33.691,34.180,38.086,84.473,0
152386.830,18.555,41.992,23.926,25.391,14.648,0
152386.834,14.160,43.457,22.949,27.344,-31.250,0
152386.838,30.762,39.551,34.668,29.297,21.973,0
152386.842,45.410,43.457,42.480,31.738,74.219,0
152386.846,25.391,39.551,30.762,25.879,29.785,0
152386.850,8.301,35.156,19.043,16.113,-31.250,0
152386.854,28.809,34.668,19.531,20.996,10.742,0
152386.858,45.898,32.227,26.367,33.203,46.875,0
152386.862,38.574,33.691,30.762,32.715,-11.230,0
152386.866,21.973,32.715,26.367,23.926,-45.410,0
152386.869,29.785,31.250,29.297,23.438,22.461,0
152386.871,49.316,35.156,38.086,28.809,90.820,0
152386.875,43.457,38.574,35.645,31.738,52.734,0
152386.879,28.809,41.016,32.715,32.715,-5.371,0
152386.883,36.133,40.039,31.738,37.109,46.875,0
152386.887,52.246,40.039,26.855,36.133,108.398,0
152386.891,50.781,45.410,32.715,33.691,83.008,0
152386.895,29.785,41.992,33.691,27.832,9.766,0
152386.899,18.066,28.809,22.461,20.996,27.832,0
152386.903,29.785,25.391,27.832,24.414,64.941,0
152386.907,33.691,33.691,32.715,23.438,46.875,2
152386.911,17.090,31.250,29.785,14.648,13.184,0
152386.914,9.766,32.227,26.367,18.066,-7.324,0
152386.916,30.273,39.062,22.949,29.785,35.645,0
152386.920,47.852,36.621,35.645,36.133,100.586,0
152386.924,36.621,35.645,41.504,32.715,85.938,0
152386.928,15.625,27.344,30.762,26.367,25.391,0
152386.932,23.926,24.902,22.949,29.785,39.551,0
152386.936,47.852,29.297,33.203,38.574,71.289,0
152386.940,44.434,32.715,37.598,38.574,54.199,0
152386.944,27.344,30.273,32.715,32.227,1.465,0
152386.948,30.762,30.762,40.039,36.621,4.883,0
152386.952,50.293,34.180,39.062,42.969,16.602,0
152386.955,48.828,29.297,32.227,39.062,28.809,0
152386.959,28.320,25.391,30.762,34.180,10.742,0
152386.962,23.438,29.297,36.133,34.180,-20.020,0
152386.965,50.293,31.250,41.504,44.922,21.973,0
152386.969,64.941,27.344,41.504,49.316,49.805,0
152386.973,47.363,25.879,39.062,46.387,15.625,0
152386.977,36.621,28.320,36.133,49.805,-26.855,0
152386.981,49.805,28.320,32.715,52.246,6.836,0
152386.985,67.383,30.762,38.574,55.664,59.570,0
152386.989,57.617,39.551,37.109,51.758,20.996,0
152386.993,33.691,42.480,34.180,41.992,-30.762,0
152386.997,40.039,40.527,41.504,44.434,-15.137,0
152387.001,49.316,32.715,31.738,38.574,54.199,0
152387.004,36.133,28.320,21.484,18.555,79.590,0
152387.006,15.137,27.344,25.391,14.648,30.273,0
152387.010,16.602,26.367,29.297,27.832,18.066,0
152387.014,42.969,28.320,30.762,33.691,53.711,0
152387.018,43.457,37.598,34.180,28.809,80.566,0
152387.022,22.949,42.969,33.691,25.391,39.062,0
152387.026,17.090,37.598,32.227,27.832,-9.766,0
152387.030,30.762,34.180,32.227,29.297,32.227,0
152387.034,43.945,34.668,34.668,30.273,109.863,0
152387.038,33.203,36.621,40.527,33.691,64.941,0
152387.042,22.461,35.645,37.109,38.086,-2.441,0
152387.045,34.180,34.180,27.344,36.621,41.016,0
152387.049,49.316,35.645,25.879,38.574,115.723,0
152387.052,36.621,35.156,24.902,35.156,104.492,0
152387.055,11.719,29.785,29.785,24.414,20.996,0
152387.059,20.508,33.203,41.016,29.297,8.789,0
152387.063,45.410,39.551,49.316,36.621,45.898,0
152387.067,35.645,37.598,40.527,27.832,41.504,0
152387.071,12.207,38.574,29.785,20.020,-18.555,0
152387.075,17.578,39.062,29.297,27.832,-17.578,0
152387.079,41.992,41.992,31.250,39.551,30.762,0
152387.083,42.480,35.156,23.438,31.250,67.871,0
152387.087,11.230,20.508,14.648,13.672,65.918,0
152387.091,-0.488,26.367,22.461,12.207,16.602,0
152387.095,23.438,34.180,32.227,22.949,55.176,0
152387.096,40.039,33.203,35.645,30.273,89.355,0
152387.100,33.203,35.645,34.668,31.250,20.508,0
152387.104,25.391,32.227,32.715,33.203,-34.668,0
152387.108,42.969,38.574,21.973,44.434,7.812,0
152387.112,58.594,46.875,16.602,46.875,58.105,0
152387.116,36.133,37.598,27.344,24.902,68.848,0
152387.120,11.230,33.691,36.133,11.719,10.254,0
152387.124,17.090,32.227,42.969,15.625,-3.418,0
152387.128,38.086,30.762,38.574,22.949,57.617,0
152387.132,37.109,27.832,29.785,20.996,70.312,0
152387.135,19.531,27.344,34.180,17.578,29.297,0
152387.139,23.926,36.621,32.227,30.273,2.930,0
152387.141,45.410,39.551,24.414,37.598,75.195,0
152387.145,46.387,34.668,32.227,28.809,98.145,0
152387.149,24.902,33.203,42.480,17.578,35.645,0
152387.153,9.766,32.715,35.156,17.090,16.113,0
152387.157,26.855,30.762,35.156,27.344,42.480,0
152387.161,43.457,29.297,44.434,29.785,26.367,0
152387.165,31.738,33.691,40.039,22.949,-31.250,0
152387.169,18.066,38.086,37.109,24.414,-33.203,0
152387.173,25.391,36.133,35.156,30.762,29.297,0
152387.177,41.992,40.039,34.180,33.203,60.059,0
152387.180,32.715,49.805,32.227,27.344,26.855,0
152387.184,12.207,50.293,33.203,20.020,-16.602,0
152387.186,16.113,38.086,34.180,19.531,8.789,0
152387.190,35.156,30.273,36.133,25.879,34.180,0
152387.194,38.574,33.203,28.320,24.414,4.883,0
152387.198,23.438,38.086,15.625,22.461,0.488,0
152387.202,23.438,41.016,25.391,32.227,10.742,0
152387.206,41.504,40.527,42.480,36.133,59.570,0
152387.210,43.457,37.598,47.363,29.785,93.262,0
152387.214,25.391,35.645,45.898,23.926,19.531,0
152387.218,11.230,29.785,36.133,22.461,-26.855,0
152387.222,29.785,29.785,33.203,30.762,30.762,0
152387.225,50.781,35.645,28.320,35.156,82.520,0
152387.229,38.086,31.250,29.297,33.203,26.367,0
152387.262,18.066,30.762,39.551,34.180,-5.371,0
152387.265,25.879,32.227,38.574,39.551,45.410,0
152387.269,50.293,26.367,33.203,43.457,95.215,0
152387.273,59.570,30.762,36.621,45.898,84.473,0
152387.277,29.785,39.551,38.086,39.062,17.090,0
152387.281,18.555,36.621,32.227,30.273,12.207,0
152387.285,42.480,30.762,35.156,32.227,77.148,0
152387.289,42.480,30.762,35.645,30.762,63.965,0
152387.293,29.297,29.297,37.109,33.691,11.230,0
152387.297,33.203,31.738,37.109,39.062,-18.066,0
152387.301,51.758,40.527,38.574,46.387,12.207,0
152387.305,56.641,38.086,37.109,44.922,77.148,0
152387.293,32.715,33.203,19.531,30.273,27.344,0
152387.297,7.324,27.832,17.578,19.531,-2.930,0
152387.301,20.508,25.879,35.645,27.344,27.344,0
152387.304,41.016,30.762,41.016,35.645,40.039,0
152387.308,34.668,38.086,40.527,34.668,38.574,0
152387.312,17.578,37.109,39.062,32.227,0.488,0
152387.316,17.578,30.273,33.203,33.203,62.500,0
152387.320,35.156,30.273,32.715,35.645,114.746,0
152387.324,36.621,32.715,31.738,30.273,82.520,0
152387.328,16.113,34.668,26.367,26.367,69.336,0
152387.332,13.184,33.691,30.273,27.832,57.617,0
152387.336,38.086,31.738,35.645,38.574,85.449,0
152387.337,40.527,31.250,34.180,38.574,79.590,0
152387.340,23.438,34.180,37.598,28.809,42.969,0
152387.344,14.160,30.273,36.133,24.902,45.410,0
152387.348,27.832,23.438,24.902,29.785,55.176,0
152387.352,39.062,22.461,26.367,30.273,79.590,0
152387.356,24.414,37.109,36.133,25.391,59.570,0
152387.360,14.648,43.945,33.203,30.273,15.625,0
152387.364,25.879,32.715,23.438,34.668,30.273,0
152387.368,41.504,36.621,20.508,29.297,35.645,0
152387.372,32.715,37.598,24.902,19.531,27.344,0
152387.376,13.672,39.062,32.227,20.020,-13.184,0
152387.380,26.855,39.062,33.691,29.785,-36.621,0
152387.381,47.363,34.180,30.762,33.203,36.133,0
152387.385,38.574,34.668,34.668,26.367,76.660,0
152387.389,20.020,30.762,39.551,26.367,29.785,0
152387.393,23.926,31.738,36.621,33.691,-34.180,0
152387.397,45.898,36.621,35.645,39.551,25.879,0
152387.401,52.246,36.621,39.062,38.086,73.242,0
152387.405,30.762,37.598,27.832,25.391,26.367,0
152387.409,15.625,36.133,26.855,20.020,-21.484,0
152387.413,36.133,35.156,32.715,30.273,-12.207,0
152387.417,48.828,32.715,36.133,29.785,73.730,0
152387.420,31.250,33.691,37.598,20.020,73.242,0
152387.424,20.508,37.109,32.715,20.508,16.113,0
152387.426,35.156,34.180,25.879,30.762,16.602,0
152387.430,53.711,34.668,20.508,36.621,78.613,0
152387.434,52.734,40.527,23.438,37.109,75.684,0
152387.438,29.785,36.621,33.203,31.738,-1.953,1
152387.442,26.367,35.645,38.086,35.156,-3.906,0
152387.446,45.898,39.062,36.133,42.480,57.617,0
152387.450,37.109,34.668,34.668,32.715,40.039,0
152387.454,14.160,35.645,38.574,33.691,-15.625,0
152387.458,9.277,35.156,34.668,36.133,-11.230,0
152387.462,29.297,31.738,30.762,32.715,42.969,0
152387.465,40.039,31.738,35.645,34.180,73.242,0
152387.469,20.508,31.250,38.574,30.273,14.648,0
152387.471,6.836,28.809,40.527,28.809,-11.719,0
152387.475,29.785,34.180,43.457,36.621,41.016,0
152387.479,47.852,38.574,35.645,36.621,72.266,0
152387.483,33.203,38.086,28.320,28.809,71.289,0
152387.487,14.648,38.086,32.227,27.344,34.668,0
152387.491,26.367,32.227,34.180,32.715,49.316,0
152387.495,46.387,31.250,33.691,34.668,76.172,0
152387.499,37.109,38.086,30.273,24.902,39.551,0
152387.503,21.484,42.969,30.762,23.926,16.602,0
152387.507,23.926,41.504,32.227,26.367,19.043,0
152387.510,44.434,34.180,27.344,30.273,70.801,0
152387.514,47.852,37.598,39.062,37.598,90.820,0
152387.518,17.090,40.039,41.504,25.391,42.480,0
152387.522,2.441,33.203,39.551,11.719,-3.418,0
152387.526,20.508,30.762,46.387,20.020,26.855,0
152387.529,20.996,25.391,31.250,16.113,55.176,0
152387.533,5.371,26.367,22.461,14.648,30.273,0
152387.537,4.883,29.785,28.809,20.508,15.625,0
152387.541,35.156,36.133,28.809,30.762,42.480,0
152387.545,50.293,36.621,22.461,33.203,103.516,0
152387.549,32.227,34.668,27.344,23.438,86.914,0
152387.553,18.066,37.109,36.133,19.531,15.137,0
152387.557,30.762,37.598,35.645,25.391,22.461,0
152387.561,49.805,36.133,29.785,33.691,46.875,0
152387.561,41.504,29.785,29.785,30.762,33.691,0
152387.565,22.461,32.227,34.668,29.297,1.465,0
152387.569,24.902,37.109,29.785,32.715,12.695,0
152387.573,47.852,34.180,28.320,38.086,71.289,0
152387.577,53.223,39.551,31.738,42.480,76.660,0
152387.581,34.180,41.504,34.180,41.016,22.949,0
152387.585,24.414,40.039,44.922,35.645,13.672,0
152387.589,49.805,46.875,39.551,40.527,84.473,0
152387.593,69.336,46.875,20.996,43.457,97.168,0
152387.597,45.410,40.039,27.832,32.227,13.184,0
152387.601,25.879,34.180,34.668,26.367,-15.625,0
152387.604,42.969,30.273,35.156,33.203,20.020,0
152387.621,65.430,36.133,45.898,42.480,17.090,0
152387.625,56.152,40.039,43.457,41.992,19.043,0
152387.629,30.762,27.832,32.227,32.715,31.250,0
152387.633,30.762,26.855,24.414,30.273,4.395,0
152387.637,54.688,38.086,32.227,36.621,41.016,0
152387.641,61.035,38.574,28.320,37.598,64.453,0
152387.645,36.621,34.668,25.879,30.273,29.297,0
152387.649,32.715,38.086,41.504,32.227,0.488,0
152387.653,58.105,36.621,40.527,39.551,46.387,0
152387.657,53.223,28.320,39.062,34.180,51.270,0
152387.661,30.273,23.926,37.109,30.273,-33.203,0
152387.664,25.879,26.855,34.668,27.832,-50.293,0
152387.666,35.156,28.809,32.715,26.855,-3.418,0
152387.670,47.363,31.250,39.551,35.645,42.480,0
152387.674,35.645,32.227,41.016,32.715,32.227,0
152387.678,14.648,27.344,28.809,25.879,-22.949,0
152387.682,34.180,31.738,33.203,37.109,-1.953,0
152387.686,51.758,35.645,30.273,35.645,52.734,0
152387.690,37.598,34.668,16.602,24.414,21.484,0
152387.694,25.879,37.109,16.602,23.438,-28.320,0
152387.698,31.250,34.668,27.344,21.484,-20.508,0
152387.702,52.734,35.645,40.039,25.391,28.320,0
152387.705,53.223,38.086,41.504,30.762,72.266,0
152387.709,36.621,38.574,47.363,36.133,37.598,0
152387.711,32.227,37.109,41.016,38.574,-0.977,0
152387.715,41.992,33.691,38.086,36.621,52.246,0
152387.719,46.875,31.738,38.086,33.691,96.191,0
152387.723,34.180,30.762,22.461,31.250,52.246,0
152387.727,27.832,31.738,20.020,36.621,-0.488,0
152387.731,40.527,32.227,32.227,39.062,31.250,0
152387.735,50.781,30.762,33.691,37.598,76.172,0
152387.739,36.621,23.926,34.668,33.203,6.836,0
152387.743,21.973,32.715,40.527,31.738,-68.848,0
152387.747,26.367,36.621,34.668,34.668,-34.668,0
152387.750,45.410,33.691,30.762,39.062,51.270,0
152387.754,44.922,34.668,38.574,40.039,50.293,0
152387.758,26.855,36.621,42.480,37.598,-20.508,0
152387.762,37.109,40.039,28.320,48.828,-46.387,0
152387.766,63.477,40.039,22.461,59.570,41.992,0
152387.769,47.852,33.691,40.039,41.016,56.152,0
152387.773,10.254,23.438,43.945,17.578,-10.742,0
152387.777,-0.977,19.043,38.574,12.207,-17.578,0
152387.781,20.020,18.555,40.039,20.996,23.438,0
152387.785,34.668,20.020,33.691,27.344,53.711,0
152387.789,22.949,27.832,24.902,23.438,-20.020,0
152387.793,10.742,36.621,24.414,23.926,-13.672,0
152387.797,28.320,36.133,27.832,31.250,45.898,0
152387.801,46.387,28.809,28.809,31.250,62.988,0
152387.801,40.039,32.227,26.855,31.250,54.199,0
152387.805,26.367,39.551,29.297,28.809,26.367,0
152387.809,32.227,41.992,35.156,26.367,1.465,0
152387.813,51.758,42.969,34.668,31.250,24.414,0
152387.817,44.434,41.016,28.320,29.297,28.320,0
152387.821,22.949,41.992,28.320,28.320,0.000,0
152387.825,15.625,36.133,27.832,27.832,10.254,0
152387.829,32.715,32.227,30.762,25.879,39.062,0
152387.833,34.668,32.715,28.320,24.414,30.273,0
152387.837,14.160,29.297,29.785,24.414,0.000,0
152387.841,11.230,26.855,33.203,28.809,-12.207,0
152387.844,29.297,31.738,36.133,30.273,42.480,0
152387.846,49.316,41.016,41.992,35.645,82.031,0
152387.850,39.062,40.039,37.109,32.227,51.758,0
152387.854,12.695,33.203,34.180,22.461,5.371,0
152387.858,19.043,33.691,35.645,20.996,31.250,0
152387.862,39.062,34.180,28.809,22.949,109.863,0
152387.866,30.762,33.691,22.949,20.508,91.797,0
152387.870,16.113,36.133,34.180,17.578,12.695,0
152387.874,20.508,35.156,38.574,14.648,-20.020,0
152387.878,35.156,32.227,36.133,14.160,36.133,0
152387.882,33.691,37.109,34.668,18.066,61.035,0
152387.885,13.184,38.086,30.762,17.090,4.883,0
152387.889,12.695,29.297,29.785,22.461,-8.301,0
152387.891,33.203,28.320,30.273,33.203,87.402,0
152387.895,45.410,36.133,38.574,38.086,113.281,0
152387.899,32.227,34.180,44.922,33.691,14.160,0
152387.903,15.625,32.227,39.062,24.902,-9.766,0
152387.907,34.180,39.062,29.785,31.250,70.801,0
152387.911,52.246,37.109,32.227,35.156,113.281,0
152387.915,33.203,29.785,37.598,25.391,23.438,0
152387.919,15.625,26.855,37.109,22.461,-46.875,0
152387.923,28.809,28.320,39.062,31.250,39.062,0
152387.927,46.387,28.320,37.109,37.109,94.727,0
152387.930,42.969,33.691,34.668,36.133,80.566,0
152387.934,31.250,40.527,34.668,29.785,47.852,0
152387.951,35.156,41.504,25.391,33.203,50.781,0
152387.955,49.316,34.668,16.113,38.574,58.594,0
152387.959,49.316,30.762,36.621,35.645,51.758,0
152387.963,30.273,33.691,48.340,33.691,43.945,0
152387.967,27.344,27.344,42.480,29.785,22.949,0
152387.971,55.664,33.691,41.504,40.039,20.996,0
152387.975,57.129,39.551,32.227,41.504,3.418,0
152387.979,26.855,29.785,28.320,26.855,9.277,0
152387.983,19.043,31.250,31.738,25.879,35.645,0
152387.987,40.527,33.203,31.738,35.156,56.641,0
152387.990,63.965,35.645,42.480,45.410,68.848,0
152387.994,51.270,37.598,45.410,41.992,61.523,0
152387.997,19.043,35.156,21.484,25.391,-3.906,0
152388.000,25.879,33.203,22.461,25.391,-24.902,0
152388.004,41.992,29.297,37.109,33.203,62.500,0
152388.008,40.527,31.738,34.180,28.320,90.332,0
152388.012,30.762,34.180,29.785,25.879,42.480,0
152388.016,30.762,34.668,23.926,28.809,49.805,0
152388.020,53.223,38.086,32.227,35.156,119.629,0
152388.024,61.523,36.133,42.969,42.480,137.207,0
152388.028,33.203,25.879,35.156,31.738,57.617,0
152388.032,18.555,25.391,39.062,22.461,29.297,0
152388.036,37.598,29.785,38.086,30.273,72.266,0
152388.040,41.992,29.297,26.367,29.785,82.520,0
152388.041,24.414,32.227,26.855,18.066,15.625,0
152388.045,20.508,39.062,37.598,24.414,-50.781,0
152388.049,36.621,39.551,30.762,32.715,-41.992,0
152388.053,51.270,41.992,23.926,38.086,14.648,0
152388.057,35.645,38.574,36.133,27.344,10.742,0
152388.061,12.207,27.344,40.527,12.207,-37.598,0
152388.065,24.902,27.344,35.645,23.438,-9.766,0
152388.069,43.457,31.250,32.227,30.762,51.758,0
152388.073,38.574,35.156,35.645,30.762,37.598,0
152388.077,21.484,38.574,31.250,28.320,-45.410,0
152388.081,24.414,40.527,19.043,31.250,-9.277,0
152388.084,42.480,36.621,29.785,33.691,62.500,0
152388.087,40.527,29.785,43.457,28.320,17.578,0
152388.090,19.043,30.762,32.227,20.996,-31.738,0
152388.094,20.996,43.457,37.109,30.273,-30.273,0
152388.098,40.527,44.434,33.691,37.109,7.812,0
152388.102,32.227,26.367,19.043,20.020,52.734,0
152388.106,15.137,27.832,34.668,17.090,57.129,0
152388.110,12.207,36.133,43.457,26.367,-13.672,0
152388.114,29.297,35.156,41.992,30.762,-3.418,0
152388.118,51.270,39.062,37.598,33.203,22.949,1
152388.122,37.109,35.156,21.973,24.414,7.812,0
152388.126,7.812,34.668,21.484,15.137,23.926,0
152388.129,12.207,39.551,32.227,17.578,3.906,0
152388.132,32.715,38.086,38.086,20.996,23.438,0
152388.135,31.738,39.062,38.086,18.555,37.598,0
152388.139,10.742,31.250,36.621,12.207,3.418,0
152388.143,10.742,25.391,40.527,19.043,6.348,0
152388.147,37.109,29.297,32.715,34.668,60.547,0
152388.151,46.875,32.715,19.531,40.039,90.332,0
152388.155,32.715,34.668,29.785,40.039,29.297,0
152388.159,18.066,35.645,37.109,34.668,-51.270,0
152388.163,28.809,33.691,27.832,27.344,11.719,0
152388.167,41.992,33.203,35.156,30.762,93.262,0
152388.171,19.043,29.297,32.227,23.926,61.523,0
152388.175,5.371,27.344,31.738,20.020,11.230,0
152388.176,24.902,29.785,45.410,28.320,47.363,0
152388.180,39.551,31.250,39.551,25.879,123.047,0
152388.184,32.227,38.086,31.738,20.020,87.891,0
152388.188,17.578,39.551,24.902,17.578,-14.648,0
152388.192,25.391,34.668,17.578,20.996,-22.949,0
152388.196,40.039,31.738,24.414,21.973,68.848,0
152388.200,34.180,28.809,35.156,15.625,89.844,0
152388.204,13.672,29.785,41.504,9.277,0.977,0
152388.208,13.672,33.203,41.016,12.695,-23.438,0
152388.212,34.180,34.668,32.227,24.902,79.102,0
152388.215,44.922,33.691,31.738,28.320,119.141,0
152388.219,35.645,40.527,32.715,30.273,43.457,0
152388.223,21.973,41.016,30.273,28.809,20.508,0
152388.227,34.668,35.156,30.273,30.273,71.289,0
152388.231,52.734,36.133,33.203,37.598,114.258,0
152388.235,41.016,34.668,30.762,35.645,103.027,0
152388.238,27.344,39.062,28.320,34.180,67.871,0
152388.242,39.062,41.016,29.297,38.574,69.824,0
152388.246,52.734,33.203,30.762,36.133,83.984,0
152388.250,44.434,33.691,38.574,28.809,64.941,0
152388.254,26.855,41.016,33.203,26.855,20.996,0
152388.258,27.832,35.156,21.973,24.902,54.199,0
152388.262,59.082,36.621,30.273,42.969,81.543,0
152388.266,62.012,43.457,21.484,49.805,51.270,0
152388.266,32.715,36.133,20.996,29.785,-2.930,0
152388.270,23.438,31.738,45.898,24.902,-39.062,0
152388.274,38.086,29.785,42.969,27.832,12.207,0
152388.278,52.246,32.715,39.062,36.621,64.941,0
152388.282,35.156,37.598,30.762,35.645,24.902,0
152388.286,24.414,35.645,27.832,32.715,-18.555,0
152388.290,41.016,27.832,25.391,39.551,0.000,0
152388.294,51.270,24.414,23.926,35.645,36.621,0
152388.298,41.016,31.250,37.109,37.109,45.898,0
152388.302,26.855,33.203,40.039,40.039,1.953,0
152388.305,35.645,31.738,33.203,39.062,11.719,0
152388.309,47.363,33.203,32.227,37.598,64.941,0
152388.326,39.062,34.668,33.691,39.062,45.898,0
152388.330,25.879,38.086,39.062,40.039,-20.996,0
152388.334,27.344,33.691,41.992,39.551,-34.668,0
152388.338,46.387,28.809,32.715,44.434,41.992,0
152388.342,52.246,34.180,34.668,47.852,122.070,0
152388.346,33.203,33.203,41.992,45.410,70.801,0
152388.350,14.648,24.902,34.668,36.621,9.277,0
152388.354,23.438,23.438,22.949,35.156,70.801,0
152388.358,36.621,27.832,23.438,40.039,83.496,0
152388.362,27.832,36.133,26.367,41.016,28.809,0
152388.365,20.508,40.039,28.809,38.086,-6.348,0
152388.369,36.133,40.527,33.691,40.527,33.691,0
152388.373,48.828,35.645,28.320,42.480,73.242,0
152388.377,42.969,35.645,37.109,45.898,34.668,0
152388.381,18.066,35.645,43.945,38.574,-19.531,0
152388.385,7.324,23.926,35.645,20.020,37.598,0
152388.389,32.715,25.391,41.016,25.879,112.305,0
152388.392,41.016,36.621,40.039,33.691,64.453,0
152388.396,21.484,37.598,35.645,28.320,19.531,0
152388.400,18.066,30.273,38.086,27.832,33.203,0
152388.404,39.062,28.809,41.992,37.109,54.688,0
152388.408,44.434,33.203,33.691,34.668,23.438,0
152388.412,27.832,33.691,28.809,28.320,4.395,0
152388.416,26.367,39.551,41.016,37.109,16.602,0
152388.417,41.992,38.086,37.598,42.480,57.617,0
152388.420,45.410,30.273,29.785,35.645,63.477,0
152388.424,26.855,28.809,33.691,26.367,27.344,0
152388.428,5.859,31.738,37.109,20.508,-18.066,0
152388.432,14.648,33.203,31.738,23.926,7.812,0
152388.436,33.691,29.297,30.273,26.367,66.895,0
152388.440,32.715,33.203,40.527,23.438,53.223,0
152388.444,14.648,35.156,41.504,21.973,13.672,0
152388.448,16.113,38.086,28.809,22.461,31.738,0
152388.452,38.574,39.551,25.879,25.879,85.938,0
152388.456,37.109,28.320,40.039,29.785,90.820,0
152388.460,13.184,24.414,40.039,23.926,33.203,0
152388.461,8.789,31.738,40.527,24.414,-9.277,0
152388.465,29.785,30.762,47.363,33.691,41.992,0
152388.469,32.715,29.297,31.250,25.391,112.305,0
152388.473,21.973,35.645,29.297,22.949,64.941,0
152388.477,24.902,40.039,39.551,35.645,-5.371,0
152388.481,41.504,39.062,33.203,34.668,4.883,0
152388.485,53.223,36.621,30.273,30.273,42.480,0
152388.489,42.969,41.016,30.762,36.133,26.367,0
152388.493,18.555,41.504,23.926,31.250,-27.832,0
152388.497,30.273,40.039,33.203,34.180,1.465,0
152388.500,50.293,37.109,43.945,44.434,60.547,0
152388.504,36.133,35.645,32.715,33.203,28.809,0
152388.508,14.160,37.109,29.785,26.855,-36.133,0
152388.512,26.367,34.180,31.738,33.691,14.648,0
152388.516,51.758,32.715,20.996,37.598,104.980,0
152388.519,54.199,34.180,32.715,38.574,86.914,0
152388.523,37.109,41.016,40.039,35.645,14.160,0
152388.527,28.320,41.992,27.344,32.715,32.715,0
152388.531,47.852,37.598,30.273,38.574,120.117,0
152388.535,58.105,37.109,18.066,40.527,115.723,0
152388.539,47.852,43.457,11.230,41.992,29.297,0
152388.543,34.180,35.156,33.203,34.668,-32.227,0
152388.547,43.457,31.250,49.805,37.598,28.809,0
152388.551,53.711,34.180,44.434,42.969,96.191,0
152388.551,41.016,34.180,42.969,37.109,64.453,0
152388.555,21.973,34.668,42.480,33.691,0.488,0
152388.559,28.320,35.645,20.508,37.109,28.809,0
152388.563,61.523,44.922,22.949,53.711,62.012,0
152388.567,60.059,42.480,47.363,47.852,46.875,0
152388.571,27.344,28.809,46.875,29.785,9.277,0
152388.575,27.344,29.785,38.574,30.273,4.883,0
152388.579,59.570,41.016,40.039,42.480,27.832,0
152388.583,53.223,34.668,25.879,33.691,-8.789,0
152388.587,22.949,26.367,17.578,20.996,-24.414,0
152388.591,18.555,27.344,20.996,24.902,4.395,0
152388.594,40.527,29.785,13.672,27.344,36.133,0
152388.596,57.617,37.598,23.926,32.227,82.031,0
152388.600,33.691,32.715,35.156,27.344,74.219,0
152388.604,17.090,26.855,32.227,25.391,2.441,0
152388.608,39.062,31.738,36.621,37.109,22.949,0
152388.612,58.594,37.109,29.297,39.062,85.938,0
152388.616,57.129,45.410,38.574,40.039,47.852,0
152388.620,36.133,42.969,44.434,34.180,-8.789,0
152388.624,28.809,34.668,34.668,25.879,-27.344,0
152388.628,50.293,34.668,38.086,36.133,62.500,0
152388.632,52.734,33.203,30.762,35.645,98.633,0
152388.636,34.180,35.645,26.855,27.832,-21.973,0
152388.639,31.250,38.086,34.180,31.250,-47.363,0
152388.641,53.223,28.809,34.180,39.551,35.645,0
152388.645,56.152,28.320,25.879,41.504,81.543,0
152388.649,29.785,39.062,22.461,33.691,80.566,1
152388.653,18.066,43.457,29.297,31.738,43.945,0
152388.657,35.645,41.992,38.574,41.504,58.105,0
152388.661,46.875,38.086,42.480,42.969,97.656,0
152388.665,27.344,28.809,37.109,26.855,21.484,0
152388.669,11.719,27.344,37.598,18.066,-28.809,0
152388.673,25.879,24.902,37.598,24.902,32.715,0
152388.677,42.969,21.484,27.832,25.879,85.449,0
152388.680,33.691,23.926,24.414,25.391,72.754,0
152388.684,18.066,31.250,18.555,28.320,40.039,0
152388.701,32.715,36.133,24.414,35.645,65.918,0
152388.705,58.105,32.227,31.250,43.945,91.797,0
152388.709,51.270,34.180,26.367,39.551,64.453,0
152388.713,22.461,36.621,33.203,29.785,20.996,0
152388.717,11.230,32.227,41.016,21.973,11.230,0
152388.721,33.203,27.344,30.273,26.855,53.223,0
152388.725,46.387,31.738,20.996,34.180,69.336,0
152388.729,36.133,34.180,30.762,34.668,5.371,0
152388.733,34.180,38.086,32.715,39.551,-32.227,0
152388.737,47.363,39.551,27.832,44.434,7.812,0
152388.740,54.199,35.156,26.367,44.922,47.852,0
152388.744,38.574,34.180,29.785,41.016,18.555,0
152388.746,22.949,29.297,34.180,37.109,-28.320,0
152388.750,36.621,31.250,41.016,52.246,7.324,0
152388.754,53.711,33.203,41.016,55.664,66.406,0
152388.758,39.551,30.762,31.738,39.062,19.531,0
152388.762,19.043,32.227,30.273,33.203,-34.180,0
152388.766,27.344,34.668,23.438,39.551,-20.508,0
152388.770,44.434,29.785,17.578,40.527,28.320,0
152388.774,42.969,31.250,27.832,38.574,65.430,0
152388.778,24.902,38.574,33.203,32.715,25.879,0
152388.782,18.555,35.156,27.344,23.926,-15.137,0
152388.785,45.898,36.133,29.297,33.203,30.273,0
152388.789,51.270,35.645,35.645,36.133,28.809,0
152388.806,22.949,31.738,37.598,25.391,-21.973,0
152388.810,19.531,37.109,32.227,27.832,-3.418,0
152388.814,28.809,27.344,20.996,32.227,41.992,0
152388.818,33.691,23.926,23.438,27.344,93.262,0
152388.822,27.832,30.762,21.484,15.625,62.988,0
152388.826,14.160,32.715,23.438,19.531,14.160,0
152388.830,24.902,31.738,28.809,27.344,28.809,0
152388.834,49.805,33.691,35.645,30.762,69.336,0
152388.838,54.199,39.062,37.109,35.645,64.453,0
152388.842,33.691,37.598,31.250,29.785,28.320,0
152388.846,30.762,33.691,39.551,30.762,47.363,0
152388.849,50.781,36.621,40.039,40.527,100.098,0
152388.836,52.246,35.156,32.227,35.156,92.773,0
152388.840,34.180,34.668,29.297,27.832,7.324,0
152388.844,34.668,45.898,30.273,34.668,-30.762,0
152388.848,56.641,44.922,30.273,41.504,40.039,0
152388.852,60.547,38.086,31.250,41.504,59.570,0
152388.856,36.133,38.086,33.203,33.691,-1.953,0
152388.860,23.926,38.086,38.086,34.180,-33.203,0
152388.864,36.133,28.809,31.738,41.992,22.949,0
152388.868,42.480,21.973,26.855,37.598,103.027,0
152388.872,33.203,24.902,29.785,30.762,86.914,0
152388.875,21.973,29.297,24.414,29.297,39.062,0
152388.879,33.203,39.062,28.320,36.133,21.484,0
152388.881,62.500,48.340,44.922,45.410,22.949,0
152388.885,51.758,41.504,44.434,34.668,39.551,0
152388.889,22.461,37.598,27.832,23.438,35.645,0
152388.893,24.414,37.109,23.926,25.879,34.180,0
152388.897,41.992,33.203,37.109,26.367,91.797,0
152388.901,35.156,31.738,42.480,18.066,101.562,0
152388.905,10.254,36.133,41.992,12.695,26.855,0
152388.909,4.883,36.133,37.109,16.113,-14.648,0
152388.913,25.391,31.738,29.297,21.484,0.977,0
152388.917,43.945,40.039,31.738,23.926,48.828,0
152388.920,34.668,47.363,33.203,22.461,38.574,0
152388.924,17.578,42.969,32.715,23.926,-24.902,0
152388.926,26.367,35.645,37.598,31.738,-5.859,0
152388.930,47.363,31.738,34.668,36.621,69.824,0
152388.934,41.016,32.227,33.691,31.738,56.641,0
152388.938,21.973,37.598,47.363,27.344,16.602,0
152388.942,31.250,38.086,42.480,31.738,69.824,0
152388.946,52.246,37.109,26.367,34.668,101.562,0
152388.950,38.086,41.992,29.297,29.785,47.363,0
152388.954,15.137,41.016,45.410,28.809,-8.301,0
152388.958,14.160,35.645,44.922,26.855,-16.602,0
152388.962,29.785,25.879,33.691,25.879,41.504,0
152388.966,38.574,25.391,33.691,29.785,41.504,0
152388.969,26.367,36.621,36.133,32.227,26.855,0
152388.973,20.996,41.016,33.691,36.133,-8.789,0
152388.977,41.504,39.551,18.555,42.480,22.461,0
152388.981,56.152,36.133,17.578,41.016,82.031,0
152388.984,41.992,45.410,46.387,38.086,42.480,0
152388.988,23.926,43.457,49.316,32.715,42.480,0
152388.992,25.391,28.809,41.016,27.832,42.480,0
152388.996,44.434,32.715,44.434,31.250,50.781,0
152389.000,36.621,32.715,41.504,30.273,43.457,0
152389.004,9.277,26.367,28.320,22.949,37.109,0
152389.008,15.625,32.715,25.391,28.809,53.223,0
152389.012,39.551,32.715,30.273,33.203,88.379,0
152389.016,37.109,30.273,30.273,25.391,88.867,0
152389.017,24.902,39.062,29.785,29.297,41.992,0
152389.020,33.203,44.434,33.203,38.086,24.414,0
152389.024,46.875,42.480,33.203,36.133,63.477,0
152389.028,44.434,35.156,36.133,30.762,51.270,0
152389.032,30.273,29.785,33.691,27.344,-15.625,0
152389.036,25.879,28.320,25.879,32.227,-43.945,0
152389.040,44.922,31.738,22.461,41.504,-3.906,0
152389.044,61.035,42.480,26.855,45.410,64.453,0
152389.048,45.898,37.598,37.598,38.086,64.453,0
152389.052,23.438,28.809,44.922,36.621,-3.418,0
152389.056,31.738,26.855,41.504,40.527,-0.977,0
152389.059,54.688,28.320,37.598,40.039,72.754,0
152389.076,43.457,36.621,35.156,40.527,78.613,0
152389.080,18.066,35.156,28.809,34.668,21.973,0
152389.084,28.809,37.598,30.762,41.504,18.555,0
152389.088,56.641,45.898,26.367,47.852,85.938,0
152389.092,56.641,39.551,15.625,37.109,91.309,0
152389.096,37.598,35.156,24.902,31.738,-2.930,0
152389.100,23.926,33.691,31.250,27.344,-67.383,0
152389.104,38.574,29.297,29.297,28.320,-5.859,0
152389.108,47.363,26.855,38.574,34.668,29.785,0
152389.112,30.273,31.738,33.203,24.414,-16.602,0
152389.116,21.484,37.598,20.508,22.949,-23.438,0
152389.119,37.598,34.180,28.809,33.691,34.668,0
152389.121,51.270,35.156,33.691,31.738,62.988,0
152389.125,37.598,39.551,39.062,27.344,35.156,0
152389.129,20.020,39.062,44.922,28.809,9.277,0
152389.133,27.344,37.109,39.062,36.621,40.527,0
152389.137,40.527,36.133,32.227,37.109,88.379,0
152389.141,34.668,30.762,34.668,29.297,77.637,0
152389.145,16.602,29.297,33.203,27.832,25.879,0
152389.149,19.043,37.109,29.297,33.691,46.875,0
152389.153,41.992,36.621,32.227,40.527,125.488,0
152389.157,49.316,31.250,35.156,41.504,119.141,0
152389.161,33.203,36.133,32.715,28.809,34.668,0
152389.164,23.926,43.945,29.785,23.438,0.488,0
152389.167,42.480,43.457,28.809,38.574,30.273,0
152389.170,50.781,37.109,24.414,41.504,83.984,0
152389.174,29.297,29.785,29.297,26.367,41.504,0
152389.178,16.602,29.785,41.992,31.250,-18.555,0
152389.182,40.527,37.109,49.805,45.898,34.180,0
152389.186,58.105,35.156,43.457,46.387,52.246,0
152389.190,39.062,28.320,27.832,44.922,50.293,0
152389.194,28.809,28.320,23.438,44.922,-6.348,0
152389.198,50.293,33.691,33.691,48.828,-23.926,0
152389.202,63.965,39.551,29.297,49.316,48.340,0
152389.206,60.547,49.805,31.250,46.875,50.293,0
152389.209,38.574,45.898,41.992,38.086,8.301,0
152389.211,24.414,32.715,32.715,27.344,-1.953,2
152389.215,44.434,30.762,31.250,30.762,50.293,0
152389.219,50.293,28.320,33.203,34.668,68.359,0
152389.223,37.598,29.785,33.691,33.691,30.762,0
152389.227,28.809,34.180,39.551,31.738,-10.742,0
152389.231,44.434,40.039,34.180,35.156,12.207,0
152389.235,59.082,44.434,27.832,38.086,53.223,0
152389.239,39.062,39.551,31.250,31.738,26.367,0
152389.243,13.672,33.691,39.062,27.344,-7.812,0
152389.247,21.484,29.785,37.109,25.391,25.879,0
152389.250,39.551,31.250,27.344,28.809,104.492,0
152389.254,35.156,37.109,21.484,28.320,69.824,0
152389.256,17.578,41.504,21.484,26.367,-26.855,0
152389.260,24.414,33.691,32.227,34.668,-41.992,0
152389.264,52.734,28.320,35.645,49.316,32.715,0
152389.268,53.223,32.715,30.273,49.805,47.852,0
152389.272,31.250,34.180,33.691,39.551,-46.875,0
152389.276,25.879,32.715,35.156,36.133,-58.594,0
152389.280,47.852,29.297,31.250,45.898,20.996,0
152389.284,58.105,33.691,35.156,50.293,48.340,0
152389.288,40.527,39.062,35.156,42.969,26.367,0
152389.292,33.203,39.062,36.133,47.852,10.742,0
152389.295,52.246,38.574,33.203,50.781,66.406,0
152389.299,67.383,38.574,29.785,46.387,111.328,0
152389.301,51.270,37.109,33.203,42.969,68.359,0
152389.305,31.250,34.180,27.832,38.086,2.441,0
152389.309,40.039,33.691,30.273,37.109,35.645,0
152389.313,58.105,30.273,36.621,36.621,122.070,0
152389.317,56.152,32.227,35.156,39.551,109.863,0
152389.321,40.527,37.109,26.367,38.086,45.410,0
152389.325,48.340,46.875,27.344,41.992,48.828,0
152389.329,61.035,42.480,34.668,42.480,72.754,0
152389.333,40.039,26.855,32.715,25.391,79.102,0
152389.337,19.043,29.297,27.832,15.625,68.848,0
152389.340,21.973,31.250,29.297,23.926,18.555,0
152389.344,44.434,28.320,29.785,33.691,30.273,0
152389.346,57.129,36.133,23.926,31.738,65.918,0
152389.350,42.480,41.016,26.367,29.297,6.836,0
152389.354,34.180,35.645,42.969,34.668,-62.988,0
152389.358,48.340,27.832,45.410,37.598,-4.395,0
152389.362,63.477,32.227,38.086,38.086,57.617,0
152389.366,45.898,30.762,34.180,27.344,50.781,0
152389.370,22.949,25.391,31.738,20.020,-20.508,0
152389.374,37.109,36.133,33.691,27.344,-26.855,0
152389.378,59.570,44.922,32.715,36.621,42.969,0
152389.382,54.688,49.316,36.621,40.527,-5.371,0
152389.385,30.762,36.621,31.738,31.738,-53.223,0
152389.389,23.926,26.855,33.203,27.832,-53.223,0
152389.392,38.574,26.855,41.016,41.504,21.973,0
152389.396,47.852,30.762,43.945,49.316,67.871,0
152389.400,29.785,39.062,34.180,44.434,6.348,0
152389.403,20.996,42.480,23.438,44.922,-23.926,0
152389.407,45.410,43.945,33.203,52.734,16.602,0
152389.411,53.711,37.598,40.039,54.199,70.801,0
152389.415,30.273,32.227,30.273,40.527,33.203,0
152389.419,14.648,30.273,19.531,35.645,0.000,0
152389.423,28.809,27.344,18.066,39.062,74.219,0
152389.427,49.316,29.297,33.203,37.109,113.281,0
152389.431,46.387,42.969,50.293,36.133,70.801,0
152389.435,22.461,47.363,45.898,34.668,-1.465,0
152389.438,19.043,36.621,30.762,29.785,8.789,0
152389.442,43.945,34.668,28.809,33.203,62.012,0
152389.446,41.016,31.250,41.992,37.109,26.367,0
152389.450,14.648,26.855,35.645,28.809,-13.184,0
152389.454,16.113,33.203,24.902,31.738,4.883,0
152389.457,42.969,39.062,37.598,39.551,66.406,0
152389.461,43.457,33.203,42.969,33.203,77.148,0
152389.465,15.625,24.414,31.738,23.926,39.551,0
152389.469,7.812,26.367,28.320,27.344,21.484,0
152389.473,28.320,30.273,30.273,32.227,49.805,0
152389.477,41.016,33.691,30.273,35.645,85.449,0
152389.481,29.297,32.715,27.344,31.738,40.039,0
152389.497,16.602,34.180,30.273,26.855,13.184,0
152389.500,28.809,34.668,33.203,38.086,62.988,0
152389.504,53.223,33.203,20.508,41.504,59.082,0
152389.508,55.176,36.621,21.973,42.480,49.805,0
152389.512,41.504,43.945,36.621,52.246,59.082,0
152389.516,41.992,42.969,36.133,45.410,10.254,0
152389.520,49.316,36.621,29.297,31.738,34.180,0
152389.524,49.805,39.551,33.691,30.273,79.590,0
152389.528,32.227,37.598,33.691,26.367,10.742,0
152389.532,27.832,40.039,29.785,27.344,-56.152,0
152389.536,49.316,42.969,30.762,36.133,7.812,0
152389.539,57.617,39.551,36.621,41.504,75.195,0
152389.541,38.086,36.133,41.016,41.992,47.363,0
152389.545,30.762,38.086,38.086,43.945,-8.301,0
152389.549,52.734,41.992,32.715,49.316,44.434,0
152389.553,68.359,40.527,30.762,50.781,97.656,0
152389.557,53.711,35.645,33.203,42.480,47.852,0
152389.561,36.621,36.133,39.062,39.551,1.465,0
152389.565,44.434,44.922,36.621,46.387,43.457,0
152389.569,62.012,49.805,36.133,50.293,106.445,0
152389.573,55.176,41.992,37.109,48.828,82.031,0
152389.577,39.551,38.574,24.414,44.434,-25.391,0
152389.581,44.434,40.527,20.508,48.340,-21.484,0
152389.584,59.570,33.203,28.809,50.293,70.312,0
152389.586,54.199,23.438,42.480,41.504,27.832,0
152389.590,37.109,32.227,45.898,36.621,-5.859,0
152389.594,38.574,39.062,41.992,43.457,21.484,0
152389.598,61.035,36.621,42.480,53.223,73.730,0
152389.602,68.848,34.180,32.715,49.805,90.820,0
152389.606,52.246,43.457,30.762,46.875,12.207,0
152389.610,31.738,47.852,29.297,41.504,-31.738,0
152389.614,42.480,37.598,13.184,37.598,10.254,0
152389.618,60.059,37.598,18.066,41.016,29.785,0
152389.622,44.922,37.598,31.250,32.715,-1.465,0
152389.626,26.855,39.062,33.203,33.691,-27.832,0
152389.629,34.180,36.133,33.203,37.109,20.996,0
152389.631,53.223,31.738,42.969,40.039,122.559,0
152389.635,50.293,37.598,41.992,34.668,124.512,0
152389.639,29.297,41.504,32.227,30.762,36.621,0
152389.643,26.367,41.504,25.879,35.156,-20.020,0
152389.647,46.387,37.598,26.367,35.156,41.992,0
152389.651,48.828,35.645,27.344,25.391,68.848,0
152389.655,24.902,37.598,19.531,18.555,18.555,0
152389.659,20.020,43.945,31.250,27.832,-2.441,0
152389.663,39.551,45.410,44.434,29.297,24.902,0
152389.667,45.410,39.551,30.762,24.414,41.504,0
152389.670,35.645,39.551,22.461,26.855,22.461,0
152389.674,31.738,39.062,29.297,36.621,-15.625,0
152389.676,46.387,35.156,24.414,43.945,-13.184,0
152389.680,54.199,37.109,16.113,37.109,53.223,0
152389.684,39.551,40.039,28.809,30.762,46.387,0
152389.688,22.949,41.016,36.621,30.273,-17.090,0
152389.692,28.809,40.039,36.133,33.203,25.879,0
152389.696,45.898,40.039,37.109,35.645,83.008,0
152389.700,35.156,36.621,30.762,28.320,78.613,0
152389.704,13.184,36.621,28.320,22.949,27.344,0
152389.708,11.719,36.621,24.414,19.531,26.855,0
152389.712,39.062,38.574,20.020,25.391,88.867,0
152389.715,55.176,51.270,27.832,37.598,86.426,0
152389.719,30.273,49.805,27.344,28.809,46.875,0
152389.723,6.836,34.668,14.648,12.695,-5.371,0
152389.727,30.762,35.156,14.648,25.879,22.461,0
152389.731,51.270,38.574,25.879,34.668,79.590,0
152389.734,29.785,37.598,36.133,20.996,54.199,0
152389.738,13.672,39.551,37.109,22.461,30.762,0
152389.742,29.785,39.551,28.320,29.297,36.621,0
152389.746,50.293,46.387,20.996,29.785,51.270,0
152389.750,39.551,50.293,21.973,28.320,0.977,0
152389.754,12.695,38.086,22.949,21.973,-59.082,0
152389.758,19.043,36.133,18.555,24.414,-35.645,0
152389.762,45.410,43.945,19.043,33.203,21.973,0
152389.766,42.969,46.387,24.902,29.785,30.762,0
152389.767,20.020,44.434,27.344,22.461,-12.207,0
152389.771,18.555,44.922,28.809,22.461,-21.973,0
152389.775,35.645,42.969,27.344,24.414,49.316,0
152389.779,44.434,44.922,26.367,24.902,77.148,0
152389.783,27.832,43.945,28.809,19.043,38.574,0
152389.787,14.160,35.156,21.484,15.625,11.719,0
152389.791,31.250,33.203,18.555,21.973,25.879,0
152389.795,41.016,36.133,21.973,23.438,66.895,0
152389.798,22.949,36.621,19.531,12.207,83.008,0
152389.802,3.418,39.551,19.531,7.812,43.945,0
152389.806,13.672,42.480,25.879,17.578,41.504,0
152389.810,30.273,41.992,30.273,21.973,112.793,0
152389.827,20.996,40.039,24.414,18.066,92.773,2
152389.830,2.930,42.969,20.508,15.625,-8.789,0
152389.834,6.348,42.480,21.973,16.113,25.391,0
152389.838,23.926,36.621,17.578,20.020,83.984,0
152389.842,23.926,35.645,17.578,18.066,78.125,0
152389.846,14.160,38.086,25.879,19.043,0.488,0
152389.850,11.230,36.133,9.766,19.531,-45.898,0
152389.854,30.273,41.504,-3.906,26.367,32.227,0
152389.858,32.227,49.805,16.602,26.855,41.992,0
152389.862,4.395,38.086,25.391,11.719,-17.578,0
152389.866,-4.883,32.715,33.203,16.602,-30.762,0
152389.869,17.578,37.109,37.109,24.902,37.598,0
152389.871,31.250,34.668,28.320,23.926,62.012,0
152389.875,14.648,35.645,28.320,16.113,19.043,0
152389.879,-5.371,38.574,23.438,4.883,14.648,0
152389.883,5.859,37.598,13.184,9.766,38.574,0
152389.887,32.715,40.039,15.137,22.461,80.566,0
152389.891,20.508,40.039,20.020,14.648,56.152,0
152389.895,-2.930,34.668,13.184,6.836,10.254,0
152389.899,0.488,35.156,10.254,12.695,12.207,0
152389.903,18.555,38.086,18.066,17.578,57.129,0
152389.907,26.367,39.551,20.020,19.531,68.359,0
152389.910,20.508,46.875,20.508,22.949,13.184,0
152389.914,18.066,51.270,17.578,27.832,29.297,0
152389.917,28.320,40.527,9.766,25.391,43.945,0
152389.921,39.551,37.109,13.672,21.973,29.297,0
152389.925,24.902,40.527,26.855,23.926,57.617,0
152389.929,12.207,43.945,31.738,25.879,33.691,0
152389.933,27.832,44.434,30.273,31.738,73.242,0
152389.937,39.551,41.016,26.367,32.715,85.938,0
152389.940,23.926,43.945,22.949,26.855,37.598,0
152389.944,-1.465,42.480,15.625,20.020,12.207,0
152389.948,10.254,41.504,18.066,23.438,0.000,0
152389.952,37.598,45.898,27.344,30.762,34.180,0
152389.956,23.438,39.062,22.461,20.020,46.387,0
152389.960,-0.977,36.621,21.973,9.277,-10.254,0
152389.964,4.395,39.062,23.926,13.672,-34.668,0
152389.968,29.297,41.504,23.926,24.414,23.926,0
152389.972,36.133,47.852,21.484,25.879,41.016,0
152389.976,18.555,53.711,21.484,16.602,2.441,0
152389.980,8.789,49.805,24.902,12.207,-13.672,0
152389.984,30.762,46.875,23.926,18.066,46.387,0
152389.988,43.945,51.270,25.879,20.020,89.355,0
152389.992,22.949,48.340,28.320,13.184,71.777,0
152389.996,8.301,41.992,23.438,8.789,-0.488,0
152389.999,20.996,40.527,24.414,13.672,-23.438,0
152390.003,33.203,41.992,20.020,16.113,70.801,0
152390.007,25.391,45.410,15.625,16.113,60.059,0
152390.007,12.207,46.387,19.531,15.137,-9.766,0
152390.011,19.043,46.875,19.043,18.066,26.367,0
152390.014,41.016,46.387,29.297,22.949,89.355,0
152390.018,40.039,54.199,42.969,21.484,67.871,0
152390.022,21.484,63.965,26.855,19.043,-42.969,0
152390.026,18.066,55.664,9.277,19.043,-55.176,0
152390.030,33.203,41.504,10.254,19.531,65.430,0
152390.034,39.551,41.504,20.508,21.484,66.406,0
152390.038,22.949,43.945,26.855,18.555,-21.484,0
152390.042,7.812,39.551,23.438,13.184,24.902,0
152390.046,26.367,42.480,28.320,17.090,62.500,0
152390.050,46.387,47.852,23.926,24.414,46.875,0
152390.051,42.969,59.570,25.879,28.809,39.062,0
152390.055,23.926,61.035,31.250,22.461,31.250,0
152390.059,21.484,47.363,28.809,18.066,58.594,0
152390.063,31.738,38.086,23.438,15.625,69.336,0
152390.067,22.461,41.504,9.277,9.277,31.738,0
152390.071,9.766,46.875,17.578,11.230,-13.672,0
152390.075,14.160,44.434,25.879,16.602,1.953,0
152390.079,39.551,48.828,24.414,24.414,46.387,0
152390.083,44.922,58.105,28.809,27.832,65.918,0
152390.087,12.207,57.129,26.855,17.090,62.988,0
152390.091,7.324,53.223,28.320,16.602,35.645,0
