timestamps,TP9,AF7,AF8,TP10,Right AUX,Marker
1486223710.080,27.832,27.832,36.133,60.059,38.574,0
1486223710.084,-41.016,29.785,34.180,61.523,71.777,0
1486223710.088,10.742,30.273,36.133,58.594,51.758,0
1486223710.092,99.121,30.762,38.086,62.012,12.207,0
1486223710.096,99.121,32.715,36.133,74.707,26.855,0
1486223710.099,32.227,30.273,36.621,73.730,19.531,0
1486223710.103,-33.203,24.902,34.180,56.152,48.340,0
1486223710.107,-4.395,32.227,26.855,50.781,22.461,0
1486223710.111,94.238,37.109,28.320,63.477,-42.969,0
1486223710.115,122.070,41.504,23.438,70.312,7.812,0
1486223710.119,54.199,29.297,31.738,66.895,35.156,0
1486223710.123,-27.832,19.043,41.016,62.988,48.828,0
1486223710.127,-22.949,26.367,32.227,62.012,47.363,0
1486223710.131,71.289,30.762,35.156,69.824,-52.246,0
1486223710.135,116.211,33.203,40.039,84.473,-20.020,0
1486223710.139,66.895,31.738,39.062,77.637,36.133,0
1486223710.142,-14.160,27.832,32.227,58.105,66.406,0
1486223710.146,-13.184,23.926,42.969,49.805,94.727,0
1486223710.150,83.496,27.344,41.504,53.223,13.184,0
1486223710.154,129.883,24.414,21.484,73.242,33.691,0
1486223710.158,87.402,19.531,29.297,75.684,68.848,0
1486223710.162,2.441,26.367,38.086,63.477,51.758,0
1486223710.166,-28.809,25.879,40.039,62.500,89.355,0
1486223710.170,53.223,31.738,41.016,63.477,27.344,0
1486223710.174,118.652,36.621,41.504,79.590,-9.766,0
1486223710.178,83.984,25.879,55.664,86.914,24.902,0
1486223710.181,-18.555,23.438,48.340,61.035,63.477,0
1486223710.185,-47.852,25.879,30.762,47.363,96.680,0
1486223710.189,39.062,20.996,29.297,46.387,25.391,0
1486223710.193,103.027,21.484,25.879,67.871,-0.977,0
1486223710.197,79.102,25.879,39.062,79.590,41.016,0
1486223710.201,-9.766,26.855,43.945,60.059,43.457,0
1486223710.205,-47.852,27.344,34.668,58.594,108.887,0
1486223710.209,33.691,32.227,41.016,65.430,48.340,0
1486223710.213,109.375,32.715,38.574,72.754,-23.438,0
1486223710.217,94.238,20.020,33.691,70.801,64.941,0
1486223710.221,17.090,24.414,38.574,62.012,84.473,0
1486223710.224,-43.945,34.668,42.480,62.500,96.680,0
1486223710.228,13.184,30.762,41.016,57.617,64.941,0
1486223710.232,99.609,25.391,36.621,57.617,14.648,0
1486223710.236,99.609,31.738,45.898,67.383,34.668,0
1486223710.240,29.785,39.551,48.828,66.406,84.473,0
1486223710.244,-45.410,28.809,25.879,49.316,134.766,0
1486223710.248,-6.836,27.832,24.902,41.992,71.777,0
1486223710.252,86.914,28.809,31.738,54.688,-12.207,0
1486223710.256,98.633,25.879,33.691,67.871,31.738,0
1486223710.260,33.691,29.297,35.156,60.547,44.434,0
1486223710.263,-35.645,27.832,32.227,58.105,82.031,0
1486223710.267,-12.207,24.414,32.227,49.805,85.449,0
1486223710.271,81.543,26.855,35.156,53.711,20.996,0
1486223710.275,112.305,25.879,34.180,78.125,39.551,1
1486223710.279,52.246,32.715,44.922,70.801,36.621,0
1486223710.283,-30.273,30.273,47.363,65.918,48.828,0
1486223710.287,-14.648,17.578,31.738,61.035,82.031,0
1486223710.291,74.707,23.438,25.391,51.270,14.160,0
1486223710.295,117.676,31.738,41.504,71.289,1.953,0
1486223710.299,72.266,28.320,39.062,61.523,35.645,0
1486223710.303,-25.391,19.043,31.738,58.105,83.496,0
1486223710.306,-28.809,16.602,43.457,61.523,108.887,0
1486223710.310,68.359,31.250,40.527,53.223,19.531,0
1486223710.314,103.516,33.203,37.598,63.965,25.879,0
1486223710.318,64.941,29.297,38.574,59.082,46.387,0
1486223710.322,-17.090,28.809,36.133,53.711,80.566,0
1486223710.326,-28.809,33.691,44.434,60.547,119.629,0
1486223710.330,69.824,29.297,35.156,58.105,29.297,0
1486223710.334,121.094,24.902,27.832,65.918,14.160,0
1486223710.338,91.797,36.621,40.527,79.102,39.551,0
1486223710.342,15.137,35.645,43.457,76.172,34.180,0
1486223710.346,-22.461,25.391,40.527,68.359,64.941,0
1486223710.349,59.082,26.367,35.645,68.848,-10.254,0
1486223710.353,128.418,33.691,29.297,72.266,-55.176,0
1486223710.357,95.703,32.715,28.809,67.383,-7.812,0
1486223710.361,9.277,35.645,32.227,71.777,14.648,0
1486223710.365,-26.367,41.992,35.645,74.707,84.961,0
1486223710.369,39.062,34.668,35.645,53.223,37.109,0
1486223710.373,101.074,29.785,33.691,49.805,-2.441,0
1486223710.377,88.379,33.203,34.668,55.664,47.852,0
1486223710.381,6.348,36.133,40.039,49.316,19.043,0
1486223710.385,-47.852,33.203,38.574,38.086,67.383,0
1486223710.388,12.695,30.273,29.785,31.738,36.621,0
1486223710.392,87.402,36.133,31.250,42.480,-36.621,0
1486223710.396,90.820,34.180,34.668,56.641,3.906,0
1486223710.400,22.461,23.926,29.785,58.594,-7.324,0
1486223710.404,-45.410,20.996,25.391,58.105,43.945,0
1486223710.408,14.160,23.926,36.133,62.988,30.762,0
1486223710.412,110.840,28.320,44.922,83.984,-21.973,0
1486223710.416,114.258,35.156,36.621,93.750,34.180,0
1486223710.420,37.109,34.180,39.062,81.055,35.645,0
1486223710.424,-39.062,28.809,49.316,76.172,71.777,0
1486223710.428,5.859,29.785,58.105,72.266,73.242,0
1486223710.431,97.656,21.973,50.781,70.312,-28.809,0
1486223710.435,117.188,25.879,41.504,82.031,-30.762,0
1486223710.439,44.434,22.461,35.645,72.754,14.648,0
1486223710.443,-36.621,17.090,31.738,64.941,78.613,0
1486223710.447,-17.578,25.391,24.414,52.246,82.031,0
1486223710.451,83.984,31.738,32.715,58.594,50.293,0
1486223710.455,119.141,23.926,41.992,74.707,60.547,0
1486223710.459,63.477,30.273,44.434,75.684,50.293,0
1486223710.463,-12.695,38.574,46.875,70.312,80.566,0
1486223710.467,-22.949,29.297,35.156,49.805,88.867,0
1486223710.471,73.242,26.367,41.504,63.477,17.578,0
1486223710.474,110.840,21.973,37.109,77.637,22.949,0
1486223710.478,56.641,20.996,28.809,68.359,55.176,0
1486223710.482,-17.090,24.414,40.527,62.012,95.703,0
1486223710.486,-35.156,28.809,37.598,55.664,81.543,0
1486223710.490,54.688,29.785,27.344,59.082,-10.254,0
1486223710.494,108.398,25.879,30.762,66.895,22.461,0
1486223710.498,74.707,25.391,45.898,68.848,61.523,0
1486223710.502,-1.465,33.203,38.086,63.965,63.965,0
1486223710.506,-40.527,32.715,36.621,57.617,89.355,0
1486223710.510,46.387,24.414,42.480,55.176,18.066,0
1486223710.513,125.977,28.809,36.133,81.055,-36.133,0
1486223710.517,88.867,30.273,30.273,85.449,9.766,0
1486223710.521,3.418,26.367,28.809,65.918,62.012,0
1486223710.525,-24.902,30.273,35.645,63.477,123.535,0
1486223710.529,42.969,32.715,34.180,56.152,50.781,0
1486223710.533,112.305,29.785,31.738,62.012,23.926,0
1486223710.537,90.332,33.691,37.109,71.289,38.574,0
1486223710.541,8.301,32.715,52.734,69.336,30.273,0
1486223710.545,-41.016,25.879,45.898,64.453,79.102,0
1486223710.549,24.414,28.320,29.785,61.523,67.871,0
1486223710.553,111.328,30.273,37.109,74.219,23.438,0
1486223710.556,96.191,29.785,31.738,72.754,20.508,0
1486223710.560,27.832,36.133,27.832,63.965,54.688,0
1486223710.564,-28.809,29.297,29.785,52.246,130.371,0
1486223710.568,9.766,24.414,34.180,46.387,96.191,0
1486223710.572,99.609,27.832,37.598,59.082,32.227,0
1486223710.576,96.191,31.250,41.504,72.754,56.641,0
1486223710.580,22.949,34.668,55.664,70.312,50.293,0
1486223710.584,-46.387,31.250,59.082,57.129,109.375,0
1486223710.588,-9.277,23.926,37.598,45.898,99.121,0
1486223710.592,94.238,33.203,30.762,52.246,-0.488,0
1486223710.596,110.840,36.133,40.039,67.383,27.832,0
1486223710.599,39.062,26.855,43.457,62.012,48.828,0
1486223710.603,-33.203,29.297,40.039,56.152,79.102,0
1486223710.607,-13.672,29.785,35.645,54.688,121.094,0
1486223710.611,75.195,27.344,27.344,56.641,42.480,0
1486223710.615,106.445,31.738,27.832,65.430,31.250,0
1486223710.619,45.898,35.645,41.992,62.012,66.895,0
1486223710.623,-26.855,37.598,53.223,63.965,73.242,0
1486223710.627,-18.555,29.785,41.504,57.617,79.590,0
1486223710.631,66.406,19.531,35.156,55.664,-6.348,0
1486223710.635,112.793,25.879,39.551,73.730,-8.301,0
1486223710.638,68.848,37.109,45.898,73.730,13.184,0
1486223710.642,-10.742,31.738,48.828,70.801,30.762,0
1486223710.646,-26.367,24.902,38.574,60.059,56.152,0
1486223710.650,63.965,34.180,30.762,56.152,9.277,0
1486223710.654,125.000,37.109,41.992,79.102,27.832,0
1486223710.658,85.938,29.785,33.203,69.824,50.293,0
1486223710.662,9.766,34.668,45.410,68.359,45.410,0
1486223710.666,-19.043,34.668,60.059,72.266,44.922,0
1486223710.670,57.129,24.902,31.250,49.316,-14.160,0
1486223710.674,117.188,26.367,26.367,62.500,-18.066,0
1486223710.678,83.008,24.902,35.645,69.336,62.500,0
1486223710.681,-7.324,30.273,39.551,54.688,81.543,0
1486223710.685,-50.781,31.250,37.598,56.152,81.055,0
1486223710.689,30.273,27.344,33.691,51.758,35.156,0
1486223710.693,105.957,33.203,35.645,55.664,47.852,0
1486223710.697,87.891,39.062,39.062,70.312,99.121,0
1486223710.701,3.418,31.738,34.668,63.477,97.168,0
1486223710.705,-36.621,21.973,39.551,58.105,102.051,0
1486223710.709,31.250,25.391,43.945,56.641,88.379,0
1486223710.713,108.398,31.250,33.203,64.941,33.691,0
1486223710.717,101.562,31.250,24.414,64.941,21.484,0
1486223710.720,27.832,37.109,32.227,64.941,53.711,0
1486223710.724,-42.480,28.809,42.480,65.430,109.375,0
1486223710.728,15.137,22.461,46.387,52.246,41.504,0
1486223710.732,115.723,35.645,42.969,68.359,-48.340,0
1486223710.736,102.051,33.203,33.691,72.754,-17.578,0
1486223710.740,30.762,27.344,33.203,55.176,30.273,0
1486223710.744,-32.715,31.738,40.039,51.758,111.816,0
1486223710.748,6.836,29.785,44.922,53.223,62.500,0
1486223710.752,89.355,24.414,42.969,65.430,-11.719,0
1486223710.756,98.633,21.484,27.832,66.406,52.246,0
1486223710.760,41.992,26.367,28.320,55.664,65.430,0
1486223710.763,-34.668,25.391,33.691,55.176,89.355,0
1486223710.767,-3.906,28.809,31.250,60.059,57.129,0
1486223710.771,86.426,32.227,32.715,55.664,-16.602,0
1486223710.775,111.816,30.762,35.645,57.617,55.176,0
1486223710.779,63.965,32.715,39.062,62.500,85.449,0
1486223710.783,-18.066,26.367,46.387,61.035,98.145,0
1486223710.787,-21.973,20.020,44.434,49.316,116.211,0
1486223710.791,72.754,28.809,41.016,53.711,46.387,0
1486223710.795,122.559,33.203,33.203,77.148,22.949,0
1486223710.799,60.547,30.273,20.996,65.430,11.719,0
1486223710.803,-23.438,28.320,25.879,54.199,47.363,0
1486223710.806,-23.926,29.785,36.133,69.336,92.773,0
1486223710.810,63.965,30.273,32.227,62.988,-15.137,0
1486223710.814,115.723,30.762,36.621,59.082,-7.812,0
1486223710.818,75.195,29.297,47.852,68.848,43.945,0
1486223710.822,-12.207,31.250,43.457,62.500,46.387,0
1486223710.826,-35.156,31.738,36.621,59.082,67.383,0
1486223710.830,50.781,30.762,40.527,54.688,17.090,0
1486223710.834,106.445,29.297,30.762,61.523,21.973,0
1486223710.838,74.707,33.203,27.344,68.848,42.969,0
1486223710.842,-2.930,37.598,37.598,67.383,56.641,0
1486223710.845,-43.457,31.250,31.250,60.547,79.590,0
1486223710.849,37.109,28.320,30.273,51.270,-2.930,0
1486223710.853,118.164,28.320,44.434,65.430,-40.039,0
1486223710.857,98.633,27.344,44.922,71.289,14.648,0
1486223710.861,20.020,26.367,38.574,63.965,71.289,0
1486223710.865,-33.203,29.297,40.527,62.012,72.754,0
1486223710.869,22.949,27.832,51.270,58.105,-11.719,0
1486223710.873,98.633,23.926,39.551,57.129,-35.156,0
1486223710.877,93.750,32.227,28.320,62.988,15.625,0
1486223710.881,20.996,35.645,38.086,63.477,62.500,2
1486223710.885,-29.785,36.621,43.945,63.477,111.328,0
1486223710.888,16.602,34.668,39.551,51.270,45.410,0
1486223710.892,82.520,18.555,34.180,45.898,-1.953,0
1486223710.896,79.102,9.766,33.203,56.152,72.266,0
1486223710.900,21.973,23.438,40.039,51.758,63.477,0
1486223710.904,-38.574,28.809,41.992,47.852,85.938,0
1486223710.908,-2.930,23.438,41.016,41.504,77.148,0
1486223710.912,90.820,23.438,43.945,47.363,11.230,0
1486223710.916,118.652,33.691,41.016,67.871,42.480,0
1486223710.920,52.734,32.715,36.621,65.430,51.758,0
1486223710.924,-23.438,27.832,41.504,67.871,73.730,0
1486223710.928,1.465,31.250,38.574,65.918,72.266,0
1486223710.931,94.238,30.762,26.855,56.152,18.066,0
1486223710.935,107.910,24.902,39.062,65.430,41.504,0
1486223710.939,38.574,24.414,36.133,60.059,49.805,0
1486223710.943,-31.738,27.832,35.156,62.012,54.199,0
1486223710.947,-25.391,26.367,46.875,56.641,49.316,0
1486223710.951,75.195,29.785,45.898,62.012,-51.270,0
1486223710.955,119.629,30.762,41.992,79.102,-24.902,0
1486223710.959,61.035,33.691,41.504,68.359,28.320,0
1486223710.963,-19.531,36.621,42.969,66.895,59.570,0
1486223710.967,-22.461,33.691,37.109,66.895,51.270,0
1486223710.970,71.289,28.809,34.668,51.270,-28.809,0
1486223710.974,116.699,29.297,36.133,54.688,20.020,0
1486223710.978,71.777,33.203,37.109,58.594,57.617,0
1486223710.982,-11.719,31.250,39.551,55.664,90.820,0
1486223710.986,-29.297,36.133,41.992,58.105,142.090,0
1486223710.990,60.547,33.203,46.387,66.895,36.133,0
1486223710.994,105.957,30.762,28.809,64.941,8.789,0
1486223710.998,70.801,36.133,25.391,57.617,55.664,0
1486223711.002,-0.488,32.715,35.645,56.641,86.426,0
1486223711.006,-34.668,34.180,40.039,53.223,98.633,0
1486223711.010,54.688,32.227,44.922,47.363,12.695,0
1486223711.013,120.117,30.273,39.062,63.477,31.250,0
1486223711.017,84.473,29.297,40.039,70.801,85.938,0
1486223711.021,10.254,27.344,41.016,67.383,64.941,0
1486223711.025,-33.691,26.855,33.203,61.523,109.375,0
1486223711.029,38.086,34.180,41.992,62.500,61.035,0
1486223711.033,110.352,28.320,38.574,63.477,26.367,0
1486223711.037,90.332,27.832,39.551,74.219,79.590,0
1486223711.041,15.137,36.621,49.316,70.801,74.707,0
1486223711.045,-38.086,31.250,37.598,52.246,76.172,0
1486223711.049,20.020,28.320,40.039,53.223,-6.836,0
1486223711.052,98.633,28.320,40.039,58.594,-50.781,0
1486223711.056,97.656,19.531,27.832,66.406,28.320,0
1486223711.060,23.926,27.344,33.203,64.941,60.059,0
1486223711.064,-35.156,36.133,41.504,66.406,81.055,0
1486223711.068,15.137,27.344,42.969,66.406,51.758,0
1486223711.072,93.262,28.809,47.852,69.824,-9.766,0
1486223711.076,104.492,29.297,33.691,79.102,0.488,0
1486223711.080,45.898,28.809,24.414,64.941,11.719,0
1486223711.084,-30.273,28.320,35.156,56.152,52.246,0
1486223711.088,-6.348,23.438,33.691,61.035,63.477,0
1486223711.092,91.797,23.438,32.227,67.871,-24.414,0
1486223711.095,121.094,23.926,34.668,74.707,-19.531,0
1486223711.099,60.547,32.227,40.039,67.383,12.695,0
1486223711.103,-27.832,35.156,40.527,63.965,73.730,0
1486223711.107,-20.020,27.344,37.109,55.664,101.562,0
1486223711.111,73.730,22.949,30.273,56.152,24.414,0
1486223711.115,109.863,26.855,39.062,71.777,60.059,0
1486223711.119,71.289,30.273,49.805,77.637,106.445,0
1486223711.123,-10.742,26.367,42.969,66.406,125.977,0
1486223711.127,-26.855,27.344,44.434,58.105,126.953,0
1486223711.131,64.941,29.785,38.574,62.988,46.387,0
1486223711.135,120.117,29.785,19.043,80.566,55.664,0
1486223711.138,74.707,36.621,20.996,80.566,62.988,0
1486223711.142,-10.254,32.715,35.645,57.129,46.387,0
1486223711.146,-20.020,22.461,34.668,51.758,66.895,0
1486223711.150,62.500,28.320,46.387,54.199,-29.785,0
1486223711.154,117.676,35.645,53.711,67.871,-36.133,0
1486223711.158,76.660,35.645,42.480,67.871,27.832,0
1486223711.162,-15.137,26.855,36.621,54.688,60.547,0
1486223711.166,-35.156,33.691,30.762,53.711,95.703,0
1486223711.170,41.504,29.297,39.551,47.852,56.641,0
1486223711.174,95.215,20.020,43.945,52.734,41.016,0
1486223711.177,65.430,24.902,37.598,61.035,52.734,0
1486223711.181,-22.949,19.043,31.250,54.688,50.781,0
1486223711.185,-64.941,23.438,30.273,43.945,82.520,0
1486223711.189,13.672,29.785,45.410,42.969,31.250,0
1486223711.193,92.285,32.227,51.270,55.664,-0.488,0
1486223711.197,74.219,30.762,31.738,56.152,43.457,0
1486223711.201,-2.930,23.438,27.344,54.688,49.316,0
1486223711.205,-59.082,22.461,32.715,61.523,110.352,0
1486223711.209,0.977,25.391,25.391,45.410,94.727,0
1486223711.213,87.402,26.367,31.738,46.875,41.992,0
1486223711.217,82.520,28.320,38.574,56.152,83.008,0
1486223711.220,17.090,35.645,29.785,56.641,72.754,0
1486223711.224,-48.828,24.902,27.832,50.293,94.238,0
1486223711.228,-16.113,14.648,23.926,40.039,97.168,0
1486223711.232,84.961,20.020,30.273,51.270,24.902,0
1486223711.236,112.305,28.809,40.527,67.871,25.879,0
1486223711.240,26.367,28.809,44.434,61.035,43.945,0
1486223711.244,-51.758,26.367,33.691,49.805,94.727,0
1486223711.248,-10.254,27.344,27.344,51.758,89.355,0
1486223711.252,83.984,27.344,36.621,61.523,-0.977,0
1486223711.256,108.398,25.879,39.551,71.289,23.926,0
1486223711.260,44.434,21.484,32.227,61.523,48.340,0
1486223711.263,-21.484,31.738,38.086,73.242,104.492,0
1486223711.267,0.488,34.180,33.203,72.754,117.188,0
1486223711.271,86.426,20.996,28.809,68.848,29.297,0
1486223711.275,115.234,20.996,39.062,73.730,33.691,0
1486223711.279,66.406,33.203,50.781,61.035,31.738,0
1486223711.283,-20.020,28.809,53.711,59.570,75.684,0
1486223711.287,-26.855,22.461,46.387,55.664,79.102,0
1486223711.291,70.801,31.738,46.387,56.641,-36.133,0
1486223711.295,106.934,31.250,27.344,60.547,-28.809,0
1486223711.299,62.012,25.879,29.785,55.176,19.531,0
1486223711.302,-21.973,24.414,41.016,51.758,66.895,0
1486223711.306,-41.504,21.484,34.180,47.363,88.867,0
1486223711.310,49.316,19.043,25.879,45.410,10.742,0
1486223711.314,113.281,22.461,23.926,67.383,-22.949,0
1486223711.318,84.473,31.250,40.039,76.660,-12.207,0
1486223711.322,-2.930,30.273,43.945,60.547,46.875,0
1486223711.326,-38.574,24.902,35.645,55.664,96.191,0
1486223711.330,41.504,23.438,34.668,47.363,-0.488,0
1486223711.334,108.887,26.367,42.969,59.082,-20.508,0
1486223711.338,84.473,36.133,37.598,63.477,17.578,0
1486223711.342,14.648,38.086,30.273,60.547,35.156,0
1486223711.345,-21.973,30.273,42.480,64.941,85.449,0
1486223711.349,37.598,30.762,40.527,59.570,12.207,0
1486223711.353,106.445,24.414,34.180,65.430,-1.953,0
1486223711.357,96.191,19.531,31.250,71.777,47.852,0
1486223711.361,15.625,33.203,33.203,65.918,39.062,0
1486223711.365,-42.969,32.227,33.691,62.012,105.469,0
1486223711.369,23.438,25.879,30.273,54.199,77.637,0
1486223711.373,108.398,29.785,34.668,65.918,6.836,0
1486223711.377,96.680,28.320,39.551,74.219,48.340,0
1486223711.381,21.973,22.461,40.527,58.105,46.875,0
1486223711.385,-40.527,26.855,41.504,55.176,57.129,0
1486223711.388,13.672,29.785,47.363,58.105,44.434,0
1486223711.392,109.863,22.461,40.039,70.312,-12.695,0
1486223711.396,117.188,28.320,37.598,87.402,26.855,0
1486223711.400,51.270,32.715,48.340,86.914,41.992,0
1486223711.404,-28.320,33.203,38.574,74.707,63.477,0
1486223711.408,-1.953,29.785,34.180,54.688,50.781,0
1486223711.412,91.797,26.855,33.203,54.199,-6.836,0
1486223711.416,112.793,33.691,34.668,70.801,36.621,0
1486223711.420,48.340,29.785,42.480,64.453,62.012,0
1486223711.424,-29.785,33.203,41.992,61.035,104.980,0
1486223711.427,-9.766,33.691,41.016,63.965,99.609,0
1486223711.431,86.914,25.391,37.109,62.012,24.414,0
1486223711.435,126.465,31.250,38.086,67.383,41.504,0
1486223711.439,67.383,33.203,47.363,66.895,64.453,0
1486223711.443,-21.484,27.832,42.480,55.176,94.727,0
1486223711.447,-23.926,32.715,34.668,51.758,92.285,0
1486223711.451,74.219,24.902,30.273,54.199,13.672,0
1486223711.455,121.094,21.973,29.297,64.453,33.203,0
1486223711.459,65.430,25.879,37.109,69.824,50.781,0
1486223711.463,-5.859,36.621,54.199,79.590,60.547,0
1486223711.467,-32.227,33.203,48.828,64.941,91.309,0
1486223711.470,52.734,26.367,31.250,51.270,12.207,1
1486223711.474,123.047,34.180,35.645,64.941,17.578,0
1486223711.478,75.195,32.715,38.086,62.988,64.941,0
1486223711.482,-11.230,30.762,29.297,55.664,89.355,0
1486223711.486,-34.668,26.855,28.809,47.363,107.910,0
1486223711.490,49.805,28.320,32.227,56.152,51.270,0
1486223711.494,122.559,34.668,37.109,76.660,57.617,0
1486223711.498,97.656,38.086,49.316,80.566,86.426,0
1486223711.502,8.301,37.109,51.758,65.430,75.195,0
1486223711.506,-49.805,24.902,34.668,49.316,73.242,0
1486223711.509,40.527,38.086,41.504,54.688,17.578,0
1486223711.513,117.676,38.086,48.828,63.965,3.906,0
1486223711.517,80.566,20.020,33.203,65.918,62.012,0
1486223711.521,9.766,26.367,36.133,56.152,54.199,0
1486223711.525,-42.969,30.762,30.762,47.363,85.938,0
1486223711.529,26.367,32.227,25.391,43.457,46.387,0
1486223711.533,111.328,28.809,32.227,53.711,-15.625,0
1486223711.537,99.609,27.344,34.668,69.336,32.227,0
1486223711.541,20.996,31.250,33.691,59.082,61.035,0
1486223711.545,-43.457,31.250,40.039,52.734,82.031,0
1486223711.549,10.742,25.391,48.828,60.059,30.762,0
1486223711.552,104.980,26.855,41.992,63.965,13.184,0
1486223711.556,105.469,33.203,32.715,65.918,75.195,0
1486223711.560,28.809,32.715,36.621,56.641,56.641,0
1486223711.564,-44.434,31.738,40.527,41.992,81.055,0
1486223711.568,-16.113,29.785,32.715,35.156,87.891,0
1486223711.572,83.984,28.809,31.738,43.457,7.812,0
1486223711.576,94.238,22.461,34.668,54.688,31.738,0
1486223711.580,20.996,21.484,31.250,47.363,78.125,0
1486223711.584,-46.875,29.785,33.691,42.969,90.332,0
1486223711.588,-22.949,25.391,37.598,44.434,95.215,0
1486223711.592,71.289,12.695,42.969,52.246,45.410,0
1486223711.595,106.934,22.949,43.457,66.895,23.926,0
1486223711.599,57.129,34.180,36.621,63.477,20.020,0
1486223711.603,-17.578,34.668,37.598,66.895,74.707,0
1486223711.607,-13.672,30.273,43.457,63.477,86.914,0
1486223711.611,78.125,38.086,49.316,67.383,-1.465,0
1486223711.615,118.652,34.180,40.527,78.613,25.879,0
1486223711.619,65.918,34.180,33.691,67.383,62.988,0
1486223711.623,-14.648,41.504,37.598,69.336,93.262,0
1486223711.627,-29.785,27.344,35.156,63.965,93.750,0
1486223711.631,49.805,25.391,30.762,52.734,4.395,0
1486223711.634,107.422,24.902,29.785,66.406,20.996,0
1486223711.638,71.289,23.926,35.645,67.383,62.012,0
1486223711.642,-17.578,26.367,36.621,57.129,75.195,0
1486223711.646,-38.574,31.250,40.527,53.223,105.469,0
1486223711.650,57.129,27.344,42.969,57.617,7.324,0
1486223711.654,118.164,32.227,40.039,73.730,-16.602,0
1486223711.658,77.637,27.344,41.992,70.312,37.598,0
1486223711.662,1.953,23.438,47.363,65.430,57.617,0
1486223711.666,-38.086,30.273,38.086,59.570,84.473,0
1486223711.670,27.832,23.438,26.367,43.457,1.953,0
1486223711.674,118.652,22.461,32.715,54.688,-16.113,0
1486223711.677,98.145,23.438,30.762,56.641,17.578,0
1486223711.681,20.508,36.133,46.387,62.012,9.277,0
1486223711.685,-19.043,32.715,47.852,57.617,72.266,0
1486223711.689,33.203,22.461,26.367,52.246,42.480,0
1486223711.693,110.840,27.344,35.156,72.266,17.578,0
1486223711.697,101.074,26.855,45.410,81.055,64.453,0
1486223711.701,12.695,22.949,31.738,66.895,68.848,0
1486223711.705,-39.551,21.973,30.273,61.523,91.309,0
1486223711.709,20.508,26.855,42.969,68.359,46.387,0
1486223711.713,106.934,24.414,44.434,73.242,-6.836,0
1486223711.717,107.910,23.926,47.852,72.266,50.293,0
1486223711.720,41.016,29.785,45.898,69.824,77.637,0
1486223711.724,-29.785,31.250,31.738,60.059,95.215,0
1486223711.728,0.000,30.762,31.250,57.129,39.551,0
1486223711.732,92.773,30.762,40.039,63.965,-41.016,0
1486223711.736,105.957,26.855,42.480,77.148,7.812,0
1486223711.740,36.133,25.391,29.785,73.730,44.922,0
1486223711.744,-32.227,26.367,33.203,59.570,62.988,0
1486223711.748,-15.625,23.926,41.504,53.223,22.949,0
1486223711.752,74.707,35.156,41.504,61.523,-53.223,0
1486223711.756,112.305,29.785,31.738,68.359,-10.742,0
1486223711.759,45.898,21.973,21.973,52.246,48.828,0
1486223711.763,-32.715,30.762,35.156,49.805,71.777,0
1486223711.767,-29.297,27.344,41.016,48.340,41.992,0
1486223711.771,67.871,25.391,40.039,51.270,-16.602,0
1486223711.775,115.234,23.438,41.016,68.848,5.371,0
1486223711.779,57.129,24.414,41.016,55.664,13.672,0
1486223711.783,-29.297,27.344,41.016,36.621,51.758,0
1486223711.787,-33.203,29.785,27.832,41.016,113.281,0
1486223711.791,61.035,25.879,32.227,37.598,7.324,0
1486223711.795,110.840,24.414,46.875,55.176,-15.137,0
1486223711.799,72.754,38.574,40.039,64.453,54.199,0
1486223711.802,-14.160,39.062,30.762,57.617,86.426,0
1486223711.806,-47.363,23.926,31.738,50.781,115.234,0
1486223711.810,43.945,22.461,33.691,45.898,62.988,0
1486223711.814,113.281,30.762,43.945,62.988,45.898,0
1486223711.818,72.754,26.367,30.273,53.223,58.105,0
1486223711.822,-8.789,28.320,21.484,43.457,71.777,0
1486223711.826,-39.551,30.273,26.367,56.641,107.910,0
1486223711.830,38.086,21.973,29.297,49.316,74.707,0
1486223711.834,112.793,26.367,36.133,49.805,47.852,0
1486223711.838,99.121,31.250,45.410,68.359,42.969,0
1486223711.842,21.973,35.645,55.176,76.660,51.758,0
1486223711.845,-34.180,32.227,46.875,72.266,99.609,0
1486223711.849,29.297,23.926,22.461,56.641,61.523,0
1486223711.853,103.516,24.414,30.273,62.500,34.668,0
1486223711.857,86.426,20.996,41.016,76.660,45.410,0
1486223711.861,17.578,27.832,35.156,64.941,51.270,0
1486223711.865,-36.133,33.203,37.109,59.082,107.910,0
1486223711.869,16.113,21.973,33.203,57.129,80.078,0
1486223711.873,102.539,20.020,35.645,65.430,12.207,0
1486223711.877,113.770,32.715,38.574,77.148,60.059,0
1486223711.881,40.039,36.133,29.297,57.129,51.758,0
1486223711.884,-40.039,28.809,31.738,54.199,67.383,0
1486223711.888,2.441,26.855,44.434,58.594,105.469,0
1486223711.892,95.215,25.391,41.992,58.594,61.035,0
1486223711.896,101.074,24.414,31.250,62.988,86.426,0
1486223711.900,30.762,26.367,27.344,53.711,68.848,0
1486223711.904,-35.156,32.715,30.273,57.617,95.703,0
1486223711.908,-12.695,31.250,32.227,55.176,120.605,0
1486223711.912,75.195,21.973,23.438,50.781,10.254,0
1486223711.916,106.445,21.973,31.250,66.895,20.996,0
1486223711.920,42.480,32.715,38.086,62.500,61.523,0
1486223711.924,-33.203,36.621,36.133,62.988,93.262,0
1486223711.927,-24.902,26.367,39.062,51.758,86.914,0
1486223711.931,63.965,28.320,42.480,49.805,0.488,0
1486223711.935,105.469,29.297,49.805,68.848,21.484,0
1486223711.939,63.477,28.809,40.039,66.406,44.434,0
1486223711.943,-28.320,29.297,29.297,55.664,71.777,0
1486223711.947,-45.898,24.414,23.926,45.898,78.613,0
1486223711.951,46.875,25.391,12.207,43.945,4.883,0
1486223711.955,92.773,27.344,21.973,56.152,20.020,0
1486223711.959,62.500,28.320,35.645,56.152,37.598,0
1486223711.963,-12.207,27.832,38.086,48.828,56.152,0
1486223711.966,-38.574,28.320,40.527,66.895,75.684,0
1486223711.970,42.969,23.438,39.062,66.895,34.668,0
1486223711.974,100.098,22.461,41.504,52.734,29.785,0
1486223711.978,68.848,30.762,46.387,53.223,43.457,1
1486223711.982,-8.789,27.832,40.039,54.199,57.129,0
1486223711.986,-43.945,18.555,41.016,53.711,105.957,0
1486223711.990,24.902,17.578,36.621,52.246,36.621,0
1486223711.994,105.469,22.949,21.484,59.570,-22.461,0
1486223711.998,91.797,21.973,24.414,65.918,37.109,0
1486223712.002,-1.465,21.973,38.086,62.500,53.223,0
1486223712.006,-36.133,28.320,53.223,63.477,83.008,0
1486223712.009,31.738,34.180,46.387,50.781,37.109,0
1486223712.013,116.211,39.551,32.715,60.059,-8.301,0
1486223712.017,105.957,27.344,38.574,77.148,42.969,0
1486223712.021,16.113,26.367,37.109,65.430,65.430,0
1486223712.025,-33.691,32.715,36.621,64.941,92.773,0
1486223712.029,24.414,28.809,30.273,52.734,21.484,0
1486223712.033,109.375,29.785,28.809,57.129,-44.922,0
1486223712.037,101.562,28.320,33.203,70.801,12.207,0
1486223712.041,24.414,27.344,35.645,55.176,45.410,0
1486223712.045,-29.785,32.715,35.156,53.223,95.215,0
1486223712.049,9.766,32.715,28.809,56.641,74.707,0
1486223712.052,84.961,21.484,29.297,55.176,39.551,0
1486223712.056,104.980,26.855,37.109,70.312,65.918,0
1486223712.060,42.969,28.320,33.203,62.012,23.438,0
1486223712.064,-29.785,22.461,26.367,47.852,44.922,0
1486223712.068,-0.488,25.879,29.297,51.270,48.828,0
1486223712.072,92.285,27.832,41.016,58.594,-25.879,0
1486223712.076,112.305,28.809,40.039,68.848,-1.465,0
1486223712.080,44.434,26.367,31.738,58.594,14.648,0
1486223712.084,-29.785,29.785,36.621,60.059,50.293,0
1486223712.088,-7.812,31.738,35.645,60.547,66.895,0
1486223712.091,94.727,31.250,42.969,61.035,8.301,0
1486223712.095,131.348,31.738,45.410,80.566,30.762,0
1486223712.099,65.430,31.250,36.133,70.312,57.617,0
1486223712.103,-29.297,26.855,25.391,57.617,76.660,0
1486223712.107,-23.438,30.273,27.832,54.688,104.492,0
1486223712.111,73.730,26.855,34.668,56.152,12.207,0
1486223712.115,117.188,25.879,29.785,65.430,-7.812,0
1486223712.119,64.941,28.320,27.832,57.129,83.008,0
1486223712.123,-15.625,30.762,36.621,54.688,122.070,0
1486223712.127,-38.574,24.902,41.016,51.758,104.492,0
1486223712.131,59.082,34.180,41.504,58.105,26.367,0
1486223712.134,133.789,41.016,47.852,78.125,23.438,0
1486223712.138,85.938,20.508,33.203,66.406,69.336,0
1486223712.142,-6.348,16.113,18.555,50.293,108.398,0
1486223712.146,-38.086,18.066,31.250,48.340,147.461,0
1486223712.150,45.410,20.508,41.992,49.805,69.824,0
1486223712.154,110.840,22.949,25.879,61.035,71.777,0
1486223712.158,81.055,27.344,20.508,62.988,101.074,0
1486223712.162,4.395,28.320,23.438,51.758,106.445,0
1486223712.166,-41.016,27.832,31.738,51.270,143.066,0
1486223712.170,27.832,31.738,36.133,47.852,61.035,0
1486223712.174,113.770,38.574,36.621,60.059,24.902,0
1486223712.177,109.375,32.715,42.969,75.684,54.688,0
1486223712.181,15.137,23.438,42.969,58.594,40.039,0
1486223712.185,-47.363,28.320,37.109,52.734,61.523,0
1486223712.189,19.531,28.320,22.461,52.734,38.086,0
1486223712.193,106.934,20.508,20.508,69.336,15.137,0
1486223712.197,94.727,23.926,32.227,72.266,58.594,0
1486223712.201,35.156,32.715,39.551,59.082,64.941,0
1486223712.205,-36.621,25.879,36.621,52.734,84.961,0
1486223712.209,-6.348,26.367,43.945,55.664,56.152,0
1486223712.213,107.910,30.762,48.828,66.895,-27.832,0
1486223712.216,100.586,24.902,34.180,74.219,-21.973,0
1486223712.220,34.180,29.785,43.457,72.266,0.488,0
1486223712.224,-25.391,42.480,58.594,62.012,62.012,0
1486223712.228,-6.836,30.273,40.039,55.176,64.453,0
1486223712.232,90.820,16.602,21.484,54.688,11.719,0
1486223712.236,113.770,23.438,28.320,64.453,40.527,0
1486223712.240,43.457,26.367,37.598,62.012,41.504,0
1486223712.244,-35.156,23.438,38.574,63.477,67.871,0
1486223712.248,-24.902,21.973,43.457,60.059,101.074,0
1486223712.252,77.148,26.855,45.410,62.988,29.297,0
1486223712.256,114.746,27.344,44.434,72.754,21.973,0
1486223712.259,57.617,30.762,42.969,64.453,73.242,0
1486223712.263,-12.695,30.273,50.781,65.430,140.137,0
1486223712.267,-17.578,26.367,56.152,67.871,107.422,0
1486223712.271,54.199,20.508,31.738,57.129,-18.066,0
1486223712.275,102.051,22.461,24.902,68.848,29.297,0
1486223712.279,70.801,29.785,43.945,76.660,61.523,0
1486223712.283,-19.043,18.555,41.504,61.523,35.645,0
1486223712.287,-36.133,20.020,37.109,53.223,59.082,0
1486223712.291,50.781,20.996,36.621,52.246,31.250,0
1486223712.295,105.957,26.367,34.668,62.988,31.738,0
1486223712.298,80.078,31.738,40.527,62.500,40.039,0
1486223712.302,-9.277,25.879,43.457,55.664,22.461,0
1486223712.306,-47.363,24.902,29.785,41.016,41.992,0
1486223712.310,30.762,21.973,19.531,31.738,-9.766,0
1486223712.314,93.262,20.020,29.297,53.711,-18.066,0
1486223712.318,67.871,24.414,37.598,53.223,47.363,0
1486223712.322,-4.395,31.738,42.969,46.875,61.523,0
1486223712.326,-46.875,30.762,36.621,49.316,69.824,0
1486223712.330,18.066,30.273,20.020,37.598,12.207,0
1486223712.334,101.074,27.832,24.902,46.875,-9.277,0
1486223712.338,100.098,38.086,52.246,72.266,15.137,0
1486223712.341,21.484,33.691,51.758,60.059,5.859,0
1486223712.345,-55.176,22.949,28.809,50.293,51.270,0
1486223712.349,0.977,20.020,21.973,41.992,31.738,0
1486223712.353,101.562,18.555,29.297,51.270,-9.766,0
1486223712.357,96.191,29.297,32.715,65.430,15.625,0
1486223712.361,19.043,27.832,30.762,55.176,18.555,0
1486223712.365,-33.691,24.902,35.156,54.199,83.008,0
1486223712.369,1.465,27.832,43.945,46.387,64.453,0
1486223712.373,85.938,30.273,44.922,60.547,-36.621,0
1486223712.377,106.445,36.133,47.363,79.102,-16.113,0
1486223712.381,25.879,32.227,45.898,51.758,29.785,0
1486223712.384,-46.875,24.902,35.156,38.086,87.891,0
1486223712.388,-4.883,23.926,28.809,43.457,62.012,0
1486223712.392,80.078,23.438,24.414,47.363,-21.484,0
1486223712.396,105.957,32.227,32.227,67.383,45.410,0
1486223712.400,52.734,33.691,35.645,63.477,76.660,0
1486223712.404,-16.113,30.762,31.738,44.434,62.500,0
1486223712.408,-9.277,29.785,28.809,42.480,88.867,0
1486223712.412,88.379,39.551,34.180,54.688,-1.465,0
1486223712.416,133.301,38.086,42.480,77.637,0.977,0
1486223712.420,76.660,31.738,43.457,64.453,42.969,0
1486223712.423,-7.324,37.109,41.016,45.410,41.992,0
1486223712.427,-11.719,30.273,30.762,41.504,69.336,0
1486223712.431,72.266,25.879,34.668,46.387,38.086,0
1486223712.435,111.816,26.367,41.504,56.641,39.551,0
1486223712.439,61.523,31.738,31.250,53.223,40.039,0
1486223712.443,-31.250,32.715,28.320,50.293,65.430,0
1486223712.447,-37.598,27.344,35.645,46.387,111.328,0
1486223712.451,63.965,27.832,38.086,49.805,44.434,0
1486223712.455,96.191,28.809,44.922,63.965,18.066,0
1486223712.459,63.477,31.250,41.504,60.547,30.762,0
1486223712.463,-2.441,30.273,30.273,50.781,42.969,0
1486223712.466,-33.203,22.461,36.133,50.781,85.449,0
1486223712.470,48.828,23.926,43.457,52.734,34.180,0
1486223712.474,116.211,27.832,47.363,76.172,5.371,0
1486223712.478,87.891,24.414,47.852,80.078,4.883,0
1486223712.482,7.812,25.391,41.504,64.453,22.949,0
1486223712.486,-38.574,22.461,34.180,67.383,90.332,0
1486223712.490,31.738,22.461,41.504,63.477,38.574,0
1486223712.494,104.980,23.926,45.898,66.406,-6.348,0
1486223712.498,85.938,27.344,38.086,65.430,58.105,0
1486223712.502,19.043,25.879,41.016,62.988,58.594,0
1486223712.506,-20.996,25.391,46.387,67.383,91.309,0
1486223712.509,29.297,24.902,41.016,50.781,55.176,0
1486223712.513,112.305,28.320,26.367,51.758,-44.434,0
1486223712.517,93.262,31.250,38.086,62.500,12.695,0
1486223712.521,6.348,26.367,56.641,51.758,43.945,0
1486223712.525,-41.016,28.320,44.434,39.551,66.895,0
1486223712.529,8.301,29.297,38.574,41.504,37.109,0
1486223712.533,89.844,24.414,31.738,51.270,-2.930,0
1486223712.537,93.262,31.250,25.391,62.012,41.504,0
1486223712.541,43.945,37.598,39.551,66.895,66.406,0
1486223712.545,-20.996,30.273,47.852,66.406,86.426,0
1486223712.548,10.254,28.320,37.598,69.336,41.504,0
1486223712.552,112.305,28.809,35.645,72.754,-2.930,0
1486223712.556,125.488,17.578,37.109,74.219,40.527,0
1486223712.560,67.871,20.508,37.598,80.078,37.109,0
1486223712.564,-5.371,28.809,36.621,75.195,52.246,0
1486223712.568,2.441,26.855,41.016,62.500,64.941,0
1486223712.572,95.215,24.902,48.828,62.988,35.156,0
1486223712.576,115.234,21.484,32.715,68.848,55.176,0
1486223712.580,48.828,30.273,32.227,60.547,71.289,0
1486223712.584,-29.785,28.320,44.434,49.805,81.055,0
1486223712.588,-27.832,25.879,32.715,50.781,67.383,0
1486223712.591,68.359,23.926,32.715,58.594,-7.812,0
1486223712.595,118.652,20.508,32.227,65.430,37.598,0
1486223712.599,64.453,24.902,31.250,64.453,60.547,0
1486223712.603,-23.438,34.668,31.738,55.176,49.805,0
1486223712.607,-30.762,37.109,34.668,62.012,55.664,0
1486223712.611,51.758,30.273,39.062,66.406,3.906,0
1486223712.615,95.703,23.438,22.461,62.988,25.879,0
1486223712.619,74.219,28.809,23.438,61.523,83.008,0
1486223712.623,-5.859,29.785,35.645,63.477,87.402,0
1486223712.627,-37.109,19.043,39.551,51.270,97.656,0
1486223712.631,50.293,22.461,32.715,47.363,54.199,1
1486223712.634,125.488,24.414,34.668,69.824,65.918,0
1486223712.638,90.332,20.020,39.062,78.613,113.281,0
1486223712.642,4.883,22.461,38.086,68.848,112.305,0
1486223712.646,-34.668,24.414,34.180,57.129,122.559,0
1486223712.650,42.969,30.762,37.109,54.688,38.574,0
1486223712.654,122.070,36.621,44.922,70.312,11.719,0
1486223712.658,93.262,28.809,38.086,69.824,82.520,0
1486223712.662,11.230,27.344,36.621,55.176,72.266,0
1486223712.666,-36.133,37.598,39.551,60.059,104.492,0
1486223712.670,32.715,43.457,38.574,60.547,43.945,0
1486223712.673,105.469,23.438,29.297,58.594,-20.996,0
1486223712.677,81.055,19.531,20.508,60.547,47.363,0
1486223712.681,8.789,27.832,25.391,49.316,56.641,0
1486223712.685,-53.223,24.414,33.203,47.852,126.953,0
1486223712.689,8.789,24.902,39.551,58.105,52.246,0
1486223712.693,104.492,20.508,44.434,62.012,-83.008,0
1486223712.697,103.027,27.832,51.270,73.730,2.441,0
1486223712.701,34.668,31.738,46.387,64.941,54.199,0
1486223712.705,-35.645,25.879,43.945,59.570,103.516,0
1486223712.709,1.465,28.809,50.293,58.105,63.965,0
1486223712.713,89.844,25.391,40.039,63.965,2.441,0
1486223712.716,104.004,27.344,37.109,80.078,24.414,0
1486223712.720,46.387,29.785,38.086,68.848,8.789,0
1486223712.724,-35.645,31.250,25.391,58.594,39.062,0
1486223712.728,-27.344,24.902,24.902,54.199,32.715,0
1486223712.732,68.848,18.555,27.344,59.570,-21.484,0
1486223712.736,112.793,30.762,33.691,74.219,3.906,0
1486223712.740,51.758,29.785,39.062,68.848,36.621,0
1486223712.744,-38.086,21.484,40.039,56.641,83.496,0
1486223712.748,-29.785,25.391,35.645,48.340,108.398,0
1486223712.752,79.102,27.832,46.875,59.570,20.996,0
1486223712.755,118.652,26.367,57.129,80.078,22.461,0
1486223712.759,68.359,27.832,39.551,75.684,77.148,0
1486223712.763,-26.855,23.926,35.645,61.523,84.961,0
1486223712.767,-43.457,23.438,34.180,59.570,121.094,0
1486223712.771,52.734,27.344,34.180,57.129,32.227,0
1486223712.775,106.445,26.855,44.434,66.895,33.691,0
1486223712.779,72.754,23.926,52.246,64.453,75.684,0
1486223712.783,-15.137,18.066,46.387,56.641,74.219,0
1486223712.787,-28.809,30.273,36.621,63.965,88.867,0
1486223712.791,58.594,36.133,41.504,54.199,8.301,0
1486223712.795,105.957,30.762,31.738,58.105,-1.465,0
1486223712.798,76.172,36.133,27.344,68.848,38.086,0
1486223712.802,-6.836,30.273,38.574,58.105,84.961,0
1486223712.806,-50.781,24.414,36.621,55.664,100.586,0
1486223712.810,34.180,25.879,29.785,62.012,16.602,0
1486223712.814,122.070,36.133,35.645,74.707,25.391,0
1486223712.818,99.121,36.133,51.758,82.031,74.219,0
1486223712.822,5.371,27.832,40.527,59.082,81.543,0
1486223712.826,-45.410,28.320,28.809,50.293,98.633,0
1486223712.830,19.531,20.996,32.715,42.480,19.531,0
1486223712.834,96.680,21.484,34.668,54.688,-0.488,0
1486223712.838,93.262,30.762,35.645,75.684,56.641,0
1486223712.841,23.926,28.809,35.156,70.801,55.664,0
1486223712.845,-31.250,29.297,36.133,66.406,102.051,0
1486223712.849,21.484,32.227,27.832,61.523,84.961,0
1486223712.853,104.004,25.879,28.320,68.848,27.344,0
1486223712.857,111.816,24.902,45.410,83.496,58.594,0
1486223712.861,39.551,23.438,41.016,74.707,51.758,0
1486223712.865,-24.414,24.902,32.715,64.941,87.402,0
1486223712.869,26.855,35.156,45.410,74.219,42.480,0
1486223712.873,107.422,24.902,50.293,79.590,-45.410,0
1486223712.877,125.488,24.902,42.969,99.121,20.508,0
1486223712.880,64.941,43.945,41.504,92.773,27.344,0
1486223712.884,-28.320,26.367,41.504,74.219,65.430,0
1486223712.888,-1.465,14.648,36.133,74.219,71.289,0
1486223712.892,94.238,24.414,35.156,72.754,-6.836,0
1486223712.896,120.117,30.273,55.664,72.266,14.648,0
1486223712.900,54.688,33.691,68.848,67.871,30.273,0
1486223712.904,-32.227,27.832,45.410,61.523,58.105,0
1486223712.908,-27.344,22.949,34.180,45.410,56.152,0
1486223712.912,68.848,22.461,37.109,49.805,-23.926,0
1486223712.916,113.770,29.785,36.133,62.988,4.883,0
1486223712.920,50.781,28.809,34.668,54.199,56.152,0
1486223712.923,-38.574,30.762,27.832,50.293,77.637,0
1486223712.927,-37.109,32.715,23.438,56.152,86.426,0
1486223712.931,57.129,25.879,21.484,52.734,20.508,0
1486223712.935,103.516,31.738,30.273,62.988,34.180,0
1486223712.939,64.941,30.273,41.992,64.941,32.227,0
1486223712.943,-14.160,25.391,38.086,59.570,6.836,0
1486223712.947,-37.598,28.809,39.551,63.965,40.039,0
1486223712.951,52.246,28.320,37.598,59.570,9.277,0
1486223712.955,120.605,23.926,27.832,61.035,-6.348,0
1486223712.959,80.566,24.414,37.598,68.359,31.738,0
1486223712.963,-2.441,36.621,41.992,63.477,83.496,0
1486223712.966,-33.203,42.480,37.598,53.223,107.422,0
1486223712.970,40.527,28.809,33.203,45.410,40.039,0
1486223712.974,112.305,22.949,29.785,61.523,40.039,0
1486223712.978,86.914,21.484,34.668,61.523,87.402,0
1486223712.982,11.230,23.438,40.039,57.129,95.703,0
1486223712.986,-32.715,25.879,35.156,59.570,104.004,0
1486223712.990,27.344,23.926,30.762,50.293,60.547,0
1486223712.994,108.398,24.414,25.879,62.500,44.434,0
1486223712.998,92.773,20.996,30.762,66.406,84.473,0
1486223713.002,20.996,29.297,42.480,50.781,57.129,0
1486223713.005,-35.156,26.367,40.039,45.410,93.262,0
1486223713.009,14.648,20.508,37.598,41.992,60.547,0
1486223713.013,107.422,21.973,34.180,55.176,-12.695,0
1486223713.017,101.562,25.879,41.504,62.012,35.156,0
1486223713.021,25.391,27.344,48.828,50.293,60.547,0
1486223713.025,-40.527,25.879,37.109,41.992,68.359,0
1486223713.029,-1.465,31.250,31.738,41.016,47.363,0
1486223713.033,89.844,27.832,40.527,53.711,9.277,0
1486223713.037,96.680,29.297,40.039,62.988,39.062,0
1486223713.041,27.344,29.785,36.621,51.270,55.176,0
1486223713.045,-50.781,27.832,37.598,35.645,43.457,0
1486223713.048,-30.273,30.762,37.598,33.691,58.105,0
1486223713.052,61.035,19.531,23.438,33.691,14.160,0
1486223713.056,104.004,23.926,28.320,52.246,25.879,0
1486223713.060,45.898,27.344,37.598,52.734,56.152,0
1486223713.064,-41.016,22.461,29.785,42.480,61.035,0
1486223713.068,-33.691,26.367,25.391,29.297,63.965,0
1486223713.072,66.895,27.344,33.203,31.250,14.648,0
1486223713.076,103.027,23.438,38.086,52.246,36.621,0
1486223713.080,55.664,25.879,35.645,51.270,30.762,0
1486223713.084,-20.508,30.762,35.645,47.852,54.688,0
1486223713.088,-26.855,37.598,42.969,49.805,63.477,0
1486223713.091,65.430,34.668,44.922,58.594,13.672,0
1486223713.095,115.234,21.484,41.504,58.105,14.160,0
1486223713.099,70.312,24.902,47.852,61.523,22.461,0
1486223713.103,-10.254,33.691,43.945,58.105,76.172,0
1486223713.107,-30.762,23.438,23.438,46.387,109.375,0
1486223713.111,57.129,25.391,23.438,45.410,2.930,0
1486223713.115,117.676,30.762,30.762,61.523,-9.766,0
1486223713.119,84.473,24.902,30.273,66.895,47.852,0
1486223713.123,8.301,27.832,38.574,59.082,72.266,0
1486223713.127,-26.367,32.227,41.504,54.688,103.027,0
1486223713.130,50.781,28.320,36.621,50.781,31.738,0
1486223713.134,121.094,26.367,31.738,61.035,-21.973,0
1486223713.138,100.586,32.227,37.598,69.336,42.480,0
1486223713.142,20.020,40.039,41.504,59.082,76.660,0
1486223713.146,-34.180,31.738,34.180,50.781,96.191,0
1486223713.150,32.227,24.902,30.762,46.875,47.852,0
1486223713.154,104.492,28.320,39.551,58.594,17.578,0
1486223713.158,70.312,21.484,41.016,66.406,36.133,0
1486223713.162,-6.836,18.555,38.086,54.688,37.109,0
1486223713.166,-49.316,21.973,38.574,59.082,100.586,0
1486223713.170,4.883,21.484,38.574,60.059,53.223,0
1486223713.173,91.309,22.461,38.574,64.453,-18.555,0
1486223713.177,91.309,22.461,37.109,69.336,19.531,0
1486223713.181,19.043,24.902,39.551,57.617,55.664,0
1486223713.185,-44.922,28.809,47.363,58.594,84.473,0
1486223713.189,-5.859,20.020,32.715,49.805,72.266,0
1486223713.193,92.285,25.879,20.996,53.223,15.625,0
1486223713.197,100.098,30.762,27.832,65.430,36.133,0
1486223713.201,37.109,24.414,48.828,61.523,45.898,0
1486223713.205,-27.832,29.785,50.781,53.223,102.539,0
1486223713.209,-2.441,32.227,32.227,50.781,82.520,0
1486223713.212,94.238,26.855,32.227,59.570,10.254,0
1486223713.216,112.793,30.273,39.551,66.406,65.918,1
1486223713.220,54.688,26.855,34.668,56.641,51.270,0
1486223713.224,-25.879,26.367,37.598,48.828,61.035,0
1486223713.228,-18.555,30.273,37.598,51.758,45.410,0
1486223713.232,81.543,27.344,39.062,59.082,-29.297,0
1486223713.236,114.746,26.367,47.363,74.707,-2.441,0
1486223713.240,57.129,27.344,46.387,75.195,5.371,0
1486223713.244,-16.602,35.156,52.246,70.312,64.453,0
1486223713.248,-20.508,29.297,42.969,67.383,98.633,0
1486223713.252,72.266,27.832,41.016,70.312,-7.812,0
1486223713.255,125.977,28.809,49.316,79.102,7.812,0
1486223713.259,77.148,28.320,37.598,67.871,49.316,0
1486223713.263,-19.531,26.367,28.320,54.688,77.148,0
1486223713.267,-32.227,29.785,37.109,49.805,117.676,0
1486223713.271,55.664,27.832,37.598,46.875,24.414,0
1486223713.275,103.516,22.949,34.668,62.988,27.344,0
1486223713.279,69.824,27.344,37.598,63.477,41.016,0
1486223713.283,-15.137,32.227,35.156,46.875,43.945,0
1486223713.287,-41.504,31.250,30.762,41.504,125.977,0
1486223713.291,36.133,25.391,30.273,35.645,45.410,0
1486223713.295,102.051,31.250,35.156,61.523,21.484,0
1486223713.298,81.055,30.273,45.898,70.801,81.543,0
1486223713.302,-5.859,21.484,30.273,40.527,74.707,0
1486223713.306,-46.875,26.855,25.879,40.039,128.906,0
1486223713.310,36.621,32.715,41.992,45.898,64.941,0
1486223713.314,107.422,29.785,36.621,49.316,14.160,0
1486223713.318,81.543,29.297,26.855,58.105,64.941,0
1486223713.322,15.137,34.668,41.016,56.152,45.898,0
1486223713.326,-40.039,31.250,43.945,51.270,80.566,0
1486223713.330,11.719,21.973,35.156,49.805,46.875,0
1486223713.334,100.586,23.438,35.645,57.129,-22.461,0
1486223713.337,108.887,36.621,37.598,69.336,40.527,0
1486223713.341,31.250,33.203,37.109,59.570,80.566,0
1486223713.345,-39.551,22.949,32.227,59.570,107.910,0
1486223713.349,11.230,23.926,36.133,56.152,54.688,0
1486223713.353,97.656,21.484,31.250,51.758,-10.742,0
1486223713.357,104.492,23.926,21.973,62.012,18.066,0
1486223713.361,38.086,33.691,28.809,61.523,-7.812,0
1486223713.365,-29.785,33.691,39.551,57.129,26.367,0
1486223713.369,2.930,27.832,36.621,50.781,65.430,0
1486223713.373,91.309,26.855,27.344,52.246,7.812,0
1486223713.377,116.211,32.227,27.832,73.730,14.160,0
1486223713.380,52.734,32.715,37.598,77.637,40.527,0
1486223713.384,-30.273,28.809,36.621,59.570,70.312,0
1486223713.388,-12.207,29.297,42.969,50.293,42.480,0
1486223713.392,83.984,29.297,43.457,59.570,-25.391,0
1486223713.396,121.582,26.855,31.250,72.266,6.348,0
1486223713.400,63.965,22.461,20.996,70.801,38.086,0
1486223713.404,-21.973,22.949,23.926,70.801,61.035,0
1486223713.408,-11.230,27.832,39.062,74.219,48.828,0
1486223713.412,71.777,22.949,47.852,69.336,-30.762,0
1486223713.416,101.074,16.602,42.969,70.312,20.508,0
1486223713.420,62.988,21.973,38.574,71.289,53.711,0
1486223713.423,-18.555,25.879,40.039,66.895,97.656,0
1486223713.427,-27.832,28.809,34.668,62.988,92.285,0
1486223713.431,71.777,31.250,43.945,59.570,-25.391,0
1486223713.435,127.930,26.367,47.363,75.684,0.488,0
1486223713.439,83.496,25.879,29.297,69.824,58.105,0
1486223713.443,2.441,33.691,41.016,65.430,48.340,0
1486223713.447,-37.109,24.902,38.086,63.965,67.383,0
1486223713.451,45.898,15.137,15.625,52.246,54.688,0
1486223713.455,124.023,23.438,25.879,69.824,50.293,0
1486223713.459,93.262,28.809,36.133,71.289,58.105,0
1486223713.462,8.301,28.809,41.504,66.406,88.379,0
1486223713.466,-44.434,24.414,39.062,61.523,125.488,0
1486223713.470,30.762,24.902,35.645,63.965,72.266,0
1486223713.474,109.375,23.926,46.387,83.496,55.664,0
1486223713.478,90.820,25.391,41.504,83.984,93.750,0
1486223713.482,15.137,25.391,33.691,64.941,88.379,0
1486223713.486,-35.645,19.531,35.645,52.734,77.637,0
1486223713.490,8.789,20.996,28.320,57.617,73.242,0
1486223713.494,95.703,27.344,21.484,59.570,23.926,0
1486223713.498,100.586,23.926,29.785,67.871,13.184,0
1486223713.502,21.484,20.508,39.551,67.383,43.457,0
1486223713.505,-41.016,30.273,40.527,53.711,83.496,0
1486223713.509,5.859,28.320,32.715,50.781,16.602,0
1486223713.513,108.398,27.832,38.086,72.266,-32.715,0
1486223713.517,114.258,28.320,44.922,73.730,53.223,0
1486223713.521,33.203,25.879,31.250,53.711,72.754,0
1486223713.525,-42.969,27.344,26.855,54.199,91.797,0
1486223713.529,-8.789,28.320,32.227,50.293,64.453,0
1486223713.533,93.262,30.273,32.715,60.059,7.812,0
1486223713.537,120.117,35.645,33.203,81.543,43.945,0
1486223713.541,42.969,26.367,32.227,64.941,54.688,0
1486223713.545,-40.527,25.391,40.039,51.758,84.961,0
1486223713.548,-11.230,39.551,44.922,57.617,69.824,0
1486223713.552,93.750,30.273,37.109,57.617,6.836,0
1486223713.556,130.371,23.438,37.109,76.172,6.836,0
1486223713.560,64.941,26.367,39.062,78.125,0.977,0
1486223713.564,-29.297,30.273,35.156,56.152,39.551,0
1486223713.568,-29.785,25.391,40.527,55.176,48.340,0
1486223713.572,67.383,19.531,34.180,56.641,-44.922,0
1486223713.576,116.211,25.391,33.691,64.941,-18.555,0
1486223713.580,64.941,28.809,41.504,62.988,29.785,0
1486223713.584,-10.742,35.645,43.457,67.871,39.062,0
1486223713.587,-23.438,31.738,41.992,65.918,47.363,0
1486223713.591,64.453,29.297,37.109,53.223,43.457,0
1486223713.595,124.512,27.344,40.039,73.242,31.738,0
1486223713.599,74.707,21.484,41.016,70.801,-0.977,0
1486223713.603,-9.766,25.391,35.156,50.781,58.105,0
1486223713.607,-37.598,20.508,33.691,51.758,74.707,0
1486223713.611,38.086,18.066,36.133,54.199,0.488,0
1486223713.615,105.469,23.926,42.480,68.848,21.973,0
1486223713.619,71.777,30.273,46.387,64.941,29.297,0
1486223713.623,-9.277,31.738,40.039,57.617,23.438,0
1486223713.627,-46.387,22.949,32.715,63.477,60.547,0
1486223713.630,36.133,18.066,36.133,49.805,9.277,0
1486223713.634,114.258,17.090,41.504,61.523,-37.598,0
1486223713.638,83.008,23.438,43.945,73.730,0.000,0
1486223713.642,2.441,33.691,41.016,60.059,57.129,0
1486223713.646,-41.504,26.855,31.738,50.781,67.871,0
1486223713.650,18.066,25.391,30.762,47.363,5.371,0
1486223713.654,100.098,29.785,40.527,66.895,-23.926,0
1486223713.658,98.145,29.785,38.086,74.219,0.000,0
1486223713.662,19.043,30.762,37.109,61.035,20.996,0
1486223713.666,-44.434,24.902,43.945,59.570,67.383,0
1486223713.669,2.930,18.066,35.156,53.711,37.598,0
1486223713.673,93.262,20.020,37.598,66.406,-47.852,0
1486223713.677,98.633,20.996,39.551,75.195,-16.602,0
1486223713.681,35.645,28.809,54.199,61.035,24.414,0
1486223713.685,-38.574,29.297,48.828,59.570,89.355,0
1486223713.689,-11.230,26.855,28.809,57.129,108.887,0
1486223713.693,84.473,25.391,31.738,60.547,50.781,0
1486223713.697,99.609,21.973,31.738,67.871,37.598,0
1486223713.701,37.109,23.926,35.645,42.969,12.207,0
1486223713.705,-33.691,28.809,37.598,40.039,41.016,0
1486223713.709,-20.996,30.762,41.504,50.781,76.172,0
1486223713.712,73.730,25.391,40.039,49.805,18.066,0
1486223713.716,98.633,20.996,35.645,57.617,28.320,0
1486223713.720,38.086,24.414,29.297,58.594,80.566,0
1486223713.724,-42.969,28.809,36.133,47.852,102.051,0
1486223713.728,-35.645,25.879,39.551,48.828,102.051,0
1486223713.732,72.266,34.668,39.551,55.176,41.016,0
1486223713.736,112.305,25.879,34.668,59.082,6.348,0
1486223713.740,45.898,17.578,25.879,64.453,38.086,0
1486223713.744,-29.785,30.273,29.785,50.293,75.684,0
1486223713.748,-30.273,24.414,30.273,32.715,82.031,0
1486223713.752,53.711,18.066,25.879,47.852,15.137,0
1486223713.755,105.469,27.344,21.973,64.453,13.184,0
1486223713.759,66.895,30.762,33.203,61.523,37.598,0
1486223713.763,-11.230,31.250,45.898,61.035,82.031,0
1486223713.767,-41.992,34.180,48.828,58.594,125.488,0
1486223713.771,42.969,21.484,33.691,52.734,37.598,0
1486223713.775,120.117,19.531,30.762,71.289,-5.371,0
1486223713.779,70.312,25.879,38.086,66.895,33.691,0
1486223713.783,-12.207,24.902,36.133,53.711,69.336,0
1486223713.787,-43.945,29.297,31.738,51.758,111.328,0
1486223713.791,20.508,26.855,29.297,40.039,68.359,0
1486223713.794,99.121,25.391,20.508,49.316,72.266,0
1486223713.798,83.984,27.344,31.250,53.711,62.988,0
1486223713.802,3.906,26.855,45.410,47.852,49.316,0
1486223713.806,-30.762,25.879,44.434,56.641,136.230,0
1486223713.810,38.574,31.738,43.457,53.711,36.621,0
1486223713.814,105.957,29.297,39.551,55.176,-35.156,0
1486223713.818,96.680,24.414,28.809,72.754,6.836,0
1486223713.822,26.855,24.902,33.203,60.547,37.598,0
1486223713.826,-29.785,27.832,35.156,54.688,116.211,0
1486223713.830,29.297,38.574,36.621,72.754,75.195,0
1486223713.834,122.559,36.133,43.945,83.008,-7.324,0
1486223713.837,119.629,27.832,33.691,80.566,29.785,0
1486223713.841,31.250,27.344,33.203,63.965,24.414,0
1486223713.845,-41.504,29.297,41.992,62.988,48.340,1
1486223713.849,-1.465,27.832,38.574,64.453,38.086,0
1486223713.853,83.984,20.020,36.621,62.012,-19.043,0
1486223713.857,94.727,26.855,40.039,68.848,15.625,0
1486223713.861,35.645,31.250,39.062,64.453,6.348,0
1486223713.865,-34.668,30.273,34.180,55.176,53.711,0
1486223713.869,-12.207,34.668,40.527,52.734,62.988,0
1486223713.873,77.148,28.320,45.410,59.082,-13.672,0
1486223713.877,105.957,25.391,37.598,80.566,19.531,0
1486223713.880,48.828,29.297,31.250,71.289,32.715,0
1486223713.884,-28.809,33.203,38.574,51.758,98.633,0
1486223713.888,-17.090,23.926,35.645,53.711,132.324,0
1486223713.892,82.031,31.250,40.527,69.824,32.227,0
1486223713.896,132.812,37.598,43.945,80.566,2.930,0
1486223713.900,75.684,26.855,42.480,73.242,40.527,0
1486223713.904,-10.254,35.156,55.176,80.078,89.844,0
1486223713.908,-15.137,41.504,45.410,66.895,74.219,0
1486223713.912,76.660,28.809,31.738,55.664,-14.648,0
1486223713.916,127.441,22.461,39.551,75.195,36.621,0
1486223713.919,83.984,27.832,46.875,73.242,76.660,0
1486223713.923,-7.324,26.855,43.945,62.012,62.500,0
1486223713.927,-35.645,27.832,24.902,57.129,93.750,0
1486223713.931,55.176,27.344,20.020,54.688,55.664,0
1486223713.935,122.559,24.902,39.551,71.289,-5.371,0
1486223713.939,79.102,28.320,42.480,72.754,50.781,0
1486223713.943,-10.254,27.832,40.039,57.617,86.914,0
1486223713.947,-42.969,22.949,49.316,59.570,77.637,0
1486223713.951,33.691,31.738,44.922,50.781,5.859,0
1486223713.955,112.793,33.203,40.527,61.035,-20.996,0
1486223713.959,90.332,22.461,41.504,68.848,38.086,0
1486223713.962,-2.930,21.973,35.645,40.527,21.484,0
1486223713.966,-43.945,24.902,36.621,43.457,83.008,0
1486223713.970,25.879,30.762,35.156,43.945,51.758,0
1486223713.974,103.027,29.297,28.809,57.129,-15.625,0
1486223713.978,104.004,26.367,38.086,73.242,50.781,0
1486223713.982,26.367,26.855,50.293,63.477,92.773,0
1486223713.986,-28.809,26.367,51.270,72.754,108.398,0
1486223713.990,21.973,33.691,34.668,73.242,84.961,0
1486223713.994,116.211,41.016,31.738,68.848,20.508,0
1486223713.998,130.859,31.738,46.387,77.637,54.688,0
1486223714.001,50.781,25.391,58.105,72.754,81.055,0
1486223714.005,-23.438,31.738,63.477,72.754,110.840,0
1486223714.009,7.812,30.273,40.527,58.594,55.176,0
1486223714.013,104.492,26.855,27.832,59.570,-27.832,0
1486223714.017,121.582,29.297,33.691,84.961,39.551,0
1486223714.021,49.316,29.297,33.203,75.684,56.152,0
1486223714.025,-24.902,33.203,43.945,66.406,62.988,0
1486223714.029,1.953,31.250,40.039,64.453,82.520,0
1486223714.033,93.262,29.785,24.414,57.129,-0.977,0
1486223714.037,127.441,33.691,35.156,72.754,20.508,0
1486223714.041,67.383,30.273,45.898,75.684,51.758,0
1486223714.044,-25.391,33.203,49.316,62.500,49.805,0
1486223714.048,-15.625,25.879,41.016,64.453,55.176,0
1486223714.052,79.102,22.461,32.715,66.406,-18.555,0
1486223714.056,116.211,29.297,41.016,72.754,-9.766,0
1486223714.060,71.289,26.855,38.574,66.406,44.434,0
1486223714.064,-19.531,27.832,34.180,63.965,79.102,0
1486223714.068,-25.879,30.762,29.785,60.059,92.773,0
1486223714.072,68.848,29.785,39.551,55.664,12.207,0
1486223714.076,112.305,29.785,47.363,70.312,-12.207,0
1486223714.080,72.266,29.785,41.016,68.359,28.809,0
1486223714.084,-9.766,25.879,50.781,74.219,72.266,0
1486223714.087,-31.250,26.855,53.223,65.430,138.184,0
1486223714.091,61.523,36.133,51.270,66.406,12.207,0
1486223714.095,116.699,36.133,59.570,92.285,-11.230,0
1486223714.099,70.312,29.785,45.410,83.496,70.801,0
1486223714.103,-13.672,27.832,22.461,74.219,94.727,0
1486223714.107,-45.898,22.461,12.207,68.848,122.559,0
1486223714.111,33.691,24.414,31.738,55.664,68.848,0
1486223714.115,101.074,29.785,44.434,67.871,62.500,0
1486223714.119,87.891,32.715,36.621,79.590,64.941,0
1486223714.123,8.301,31.738,48.340,68.359,78.125,0
1486223714.126,-39.551,32.227,54.199,64.941,123.047,0
1486223714.130,36.133,23.926,40.527,63.965,52.246,0
1486223714.134,118.652,22.461,39.062,76.660,65.430,0
1486223714.138,96.680,32.715,44.922,83.984,94.727,0
1486223714.142,14.648,35.156,45.898,72.754,48.828,0
1486223714.146,-25.391,27.832,43.945,65.918,91.309,0
1486223714.150,17.578,18.555,42.480,53.223,45.410,0
1486223714.154,92.773,22.949,37.598,56.152,-3.906,0
1486223714.158,97.656,21.973,26.855,74.707,51.270,0
1486223714.162,18.555,17.578,26.367,64.941,55.664,0
1486223714.166,-50.293,22.949,41.504,54.199,80.566,0
1486223714.169,4.395,22.949,36.133,48.340,69.824,0
1486223714.173,105.469,28.320,30.762,60.059,-5.371,0
1486223714.177,114.746,29.785,41.016,70.801,-4.395,0
1486223714.181,30.762,25.391,34.180,58.594,46.875,0
1486223714.185,-47.363,28.320,36.133,61.035,101.074,0
1486223714.189,-5.859,31.250,41.016,63.477,33.691,0
1486223714.193,83.496,27.344,32.715,65.430,-44.434,0
1486223714.197,115.234,29.297,42.480,85.449,6.348,0
1486223714.201,53.711,34.180,44.922,76.660,18.066,0
1486223714.205,-29.785,37.598,38.086,61.523,64.941,0
1486223714.209,-9.766,32.227,43.457,54.688,83.984,0
1486223714.212,70.801,19.531,32.715,45.410,5.371,0
1486223714.216,107.422,21.973,34.668,75.195,17.578,0
1486223714.220,62.012,30.273,41.504,75.684,34.180,0
1486223714.224,-22.461,34.180,37.109,54.688,78.613,0
1486223714.228,-38.086,27.832,32.715,57.129,93.750,0
1486223714.232,58.105,23.438,26.367,59.082,11.230,0
1486223714.236,119.141,24.902,40.527,74.219,22.461,0
1486223714.240,61.523,25.391,38.086,82.031,30.762,0
1486223714.244,-8.301,36.133,34.668,62.988,34.668,0
1486223714.248,-20.020,30.273,48.340,48.828,54.688,0
1486223714.251,56.152,19.531,50.293,47.363,-9.766,0
1486223714.255,112.793,22.949,39.062,61.035,-27.832,0
1486223714.259,75.195,30.273,31.250,72.266,29.785,0
1486223714.263,-7.812,27.344,34.180,60.059,63.965,0
1486223714.267,-34.180,21.973,41.504,50.293,98.633,0
1486223714.271,45.898,31.250,47.852,48.340,32.227,0
1486223714.275,109.375,32.227,44.922,66.406,-10.742,0
1486223714.279,86.914,34.180,35.156,72.754,30.762,0
1486223714.283,3.418,34.180,27.832,66.895,64.453,0
1486223714.287,-40.527,29.785,33.203,63.477,123.535,0
1486223714.291,38.574,37.598,48.828,57.129,43.945,0
1486223714.294,104.492,30.762,43.945,56.641,-18.066,0
1486223714.298,83.984,30.273,38.086,66.895,42.480,0
1486223714.302,15.625,31.738,40.039,61.035,85.449,0
1486223714.306,-46.387,25.391,31.250,50.293,125.488,0
1486223714.310,12.207,30.273,32.227,51.758,69.824,0
1486223714.314,96.680,21.973,39.551,73.730,-6.836,0
1486223714.318,90.332,22.949,38.574,81.543,15.137,0
1486223714.322,25.391,33.203,36.133,56.641,50.781,0
1486223714.326,-41.992,29.297,31.738,50.781,110.352,0
1486223714.330,0.488,26.855,35.645,51.270,56.641,0
1486223714.334,91.309,26.367,36.133,49.805,-33.691,0
1486223714.337,101.562,25.879,35.645,57.129,21.973,0
1486223714.341,29.297,25.879,39.062,43.457,69.336,0
1486223714.345,-41.016,27.344,35.645,48.828,122.559,0
1486223714.349,-16.113,26.367,41.992,48.828,74.219,0
1486223714.353,83.496,32.715,53.223,51.270,-22.461,0
1486223714.357,116.211,37.109,33.203,71.289,44.434,0
1486223714.361,39.551,23.926,17.578,57.617,57.129,0
1486223714.365,-44.434,23.926,35.645,54.688,74.219,0
1486223714.369,-22.461,33.203,39.551,57.129,94.238,0
1486223714.373,80.566,29.297,39.551,57.617,-31.738,0
1486223714.376,114.258,24.902,36.133,70.312,20.020,0
1486223714.380,51.270,26.367,25.391,54.688,59.570,0
1486223714.384,-24.414,25.879,32.227,54.199,52.246,0
1486223714.388,-19.043,28.320,41.504,56.641,71.777,0
1486223714.392,69.336,27.832,37.598,48.340,-5.371,0
1486223714.396,122.070,36.621,46.875,73.242,-8.789,0
1486223714.400,67.383,32.227,41.992,69.336,25.879,0
1486223714.404,-26.855,26.367,21.484,58.105,80.078,0
1486223714.408,-32.715,31.738,38.086,59.082,87.402,0
1486223714.412,53.711,19.531,48.828,46.387,2.441,0
1486223714.416,114.746,20.020,43.945,60.059,13.184,0
1486223714.419,71.289,21.484,38.086,58.105,43.945,0
1486223714.423,-16.113,23.438,34.180,41.016,27.344,0
1486223714.427,-37.109,31.738,36.133,45.898,62.500,2
1486223714.431,38.574,29.785,37.109,50.781,3.906,0
1486223714.435,110.840,28.809,29.297,63.477,-22.461,0
1486223714.439,91.309,33.203,26.367,67.383,-9.766,0
1486223714.443,3.418,41.016,38.574,71.289,6.348,0
1486223714.447,-38.574,41.992,44.922,72.266,58.594,0
1486223714.451,31.250,26.855,45.410,52.246,33.691,0
1486223714.455,104.004,21.973,39.551,62.012,-0.977,0
1486223714.458,107.910,26.367,39.551,78.125,43.457,0
1486223714.462,30.762,29.297,47.363,73.730,96.680,0
1486223714.466,-35.156,29.785,46.387,74.707,116.699,0
1486223714.470,15.625,25.391,33.691,53.223,58.594,0
1486223714.474,94.727,21.973,27.344,50.293,11.230,0
1486223714.478,98.633,28.320,31.250,79.590,45.898,0
1486223714.482,27.344,36.621,31.738,67.871,59.570,0
1486223714.486,-43.945,31.250,38.086,52.246,83.496,0
1486223714.490,0.000,24.414,37.109,36.133,90.820,0
1486223714.494,103.027,34.668,41.992,54.199,36.621,0
1486223714.498,108.887,32.715,46.875,81.543,29.785,0
1486223714.501,27.344,23.926,34.668,55.176,54.199,0
1486223714.505,-43.457,25.879,30.762,42.969,84.961,0
1486223714.509,-7.324,27.344,34.668,45.898,45.898,0
1486223714.513,90.820,32.715,39.551,57.617,-23.438,0
1486223714.517,115.723,32.715,39.062,74.707,32.227,0
1486223714.521,56.152,30.762,40.039,63.477,52.734,0
1486223714.525,-20.508,35.645,39.551,53.223,95.703,0
1486223714.529,-11.719,32.715,47.363,58.105,122.559,0
1486223714.533,94.727,26.855,46.875,65.430,14.648,0
1486223714.537,140.625,25.879,38.574,78.613,-16.602,0
1486223714.541,62.500,28.320,36.621,74.219,56.641,0
1486223714.544,-32.715,33.203,41.992,69.824,103.516,0
1486223714.548,-32.227,26.367,38.574,63.477,90.332,0
1486223714.552,50.781,20.508,28.809,58.594,7.812,0
1486223714.556,93.262,23.926,38.086,72.754,46.875,0
1486223714.560,55.176,23.438,38.086,68.359,84.961,0
1486223714.564,-26.855,23.438,39.062,60.059,79.102,0
1486223714.568,-50.781,25.391,45.410,55.176,89.844,0
1486223714.572,42.480,26.367,49.316,56.641,-3.906,0
1486223714.576,104.980,29.785,49.805,72.266,-10.742,0
1486223714.580,67.383,29.297,45.898,69.824,22.461,0
1486223714.583,-22.461,19.531,33.203,60.059,66.895,0
1486223714.587,-45.898,20.996,29.297,45.898,104.492,0
1486223714.591,50.781,26.855,36.621,47.852,8.789,0
1486223714.595,103.516,30.273,31.738,82.031,-13.184,0
1486223714.599,77.637,26.855,35.645,85.938,30.762,0
1486223714.603,15.137,28.320,34.668,68.359,62.012,0
1486223714.607,-24.902,32.715,28.809,70.801,104.492,0
1486223714.611,45.898,28.809,34.180,67.383,38.574,0
1486223714.615,127.930,24.414,34.180,70.801,19.043,0
1486223714.619,119.629,29.297,49.805,75.684,72.266,0
1486223714.623,27.344,37.598,52.246,78.613,29.785,0
1486223714.626,-28.320,32.715,38.574,79.102,55.176,0
1486223714.630,41.016,24.902,29.297,59.570,46.875,0
1486223714.634,118.652,20.996,26.367,65.918,-8.789,0
1486223714.638,100.098,20.020,34.180,67.871,19.531,0
1486223714.642,29.297,28.320,37.109,58.594,47.363,0
1486223714.646,-42.969,30.762,36.621,58.594,77.148,0
1486223714.650,1.953,24.414,27.832,53.711,48.828,0
1486223714.654,109.375,29.785,38.574,76.660,1.953,0
1486223714.658,117.188,38.086,47.852,82.520,69.336,0
1486223714.662,34.180,28.320,36.621,60.059,91.309,0
1486223714.666,-38.086,20.996,25.879,45.410,81.543,0
1486223714.669,-5.859,23.438,23.438,42.480,92.285,0
1486223714.673,87.891,25.391,28.320,61.523,34.668,0
1486223714.677,109.375,26.855,34.668,74.707,27.344,0
1486223714.681,48.340,26.855,38.086,62.500,67.871,0
1486223714.685,-34.180,28.320,34.180,55.664,98.145,0
1486223714.689,-13.184,31.738,36.621,53.711,105.957,0
1486223714.693,87.402,29.785,40.527,58.105,21.973,0
1486223714.697,117.188,32.227,34.180,68.359,22.461,0
1486223714.701,54.199,31.250,32.715,68.359,41.016,0
1486223714.705,-17.578,36.621,48.340,74.219,76.660,0
1486223714.708,-6.836,40.527,55.664,75.684,101.562,0
1486223714.712,84.473,32.227,43.457,69.336,18.066,0
1486223714.716,124.023,31.738,32.227,80.078,40.527,0
1486223714.720,69.336,29.785,37.109,73.242,105.957,0
1486223714.724,-23.438,25.879,25.391,55.664,117.676,0
1486223714.728,-34.180,22.949,19.043,49.805,131.836,0
1486223714.732,62.012,26.855,33.203,53.223,56.152,0
1486223714.736,116.699,29.785,32.715,68.848,26.855,0
1486223714.740,67.871,23.438,31.738,64.941,62.988,0
1486223714.744,-20.996,28.809,32.227,54.199,68.359,0
1486223714.748,-37.598,34.668,32.715,57.617,86.914,0
1486223714.751,46.875,34.180,36.133,47.852,33.691,0
1486223714.755,107.910,36.621,36.621,57.617,2.441,0
1486223714.759,81.055,45.410,41.016,66.895,24.414,0
1486223714.763,-8.301,36.621,45.898,53.223,64.941,0
1486223714.767,-56.641,18.555,31.250,41.992,89.355,0
1486223714.771,22.461,19.531,26.855,41.016,1.465,0
1486223714.775,102.051,21.484,32.227,60.059,-3.906,0
1486223714.779,85.938,26.855,27.832,66.895,23.926,0
1486223714.783,-7.324,23.926,28.809,54.688,-0.977,0
1486223714.787,-62.500,25.879,35.645,45.898,72.266,0
1486223714.791,16.602,32.715,41.992,44.434,22.949,0
1486223714.794,101.562,27.344,45.898,59.082,-43.945,0
1486223714.798,84.961,25.879,38.574,65.918,9.766,0
1486223714.802,-1.465,24.414,35.156,55.176,31.738,0
1486223714.806,-51.270,24.902,42.969,60.547,66.895,0
1486223714.810,13.672,24.902,51.270,61.523,33.203,0
1486223714.814,96.680,27.832,39.062,70.312,-24.414,0
1486223714.818,97.168,31.738,39.062,78.125,4.395,0
1486223714.822,19.043,26.855,41.016,69.336,8.789,0
1486223714.826,-49.316,26.367,20.020,68.848,58.594,0
1486223714.830,-8.789,27.344,35.156,63.477,54.688,0
1486223714.833,83.008,24.902,44.922,62.012,-52.734,0
1486223714.837,110.840,28.320,46.387,74.707,9.766,0
1486223714.841,44.922,26.855,45.410,69.824,56.641,0
1486223714.845,-36.133,28.320,37.109,58.594,73.730,0
1486223714.849,-15.625,25.879,36.133,63.965,64.453,0
1486223714.853,75.684,24.902,38.574,65.918,-4.883,0
1486223714.857,112.305,37.598,45.898,76.172,31.738,0
1486223714.861,52.246,36.621,50.781,75.684,60.547,0
1486223714.865,-36.133,31.250,42.480,66.406,76.172,0
1486223714.869,-27.344,26.367,28.809,71.289,110.840,0
1486223714.873,72.754,17.090,21.484,68.359,37.598,0
1486223714.876,114.746,20.996,26.367,72.754,22.461,0
1486223714.880,71.289,30.762,37.109,73.730,58.594,0
1486223714.884,-7.812,29.785,42.969,72.266,78.613,0
1486223714.888,-21.973,28.809,41.016,63.477,64.453,0
1486223714.892,70.801,30.762,53.223,64.453,-1.465,0
1486223714.896,122.070,30.762,56.152,83.496,30.273,0
1486223714.900,80.078,32.227,43.457,80.566,60.547,0
1486223714.904,-14.648,26.367,34.180,70.801,95.703,0
1486223714.908,-36.621,29.785,34.180,69.824,119.141,0
1486223714.912,59.082,31.250,31.738,65.918,59.082,0
1486223714.915,118.164,34.668,24.414,74.707,53.223,0
1486223714.919,84.961,39.062,41.016,77.148,52.734,0
1486223714.923,-4.395,32.715,42.969,62.500,52.734,0
1486223714.927,-36.621,34.180,42.480,59.082,101.074,0
1486223714.931,46.387,32.715,36.621,52.734,38.574,0
1486223714.935,112.793,28.809,35.645,59.082,12.207,0
1486223714.939,85.938,33.691,48.828,64.453,56.641,1
1486223714.943,6.348,28.809,38.086,58.594,62.988,0
1486223714.947,-39.062,27.832,29.785,56.641,92.285,0
1486223714.951,37.598,35.156,37.109,58.105,51.270,0
1486223714.955,118.164,37.109,38.574,77.637,0.488,0
1486223714.958,98.633,30.762,39.551,78.613,29.297,0
1486223714.962,17.578,29.785,47.852,63.477,50.293,0
1486223714.966,-39.551,29.785,39.551,59.570,119.141,0
1486223714.970,17.578,23.438,23.438,51.758,90.820,0
1486223714.974,107.910,27.832,30.273,67.383,-23.438,0
1486223714.978,116.699,32.715,41.016,84.473,37.598,0
1486223714.982,36.621,24.902,46.875,70.801,69.824,0
1486223714.986,-38.574,25.879,41.016,57.129,90.332,0
1486223714.990,-0.488,28.809,26.855,44.434,87.891,0
1486223714.994,95.215,30.273,31.250,59.082,15.137,0
1486223714.998,119.141,31.250,36.621,73.242,59.082,0
1486223715.001,37.598,28.320,32.227,48.828,79.102,0
1486223715.005,-26.367,33.691,42.480,54.688,92.285,0
1486223715.009,5.859,31.738,32.227,64.453,73.730,0
1486223715.013,79.102,27.344,21.973,62.012,35.645,0
1486223715.017,106.934,23.926,41.992,67.871,36.621,0
1486223715.021,57.617,24.414,48.828,61.523,34.668,0
1486223715.025,-29.785,26.367,33.691,52.734,89.355,0
1486223715.029,-20.020,27.344,27.344,52.246,52.734,0
1486223715.033,88.379,29.785,37.109,58.594,-12.207,0
1486223715.037,119.141,29.785,34.668,66.406,47.852,0
1486223715.040,58.594,27.344,27.832,71.289,49.805,0
1486223715.044,-20.508,25.879,39.551,75.195,48.340,0
1486223715.048,-25.879,29.297,43.457,65.918,84.961,0
1486223715.052,69.336,28.320,43.945,62.988,-12.695,0
1486223715.056,117.188,23.438,41.016,73.242,-13.672,0
1486223715.060,70.801,28.809,38.574,71.777,40.527,0
1486223715.064,-15.137,34.668,36.621,63.965,27.344,0
1486223715.068,-28.320,30.273,37.109,60.059,53.223,0
1486223715.072,54.688,24.414,40.039,60.059,-4.883,0
1486223715.076,108.398,22.949,32.715,71.777,-12.695,0
1486223715.080,73.242,27.832,31.738,72.754,12.207,0
1486223715.083,-8.789,27.344,41.504,69.824,32.227,0
1486223715.087,-43.945,24.414,45.898,65.918,62.012,0
1486223715.091,32.227,29.785,43.457,53.711,-20.996,0
1486223715.095,125.000,34.180,49.316,84.961,-48.340,0
1486223715.099,106.934,33.691,53.223,94.238,21.973,0
1486223715.103,4.883,21.484,42.480,64.453,43.457,0
1486223715.107,-42.969,23.926,29.785,62.988,55.664,0
1486223715.111,33.691,30.273,34.668,58.594,23.438,0
1486223715.115,113.281,24.414,37.109,64.941,-15.137,0
1486223715.119,92.285,22.949,32.715,78.125,18.066,0
1486223715.123,1.953,25.879,37.598,63.965,39.551,0
1486223715.126,-45.898,33.691,39.551,62.988,70.312,0
1486223715.130,22.949,32.227,32.227,60.547,3.418,0
1486223715.134,108.887,30.762,36.621,62.988,-47.852,0
1486223715.138,105.469,40.527,53.223,75.684,61.035,0
1486223715.142,32.715,39.062,38.574,62.988,72.754,0
1486223715.146,-47.363,27.832,25.391,49.316,82.520,0
1486223715.150,-6.836,28.809,32.227,53.223,71.289,0
1486223715.154,101.562,31.738,45.898,69.336,8.789,0
1486223715.158,107.422,32.715,35.645,72.754,50.293,0
1486223715.162,29.297,31.738,27.344,68.359,95.215,0
1486223715.165,-31.738,23.438,35.156,62.012,125.000,0
1486223715.169,3.906,25.879,33.691,48.828,70.801,0
1486223715.173,87.402,34.668,41.992,62.012,-4.883,0
1486223715.177,106.934,35.156,37.598,77.148,41.016,0
1486223715.181,65.430,35.645,37.109,73.730,43.945,0
1486223715.185,-14.648,30.762,45.410,67.871,61.035,0
1486223715.189,-12.695,20.508,35.645,57.617,71.777,0
1486223715.193,89.355,21.973,31.250,64.941,-12.207,0
1486223715.197,126.953,28.320,49.805,83.008,33.691,0
1486223715.201,70.801,30.273,38.574,73.730,65.430,0
1486223715.205,-5.371,31.738,31.738,75.195,83.008,0
1486223715.208,-1.953,31.250,53.711,76.660,77.148,0
1486223715.212,73.242,30.273,40.039,68.848,-28.809,0
1486223715.216,113.770,29.297,27.832,79.590,15.625,0
1486223715.220,81.055,23.438,36.621,68.848,81.055,0
1486223715.224,-1.953,23.926,40.039,60.059,58.105,0
1486223715.228,-18.066,22.949,31.738,55.176,59.570,0
1486223715.232,69.336,26.855,28.809,57.129,4.883,0
1486223715.236,134.277,30.762,44.922,78.125,16.602,0
1486223715.240,99.609,29.785,43.945,70.312,48.828,0
1486223715.244,6.348,29.785,43.945,60.059,49.316,0
1486223715.248,-18.555,32.715,47.363,62.500,82.031,0
1486223715.251,52.734,28.809,29.297,51.270,30.273,0
1486223715.255,114.258,27.832,33.691,61.035,16.602,0
1486223715.259,93.750,36.621,54.199,75.195,72.754,0
1486223715.263,0.488,29.785,46.387,58.594,90.820,0
1486223715.267,-56.152,26.367,31.738,52.734,109.863,0
1486223715.271,23.926,28.809,36.133,53.223,46.387,0
1486223715.275,106.445,27.344,41.504,59.082,33.203,0
1486223715.279,80.566,28.809,37.598,59.570,47.363,0
1486223715.283,-4.395,27.344,41.016,48.828,41.016,0
1486223715.287,-52.246,30.762,44.922,52.734,57.617,0
1486223715.290,7.812,30.273,42.969,48.828,-2.441,0
1486223715.294,93.262,29.297,39.062,50.781,-38.086,0
1486223715.298,91.309,30.273,36.621,62.012,22.949,0
1486223715.302,16.113,35.156,41.504,64.941,35.645,0
1486223715.306,-43.945,33.691,46.387,64.453,75.195,0
1486223715.310,-5.371,20.020,33.203,44.434,44.922,0
1486223715.314,90.820,33.203,38.086,50.781,-46.875,0
1486223715.318,104.492,41.016,44.434,62.988,45.898,0
1486223715.322,24.414,23.438,34.180,47.852,59.570,0
1486223715.326,-43.945,24.902,31.738,54.199,73.730,0
1486223715.330,-8.301,36.133,41.504,55.176,41.992,0
1486223715.333,80.078,34.180,45.898,56.641,-46.387,0
1486223715.337,103.516,27.832,35.645,68.848,28.809,0
1486223715.341,38.086,29.297,26.367,54.199,46.875,0
1486223715.345,-37.109,30.762,29.297,46.875,57.129,0
1486223715.349,-10.742,33.203,32.715,57.617,63.477,0
1486223715.353,77.637,23.926,35.156,56.152,19.531,0
1486223715.357,104.004,24.414,41.016,71.289,48.828,0
1486223715.361,48.828,32.715,42.480,74.219,64.453,0
1486223715.365,-28.320,34.180,41.992,66.406,91.309,0
1486223715.369,-22.949,34.668,46.875,55.664,88.379,0
1486223715.372,70.801,28.320,52.246,49.805,21.484,0
1486223715.376,119.629,29.785,44.434,70.312,35.645,0
1486223715.380,62.500,29.297,34.180,79.102,76.172,0
1486223715.384,-19.043,30.762,36.133,68.359,103.516,0
1486223715.388,-27.344,32.715,38.574,61.523,99.121,0
1486223715.392,66.895,31.738,30.273,63.477,-0.488,0
1486223715.396,118.164,31.250,33.203,68.359,-14.160,0
1486223715.400,70.801,23.438,34.668,63.965,48.340,0
1486223715.404,-2.930,32.227,33.203,56.641,79.590,0
1486223715.408,-23.926,37.598,48.340,59.570,95.703,0
1486223715.412,58.105,35.156,46.875,62.500,8.301,0
1486223715.415,114.746,31.738,35.156,73.730,13.184,0
1486223715.419,84.961,26.855,40.527,78.125,75.195,0
1486223715.423,7.324,31.250,39.551,72.754,60.059,0
1486223715.427,-31.250,37.109,38.574,69.824,74.707,0
1486223715.431,46.387,36.621,36.621,65.918,28.809,0
1486223715.435,123.047,32.227,36.621,77.637,-27.344,0
1486223715.439,106.445,31.738,39.062,80.078,1.953,0
1486223715.443,17.578,34.668,40.527,67.871,35.156,0
1486223715.447,-40.039,33.691,39.062,63.477,85.449,0
1486223715.451,22.949,30.273,35.645,51.758,30.273,0
1486223715.455,102.051,29.785,38.574,62.500,5.371,0
1486223715.458,106.934,33.203,41.992,80.078,52.246,0
1486223715.462,32.715,28.320,35.156,62.500,55.664,0
1486223715.466,-41.504,25.391,33.203,64.941,97.656,1
1486223715.470,8.789,25.879,41.016,72.754,60.547,0
1486223715.474,101.074,27.344,48.828,69.336,-0.488,0
1486223715.478,114.258,26.855,48.340,72.266,37.598,0
1486223715.482,31.250,24.902,26.367,74.219,74.707,0
1486223715.486,-48.828,28.320,34.668,70.801,98.633,0
1486223715.490,0.488,21.973,51.270,59.570,51.270,0
1486223715.494,86.914,19.043,47.852,64.453,-23.438,0
1486223715.497,110.840,28.809,54.688,88.379,10.254,0
1486223715.501,45.410,29.297,44.922,82.031,17.090,0
1486223715.505,-38.574,24.902,32.715,68.359,52.246,0
1486223715.509,-14.160,28.320,39.062,62.988,57.617,0
1486223715.513,82.031,32.227,40.527,64.453,-6.348,0
1486223715.517,121.582,29.297,40.527,83.984,2.441,0
1486223715.521,63.477,24.414,45.898,76.660,28.320,0
1486223715.525,-22.461,27.832,39.551,62.988,45.898,0
1486223715.529,-17.090,27.832,29.297,63.477,51.270,0
1486223715.533,76.660,21.484,37.109,64.941,-7.324,0
1486223715.537,124.512,29.785,39.551,80.078,6.348,0
1486223715.540,76.660,31.250,29.785,76.172,74.219,0
1486223715.544,-15.137,32.715,43.457,72.266,102.051,0
1486223715.548,-23.438,41.504,51.758,62.012,100.586,0
1486223715.552,61.523,36.621,35.156,46.875,14.160,0
1486223715.556,104.004,22.461,30.273,65.918,26.367,0
1486223715.560,64.941,21.484,33.691,65.918,90.820,0
1486223715.564,-7.812,31.250,32.715,51.758,115.234,0
1486223715.568,-33.691,24.414,41.992,59.570,125.000,0
1486223715.572,34.668,19.531,37.109,57.617,54.199,0
1486223715.576,107.422,28.809,30.762,67.383,54.688,0
1486223715.580,93.262,33.691,46.875,78.613,66.406,0
1486223715.583,0.000,26.855,45.410,71.289,52.246,0
1486223715.587,-38.574,22.461,35.156,65.918,119.141,0
1486223715.591,41.504,23.926,39.062,55.664,24.902,0
1486223715.595,111.816,26.367,34.668,64.941,-7.324,0
1486223715.599,98.633,33.691,42.480,76.660,51.758,0
1486223715.603,13.184,29.297,44.922,69.336,43.945,0
1486223715.607,-50.293,28.320,40.527,59.082,123.047,0
1486223715.611,14.160,23.438,35.645,52.734,81.055,0
1486223715.615,95.703,16.113,19.531,48.340,18.555,0
1486223715.619,85.938,24.414,35.156,52.246,83.008,0
1486223715.622,10.742,27.344,50.293,59.570,75.684,0
1486223715.626,-58.105,22.949,41.504,49.805,111.816,0
1486223715.630,-1.465,31.738,32.715,41.992,95.703,0
1486223715.634,97.168,29.785,35.645,61.523,13.672,0
1486223715.638,98.633,22.949,35.156,66.895,49.316,0
1486223715.642,33.203,31.250,35.156,54.688,45.898,0
1486223715.646,-21.973,37.109,47.852,63.965,67.383,0
1486223715.650,-1.465,34.180,34.180,53.223,48.340,0
1486223715.654,84.473,27.344,24.902,52.246,3.418,0
1486223715.658,109.375,30.762,29.297,69.824,61.035,0
1486223715.662,43.945,34.668,32.715,62.500,54.688,0
1486223715.665,-31.738,40.527,46.387,66.895,74.707,0
1486223715.669,-20.020,30.273,33.691,55.664,64.453,0
1486223715.673,78.613,22.461,24.902,55.664,14.160,0
1486223715.677,110.840,30.273,38.086,77.148,34.668,0
1486223715.681,55.664,25.879,38.086,62.500,62.500,0
1486223715.685,-20.996,27.832,31.738,51.270,93.262,0
1486223715.689,-11.230,38.086,41.504,60.547,86.914,0
1486223715.693,78.125,30.273,41.992,61.523,-1.465,0
1486223715.697,120.605,27.832,26.367,71.777,-14.160,0
1486223715.701,73.730,34.668,32.227,69.336,-7.324,0
1486223715.704,-11.719,36.621,44.434,59.570,36.621,0
1486223715.708,-24.902,39.062,45.410,62.012,79.102,0
1486223715.712,65.918,29.785,38.086,69.336,-15.137,0
1486223715.716,125.000,26.855,27.344,81.543,-28.809,0
1486223715.720,69.824,28.809,30.762,66.406,15.137,0
1486223715.724,-17.578,24.902,48.340,57.617,48.828,0
1486223715.728,-28.809,26.855,47.363,55.664,51.270,0
1486223715.732,47.852,27.344,35.645,52.734,5.859,0
1486223715.736,107.422,26.367,27.832,66.406,8.301,0
1486223715.740,84.961,29.297,35.645,72.266,40.039,0
1486223715.744,8.789,32.715,52.246,76.172,76.172,0
1486223715.747,-16.602,38.574,58.594,76.172,97.656,0
1486223715.751,49.805,35.645,43.945,58.105,31.738,0
1486223715.755,113.281,24.414,11.719,59.082,5.859,0
1486223715.759,97.168,20.508,20.508,70.312,55.664,0
1486223715.763,15.137,28.809,41.016,69.336,34.180,0
1486223715.767,-34.180,30.762,40.527,59.570,43.945,0
1486223715.771,26.367,24.902,34.668,56.641,87.402,0
1486223715.775,114.746,27.832,41.016,72.754,55.176,0
1486223715.779,110.840,27.344,50.293,74.707,40.527,0
1486223715.783,25.391,32.227,41.016,69.336,29.785,0
1486223715.787,-35.645,42.480,45.898,73.242,79.102,0
1486223715.790,26.367,34.180,49.316,70.312,30.273,0
1486223715.794,104.004,21.484,32.227,68.359,-22.461,0
1486223715.798,105.957,24.414,22.949,68.359,49.805,0
1486223715.802,31.738,26.367,32.227,54.688,34.668,0
1486223715.806,-36.621,24.414,41.504,62.988,46.387,0
1486223715.810,6.836,31.250,40.039,68.359,52.246,0
1486223715.814,97.168,28.809,34.668,60.547,-14.648,0
1486223715.818,112.793,26.367,49.316,80.566,20.508,0
1486223715.822,43.945,36.133,55.664,78.613,49.805,0
1486223715.826,-30.273,33.691,43.457,63.477,51.758,0
1486223715.829,-10.742,32.227,39.551,62.500,23.438,0
1486223715.833,83.984,35.156,50.781,65.918,-65.430,0
1486223715.837,105.957,24.902,41.016,71.289,-25.391,0
1486223715.841,53.711,25.391,22.461,61.035,31.738,0
1486223715.845,-18.555,31.738,35.645,54.199,61.523,0
1486223715.849,-34.668,26.855,39.062,46.875,93.262,0
1486223715.853,59.082,25.879,42.969,47.852,26.367,0
1486223715.857,113.770,31.250,48.828,61.035,-0.488,0
1486223715.861,56.641,34.668,38.574,60.059,61.035,0
1486223715.865,-40.039,38.574,41.992,60.547,102.051,0
1486223715.869,-45.898,32.715,35.156,48.828,90.820,0
1486223715.872,67.871,26.855,29.785,38.086,11.230,0
1486223715.876,118.164,26.367,42.969,61.035,27.344,0
1486223715.880,71.777,25.391,40.039,64.941,69.336,0
1486223715.884,-11.230,31.250,35.645,50.781,85.938,0
1486223715.888,-36.133,28.320,34.668,46.875,136.230,0
1486223715.892,55.176,27.832,38.086,52.246,72.754,0
1486223715.896,127.930,30.762,50.781,69.336,40.527,0
1486223715.900,84.961,26.367,42.480,66.406,71.777,0
1486223715.904,-12.695,30.762,34.180,57.129,91.309,0
1486223715.908,-44.922,32.227,33.691,55.664,97.168,0
1486223715.912,39.551,26.367,27.344,46.875,27.344,0
1486223715.915,116.211,34.180,31.738,62.500,3.418,0
1486223715.919,85.449,31.250,40.039,69.336,65.918,0
1486223715.923,12.207,28.320,50.781,58.594,83.496,0
1486223715.927,-35.156,27.344,48.340,58.105,97.656,0
1486223715.931,22.461,22.949,36.621,47.852,15.625,0
1486223715.935,102.051,27.832,35.156,59.570,-15.625,0
1486223715.939,95.703,24.902,31.250,74.707,33.203,0
1486223715.943,37.598,28.320,34.180,67.383,70.312,0
1486223715.947,-28.320,38.574,35.156,53.223,122.559,0
1486223715.951,22.949,30.273,30.273,40.527,74.707,0
1486223715.954,113.770,18.066,29.297,54.199,14.160,0
1486223715.958,109.863,23.926,32.227,64.941,46.387,0
1486223715.962,40.527,28.809,31.738,66.406,95.215,0
1486223715.966,-32.227,21.973,27.832,70.801,145.508,0
1486223715.970,1.465,26.855,39.551,54.688,102.539,0
1486223715.974,103.027,29.297,51.758,61.035,4.883,0
1486223715.978,113.770,33.203,41.504,82.520,24.414,0
1486223715.982,33.203,40.527,27.832,61.523,90.332,0
1486223715.986,-38.574,36.133,33.203,56.152,143.555,1
1486223715.990,-10.742,26.855,37.109,55.176,129.883,0
1486223715.994,70.801,19.531,35.645,53.223,63.477,0
1486223715.997,93.750,22.949,32.715,63.965,65.430,0
1486223716.001,42.969,24.902,32.715,60.547,78.613,0
1486223716.005,-34.180,23.438,32.715,61.523,115.723,0
1486223716.009,-26.855,29.785,31.738,54.688,115.723,0
1486223716.013,71.289,32.227,33.691,52.246,9.766,0
1486223716.017,116.211,28.809,40.039,71.289,25.879,0
1486223716.021,50.293,22.949,37.598,63.965,55.664,0
1486223716.025,-33.203,32.227,33.203,55.664,69.824,0
1486223716.029,-25.391,38.086,41.992,65.918,140.137,0
1486223716.033,57.129,24.414,33.691,55.664,49.316,0
1486223716.037,98.145,20.996,23.438,53.711,-3.906,0
1486223716.040,68.359,27.832,26.855,56.641,28.809,0
1486223716.044,-9.277,29.297,30.273,60.059,46.875,0
1486223716.048,-38.574,20.996,30.273,62.012,65.918,0
1486223716.052,51.270,21.484,43.945,56.641,22.461,0
1486223716.056,124.023,23.438,42.480,67.871,22.461,0
1486223716.060,80.566,27.832,29.297,66.406,51.758,0
1486223716.064,-13.672,34.180,28.809,61.035,73.242,0
1486223716.068,-40.039,39.062,33.691,53.711,57.129,0
1486223716.072,45.898,39.062,39.551,57.129,-36.133,0
1486223716.076,116.699,28.809,45.410,67.383,-30.762,0
1486223716.079,90.820,26.855,39.062,70.312,35.645,0
1486223716.083,3.906,30.273,34.180,67.383,60.547,0
1486223716.087,-56.641,27.344,33.691,51.758,64.941,0
1486223716.091,28.809,25.879,43.457,54.199,17.578,0
1486223716.095,112.793,24.902,33.691,67.383,-4.395,0
1486223716.099,83.008,24.902,30.273,75.195,55.664,0
1486223716.103,9.766,30.762,40.527,59.570,80.566,0
1486223716.107,-41.016,28.320,32.227,56.152,100.586,0
1486223716.111,16.602,30.762,34.668,57.129,61.035,0
1486223716.115,105.469,33.691,40.039,60.547,1.465,0
1486223716.119,105.957,27.832,32.715,71.289,43.457,0
1486223716.122,26.367,25.391,32.227,58.105,32.715,0
1486223716.126,-33.203,31.250,36.133,61.523,52.246,0
1486223716.130,18.066,33.203,53.223,74.707,54.199,0
1486223716.134,101.074,30.273,57.129,77.148,22.461,0
1486223716.138,114.746,29.785,39.551,82.031,11.719,0
1486223716.142,51.270,27.832,44.434,80.078,4.395,0
1486223716.146,-36.621,29.785,47.852,70.801,66.406,0
1486223716.150,-12.207,32.227,42.480,57.617,70.312,0
1486223716.154,93.750,30.762,33.691,64.453,20.020,0
1486223716.158,119.629,29.785,35.156,79.590,40.039,0
1486223716.161,59.570,25.391,44.922,77.637,19.531,0
1486223716.165,-15.625,36.133,53.711,74.219,65.918,0
1486223716.169,-13.184,36.621,40.039,60.547,93.750,0
1486223716.173,82.031,23.438,24.414,59.082,5.859,0
1486223716.177,125.488,31.250,35.645,79.590,30.762,0
1486223716.181,70.801,34.180,42.969,77.148,65.430,0
1486223716.185,-9.766,29.297,38.574,65.430,58.594,0
1486223716.189,-20.020,27.832,39.551,64.453,73.242,0
1486223716.193,59.570,22.949,43.457,64.453,-13.184,0
1486223716.197,112.793,22.949,32.227,71.777,-14.160,0
1486223716.201,63.965,28.320,32.715,68.848,59.082,0
1486223716.204,-10.254,40.527,54.688,72.266,69.336,0
1486223716.208,-15.137,37.598,44.434,65.430,76.172,0
1486223716.212,54.688,25.391,34.180,53.223,-12.695,0
1486223716.216,108.887,33.203,37.598,71.777,-8.301,0
1486223716.220,82.520,25.391,29.297,74.219,68.359,0
1486223716.224,-1.953,20.996,26.855,73.242,61.035,0
1486223716.228,-25.391,38.574,34.180,76.172,82.031,0
1486223716.232,63.477,35.156,44.922,67.383,33.203,0
1486223716.236,122.559,25.391,46.875,77.637,-3.906,0
1486223716.240,87.891,28.320,41.992,74.219,38.574,0
1486223716.244,17.090,35.156,46.387,71.289,50.293,0
1486223716.247,-21.973,33.691,57.129,79.590,74.219,0
1486223716.251,41.016,35.645,46.875,65.430,7.812,0
1486223716.255,120.117,44.434,38.086,78.125,-23.926,0
1486223716.259,107.910,36.133,44.922,96.191,15.625,0
1486223716.263,26.367,27.832,34.180,73.242,22.949,0
1486223716.267,-30.762,30.273,30.762,62.500,78.125,0
1486223716.271,28.320,36.133,40.527,66.895,57.129,0
1486223716.275,115.723,31.738,36.621,70.312,-2.441,0
1486223716.279,112.793,25.391,38.574,78.125,56.152,0
1486223716.283,40.527,27.832,50.293,74.219,81.543,0
1486223716.286,-29.297,33.203,43.457,63.965,81.543,0
1486223716.290,10.254,36.621,31.250,55.664,74.707,0
1486223716.294,99.121,36.621,39.062,60.059,10.742,0
1486223716.298,110.352,28.320,39.062,56.641,21.973,0
1486223716.302,49.805,22.949,41.992,59.082,29.785,0
1486223716.306,-28.809,32.715,53.711,68.359,100.098,0
1486223716.310,-8.789,26.367,50.781,55.664,99.609,0
1486223716.314,89.355,18.066,36.133,52.734,34.180,0
1486223716.318,100.098,22.461,24.414,62.012,84.473,0
1486223716.322,26.367,25.391,30.273,55.664,92.285,0
1486223716.326,-36.621,27.344,42.969,53.223,103.027,0
1486223716.329,-16.602,24.902,41.504,53.223,90.332,0
1486223716.333,71.777,21.484,32.227,57.617,-5.371,0
1486223716.337,110.352,29.297,38.574,72.754,12.207,0
1486223716.341,60.547,29.297,43.457,61.035,87.402,0
1486223716.345,-30.273,22.949,38.086,46.875,113.770,0
1486223716.349,-37.598,23.438,38.086,42.480,78.125,0
1486223716.353,60.059,22.461,37.598,39.062,0.000,0
1486223716.357,114.746,22.461,35.156,57.617,1.465,0
1486223716.361,58.594,26.367,41.016,62.500,57.129,0
1486223716.365,-35.156,23.438,49.805,65.918,79.590,0
1486223716.369,-31.738,27.344,47.363,61.523,85.938,0
1486223716.372,57.129,24.902,29.785,49.805,51.758,0
1486223716.376,103.516,23.438,26.367,65.430,23.926,0
1486223716.380,67.871,30.273,39.062,64.453,62.012,0
1486223716.384,1.465,35.156,49.805,62.500,91.797,0
1486223716.388,-28.320,29.785,38.574,57.129,102.539,0
1486223716.392,41.016,22.949,31.250,41.016,43.457,0
1486223716.396,107.910,27.832,30.273,61.035,38.086,0
1486223716.400,93.262,36.133,37.598,80.078,69.336,0
1486223716.404,7.324,33.691,52.246,68.848,53.711,0
1486223716.408,-46.387,23.926,43.945,53.711,62.012,0
1486223716.411,24.414,24.902,32.227,47.363,21.484,0
1486223716.415,98.145,27.344,32.715,54.199,29.785,0
1486223716.419,89.355,30.762,36.621,64.941,64.453,0
1486223716.423,7.324,35.156,38.574,57.129,51.758,0
1486223716.427,-51.758,31.250,41.504,51.758,73.730,0
1486223716.431,15.137,35.156,43.945,56.152,43.945,0
1486223716.435,96.680,31.250,34.180,68.359,-28.809,0
1486223716.439,96.680,28.320,26.367,77.148,24.902,0
1486223716.443,33.203,33.203,47.363,64.941,58.105,0
1486223716.447,-39.062,30.273,54.688,57.617,68.359,0
1486223716.451,8.789,27.832,40.527,55.176,40.527,0
1486223716.454,97.168,28.809,31.738,60.059,-0.488,0
1486223716.458,104.492,32.227,30.762,64.453,29.785,0
1486223716.462,44.922,35.156,39.551,62.012,35.645,0
1486223716.466,-27.344,30.273,40.039,64.941,77.148,0
1486223716.470,-3.418,30.273,41.504,61.523,87.891,0
1486223716.474,99.609,38.574,44.434,69.336,-10.254,0
1486223716.478,126.953,37.598,33.691,73.730,15.625,0
1486223716.482,59.570,38.574,36.133,68.359,61.035,0
1486223716.486,-19.531,33.691,47.852,71.289,68.848,0
1486223716.490,-7.324,26.855,37.598,58.594,41.992,0
1486223716.494,81.055,21.973,23.926,51.758,-27.344,0
1486223716.497,108.398,26.367,31.250,68.848,10.254,0
1486223716.501,52.246,33.203,33.691,63.477,9.277,0
1486223716.505,-24.902,29.297,39.062,65.918,48.828,0
1486223716.509,-20.996,25.391,41.992,64.453,90.820,0
1486223716.513,67.383,24.902,32.715,55.176,6.836,0
1486223716.517,119.629,32.227,44.922,78.613,-15.625,0
1486223716.521,77.148,41.992,56.641,76.172,12.207,0
1486223716.525,-6.836,35.645,48.828,62.012,36.133,0
1486223716.529,-24.902,27.832,41.016,54.688,27.832,1
1486223716.533,57.617,30.762,29.297,44.922,-24.414,0
1486223716.536,101.074,27.344,31.250,60.547,7.324,0
1486223716.540,57.129,22.461,33.203,57.617,15.625,0
1486223716.544,-16.602,25.879,32.227,47.852,24.902,0
1486223716.548,-35.156,30.273,28.320,41.504,57.129,0
1486223716.552,46.875,29.297,28.320,43.457,-8.301,0
1486223716.556,104.492,30.762,41.504,62.500,-39.551,0
1486223716.560,79.590,28.320,41.992,65.918,-13.184,0
1486223716.564,6.348,34.668,46.875,66.895,29.785,0
1486223716.568,-42.480,30.762,47.363,62.500,52.246,0
1486223716.572,29.785,25.879,31.738,44.434,17.578,0
1486223716.576,108.398,36.133,42.969,57.617,-12.207,0
1486223716.579,82.520,25.879,50.781,66.895,19.531,0
1486223716.583,0.977,20.020,31.738,51.270,35.645,0
1486223716.587,-50.293,23.438,22.949,49.316,57.129,0
1486223716.591,13.184,23.926,31.250,43.457,37.598,0
1486223716.595,98.633,23.926,31.738,48.828,-25.879,0
1486223716.599,93.750,27.344,32.227,68.848,12.207,0
1486223716.603,9.766,22.949,41.016,56.641,34.668,0
1486223716.607,-46.387,29.785,42.480,54.688,48.340,0
1486223716.611,10.254,38.574,42.969,62.500,64.453,0
1486223716.615,102.539,32.715,55.176,61.035,25.879,0
1486223716.618,112.305,31.250,47.852,69.336,45.410,0
1486223716.622,34.668,30.762,40.527,65.430,35.156,0
1486223716.626,-30.762,30.273,45.898,58.594,76.660,0
1486223716.630,-1.465,22.949,43.457,60.059,78.613,0
1486223716.634,90.332,20.996,33.691,58.594,9.766,0
1486223716.638,112.305,24.414,30.762,59.082,34.180,0
1486223716.642,43.457,28.809,40.039,55.176,22.949,0
1486223716.646,-26.855,37.598,45.898,60.059,64.941,0
1486223716.650,-15.625,32.715,38.574,44.434,97.656,0
1486223716.654,72.266,22.461,28.320,45.410,-10.742,0
1486223716.658,107.422,29.785,41.504,77.637,26.855,0
1486223716.661,46.875,26.367,47.363,76.660,104.004,0
1486223716.665,-23.438,20.508,31.738,55.664,104.492,0
1486223716.669,-17.090,27.344,43.457,50.781,66.406,0
1486223716.673,74.219,31.738,51.270,58.594,3.418,0
1486223716.677,125.488,34.180,33.203,71.289,4.395,0
1486223716.681,88.379,30.273,37.598,70.312,60.547,0
1486223716.685,5.371,28.320,40.039,62.012,70.801,0
1486223716.689,-10.742,33.691,26.855,60.547,78.125,0
1486223716.693,77.637,35.645,34.180,55.664,24.414,0
1486223716.697,127.441,29.785,39.551,68.359,5.859,0
1486223716.701,73.242,25.879,33.691,66.406,44.922,0
1486223716.704,-13.184,34.668,39.551,54.688,58.105,0
1486223716.708,-26.367,29.297,48.828,60.059,57.129,0
1486223716.712,44.434,19.043,32.715,57.129,6.348,0
1486223716.716,115.723,32.227,42.480,79.102,4.883,0
1486223716.720,97.168,34.668,64.941,83.496,7.324,0
1486223716.724,0.977,27.832,44.434,65.430,27.832,0
1486223716.728,-36.621,24.414,30.762,56.641,63.477,0
1486223716.732,35.156,26.367,38.086,49.805,-22.949,0
1486223716.736,100.098,27.832,40.039,64.941,-20.020,0
1486223716.740,91.797,30.762,42.969,69.336,26.855,0
1486223716.743,17.578,31.738,41.992,57.617,47.852,0
1486223716.747,-38.574,26.855,38.574,47.363,86.426,0
1486223716.751,30.762,28.320,41.992,58.594,41.504,0
1486223716.755,112.305,30.762,40.039,71.289,16.602,0
1486223716.759,101.562,28.320,38.086,71.777,46.875,0
1486223716.763,15.137,27.832,40.039,61.523,65.430,0
1486223716.767,-33.203,29.297,50.781,69.824,90.820,0
1486223716.771,35.156,35.156,53.711,77.148,64.941,0
1486223716.775,105.957,38.574,39.062,75.684,12.695,0
1486223716.779,111.328,39.062,40.039,85.449,30.273,0
1486223716.783,55.176,33.691,44.434,75.684,60.059,0
1486223716.786,-13.184,31.738,37.109,72.266,99.121,0
1486223716.790,14.160,26.855,39.062,59.082,89.844,0
1486223716.794,102.539,27.832,53.711,62.500,15.625,0
1486223716.798,120.117,29.297,44.922,94.238,52.734,0
1486223716.802,53.223,33.203,24.414,85.449,53.223,0
1486223716.806,-22.949,31.250,24.902,52.246,66.895,0
1486223716.810,-6.348,25.879,35.156,48.828,65.918,0
1486223716.814,82.031,31.250,41.992,60.547,-35.645,0
1486223716.818,123.535,36.133,55.664,78.613,21.973,0
1486223716.822,52.734,32.715,53.711,83.008,43.945,0
1486223716.826,-39.062,32.227,34.180,73.730,52.246,0
1486223716.829,-19.043,33.203,37.598,64.453,93.262,0
1486223716.833,83.496,28.320,59.570,67.383,36.133,0
1486223716.837,120.605,23.926,52.734,73.730,-14.160,0
1486223716.841,63.477,26.367,33.691,66.895,15.137,0
1486223716.845,-20.020,30.762,31.250,62.500,68.848,0
1486223716.849,-21.484,31.738,38.574,56.152,55.176,0
1486223716.853,79.102,31.250,46.875,59.570,22.461,0
1486223716.857,113.770,24.902,32.715,71.289,37.598,0
1486223716.861,64.941,28.320,31.250,65.918,39.551,0
1486223716.865,-8.789,38.574,43.945,65.918,62.012,0
1486223716.868,-24.902,35.645,37.109,69.824,104.492,0
1486223716.872,58.105,29.785,36.621,62.012,44.434,0
1486223716.876,126.953,31.738,59.570,68.848,12.695,0
1486223716.880,93.750,39.062,53.223,70.312,56.641,0
1486223716.884,-0.488,34.668,39.062,61.523,83.008,0
1486223716.888,-39.062,21.484,37.598,60.547,65.430,0
1486223716.892,38.086,27.832,30.273,59.570,-13.672,0
1486223716.896,112.793,33.691,30.762,68.359,-25.879,0
1486223716.900,90.332,29.785,36.133,71.777,20.996,0
1486223716.904,13.672,32.227,37.109,67.871,68.359,0
1486223716.908,-41.016,37.598,46.387,65.430,95.215,0
1486223716.911,33.203,38.086,51.270,62.988,39.062,0
1486223716.915,113.281,30.273,43.945,74.707,2.930,0
1486223716.919,98.145,27.344,39.062,71.289,55.176,0
1486223716.923,10.742,28.320,36.621,51.270,81.055,0
1486223716.927,-59.570,23.926,41.992,51.758,104.980,0
1486223716.931,-4.883,28.320,30.762,44.922,71.777,0
1486223716.935,93.750,32.715,28.320,56.641,34.180,0
1486223716.939,100.586,27.832,40.039,74.219,44.922,0
1486223716.943,29.297,31.250,47.852,75.195,39.062,0
1486223716.947,-38.086,32.227,56.641,67.871,91.797,0
1486223716.951,6.836,34.668,53.711,58.105,55.664,0
1486223716.954,94.238,32.227,36.133,62.012,17.578,0
1486223716.958,102.539,22.461,35.156,64.453,64.453,0
1486223716.962,42.480,27.832,39.062,59.570,67.383,0
1486223716.966,-33.203,33.203,32.715,62.012,94.727,0
1486223716.970,-7.812,34.668,39.551,57.617,94.238,0
1486223716.974,81.543,31.250,38.086,59.082,26.367,0
1486223716.978,120.117,29.785,35.156,76.172,26.855,0
1486223716.982,70.801,39.551,58.594,79.102,45.410,0
1486223716.986,-28.809,31.250,53.223,56.641,92.773,0
1486223716.990,-27.832,20.020,32.715,43.457,105.469,0
1486223716.993,72.266,28.320,39.062,53.223,-3.418,0
1486223716.997,110.840,29.297,45.410,68.359,14.648,0
1486223717.001,59.570,29.297,28.809,71.777,67.871,0
1486223717.005,-21.484,37.598,28.320,70.801,59.082,0
1486223717.009,-17.578,33.691,39.551,62.988,64.453,0
1486223717.013,77.148,25.879,38.086,57.129,-5.859,0
1486223717.017,121.582,26.855,49.316,71.289,-25.391,0
1486223717.021,78.125,32.227,39.551,74.219,0.488,0
1486223717.025,2.930,32.227,41.992,67.871,42.969,0
1486223717.029,-24.902,28.809,49.805,63.477,119.629,0
1486223717.033,61.523,36.621,44.434,62.012,44.922,0
1486223717.036,115.234,36.621,34.668,65.918,5.371,0
1486223717.040,62.988,36.621,20.508,64.941,45.898,0
1486223717.044,-7.812,37.598,29.785,65.430,64.941,0
1486223717.048,-35.645,25.391,39.062,59.570,81.055,0
1486223717.052,37.598,21.973,37.598,46.387,24.902,0
1486223717.056,106.445,21.973,31.738,60.059,-1.465,0
1486223717.060,89.844,25.391,49.805,75.684,32.227,0
1486223717.064,0.977,30.762,56.641,70.312,56.641,0
1486223717.068,-45.410,24.902,37.598,53.223,103.027,0
1486223717.072,19.531,23.438,36.133,47.363,52.246,0
1486223717.075,95.215,29.785,35.645,67.871,-5.371,0
1486223717.079,104.492,34.180,43.457,70.312,36.621,0
1486223717.083,26.855,31.738,50.781,59.082,35.645,0
1486223717.087,-29.785,30.762,50.781,66.895,83.984,0
1486223717.091,24.414,28.809,39.551,58.105,34.668,0
1486223717.095,102.539,29.297,33.203,58.594,-29.785,0
1486223717.099,109.863,34.668,45.410,80.566,42.969,0
1486223717.103,42.969,33.691,49.316,73.730,47.363,0
1486223717.107,-31.250,27.832,39.551,59.082,80.078,0
1486223717.111,4.883,20.996,40.527,61.035,55.176,0
1486223717.115,100.586,22.949,41.504,64.941,-20.508,0
1486223717.118,110.840,37.598,43.457,69.336,14.648,0
1486223717.122,43.945,39.551,48.828,74.219,43.945,0
1486223717.126,-31.250,27.832,35.645,73.730,71.289,0
1486223717.130,-6.836,32.227,34.180,62.012,76.660,0
1486223717.134,91.309,35.645,49.805,70.801,25.879,0
1486223717.138,106.934,22.461,48.828,79.590,45.898,0
1486223717.142,36.621,20.508,46.875,58.594,57.129,0
1486223717.146,-26.855,33.203,48.340,57.617,96.680,0
1486223717.150,-9.766,33.203,42.969,56.641,95.215,0
1486223717.154,77.148,25.391,44.434,55.664,5.371,0
1486223717.158,105.469,30.273,35.156,66.895,54.199,0
1486223717.161,50.781,33.691,38.086,64.941,73.730,0
1486223717.165,-28.320,30.762,48.828,63.477,67.871,1
1486223717.169,-33.203,29.297,38.086,57.129,92.773,0
1486223717.173,66.895,20.996,32.715,56.641,31.250,0
1486223717.177,115.723,20.508,44.922,77.637,20.020,0
1486223717.181,78.125,30.762,42.480,73.242,41.992,0
1486223717.185,-3.906,31.738,32.227,65.430,54.688,0
1486223717.189,-29.785,34.668,33.691,59.570,83.984,0
1486223717.193,50.293,29.297,40.039,52.734,29.297,0
1486223717.197,112.305,30.762,39.551,75.195,27.344,0
1486223717.200,77.148,38.086,34.668,69.824,37.598,0
1486223717.204,-20.020,30.762,32.715,45.898,24.414,0
1486223717.208,-49.316,24.414,32.715,51.270,75.195,0
1486223717.212,33.691,25.879,38.574,50.781,31.250,0
1486223717.216,105.957,28.809,48.340,60.547,-20.996,0
1486223717.220,83.496,33.203,45.410,70.312,16.602,0
1486223717.224,3.906,35.645,40.527,62.500,69.336,0
1486223717.228,-40.527,35.645,46.387,46.387,92.773,0
1486223717.232,25.879,34.180,45.898,41.504,7.324,0
1486223717.236,97.168,26.855,30.762,54.199,5.859,0
1486223717.240,92.285,23.438,21.973,52.246,62.012,0
1486223717.243,15.137,28.809,25.391,47.852,42.969,0
1486223717.247,-41.504,39.062,48.828,56.152,88.867,0
1486223717.251,27.344,38.574,53.223,49.316,75.684,0
1486223717.255,103.516,30.762,29.297,57.617,14.160,0
1486223717.259,96.680,30.273,33.691,68.848,48.340,0
1486223717.263,27.344,30.273,39.551,59.570,80.566,0
1486223717.267,-35.645,30.762,35.156,58.105,108.398,0
1486223717.271,1.465,26.367,33.203,51.270,89.355,0
1486223717.275,104.492,31.250,43.945,62.012,21.973,0
1486223717.279,119.141,38.086,52.246,82.031,25.391,0
1486223717.283,26.367,30.762,44.922,71.289,50.293,0
1486223717.286,-36.133,32.227,48.828,58.105,82.031,0
1486223717.290,17.578,38.086,55.176,59.570,47.852,0
1486223717.294,102.539,29.297,38.574,64.941,19.043,0
1486223717.298,119.629,25.391,25.879,69.336,71.777,0
1486223717.302,56.152,39.062,34.668,71.777,41.504,0
1486223717.306,-19.531,36.133,36.621,66.406,74.219,0
1486223717.310,-7.812,20.508,30.762,49.316,107.422,0
1486223717.314,87.402,31.250,40.039,61.035,18.555,0
1486223717.318,131.348,39.551,58.594,82.520,67.871,0
1486223717.322,64.941,24.414,44.434,64.941,98.633,0
1486223717.325,-17.090,28.809,38.086,68.848,96.680,0
1486223717.329,-13.184,32.227,49.805,68.359,81.055,0
1486223717.333,63.477,31.250,36.133,54.688,14.160,0
1486223717.337,104.004,31.250,24.902,64.453,11.230,0
1486223717.341,55.664,23.438,32.715,60.547,36.621,0
1486223717.345,-24.414,30.762,41.016,59.570,79.590,0
1486223717.349,-21.973,36.133,50.293,62.988,48.340,0
1486223717.353,67.871,40.039,55.664,67.383,-24.414,0
1486223717.357,114.746,27.344,41.016,69.336,11.719,0
1486223717.361,87.891,25.879,44.922,69.336,21.973,0
1486223717.365,3.418,41.016,48.340,65.918,61.035,0
1486223717.368,-29.785,27.344,27.344,53.223,107.910,0
1486223717.372,55.176,23.438,23.926,56.641,37.598,0
1486223717.376,115.723,27.832,22.949,66.406,23.926,0
1486223717.380,93.750,30.762,33.203,68.848,51.758,0
1486223717.384,28.320,37.598,53.223,68.359,77.148,0
1486223717.388,-23.438,30.273,43.945,60.059,101.562,0
1486223717.392,31.250,27.344,36.621,52.734,15.625,0
1486223717.396,120.605,26.855,51.270,69.824,6.348,0
1486223717.400,114.258,31.250,48.340,75.195,83.008,0
1486223717.404,25.391,37.598,37.598,68.359,72.754,0
1486223717.407,-25.879,29.785,34.668,68.359,128.418,0
1486223717.411,37.598,21.973,35.645,65.918,97.168,0
1486223717.415,94.727,19.531,35.156,66.895,14.648,0
1486223717.419,95.215,25.879,32.715,77.148,51.270,0
1486223717.423,40.527,29.297,40.527,74.219,43.945,0
1486223717.427,-25.879,29.785,43.945,66.895,53.711,0
1486223717.431,23.438,34.668,45.410,62.988,35.156,0
1486223717.435,114.258,26.367,41.016,62.500,-13.672,0
1486223717.439,122.070,20.996,31.738,68.848,23.926,0
1486223717.443,54.199,27.344,31.250,65.430,57.129,0
1486223717.447,-19.531,27.344,35.645,65.918,104.980,0
1486223717.450,3.418,22.949,35.156,58.594,112.793,0
1486223717.454,95.703,26.855,41.504,57.617,0.000,0
1486223717.458,106.934,28.320,41.504,71.777,9.277,0
1486223717.462,31.738,26.855,26.855,61.523,53.711,0
1486223717.466,-33.691,35.156,35.645,60.059,91.309,0
1486223717.470,-17.090,31.250,42.480,54.199,94.727,0
1486223717.474,84.473,21.484,36.133,55.176,7.812,0
1486223717.478,129.395,27.344,48.340,81.543,21.484,0
1486223717.482,47.852,26.855,50.293,73.730,26.367,0
1486223717.486,-27.344,23.438,48.340,64.941,25.391,0
1486223717.490,-14.648,24.902,37.109,55.176,45.898,0
1486223717.493,73.730,31.738,21.973,50.781,-18.066,0
1486223717.497,125.000,37.598,31.738,69.336,6.348,0
1486223717.501,70.801,34.180,34.668,62.012,54.199,0
1486223717.505,-21.484,25.879,43.945,51.758,35.156,0
1486223717.509,-23.438,27.832,45.410,58.594,51.270,0
1486223717.513,63.965,27.832,39.551,60.547,19.531,0
1486223717.517,104.492,24.902,45.898,70.801,7.812,0
1486223717.521,81.543,29.785,52.246,73.242,37.598,0
1486223717.525,0.488,30.273,40.039,55.176,85.449,0
1486223717.529,-43.945,27.344,25.879,50.781,102.539,0
1486223717.532,33.203,21.973,25.879,42.969,27.832,0
1486223717.536,101.074,23.438,31.738,52.734,5.859,0
1486223717.540,73.242,18.555,40.527,65.430,42.480,0
1486223717.544,-7.812,17.578,45.898,61.523,79.102,0
1486223717.548,-41.504,26.855,41.504,60.547,82.031,0
1486223717.552,30.273,24.902,36.133,49.316,28.320,0
1486223717.556,111.328,23.438,36.133,60.059,42.480,0
1486223717.560,98.145,27.344,49.316,82.031,115.234,0
1486223717.564,18.066,26.367,59.570,83.496,124.512,0
1486223717.568,-33.203,29.297,49.805,71.289,130.371,0
1486223717.572,22.949,23.926,37.109,45.898,101.074,0
1486223717.575,109.375,24.414,27.832,58.105,53.223,0
1486223717.579,97.656,24.414,26.367,70.801,101.074,0
1486223717.583,11.719,24.414,31.738,53.223,125.977,0
1486223717.587,-47.852,38.086,42.480,54.688,142.090,0
1486223717.591,3.906,33.203,41.992,48.828,129.883,0
1486223717.595,96.191,23.438,30.762,48.828,41.016,0
1486223717.599,113.281,28.320,47.852,76.660,46.875,0
1486223717.603,42.480,34.668,54.199,83.008,82.520,0
1486223717.607,-30.762,36.621,50.293,67.383,129.883,0
1486223717.611,7.324,27.832,50.781,57.129,123.535,0
1486223717.615,101.074,26.367,35.156,66.406,41.016,0
1486223717.618,113.281,25.391,42.480,78.125,39.551,0
1486223717.622,55.664,28.320,50.781,70.801,43.457,0
1486223717.626,-15.625,34.668,39.062,66.895,72.266,0
1486223717.630,-14.648,30.273,29.297,57.617,67.871,0
1486223717.634,77.637,28.320,44.922,60.547,-24.414,0
1486223717.638,110.840,23.438,46.387,72.754,-8.789,0
1486223717.642,41.016,24.414,35.156,60.547,37.109,0
1486223717.646,-41.504,29.297,45.410,62.012,78.613,0
1486223717.650,-11.719,35.645,53.223,74.219,74.219,0
1486223717.654,79.102,28.320,51.758,54.688,-9.277,0
1486223717.657,109.375,23.926,38.086,53.711,28.809,0
1486223717.661,64.453,29.297,24.414,54.199,52.734,0
1486223717.665,-8.789,40.039,44.434,54.688,91.309,0
1486223717.669,-23.926,41.016,55.176,58.105,144.043,0
1486223717.673,51.270,24.902,33.203,42.969,71.289,0
1486223717.677,107.422,25.879,23.438,57.617,35.156,0
1486223717.681,70.801,28.809,33.691,67.383,25.391,0
1486223717.685,-20.020,29.785,41.016,56.641,34.668,0
1486223717.689,-35.156,34.668,39.062,51.758,70.312,0
1486223717.693,57.617,29.785,42.969,51.270,22.461,0
1486223717.697,112.793,27.832,41.016,73.730,20.020,0
1486223717.700,85.938,34.180,37.598,75.684,63.477,0
1486223717.704,-0.977,30.273,42.969,62.500,87.402,0
1486223717.708,-43.457,29.297,37.109,54.688,102.051,0
1486223717.712,26.855,29.785,29.297,42.480,30.762,0
1486223717.716,104.492,29.297,21.484,67.871,27.344,0
1486223717.720,103.027,36.621,24.902,87.891,11.230,0
1486223717.724,15.137,36.133,44.434,68.359,-21.484,0
1486223717.728,-40.039,29.297,44.434,46.875,30.273,0
1486223717.732,33.691,31.738,43.945,52.734,14.160,0
1486223717.736,121.582,30.273,50.293,70.312,-37.109,0
1486223717.740,100.586,26.367,43.457,75.195,6.836,0
1486223717.743,15.137,27.344,30.762,65.430,41.992,0
1486223717.747,-34.180,28.320,30.273,70.312,84.961,0
1486223717.751,6.836,29.297,34.668,59.570,31.738,0
1486223717.755,94.238,29.785,38.574,64.453,-37.109,0
1486223717.759,112.793,35.645,39.551,75.195,-5.371,0
1486223717.763,28.809,34.180,33.691,58.105,7.812,0
1486223717.767,-41.992,26.367,40.527,53.223,77.148,0
1486223717.771,6.836,26.367,44.922,56.641,40.039,0
1486223717.775,95.215,26.855,40.527,75.195,-33.691,0
1486223717.779,105.469,26.855,41.504,78.125,24.414,0
1486223717.782,44.922,30.762,39.551,65.918,46.875,0
1486223717.786,-31.738,34.668,50.293,66.406,106.934,0
1486223717.790,-14.648,33.203,52.246,51.270,113.770,0
1486223717.794,74.219,34.180,42.480,68.359,8.301,0
1486223717.798,101.074,31.250,39.551,83.008,6.836,0
1486223717.802,45.898,34.668,40.527,64.941,15.137,0
1486223717.806,-31.250,32.227,38.574,56.641,75.195,0
1486223717.810,-19.531,29.297,27.344,54.199,111.328,0
1486223717.814,76.660,31.250,33.203,55.664,18.555,0
1486223717.818,113.281,25.879,35.156,67.871,15.625,0
1486223717.822,60.059,36.621,46.875,59.082,46.875,0
1486223717.825,-9.766,46.387,51.270,60.547,54.199,0
1486223717.829,-26.855,26.855,30.273,48.828,75.684,0
1486223717.833,58.594,20.996,36.133,38.574,3.418,0
1486223717.837,119.141,29.785,45.898,70.312,-20.508,1
1486223717.841,67.871,33.691,36.133,65.918,47.363,0
1486223717.845,-19.531,36.621,31.250,58.594,82.520,0
1486223717.849,-46.875,23.926,28.809,48.828,67.383,0
1486223717.853,39.062,22.461,31.738,43.945,23.438,0
1486223717.857,101.562,29.785,41.992,67.383,27.832,0
1486223717.861,74.707,30.762,39.062,61.035,57.129,0
1486223717.864,-4.395,36.621,42.969,55.176,89.844,0
1486223717.868,-39.551,35.645,51.270,60.547,79.590,0
1486223717.872,34.668,27.344,33.691,57.129,-4.395,0
1486223717.876,107.422,28.320,32.227,66.406,-14.160,0
1486223717.880,85.449,37.109,36.621,62.012,25.879,0
1486223717.884,3.906,37.598,38.086,47.852,41.504,0
1486223717.888,-39.062,30.273,41.992,50.293,64.941,0
1486223717.892,17.578,28.809,31.738,50.293,7.812,0
1486223717.896,95.703,26.855,32.227,61.523,-44.922,0
1486223717.900,91.309,25.391,39.551,70.801,-18.066,0
1486223717.904,20.508,28.809,36.133,70.312,17.578,0
1486223717.907,-32.715,28.320,38.086,72.266,71.289,0
1486223717.911,17.090,27.344,36.133,54.688,45.898,0
1486223717.915,107.422,29.785,32.715,63.477,5.371,0
1486223717.919,99.121,33.691,41.016,70.312,26.367,0
1486223717.923,37.598,35.156,49.805,62.012,18.555,0
1486223717.927,-23.926,40.527,53.711,65.918,67.383,0
1486223717.931,7.812,30.762,37.109,48.340,57.129,0
1486223717.935,92.285,18.555,21.973,49.316,-13.672,0
1486223717.939,103.516,27.344,33.203,72.266,32.227,0
1486223717.943,57.129,30.273,39.062,73.730,42.969,0
1486223717.947,-22.949,28.320,36.621,70.801,36.621,0
1486223717.950,-9.766,27.344,45.410,65.918,41.504,0
1486223717.954,91.309,32.227,46.387,63.477,-10.742,0
1486223717.958,127.930,31.738,47.363,84.961,14.160,0
1486223717.962,60.059,24.902,46.387,80.566,56.641,0
1486223717.966,-27.832,27.344,51.270,71.289,92.773,0
1486223717.970,-10.254,29.785,39.551,64.453,113.770,0
1486223717.974,80.566,29.785,22.461,56.152,25.391,0
1486223717.978,112.305,28.320,28.320,74.707,38.574,0
1486223717.982,61.523,28.320,38.574,77.637,74.707,0
1486223717.986,-22.949,28.809,46.875,63.477,99.609,0
1486223717.989,-27.832,36.133,46.875,54.688,106.934,0
1486223717.993,64.941,37.598,54.199,59.570,36.133,0
1486223717.997,117.676,34.180,50.781,71.289,52.734,0
1486223718.001,65.918,32.227,39.551,67.871,60.059,0
1486223718.005,-19.043,32.715,43.457,58.105,97.168,0
1486223718.009,-34.668,28.809,29.785,44.434,111.816,0
1486223718.013,51.758,25.879,20.020,45.410,54.688,0
1486223718.017,117.676,25.391,28.320,66.895,39.551,0
1486223718.021,78.125,23.926,34.668,63.477,69.824,0
1486223718.025,-2.930,34.180,39.551,58.594,108.887,0
1486223718.029,-26.367,41.016,45.410,62.012,144.043,0
1486223718.032,49.316,33.203,51.270,56.152,67.383,0
1486223718.036,116.211,34.668,48.340,69.336,5.859,0
1486223718.040,99.121,32.715,37.598,69.336,68.848,0
1486223718.044,20.996,23.926,39.062,59.570,93.262,0
1486223718.048,-28.320,30.762,31.738,66.406,104.980,0
1486223718.052,35.156,28.320,34.668,58.105,60.059,0
1486223718.056,105.957,18.555,40.527,60.059,10.254,0
1486223718.060,102.539,26.367,41.016,75.684,62.500,0
1486223718.064,35.156,37.109,48.340,73.242,78.125,0
1486223718.068,-28.320,31.250,49.316,72.754,110.840,0
1486223718.072,20.508,22.461,36.133,65.430,65.430,0
1486223718.075,107.422,20.996,34.668,74.707,16.113,0
1486223718.079,106.445,22.461,45.898,88.379,51.758,0
1486223718.083,28.320,21.973,41.992,71.777,65.918,0
1486223718.087,-35.645,23.926,35.645,57.617,112.305,0
1486223718.091,10.254,30.762,35.156,61.035,87.402,0
1486223718.095,94.238,24.414,38.086,69.824,18.066,0
1486223718.099,112.305,29.297,50.293,85.938,48.340,0
1486223718.103,41.504,33.691,51.270,72.266,59.570,0
1486223718.107,-37.109,25.391,41.016,62.012,93.750,0
1486223718.111,-14.160,23.438,27.832,62.012,92.285,0
1486223718.114,79.590,20.020,21.484,54.688,17.578,0
1486223718.118,95.215,20.508,23.438,57.617,46.875,0
1486223718.122,34.668,24.902,29.785,52.734,72.754,0
1486223718.126,-16.602,29.297,42.969,57.617,62.988,0
1486223718.130,-10.742,32.227,42.480,55.664,50.781,0
1486223718.134,81.543,31.250,43.945,63.477,18.066,0
1486223718.138,123.535,29.785,45.898,76.172,64.453,0
1486223718.142,62.012,20.996,29.785,58.594,119.141,0
1486223718.146,-23.926,23.438,30.273,59.570,99.609,0
1486223718.150,-27.832,29.297,39.062,64.941,97.168,0
1486223718.154,71.777,27.344,41.016,67.383,45.898,0
1486223718.157,124.023,28.320,37.598,83.496,24.414,0
1486223718.161,77.637,34.180,41.504,74.219,60.547,0
1486223718.165,-11.230,38.086,48.340,69.336,106.445,0
1486223718.169,-25.879,28.320,38.086,63.477,102.051,0
1486223718.173,65.918,28.809,29.785,53.711,25.879,0
1486223718.177,124.512,29.297,35.645,74.219,30.273,0
1486223718.181,90.332,24.414,43.457,78.125,61.523,0
1486223718.185,4.395,31.738,44.922,67.383,64.453,0
1486223718.189,-35.156,33.691,40.527,62.988,81.055,0
1486223718.193,48.340,34.668,50.293,65.430,33.203,0
1486223718.197,112.793,34.180,37.109,71.777,-6.836,0
1486223718.200,87.891,29.785,26.855,71.777,20.020,0
1486223718.204,8.301,33.691,41.016,70.312,70.801,0
1486223718.208,-43.457,31.738,35.156,61.035,79.102,0
1486223718.212,29.785,26.367,35.645,54.199,11.230,0
1486223718.216,112.305,29.785,42.969,72.266,-7.324,0
1486223718.220,106.445,30.762,34.668,74.219,5.859,0
1486223718.224,19.043,26.367,33.203,59.570,30.762,0
1486223718.228,-33.203,35.645,52.246,67.871,105.469,0
1486223718.232,25.879,37.109,67.383,74.707,66.895,0
1486223718.236,98.145,31.738,45.898,67.383,12.695,0
1486223718.239,99.121,32.715,30.762,61.523,50.293,0
1486223718.243,30.273,25.879,35.645,65.430,71.777,0
1486223718.247,-27.832,29.297,39.062,61.035,91.797,0
1486223718.251,9.277,31.250,42.969,44.922,45.898,0
1486223718.255,95.215,24.414,38.574,48.828,-6.348,0
1486223718.259,108.398,22.949,39.062,62.500,20.020,0
1486223718.263,46.875,34.668,42.969,61.035,42.480,0
1486223718.267,-29.785,33.691,36.133,68.359,80.566,0
1486223718.271,-8.789,24.902,37.598,69.824,64.941,0
1486223718.275,86.914,35.645,53.223,62.500,8.301,0
1486223718.279,112.305,35.156,53.223,71.777,5.371,0
1486223718.282,55.664,24.414,34.668,74.707,46.875,0
1486223718.286,-25.879,23.926,31.738,74.219,100.098,0
1486223718.290,-21.484,21.484,34.180,55.664,73.242,0
1486223718.294,73.730,24.902,41.504,53.223,14.648,0
1486223718.298,111.816,31.250,50.781,86.914,29.297,0
1486223718.302,51.758,29.785,35.645,68.848,35.156,0
1486223718.306,-26.367,33.691,36.621,46.875,64.941,0
1486223718.310,-26.855,33.203,48.340,54.199,103.027,0
1486223718.314,73.730,29.785,46.387,69.336,13.184,0
1486223718.318,123.535,29.785,38.086,73.730,-6.836,0
1486223718.321,65.918,26.367,33.691,64.453,32.715,0
1486223718.325,-26.855,20.020,31.738,60.547,55.664,0
1486223718.329,-32.715,22.949,29.785,56.641,84.961,0
1486223718.333,62.988,30.762,38.574,55.176,14.648,0
1486223718.337,116.211,33.203,48.828,83.008,-3.906,0
1486223718.341,84.961,27.832,39.551,84.961,35.156,0
1486223718.345,2.441,32.227,43.945,73.242,67.383,0
1486223718.349,-26.855,37.598,55.176,74.707,63.965,0
1486223718.353,55.664,29.785,45.898,62.012,-1.465,0
1486223718.357,114.746,28.320,41.992,76.172,-24.414,0
1486223718.361,80.078,26.855,35.645,72.266,4.883,0
1486223718.364,-4.395,24.414,24.902,62.012,30.273,0
1486223718.368,-42.969,32.227,29.785,61.523,63.965,0
1486223718.372,29.297,34.180,43.457,47.363,19.043,0
1486223718.376,104.980,24.414,41.992,58.105,-27.832,0
1486223718.380,99.609,25.879,49.316,73.730,49.805,0
1486223718.384,20.020,36.133,47.363,65.918,79.102,0
1486223718.388,-36.133,36.621,36.621,62.988,95.703,0
1486223718.392,18.555,29.297,47.852,59.570,68.359,0
1486223718.396,99.609,29.785,37.598,62.500,41.016,0
1486223718.400,104.980,32.715,25.391,78.613,54.199,0
1486223718.404,32.227,30.273,34.668,70.312,58.105,0
1486223718.407,-30.273,31.738,41.504,70.801,106.934,0
1486223718.411,7.324,31.250,42.480,63.965,39.551,0
1486223718.415,93.750,26.367,32.715,60.547,-13.184,0
1486223718.419,112.793,26.855,31.250,72.754,7.324,0
1486223718.423,40.527,29.297,34.668,62.012,40.527,0
1486223718.427,-41.504,27.344,33.691,53.711,123.047,0
1486223718.431,-9.766,32.227,42.480,60.059,94.727,0
1486223718.435,86.914,35.645,48.340,72.754,15.137,0
1486223718.439,110.352,24.902,31.250,72.266,67.871,0
1486223718.443,41.504,22.461,24.902,61.523,68.848,0
1486223718.446,-35.645,23.926,40.527,58.594,86.914,0
1486223718.450,-24.414,28.320,40.527,47.852,113.770,0
1486223718.454,64.453,32.227,38.086,46.875,36.133,0
1486223718.458,115.234,27.344,43.457,69.336,48.828,0
1486223718.462,59.570,26.855,30.762,67.383,86.914,0
1486223718.466,-27.832,27.832,35.156,58.594,100.586,0
1486223718.470,-23.438,26.367,38.574,53.711,69.336,0
1486223718.474,70.312,26.367,39.551,58.594,9.277,0
1486223718.478,107.422,28.320,41.016,70.312,46.875,0
1486223718.482,63.965,27.344,36.621,63.965,80.566,1
1486223718.486,-10.254,34.180,43.457,62.500,114.746,0
1486223718.489,-23.438,36.621,42.480,60.059,149.902,0
1486223718.493,62.012,28.809,49.805,55.664,73.730,0
1486223718.497,127.930,32.715,50.781,68.848,25.391,0
1486223718.501,79.590,30.762,31.738,64.941,45.410,0
1486223718.505,-24.902,26.855,29.785,55.664,36.133,0
1486223718.509,-39.551,33.203,33.203,64.453,77.148,0
1486223718.513,51.270,33.203,42.969,59.082,15.625,0
1486223718.517,106.934,23.926,38.574,64.941,20.020,0
1486223718.521,79.590,26.367,29.297,66.406,60.547,0
1486223718.525,0.000,27.832,37.109,57.129,36.621,0
1486223718.529,-46.387,22.949,37.598,57.129,84.961,0
1486223718.532,32.715,27.832,40.039,57.129,33.691,0
1486223718.536,113.770,29.785,42.969,60.547,0.977,0
1486223718.540,89.355,32.715,43.457,75.195,80.566,0
1486223718.544,13.672,35.645,48.828,71.777,80.078,0
1486223718.548,-47.363,23.926,33.203,51.270,72.266,0
1486223718.552,1.953,17.090,22.461,38.086,57.129,0
1486223718.556,94.727,22.949,25.879,47.852,6.836,0
1486223718.560,93.262,32.227,38.574,69.824,35.156,0
1486223718.564,15.137,33.691,46.875,60.547,65.918,0
1486223718.568,-42.480,28.809,38.086,46.387,47.363,0
1486223718.571,7.812,28.809,33.691,47.363,37.109,0
1486223718.575,93.750,27.344,33.691,60.059,10.742,0
1486223718.579,110.352,30.273,46.875,79.590,6.348,0
1486223718.583,26.855,31.250,44.922,73.242,0.488,0
1486223718.587,-45.410,24.902,38.574,66.406,41.992,0
1486223718.591,5.371,23.926,32.227,53.711,67.871,0
1486223718.595,102.539,32.227,35.645,70.801,17.090,0
1486223718.599,127.441,34.668,49.805,104.492,36.621,0
1486223718.603,51.758,27.344,35.156,76.172,53.711,0
1486223718.607,-26.367,27.832,32.227,62.500,81.543,0
1486223718.611,0.000,30.273,40.039,71.777,76.660,0
1486223718.614,87.891,29.785,48.340,81.543,0.488,0
1486223718.618,114.746,32.715,46.875,91.797,12.695,0
1486223718.622,64.453,34.180,43.945,80.566,57.129,0
1486223718.626,-12.207,29.297,55.664,75.684,85.938,0
1486223718.630,-24.414,23.926,39.062,62.500,105.957,0
1486223718.634,66.895,30.762,39.062,63.477,28.320,0
1486223718.638,114.746,33.203,48.828,74.707,7.812,0
1486223718.642,62.012,32.227,31.738,64.941,54.688,0
1486223718.646,-23.438,30.762,39.062,55.664,54.199,0
1486223718.650,-28.320,29.785,41.992,58.105,61.035,0
1486223718.653,71.777,29.785,42.480,62.500,30.762,0
1486223718.657,125.000,31.738,53.711,67.383,41.504,0
1486223718.661,79.590,34.180,41.992,65.430,50.293,0
1486223718.665,-7.324,29.785,38.086,63.477,43.945,0
1486223718.669,-29.297,30.273,44.434,72.754,69.824,0
1486223718.673,51.270,30.273,30.762,52.734,13.672,0
1486223718.677,112.793,26.367,28.809,57.129,-2.441,0
1486223718.681,78.613,22.949,39.062,71.289,34.180,0
1486223718.685,3.906,30.273,45.898,62.988,43.457,0
1486223718.689,-38.086,34.180,40.039,61.523,77.637,0
1486223718.693,32.227,23.926,40.527,54.199,7.324,0
1486223718.696,114.258,31.250,52.246,67.871,5.371,0
1486223718.700,99.121,31.738,36.133,68.359,42.480,0
1486223718.704,22.949,21.973,24.414,60.547,31.738,0
1486223718.708,-37.109,26.855,30.273,55.176,92.285,0
1486223718.712,19.043,26.855,31.738,47.363,76.172,0
1486223718.716,108.887,27.344,36.133,64.453,1.465,0
1486223718.720,103.516,32.227,45.410,76.172,40.527,0
1486223718.724,17.578,29.785,45.410,65.430,75.195,0
1486223718.728,-34.668,28.320,43.945,69.336,109.863,0
1486223718.732,20.508,29.785,54.688,65.430,65.430,0
1486223718.736,93.750,28.320,32.715,57.617,-7.324,0
1486223718.739,97.168,28.809,18.066,61.523,61.523,0
1486223718.743,30.762,30.762,37.109,60.547,71.777,0
1486223718.747,-48.828,25.391,35.156,46.875,65.430,0
1486223718.751,-10.254,27.344,39.062,53.223,48.828,0
1486223718.755,91.797,27.832,41.992,72.266,-21.973,0
1486223718.759,111.816,21.484,33.203,65.918,10.254,0
1486223718.763,44.922,25.391,37.598,58.594,41.016,0
1486223718.767,-35.156,33.203,48.340,56.152,53.223,0
1486223718.771,-11.719,29.297,40.527,45.898,61.523,0
1486223718.775,83.496,22.461,27.832,55.176,34.180,0
1486223718.778,115.234,30.762,23.438,66.406,25.391,0
1486223718.782,63.477,37.598,28.320,57.129,4.395,0
1486223718.786,-20.996,37.109,45.898,67.871,44.434,0
1486223718.790,-24.902,30.273,41.504,62.500,78.125,0
1486223718.794,63.477,24.414,29.297,43.457,-10.742,0
1486223718.798,106.445,29.785,33.203,61.523,15.137,0
1486223718.802,54.199,33.203,44.434,69.336,41.504,0
1486223718.806,-27.832,27.832,47.852,63.477,28.320,0
1486223718.810,-26.367,30.273,41.016,56.641,86.426,0
1486223718.814,49.316,30.762,30.762,48.340,6.836,0
1486223718.818,96.680,28.320,27.344,66.406,-19.531,0
1486223718.821,73.730,29.297,24.902,66.406,37.109,0
1486223718.825,-8.301,35.156,41.016,62.988,51.758,0
1486223718.829,-35.645,28.320,50.781,60.059,78.125,0
1486223718.833,40.039,17.578,30.273,50.781,19.043,0
1486223718.837,103.027,24.414,38.574,68.848,9.766,0
1486223718.841,81.543,29.785,47.852,74.707,38.086,0
1486223718.845,-0.488,27.344,34.180,69.824,28.809,0
1486223718.849,-41.504,28.809,29.297,63.477,58.594,0
1486223718.853,36.621,39.062,29.785,46.387,45.410,0
1486223718.857,104.492,31.250,23.438,56.152,4.395,0
1486223718.861,84.473,21.973,41.016,69.824,26.367,0
1486223718.864,1.465,20.996,50.781,62.988,63.477,0
1486223718.868,-52.246,22.461,29.785,48.828,115.234,0
1486223718.872,20.020,27.832,26.855,45.410,46.875,0
1486223718.876,97.168,22.461,38.574,65.430,-6.348,0
1486223718.880,84.961,20.020,30.762,60.059,47.363,0
1486223718.884,18.555,28.320,29.297,49.316,23.438,0
1486223718.888,-44.922,33.203,35.645,51.270,55.176,0
1486223718.892,7.324,31.738,35.156,48.340,43.945,0
1486223718.896,96.191,28.809,41.992,71.289,-12.207,0
1486223718.900,95.215,31.250,50.293,88.867,41.992,0
1486223718.903,36.133,24.902,43.457,73.242,47.363,0
1486223718.907,-33.691,19.531,31.250,56.641,63.477,0
1486223718.911,-1.465,22.949,42.480,58.105,54.688,0
1486223718.915,90.332,21.484,41.504,61.035,-6.836,0
1486223718.919,105.469,20.020,28.809,70.312,39.551,0
1486223718.923,44.922,26.855,32.715,71.289,52.246,0
1486223718.927,-27.832,25.391,29.297,57.617,74.707,0
1486223718.931,2.930,27.832,41.992,56.152,84.473,0
1486223718.935,100.586,31.738,53.711,62.500,3.906,0
1486223718.939,124.023,30.762,42.969,72.266,0.488,0
1486223718.943,58.594,29.785,28.809,56.152,6.836,0
1486223718.946,-17.578,25.391,23.438,58.105,30.273,0
1486223718.950,-18.555,29.297,33.203,66.895,65.918,0
1486223718.954,75.195,36.133,40.039,61.035,15.625,0
1486223718.958,126.465,32.227,35.156,75.684,-5.859,0
1486223718.962,72.266,26.855,31.250,68.848,18.555,0
1486223718.966,-17.090,24.414,40.039,58.105,53.223,0
1486223718.970,-24.414,30.762,47.852,61.035,62.500,0
1486223718.974,79.102,37.598,52.734,66.406,-2.441,0
1486223718.978,123.047,34.180,45.898,81.055,3.906,0
1486223718.982,66.895,28.809,37.598,77.637,38.086,0
1486223718.986,-18.066,27.832,26.855,60.059,69.824,0
1486223718.989,-34.180,28.809,20.508,50.293,107.422,0
1486223718.993,50.781,24.902,34.668,51.270,21.973,0
1486223718.997,110.352,28.320,35.645,68.848,11.719,0
