timestamps,TP9,AF7,AF8,TP10,Right AUX,Marker
1486223912.937,103.027,40.527,46.387,81.055,41.992,0
1486223912.941,18.066,34.180,50.293,80.078,90.332,0
1486223912.944,-18.066,29.297,34.180,74.219,124.023,0
1486223912.948,51.270,28.809,26.367,53.711,13.672,0
1486223912.952,113.770,25.879,30.762,70.801,-40.527,0
1486223912.956,79.590,32.715,35.645,76.660,3.418,0
1486223912.960,5.859,35.645,40.039,65.918,68.848,0
1486223912.964,-27.344,25.879,33.691,67.383,123.047,0
1486223912.968,28.809,25.391,38.086,67.383,62.500,0
1486223912.972,100.098,31.250,38.574,73.730,-6.836,0
1486223912.976,94.238,37.109,32.227,69.336,11.719,0
1486223912.980,26.855,33.691,43.945,61.035,59.570,0
1486223912.984,-36.133,29.785,48.340,62.500,109.375,0
1486223912.987,13.672,31.738,30.762,63.477,62.012,0
1486223912.991,98.633,26.367,24.414,69.336,-20.996,0
1486223912.995,92.773,29.785,38.086,78.613,23.438,0
1486223912.999,29.785,32.715,44.434,74.707,56.641,0
1486223913.003,-26.855,29.297,48.828,70.312,92.773,0
1486223913.007,12.695,28.809,43.945,62.500,85.938,0
1486223913.011,96.680,32.227,37.109,67.383,11.230,0
1486223913.015,98.145,33.691,50.293,69.336,23.438,0
1486223913.019,34.180,26.855,41.016,60.059,26.367,0
1486223913.023,-37.109,22.461,30.273,61.035,75.195,0
1486223913.026,-9.277,21.973,32.227,58.105,80.566,0
1486223913.030,81.055,23.438,39.062,70.312,18.555,0
1486223913.034,101.074,28.320,49.805,76.660,57.129,0
1486223913.038,40.039,30.273,47.363,55.176,62.012,0
1486223913.042,-41.504,22.949,37.109,49.316,93.262,0
1486223913.046,-20.020,28.809,40.039,57.617,90.332,0
1486223913.050,72.754,28.809,39.062,54.199,-17.090,0
1486223913.054,99.121,26.855,40.039,69.336,-15.625,0
1486223913.058,44.922,33.203,36.621,65.430,17.578,0
1486223913.062,-24.902,23.438,22.949,50.781,86.426,0
1486223913.066,-29.297,14.160,27.344,44.922,110.352,0
1486223913.069,52.246,21.484,30.762,35.156,-3.906,0
1486223913.073,96.191,26.855,36.133,51.270,13.184,0
1486223913.077,51.270,27.832,44.922,62.988,42.969,0
1486223913.081,-16.602,33.691,47.363,70.801,6.348,0
1486223913.085,-15.137,34.668,49.805,68.848,33.203,0
1486223913.089,70.801,28.320,42.969,47.363,-20.020,0
1486223913.093,118.164,33.203,34.668,58.105,-36.621,0
1486223913.097,71.289,32.227,27.832,70.312,-8.301,0
1486223913.101,-13.672,25.879,27.832,62.988,47.852,0
1486223913.105,-34.180,28.809,33.691,61.523,91.797,0
1486223913.108,49.805,26.367,36.133,60.547,3.906,0
1486223913.112,111.816,21.484,39.062,67.871,-21.484,0
1486223913.116,86.914,20.508,38.574,66.406,44.434,0
1486223913.120,9.766,26.367,38.086,60.547,53.223,0
1486223913.124,-28.809,31.250,56.152,62.012,109.863,0
1486223913.128,37.598,28.809,49.316,55.664,60.547,0
1486223913.132,103.027,27.832,36.621,64.453,2.441,0
1486223913.136,89.844,27.832,38.574,76.660,49.805,0
1486223913.140,10.742,21.973,31.250,63.477,34.668,0
1486223913.144,-42.480,23.438,33.691,49.316,95.703,0
1486223913.148,27.344,28.809,34.180,47.852,72.754,0
1486223913.151,104.492,24.414,37.598,64.453,10.254,0
1486223913.155,96.191,22.461,32.227,62.500,4.395,0
1486223913.159,27.832,27.832,32.227,54.199,18.066,0
1486223913.163,-27.832,31.738,42.480,61.523,89.844,0
1486223913.167,18.066,26.367,42.969,53.223,49.805,0
1486223913.171,96.680,24.902,33.691,60.059,14.160,0
1486223913.175,100.098,30.762,32.715,70.801,47.363,0
1486223913.179,33.691,35.156,40.039,58.105,21.484,0
1486223913.183,-21.973,33.691,39.551,63.477,69.824,0
1486223913.187,10.742,22.461,39.062,58.594,69.824,0
1486223913.191,92.773,26.855,36.133,61.523,-6.348,0
1486223913.194,116.699,39.551,52.734,83.984,-17.578,0
1486223913.198,43.945,31.250,52.734,68.359,6.348,0
1486223913.202,-37.598,23.926,28.320,54.199,93.262,0
1486223913.206,-8.301,26.855,38.086,58.105,88.379,0
1486223913.210,79.590,25.391,44.922,56.641,14.160,0
1486223913.214,104.980,35.156,41.016,73.730,24.902,0
1486223913.218,52.246,38.086,44.922,76.172,14.160,0
1486223913.222,-23.438,24.414,44.434,63.965,26.367,0
1486223913.226,-11.230,25.879,44.434,58.594,50.781,0
1486223913.230,77.148,23.926,40.527,56.641,-25.391,0
1486223913.233,104.004,22.461,47.363,74.707,-26.367,0
1486223913.237,57.129,33.203,45.898,70.312,15.625,0
1486223913.241,-18.066,32.227,34.668,62.500,62.012,0
1486223913.245,-23.926,26.855,41.992,60.059,118.164,0
1486223913.249,54.199,27.832,48.340,56.641,33.203,0
1486223913.253,110.840,26.855,43.945,64.941,-31.250,2
1486223913.257,70.312,26.855,40.039,66.406,9.766,0
1486223913.261,-11.230,28.809,43.945,70.312,92.285,0
1486223913.265,-23.438,31.250,40.039,57.617,119.629,0
1486223913.269,66.406,30.273,44.922,52.246,21.973,0
1486223913.273,114.746,27.832,52.734,65.918,6.836,0
1486223913.276,72.266,28.809,35.156,64.453,63.965,0
1486223913.280,-9.277,29.785,29.785,59.082,81.543,0
1486223913.284,-38.086,37.109,52.734,60.547,140.137,0
1486223913.288,40.039,38.086,46.387,48.340,79.590,0
1486223913.292,99.121,26.855,32.715,63.477,1.465,0
1486223913.296,77.637,25.391,36.133,59.082,15.137,0
1486223913.300,6.836,33.203,33.203,42.969,47.363,0
1486223913.304,-37.109,29.785,40.527,58.594,123.047,0
1486223913.308,19.043,23.926,37.109,58.594,71.777,0
1486223913.312,96.191,29.297,36.133,68.359,8.789,0
1486223913.316,98.633,35.645,41.504,75.195,39.551,0
1486223913.319,23.926,35.645,40.039,62.500,47.852,0
1486223913.323,-25.391,29.297,46.387,67.871,81.055,0
1486223913.327,24.902,29.785,48.340,65.430,76.660,0
1486223913.331,104.492,33.203,41.992,75.684,11.719,0
1486223913.335,102.539,25.879,39.551,79.590,13.184,0
1486223913.339,30.762,29.297,40.039,67.383,49.805,0
1486223913.343,-31.738,29.297,41.992,63.477,114.746,0
1486223913.347,0.977,24.902,35.645,51.270,89.355,0
1486223913.351,79.590,24.414,28.809,54.688,-35.156,0
1486223913.355,103.027,32.715,33.203,67.871,-9.277,0
1486223913.358,47.363,32.227,36.133,65.918,44.922,0
1486223913.362,-31.738,28.320,38.086,56.152,102.051,0
1486223913.366,-3.418,34.180,45.898,54.688,90.820,0
1486223913.370,79.102,33.203,51.270,66.895,-10.742,0
1486223913.374,94.238,27.832,50.293,71.777,18.555,0
1486223913.378,54.199,30.762,45.898,69.824,36.133,0
1486223913.382,-16.113,32.715,37.109,75.684,54.199,0
1486223913.386,-24.414,22.949,33.203,61.523,92.773,0
1486223913.390,76.172,24.414,32.227,65.430,16.113,0
1486223913.394,126.465,28.320,36.621,82.031,6.348,0
1486223913.398,67.871,26.855,43.945,70.801,24.414,0
1486223913.401,-13.672,35.645,46.875,73.242,56.152,0
1486223913.405,-17.578,38.574,40.527,68.848,103.516,0
1486223913.409,70.312,38.086,47.363,64.941,23.438,0
1486223913.413,118.164,38.086,44.922,77.637,16.602,0
1486223913.417,72.266,31.250,30.762,80.078,41.504,0
1486223913.421,-20.020,32.715,31.250,66.895,43.945,0
1486223913.425,-39.062,29.785,33.203,52.246,96.191,0
1486223913.429,51.758,20.996,38.574,48.828,42.480,0
1486223913.433,111.328,22.461,36.621,68.848,1.953,0
1486223913.437,84.961,37.598,48.828,83.984,43.457,0
1486223913.440,-1.465,38.574,54.688,77.148,71.777,0
1486223913.444,-38.086,32.227,44.922,66.406,105.957,0
1486223913.448,45.410,33.203,30.762,58.594,49.316,0
1486223913.452,107.422,33.203,27.832,61.035,-12.207,0
1486223913.456,78.125,28.320,37.109,71.289,39.551,0
1486223913.460,5.371,30.273,35.156,67.871,73.730,0
1486223913.464,-29.297,28.809,36.133,54.688,108.887,0
1486223913.468,31.738,23.926,42.480,57.129,79.590,0
1486223913.472,100.586,34.180,44.434,66.895,26.855,0
1486223913.476,91.309,37.109,37.109,64.453,54.199,0
1486223913.480,19.531,34.180,45.410,62.012,82.520,0
1486223913.483,-31.738,32.227,32.715,55.176,145.508,0
1486223913.487,20.996,29.297,21.484,49.316,81.055,0
1486223913.491,96.191,31.738,38.086,67.383,-8.789,0
1486223913.495,103.516,38.086,38.086,70.312,7.812,0
1486223913.499,37.109,33.203,41.504,64.453,33.203,0
1486223913.503,-33.691,21.484,43.945,56.152,87.891,0
1486223913.507,5.859,27.344,35.156,51.758,81.543,0
1486223913.511,97.168,39.551,40.039,61.035,24.414,0
1486223913.515,100.098,30.762,36.133,63.965,35.645,0
1486223913.519,39.062,26.855,27.832,62.012,45.898,0
1486223913.523,-17.090,35.156,39.551,61.523,121.094,0
1486223913.526,7.324,37.598,42.969,61.035,85.449,0
1486223913.530,87.402,33.691,38.574,67.383,-17.090,0
1486223913.534,103.027,24.902,36.133,69.824,1.465,0
1486223913.538,51.758,30.762,38.086,59.570,10.254,0
1486223913.542,-15.137,36.621,41.992,61.035,69.824,0
1486223913.546,-2.930,33.203,48.340,56.152,73.730,0
1486223913.550,71.777,23.438,49.805,54.199,-0.977,0
1486223913.554,97.656,24.902,37.598,69.824,-2.930,0
1486223913.558,53.711,29.785,26.855,62.988,20.996,0
1486223913.562,-26.855,28.320,27.832,54.688,64.941,0
1486223913.565,-29.297,31.738,41.016,53.223,95.215,0
1486223913.569,64.453,36.133,49.805,48.340,26.855,0
1486223913.573,102.539,34.180,42.969,61.523,-7.324,0
1486223913.577,49.316,30.762,39.551,60.059,11.230,0
1486223913.581,-28.320,32.715,46.387,56.152,57.129,0
1486223913.585,-22.949,34.668,53.711,58.594,113.770,0
1486223913.589,50.781,32.227,36.133,45.898,63.477,0
1486223913.593,94.727,27.832,21.973,47.852,21.973,0
1486223913.597,68.359,26.367,35.156,53.711,41.504,0
1486223913.601,-8.789,32.227,39.062,62.988,93.262,0
1486223913.605,-38.086,34.180,33.203,50.781,132.812,0
1486223913.608,34.668,26.367,37.598,40.527,72.754,0
1486223913.612,100.586,26.855,44.434,56.641,37.598,0
1486223913.616,71.289,35.156,38.574,54.688,48.828,0
1486223913.620,-3.418,34.668,36.621,53.223,73.730,0
1486223913.624,-34.668,32.715,42.969,61.523,86.914,0
1486223913.628,35.645,32.715,28.809,57.617,60.547,0
1486223913.632,99.609,30.273,24.414,56.641,37.109,0
1486223913.636,90.332,31.738,43.457,72.754,55.176,0
1486223913.640,23.438,33.203,41.016,62.500,109.863,0
1486223913.644,-28.809,28.320,32.227,55.176,147.949,0
1486223913.648,27.832,29.785,35.645,60.059,89.844,0
1486223913.651,106.445,35.156,37.109,61.035,-4.883,0
1486223913.655,115.723,36.133,55.176,72.754,15.137,0
1486223913.659,45.898,31.738,49.316,64.453,75.684,0
1486223913.663,-26.367,30.762,27.344,58.594,96.191,0
1486223913.667,12.695,25.879,36.133,57.129,72.266,0
1486223913.671,101.562,23.926,37.598,62.012,8.789,0
1486223913.675,112.305,27.832,40.039,69.336,-3.418,0
1486223913.679,36.133,28.320,41.992,54.199,36.133,0
1486223913.683,-28.320,31.250,40.039,53.711,64.453,0
1486223913.687,-1.953,30.273,43.945,59.082,66.406,0
1486223913.690,81.055,24.902,37.109,60.059,-6.348,0
1486223913.694,100.586,26.855,23.926,72.754,-3.906,0
1486223913.698,46.875,36.621,37.598,72.754,34.668,0
1486223913.702,-15.137,29.297,62.988,81.055,78.613,0
1486223913.706,9.766,23.926,48.828,71.777,103.027,0
1486223913.710,86.914,22.949,29.785,57.617,13.184,0
1486223913.714,105.469,22.949,35.645,82.520,12.207,0
1486223913.718,51.270,25.391,42.969,72.754,47.363,0
1486223913.722,-20.996,26.855,43.945,51.758,77.148,0
1486223913.726,-11.719,33.691,46.875,55.664,76.660,0
1486223913.730,66.406,29.297,43.945,50.781,-34.668,0
1486223913.733,106.445,28.809,38.574,62.012,-25.879,0
1486223913.737,65.430,40.527,45.898,78.125,41.992,0
1486223913.741,-8.789,39.551,50.781,73.242,93.262,0
1486223913.745,-16.602,31.250,45.410,62.012,96.191,0
1486223913.749,71.777,34.180,46.387,63.965,-45.898,0
1486223913.753,114.258,32.227,39.551,70.801,-46.875,0
1486223913.757,81.543,34.668,37.109,68.848,31.250,0
1486223913.761,1.953,38.086,45.898,59.570,74.219,0
1486223913.765,-30.762,27.832,39.551,46.875,108.398,0
1486223913.769,41.016,25.879,36.133,45.410,4.883,0
1486223913.772,102.539,29.785,48.828,67.871,-64.941,0
1486223913.776,80.078,27.832,46.387,61.523,-0.488,0
1486223913.780,-1.953,29.297,33.691,45.410,37.598,0
1486223913.784,-36.133,32.227,38.086,54.688,68.359,0
1486223913.788,43.457,31.738,40.039,56.152,16.602,0
1486223913.792,107.910,34.668,45.410,63.965,-30.762,0
1486223913.796,91.309,35.156,45.898,72.266,-9.766,0
1486223913.800,14.160,27.344,33.203,62.012,54.688,0
1486223913.804,-33.691,24.414,36.621,53.223,99.609,0
1486223913.808,40.039,27.344,44.922,55.176,41.992,0
1486223913.812,102.539,24.414,34.668,68.848,-12.207,0
1486223913.815,94.238,24.902,30.762,72.754,0.488,0
1486223913.819,34.668,29.297,44.434,59.082,52.246,0
1486223913.823,-31.738,38.086,46.875,57.617,80.566,0
1486223913.827,20.020,38.574,41.992,63.965,51.758,0
1486223913.831,110.840,30.762,45.410,72.266,-20.996,0
1486223913.835,106.445,28.320,42.969,68.359,15.137,0
1486223913.839,40.039,33.691,41.016,64.453,68.359,0
1486223913.843,-14.648,31.738,43.457,64.453,102.539,2
1486223913.847,18.066,20.508,40.039,62.500,65.918,0
1486223913.851,97.168,20.508,40.039,72.754,11.230,0
1486223913.855,105.957,26.367,42.969,79.102,34.180,0
1486223913.858,56.152,29.785,38.574,66.406,29.785,0
1486223913.862,-4.395,36.133,43.457,68.848,54.199,0
1486223913.866,2.930,35.156,42.480,66.895,89.844,0
1486223913.870,86.426,28.320,41.504,67.383,11.719,0
1486223913.874,115.234,27.344,48.340,82.031,5.859,0
1486223913.878,54.688,24.414,41.016,68.359,47.852,0
1486223913.882,-23.926,24.414,46.387,66.895,84.961,0
1486223913.886,-7.812,31.250,54.199,71.289,103.516,0
1486223913.890,70.801,28.320,31.738,57.129,35.156,0
1486223913.894,104.004,26.855,22.461,71.777,-5.859,0
1486223913.897,65.918,30.273,28.809,71.777,18.066,0
1486223913.901,-20.996,30.762,36.621,57.617,79.102,0
1486223913.905,-27.832,32.715,45.410,50.781,72.754,0
1486223913.909,80.078,34.180,46.875,52.246,-20.508,0
1486223913.913,121.582,29.297,46.387,61.035,0.488,0
1486223913.917,67.871,25.391,47.852,67.871,48.828,0
1486223913.921,-10.742,26.855,38.086,64.453,101.562,0
1486223913.925,-28.809,27.344,44.434,49.805,155.762,0
1486223913.929,51.758,28.320,42.480,51.270,46.875,0
1486223913.933,105.469,31.250,28.809,72.754,-0.488,0
1486223913.937,65.430,27.344,34.180,74.707,42.480,0
1486223913.940,-16.602,25.391,33.691,56.641,59.570,0
1486223913.944,-42.480,23.926,35.645,58.594,110.352,0
1486223913.948,35.645,26.855,37.598,62.012,84.473,0
1486223913.952,91.309,32.227,46.875,62.988,22.949,0
1486223913.956,65.430,28.320,49.805,68.848,27.344,0
1486223913.960,-2.930,27.832,44.922,58.594,34.668,0
1486223913.964,-60.547,23.926,38.574,38.574,89.844,0
1486223913.968,4.883,26.367,36.621,41.504,43.945,0
1486223913.972,93.750,23.926,29.785,55.664,-13.184,0
1486223913.976,86.426,17.578,31.250,59.082,37.109,0
1486223913.980,25.391,23.926,48.340,62.500,44.922,0
1486223913.983,-27.344,28.809,45.410,62.500,96.680,0
1486223913.987,29.297,35.645,44.922,64.941,55.176,0
1486223913.991,104.492,31.250,44.434,80.078,-32.227,0
1486223913.995,99.609,21.973,45.898,84.961,14.648,0
1486223913.999,32.227,25.391,40.527,69.336,49.316,0
1486223914.003,-25.879,28.320,32.715,66.895,80.566,0
1486223914.007,13.672,23.926,38.574,67.383,62.988,0
1486223914.011,85.938,23.438,35.645,68.848,-18.555,0
1486223914.015,93.262,23.926,29.297,69.336,45.898,0
1486223914.019,32.715,26.855,34.180,56.152,67.871,0
1486223914.022,-42.969,31.738,39.551,60.059,82.520,0
1486223914.026,-0.977,32.227,48.828,72.266,91.797,0
1486223914.030,92.285,33.691,45.898,68.359,1.465,0
1486223914.034,92.285,24.414,29.297,63.477,45.410,0
1486223914.038,39.062,24.902,32.227,62.012,32.715,0
1486223914.042,-35.645,36.133,34.668,60.547,40.039,0
1486223914.046,-9.277,33.203,36.133,52.246,79.590,0
1486223914.050,77.637,29.297,41.992,52.246,-20.996,0
1486223914.054,94.727,32.227,39.551,67.871,-7.812,0
1486223914.058,54.199,33.203,38.086,60.547,34.668,0
1486223914.062,-22.949,25.879,40.039,52.734,96.680,0
1486223914.065,-24.414,22.949,34.180,47.363,113.281,0
1486223914.069,66.895,30.273,30.273,46.387,23.438,0
1486223914.073,104.980,35.645,32.227,63.477,5.371,0
1486223914.077,67.383,29.785,31.738,65.918,43.457,0
1486223914.081,0.000,26.855,33.691,63.477,102.539,0
1486223914.085,-15.137,28.809,36.133,59.570,112.793,0
1486223914.089,57.129,29.785,39.062,49.805,26.855,0
1486223914.093,104.492,31.738,40.039,62.012,0.488,0
1486223914.097,86.914,38.086,48.828,72.266,20.996,0
1486223914.101,0.977,34.180,48.828,66.406,53.223,0
1486223914.104,-42.480,25.879,30.273,53.711,83.008,0
1486223914.108,42.480,30.273,36.133,52.246,63.477,0
1486223914.112,107.910,20.020,39.551,56.641,27.344,0
1486223914.116,72.754,23.438,27.832,61.035,43.457,0
1486223914.120,-0.488,28.809,36.621,63.477,88.867,0
1486223914.124,-26.367,27.832,42.969,63.965,134.277,0
1486223914.128,21.973,34.180,37.109,60.059,82.520,0
1486223914.132,100.586,31.738,40.039,66.406,-5.371,0
1486223914.136,91.309,28.809,44.434,68.848,33.203,0
1486223914.140,8.789,24.414,38.574,56.152,39.551,0
1486223914.144,-35.156,31.738,52.246,62.500,62.012,0
1486223914.147,17.578,34.180,42.480,67.383,60.059,0
1486223914.151,97.656,27.832,32.715,65.918,-15.625,0
1486223914.155,87.402,23.926,41.992,59.082,8.789,0
1486223914.159,17.090,26.855,35.156,58.594,38.086,0
1486223914.163,-37.109,30.273,31.250,64.941,65.430,0
1486223914.167,-0.488,31.738,35.156,56.152,75.195,0
1486223914.171,85.449,36.621,39.062,60.547,13.672,0
1486223914.175,104.492,33.691,40.039,69.336,-2.441,0
1486223914.179,34.180,32.715,47.363,70.801,28.809,0
1486223914.183,-23.926,35.645,45.898,71.289,75.195,0
1486223914.187,-1.953,24.902,35.156,60.059,74.219,0
1486223914.190,78.125,22.461,37.109,64.453,-0.977,0
1486223914.194,106.445,28.320,27.832,65.430,-3.418,0
1486223914.198,41.992,28.809,27.832,55.664,54.688,0
1486223914.202,-17.090,34.668,43.457,65.430,94.727,0
1486223914.206,0.488,34.180,41.992,58.594,100.098,0
1486223914.210,82.031,32.227,36.621,65.918,-2.441,0
1486223914.214,109.375,34.668,33.203,68.359,0.000,0
1486223914.218,50.293,30.273,34.180,45.410,24.902,0
1486223914.222,-23.438,30.273,41.504,62.988,42.480,0
1486223914.226,-20.508,29.297,40.039,64.941,71.289,0
1486223914.229,68.359,30.273,35.156,52.246,-18.555,0
1486223914.233,115.723,31.738,40.039,74.707,-25.879,0
1486223914.237,67.871,28.320,29.297,73.242,7.812,0
1486223914.241,-11.230,30.273,32.715,60.059,52.734,0
1486223914.245,-15.625,40.527,41.016,65.430,102.539,0
1486223914.249,68.359,41.016,37.598,61.523,-0.488,0
1486223914.253,114.746,33.203,41.992,62.500,-18.066,0
1486223914.257,70.801,31.250,36.133,63.965,36.621,0
1486223914.261,-9.277,29.785,36.621,62.500,50.293,0
1486223914.265,-37.598,22.949,37.598,55.664,56.152,0
1486223914.269,29.297,19.531,36.133,51.270,1.953,0
1486223914.272,89.844,21.973,42.969,63.477,-1.953,0
1486223914.276,70.801,29.297,40.039,66.895,-30.273,0
1486223914.280,-5.371,28.809,40.527,63.477,23.926,0
1486223914.284,-36.133,23.926,37.598,54.688,106.445,0
1486223914.288,37.109,26.855,29.785,48.340,14.648,0
1486223914.292,108.398,33.203,43.945,68.848,-55.176,0
1486223914.296,93.750,34.668,42.969,80.078,20.020,0
1486223914.300,16.113,31.250,23.926,65.430,40.039,0
1486223914.304,-29.785,36.133,35.645,62.012,79.590,0
1486223914.308,29.297,27.832,49.805,55.664,41.504,0
1486223914.312,99.121,18.555,40.527,54.199,-49.805,0
1486223914.315,83.008,21.484,37.109,67.383,32.227,0
1486223914.319,25.879,29.785,38.086,72.754,73.242,0
1486223914.323,-21.484,33.691,41.504,68.848,83.984,0
1486223914.327,21.484,30.762,44.434,61.035,74.707,0
1486223914.331,102.051,32.227,40.527,63.965,6.348,0
1486223914.335,99.121,30.762,23.926,72.266,-3.906,0
1486223914.339,37.598,34.668,30.273,68.848,11.719,0
1486223914.343,-20.020,37.109,45.898,62.012,43.945,0
1486223914.347,1.953,35.156,44.922,55.176,54.199,0
1486223914.351,84.473,27.832,39.062,60.059,16.113,0
1486223914.354,106.934,20.508,38.574,82.031,35.156,0
1486223914.358,65.430,23.438,42.480,73.730,51.758,0
1486223914.362,3.418,28.809,50.293,69.336,57.129,0
1486223914.366,0.977,28.320,42.969,63.965,81.055,0
1486223914.370,88.867,30.273,42.480,60.547,-5.371,0
1486223914.374,122.559,29.785,37.109,69.336,1.465,0
1486223914.378,58.594,35.645,33.691,71.777,81.543,0
1486223914.382,-13.184,37.598,50.293,73.730,97.168,1
1486223914.386,-8.789,28.809,40.039,58.105,64.941,0
1486223914.390,73.242,22.949,33.691,56.641,1.953,0
1486223914.394,109.863,30.273,43.457,73.730,3.906,0
1486223914.397,63.477,29.785,47.363,74.219,11.719,0
1486223914.401,-25.391,25.879,42.969,67.871,58.105,0
1486223914.405,-34.668,32.715,30.762,61.523,101.074,0
1486223914.409,59.570,27.344,21.484,53.711,31.250,0
1486223914.413,113.281,31.250,31.738,67.871,21.484,0
1486223914.417,72.266,38.086,46.387,62.988,52.734,0
1486223914.421,-12.695,28.320,40.527,53.223,69.336,0
1486223914.425,-26.855,33.203,43.945,59.082,125.977,0
1486223914.429,40.527,30.273,41.504,50.781,69.824,0
1486223914.433,95.703,21.484,33.691,59.570,24.902,0
1486223914.436,78.613,26.367,46.387,65.918,51.758,0
1486223914.440,-5.859,24.902,42.480,63.477,66.895,0
1486223914.444,-38.574,22.461,22.461,60.547,98.145,0
1486223914.448,43.945,30.273,24.414,56.641,37.109,0
1486223914.452,109.863,30.762,38.086,57.617,-22.461,0
1486223914.456,95.215,33.691,50.293,67.383,22.461,0
1486223914.460,13.672,38.574,59.082,76.172,64.453,0
1486223914.464,-31.738,40.039,55.664,70.312,82.520,0
1486223914.468,39.062,33.203,38.574,56.152,58.594,0
1486223914.472,104.492,21.973,30.273,60.547,2.441,0
1486223914.476,94.727,28.809,41.992,76.172,17.090,0
1486223914.479,34.668,35.156,46.875,62.012,47.852,0
1486223914.483,-21.484,37.598,34.180,67.871,62.988,0
1486223914.487,16.602,35.156,27.832,64.941,34.180,0
1486223914.491,94.238,28.809,30.762,55.664,-41.992,0
1486223914.495,99.609,33.203,40.527,71.289,9.277,0
1486223914.499,29.785,36.621,42.969,70.801,60.547,0
1486223914.503,-38.574,32.715,43.457,60.547,74.219,0
1486223914.507,-4.395,33.203,34.668,52.246,85.449,0
1486223914.511,86.914,40.039,25.391,57.129,26.855,0
1486223914.515,115.234,40.527,39.062,81.055,10.742,0
1486223914.519,50.781,28.320,38.086,79.590,23.438,0
1486223914.522,-30.273,23.926,29.785,71.777,83.008,0
1486223914.526,-0.977,24.902,31.250,70.312,86.426,0
1486223914.530,81.055,24.414,41.016,64.453,-1.465,0
1486223914.534,97.168,21.973,43.945,79.590,27.832,0
1486223914.538,54.199,24.414,41.992,82.520,51.270,0
1486223914.542,-14.648,30.762,40.527,76.172,83.008,0
1486223914.546,-9.277,24.902,45.410,62.988,83.496,0
1486223914.550,79.590,26.855,49.805,67.383,-35.156,0
1486223914.554,114.258,36.133,33.691,79.102,-16.113,0
1486223914.558,60.547,32.227,20.996,66.406,5.371,0
1486223914.561,-15.137,33.691,35.156,67.383,24.902,0
1486223914.565,-15.625,33.691,41.992,53.223,57.129,0
1486223914.569,69.824,28.320,33.691,48.828,-14.648,0
1486223914.573,112.793,31.738,39.551,66.406,-25.391,0
1486223914.577,68.848,30.762,42.480,53.711,-11.230,0
1486223914.581,-3.418,29.297,45.898,55.664,16.113,0
1486223914.585,-23.926,30.273,37.598,54.688,88.867,0
1486223914.589,53.223,32.227,30.273,54.688,20.020,0
1486223914.593,110.352,26.367,41.992,70.312,-26.855,0
1486223914.597,66.895,26.367,35.156,64.453,24.414,0
1486223914.601,-17.578,26.855,35.156,59.082,48.828,0
1486223914.604,-41.504,26.855,45.898,55.664,53.711,0
1486223914.608,38.574,31.250,41.504,51.758,-27.832,0
1486223914.612,104.980,27.832,37.598,71.777,-43.945,0
1486223914.616,90.332,21.973,38.086,80.078,13.184,0
1486223914.620,15.625,24.414,35.156,78.613,36.133,0
1486223914.624,-32.227,30.273,30.273,73.242,70.312,0
1486223914.628,40.527,32.227,36.133,57.617,0.488,0
1486223914.632,111.816,29.297,38.086,66.895,-38.574,0
1486223914.636,108.887,35.645,32.715,82.031,7.812,0
1486223914.640,40.039,39.062,31.738,81.055,41.016,0
1486223914.644,-15.137,37.598,49.316,82.520,112.305,0
1486223914.647,30.762,31.738,45.410,72.266,66.406,0
1486223914.651,104.004,26.855,42.480,80.078,-38.574,0
1486223914.655,105.469,31.738,46.875,83.008,-37.598,0
1486223914.659,33.691,30.762,36.133,73.730,19.043,0
1486223914.663,-30.273,28.809,38.574,65.918,85.938,0
1486223914.667,2.930,29.297,38.574,44.922,63.965,0
1486223914.671,82.031,28.320,32.715,49.805,5.859,0
1486223914.675,95.703,30.273,32.715,65.430,39.551,0
1486223914.679,37.109,34.668,41.016,66.895,40.039,0
1486223914.683,-34.180,30.762,39.551,55.664,72.754,0
1486223914.686,-5.859,24.902,37.598,56.152,98.145,0
1486223914.690,83.008,30.762,46.387,68.359,30.273,0
1486223914.694,91.797,33.203,59.570,68.848,11.719,0
1486223914.698,28.809,28.809,44.434,55.664,19.043,0
1486223914.702,-38.574,26.367,40.527,54.199,41.992,0
1486223914.706,-25.879,22.949,48.340,56.641,69.824,0
1486223914.710,51.758,18.555,32.227,62.988,26.367,0
1486223914.714,99.121,21.973,34.668,76.660,20.996,0
1486223914.718,42.480,20.508,39.551,56.152,58.594,0
1486223914.722,-45.410,24.414,36.621,51.758,91.309,0
1486223914.726,-27.832,29.785,39.062,56.152,92.285,0
1486223914.729,55.176,21.973,47.852,56.641,9.277,0
1486223914.733,84.473,16.113,44.434,62.988,0.488,0
1486223914.737,43.945,23.926,40.527,54.199,24.414,0
1486223914.741,-26.367,26.367,38.086,57.129,70.801,0
1486223914.745,-41.504,24.414,38.574,61.035,104.004,0
1486223914.749,51.270,20.508,46.387,46.875,32.227,0
1486223914.753,110.352,26.367,45.410,59.570,-6.348,0
1486223914.757,69.824,27.344,42.480,63.965,38.574,0
1486223914.761,-19.043,20.508,38.086,48.340,68.359,0
1486223914.765,-42.480,28.809,44.434,49.316,60.059,0
1486223914.768,42.480,38.086,49.805,51.270,6.348,0
1486223914.772,106.934,33.203,36.133,51.270,-2.441,0
1486223914.776,70.801,18.555,28.320,53.223,19.043,0
1486223914.780,-11.230,21.973,39.551,56.152,43.945,0
1486223914.784,-46.875,25.391,37.109,51.758,88.867,0
1486223914.788,31.738,20.996,27.832,44.922,48.340,0
1486223914.792,106.934,23.926,32.227,68.359,-14.160,0
1486223914.796,83.496,26.855,39.551,74.219,10.254,0
1486223914.800,21.484,32.227,42.480,60.547,58.594,0
1486223914.804,-28.809,31.738,49.316,58.594,66.406,0
1486223914.808,18.066,28.320,46.875,50.293,41.016,0
1486223914.811,89.844,25.391,40.039,61.035,-23.438,0
1486223914.815,90.820,27.832,38.574,73.242,-14.648,0
1486223914.819,31.738,35.156,35.645,67.871,47.363,0
1486223914.823,-21.484,35.645,36.133,65.918,73.242,0
1486223914.827,16.113,34.668,43.945,58.594,53.223,0
1486223914.831,90.820,24.902,35.645,63.477,-19.043,0
1486223914.835,99.609,26.855,27.832,67.871,-37.598,0
1486223914.839,43.457,32.715,42.480,63.965,38.086,0
1486223914.843,-16.602,36.621,47.852,69.336,90.332,0
1486223914.847,13.672,37.109,49.316,65.430,42.969,0
1486223914.851,99.609,34.180,35.156,68.359,-22.949,0
1486223914.854,107.910,30.273,28.809,76.172,26.367,0
1486223914.858,40.039,26.855,41.504,59.570,71.777,0
1486223914.862,-24.902,32.715,40.039,66.895,86.914,0
1486223914.866,1.465,31.250,33.691,79.102,89.844,0
1486223914.870,79.590,29.297,37.598,74.707,15.137,0
1486223914.874,108.398,31.738,41.992,83.008,-2.930,0
1486223914.878,73.242,33.691,41.016,82.031,71.777,0
1486223914.882,-7.324,36.133,44.434,63.965,104.492,0
1486223914.886,-11.719,32.715,47.852,54.199,67.383,0
1486223914.890,71.289,28.320,36.133,60.059,-2.930,0
1486223914.893,100.098,27.832,30.273,64.941,-19.043,0
1486223914.897,63.477,26.855,43.457,69.336,32.227,0
1486223914.901,-10.742,26.855,45.898,75.684,70.312,0
1486223914.905,-24.902,29.297,39.062,71.289,77.148,0
1486223914.909,61.035,34.180,37.598,67.383,24.902,0
1486223914.913,115.234,32.715,41.504,77.148,3.906,0
1486223914.917,79.102,29.785,43.457,77.637,62.988,0
1486223914.921,-4.395,29.785,41.504,62.012,113.281,0
1486223914.925,-25.391,24.414,44.434,65.430,108.887,0
1486223914.929,55.664,24.414,26.855,66.895,35.156,0
1486223914.933,114.258,34.668,23.438,71.289,22.461,0
1486223914.936,79.590,32.227,40.527,69.336,25.879,0
1486223914.940,2.441,28.809,42.969,51.758,50.293,0
1486223914.944,-19.531,32.227,34.668,54.199,80.566,0
1486223914.948,45.410,32.715,37.598,55.176,41.992,0
1486223914.952,106.934,31.250,34.180,65.918,9.766,0
1486223914.956,84.473,30.762,24.902,77.637,41.992,0
1486223914.960,8.789,33.203,32.715,67.871,80.566,0
1486223914.964,-23.926,32.227,39.551,57.617,125.000,0
1486223914.968,33.203,26.367,34.668,61.035,70.312,0
1486223914.972,103.516,29.297,30.762,76.660,-8.301,0
1486223914.976,92.773,29.297,32.715,76.660,14.648,0
1486223914.979,19.043,27.832,29.785,68.359,53.223,0
1486223914.983,-39.551,30.762,39.062,71.777,119.629,0
1486223914.987,14.160,29.785,41.504,62.988,84.961,0
1486223914.991,89.844,31.250,35.645,56.152,-23.438,0
1486223914.995,86.426,26.367,39.062,67.871,3.906,0
1486223914.999,29.785,28.320,37.109,62.988,55.176,0
1486223915.003,-44.922,31.738,41.504,58.105,114.746,0
1486223915.007,-15.137,29.297,40.039,45.898,87.891,0
1486223915.011,82.031,29.297,32.227,49.316,-2.930,0
1486223915.015,95.703,24.414,34.180,66.895,46.387,0
1486223915.018,36.621,26.855,37.598,64.941,63.965,0
1486223915.022,-30.762,28.809,37.598,53.711,99.609,0
1486223915.026,-10.254,24.414,38.574,49.805,114.746,0
1486223915.030,85.449,21.484,34.180,64.453,23.926,0
1486223915.034,110.352,23.438,35.156,65.918,4.395,0
1486223915.038,41.992,28.809,37.598,53.223,50.293,2
1486223915.042,-28.809,29.297,43.457,56.152,96.680,0
1486223915.046,-15.625,28.320,36.621,60.059,112.793,0
1486223915.050,61.523,19.043,27.344,65.918,21.973,0
1486223915.054,97.168,20.508,30.273,70.801,-15.625,0
1486223915.058,53.223,24.902,32.227,61.035,46.387,0
1486223915.061,-17.578,35.156,48.828,60.059,59.082,0
1486223915.065,-25.879,32.715,47.852,55.664,68.848,0
1486223915.069,52.246,19.043,36.133,42.969,6.348,0
1486223915.073,108.398,26.367,39.551,64.453,0.000,0
1486223915.077,66.406,27.344,36.133,65.918,35.156,0
1486223915.081,-12.695,25.391,32.715,66.406,53.711,0
1486223915.085,-10.254,23.926,36.133,65.430,78.125,0
1486223915.089,70.801,23.926,36.133,46.875,12.695,0
1486223915.093,119.629,26.367,31.738,60.547,12.695,0
1486223915.097,84.473,22.461,29.297,65.918,49.805,0
1486223915.100,-3.418,23.438,40.527,63.477,45.410,0
1486223915.104,-30.762,31.250,45.898,62.500,116.211,0
1486223915.108,45.410,34.180,35.645,44.434,27.344,0
1486223915.112,105.469,32.227,36.133,60.059,-24.414,0
1486223915.116,80.078,21.484,46.875,70.312,51.270,0
1486223915.120,6.836,26.855,39.062,65.430,58.105,0
1486223915.124,-37.598,29.297,29.785,64.453,84.473,0
1486223915.128,22.461,23.926,37.598,49.805,23.438,0
1486223915.132,104.004,28.320,37.109,57.617,-20.508,0
1486223915.136,87.891,30.273,31.250,61.523,40.527,0
1486223915.140,10.742,27.344,39.551,52.246,63.965,0
1486223915.143,-44.434,29.297,47.852,52.734,104.004,0
1486223915.147,2.441,33.203,38.086,51.270,78.613,0
1486223915.151,84.473,22.461,35.156,61.035,-11.719,0
1486223915.155,88.379,20.508,36.133,66.406,46.387,0
1486223915.159,36.621,31.250,38.086,59.082,84.473,0
1486223915.163,-23.438,30.273,43.457,69.336,110.352,0
1486223915.167,17.090,30.273,33.203,53.223,118.652,0
1486223915.171,107.910,29.785,25.391,59.082,24.902,0
1486223915.175,116.699,32.715,36.133,82.031,-2.441,0
1486223915.179,51.270,31.250,41.016,73.242,41.016,0
1486223915.183,-23.438,23.438,38.086,63.477,104.004,0
1486223915.186,6.836,30.273,45.410,59.082,77.148,0
1486223915.190,97.168,28.809,46.875,75.195,-17.090,0
1486223915.194,122.559,27.832,37.598,81.543,15.625,0
1486223915.198,62.500,29.785,39.062,64.453,51.270,0
1486223915.202,-27.832,28.320,40.039,67.871,101.074,0
1486223915.206,-9.766,28.809,38.086,62.988,122.559,0
1486223915.210,88.379,26.855,41.992,66.895,45.410,0
1486223915.214,113.770,28.809,43.945,80.566,19.531,0
1486223915.218,61.523,25.879,36.133,71.777,66.406,0
1486223915.222,-14.648,31.250,40.527,63.965,105.957,0
1486223915.225,-20.020,37.598,50.293,62.500,88.867,0
1486223915.229,65.918,24.414,47.363,61.035,-5.371,0
1486223915.233,112.793,23.926,51.758,64.941,-12.695,0
1486223915.237,67.383,29.785,52.246,62.500,53.711,0
1486223915.241,-9.766,25.391,35.156,62.500,83.496,0
1486223915.245,-19.531,28.809,34.180,70.801,94.727,0
1486223915.249,52.734,27.832,41.504,67.871,18.066,0
1486223915.253,101.074,23.438,39.062,62.012,29.785,0
1486223915.257,72.754,31.250,34.668,67.871,45.410,0
1486223915.261,-2.930,31.250,36.133,62.500,36.133,0
1486223915.265,-24.902,34.180,51.270,55.664,83.008,0
1486223915.268,53.711,33.203,41.504,61.035,29.297,0
1486223915.272,117.188,30.762,30.762,69.824,-18.555,0
1486223915.276,82.031,26.367,39.551,68.359,24.414,0
1486223915.280,7.812,25.879,33.203,60.547,59.082,0
1486223915.284,-20.020,32.715,35.156,57.617,99.609,0
1486223915.288,29.297,26.367,35.645,53.711,48.340,0
1486223915.292,106.445,26.367,31.738,65.430,-7.324,0
1486223915.296,108.887,33.203,41.016,69.824,55.176,0
1486223915.300,20.996,31.738,41.016,67.383,84.473,0
1486223915.304,-41.992,31.250,33.203,61.523,98.145,0
1486223915.308,20.508,27.832,41.016,59.082,55.176,0
1486223915.311,98.633,24.902,34.180,56.641,35.156,0
1486223915.315,94.727,30.762,28.320,61.523,50.781,0
1486223915.319,17.578,26.367,44.434,58.105,45.410,0
1486223915.323,-44.434,21.973,43.457,52.246,89.844,0
1486223915.327,0.977,18.066,34.180,41.992,92.285,0
1486223915.331,89.355,22.949,40.039,48.828,33.691,0
1486223915.335,90.332,29.785,35.645,70.801,34.180,0
1486223915.339,25.879,26.855,30.273,64.941,50.781,0
1486223915.343,-31.738,28.320,44.434,60.059,84.961,0
1486223915.347,-15.137,31.250,39.062,63.965,92.285,0
1486223915.350,68.848,35.156,27.344,58.594,-19.043,0
1486223915.354,104.004,35.645,37.598,71.777,-44.922,0
1486223915.358,48.828,28.320,55.664,77.637,21.484,0
1486223915.362,-33.691,20.996,48.340,58.594,69.824,0
1486223915.366,-19.043,21.973,34.668,47.852,87.402,0
1486223915.370,64.941,23.926,36.133,53.711,-2.441,0
1486223915.374,93.262,22.461,36.133,63.477,43.945,0
1486223915.378,37.109,26.367,37.109,58.105,79.102,0
1486223915.382,-37.598,27.344,37.598,58.594,84.961,0
1486223915.386,-19.043,27.344,31.250,51.758,89.844,0
1486223915.390,71.289,26.855,32.715,52.734,11.230,0
1486223915.393,103.516,29.297,43.457,78.125,6.836,0
1486223915.397,54.199,32.715,41.504,77.637,2.441,0
1486223915.401,-15.625,26.367,38.574,55.176,66.406,0
1486223915.405,-36.621,21.484,35.156,49.316,133.789,0
1486223915.409,49.316,26.367,28.809,53.223,50.293,0
1486223915.413,115.723,28.320,38.574,73.730,18.555,0
1486223915.417,63.965,25.879,36.621,72.754,58.105,0
1486223915.421,-10.742,31.250,33.203,62.988,54.688,0
1486223915.425,-27.832,32.227,35.156,63.477,105.957,0
1486223915.429,45.898,35.645,23.926,55.664,63.477,0
1486223915.432,111.328,33.691,30.273,62.988,10.742,0
1486223915.436,77.148,19.531,44.922,73.730,45.898,0
1486223915.440,-4.395,22.949,41.992,64.941,81.543,0
1486223915.444,-41.992,25.879,37.109,54.688,98.145,0
1486223915.448,30.762,21.973,35.156,51.270,57.617,0
1486223915.452,107.910,26.855,40.039,69.824,5.859,0
1486223915.456,92.285,31.738,43.945,81.543,10.254,0
1486223915.460,20.508,32.715,43.945,61.523,63.965,0
1486223915.464,-27.832,39.551,42.969,57.617,98.633,0
1486223915.468,33.203,37.598,44.434,59.570,45.410,0
1486223915.472,97.168,21.973,36.621,57.129,-26.367,0
1486223915.475,81.543,22.461,33.203,71.289,5.371,0
1486223915.479,8.789,27.832,38.086,72.266,50.781,0
1486223915.483,-49.805,26.855,34.180,54.199,79.590,0
1486223915.487,6.836,26.367,30.273,42.969,38.574,0
1486223915.491,101.562,27.344,36.133,65.430,-4.395,0
1486223915.495,89.355,24.414,37.598,76.172,24.902,0
1486223915.499,21.973,28.320,39.551,60.059,-2.930,0
1486223915.503,-36.621,28.320,35.156,49.805,41.992,0
1486223915.507,-4.883,30.273,33.691,50.781,86.426,0
1486223915.511,90.820,33.203,46.875,60.547,17.578,0
1486223915.515,114.746,29.785,47.363,69.336,3.418,0
1486223915.518,50.781,24.414,45.410,69.824,29.785,0
1486223915.522,-30.762,21.484,40.039,66.406,112.793,0
1486223915.526,-14.648,26.855,31.738,67.871,103.516,0
1486223915.530,88.867,25.879,35.645,66.406,3.418,0
1486223915.534,118.164,24.414,42.969,66.895,5.371,0
1486223915.538,60.547,20.508,35.645,60.059,26.367,0
1486223915.542,-21.484,20.996,29.297,55.176,67.871,0
1486223915.546,-20.996,27.344,35.645,62.012,69.824,0
1486223915.550,70.801,25.879,37.109,67.871,-1.465,0
1486223915.554,113.281,33.203,38.086,65.430,-8.301,0
1486223915.557,66.895,37.109,44.922,59.082,-1.465,0
1486223915.561,-4.395,31.738,47.852,59.082,36.133,0
1486223915.565,-18.066,30.762,33.203,56.152,95.215,0
1486223915.569,51.758,30.273,30.762,55.664,3.906,0
1486223915.573,105.957,27.344,36.133,66.895,-17.090,0
1486223915.577,75.195,25.391,27.832,63.477,51.270,0
1486223915.581,-25.391,27.344,33.203,46.387,40.039,0
1486223915.585,-43.945,25.391,37.109,40.039,68.359,0
1486223915.589,68.848,27.344,37.109,41.016,36.133,0
1486223915.593,107.422,23.438,39.551,51.270,-7.324,0
1486223915.597,64.453,24.414,38.086,63.965,17.090,0
1486223915.600,3.418,31.250,33.203,63.965,38.574,0
1486223915.604,-26.855,31.250,34.668,46.875,92.773,0
1486223915.608,42.969,27.344,39.062,39.551,43.457,0
1486223915.612,106.934,24.902,30.762,58.594,-14.160,0
1486223915.616,86.914,22.949,32.227,62.012,8.301,0
1486223915.620,13.672,23.438,41.504,57.617,36.621,0
1486223915.624,-40.039,25.879,37.109,54.688,107.910,0
1486223915.628,14.648,25.391,28.809,43.945,73.242,0
1486223915.632,100.098,31.250,48.828,60.547,1.465,0
1486223915.636,95.215,27.832,49.316,67.383,14.160,0
1486223915.640,19.531,24.414,37.598,61.523,54.688,0
1486223915.643,-29.297,24.902,44.922,70.801,72.266,0
1486223915.647,24.902,23.926,44.434,71.289,39.062,0
1486223915.651,104.004,26.855,29.785,78.125,-1.465,0
1486223915.655,104.980,24.414,18.555,71.289,22.461,0
1486223915.659,35.156,26.367,34.668,62.500,30.273,0
1486223915.663,-28.320,25.391,41.016,62.500,67.871,0
1486223915.667,1.465,20.996,26.855,50.781,70.312,0
1486223915.671,86.426,26.855,26.367,52.734,-18.066,0
1486223915.675,109.375,29.297,43.945,77.637,-19.043,0
1486223915.679,36.133,27.832,44.922,68.359,28.320,0
1486223915.682,-46.875,24.414,35.156,45.898,92.773,0
1486223915.686,-11.719,23.438,38.574,55.664,101.562,0
1486223915.690,74.219,28.320,33.691,57.617,-5.371,0
1486223915.694,94.727,23.438,31.250,52.246,-0.488,0
1486223915.698,35.645,24.414,32.227,43.945,41.992,0
1486223915.702,-44.434,29.785,25.391,43.457,62.500,1
1486223915.706,-14.648,26.367,31.250,46.875,78.613,0
1486223915.710,74.219,28.320,40.039,58.105,20.020,0
1486223915.714,108.887,33.691,47.363,70.801,-1.953,0
1486223915.718,54.688,29.297,42.480,62.988,13.184,0
1486223915.722,-17.578,27.832,30.273,60.059,67.871,0
1486223915.725,-21.973,26.367,27.344,63.477,90.820,0
1486223915.729,72.266,27.344,28.809,73.242,12.695,0
1486223915.733,125.977,28.320,32.227,87.891,-10.742,0
1486223915.737,75.684,27.344,40.527,85.938,34.180,0
1486223915.741,-6.348,30.273,40.039,82.031,93.262,0
1486223915.745,-27.344,29.785,35.156,73.730,104.004,0
1486223915.749,58.594,32.715,38.574,67.871,1.953,0
1486223915.753,109.375,33.691,37.598,70.312,-6.348,0
1486223915.757,81.055,30.762,37.598,66.406,45.410,0
1486223915.761,4.395,32.715,31.738,64.941,45.898,0
1486223915.764,-33.203,27.344,32.227,62.988,107.422,0
1486223915.768,46.875,22.949,40.039,60.059,68.359,0
1486223915.772,101.562,25.879,38.086,65.430,-1.953,0
1486223915.776,77.637,26.855,42.969,60.059,49.805,0
1486223915.780,9.766,33.203,42.969,51.270,99.609,0
1486223915.784,-25.391,37.109,41.016,60.547,140.137,0
1486223915.788,35.156,25.879,42.969,55.664,70.801,0
1486223915.792,104.004,26.855,34.668,56.152,9.766,0
1486223915.796,101.074,35.156,41.016,66.895,56.641,0
1486223915.800,29.785,29.785,41.992,64.941,91.309,0
1486223915.804,-30.273,22.949,31.738,62.988,114.258,0
1486223915.807,25.879,23.438,37.598,56.152,75.195,0
1486223915.811,101.562,29.297,41.992,79.590,6.836,0
1486223915.815,95.703,30.273,47.363,96.191,-1.953,0
1486223915.819,32.227,20.508,44.434,81.055,36.133,0
1486223915.823,-31.738,20.020,35.645,74.219,93.750,0
1486223915.827,17.090,23.926,39.551,61.035,59.082,0
1486223915.831,98.145,25.391,30.273,76.660,-13.184,0
1486223915.835,107.910,31.250,31.250,84.961,7.812,0
1486223915.839,41.504,29.297,37.109,62.012,13.184,0
1486223915.843,-20.996,34.180,45.898,65.918,62.500,0
1486223915.847,4.395,37.598,46.875,61.035,60.059,0
1486223915.850,86.914,29.785,33.203,55.664,-9.277,0
1486223915.854,104.492,26.367,33.203,72.754,3.418,0
1486223915.858,41.504,25.391,41.504,63.477,23.926,0
1486223915.862,-22.949,31.250,45.410,55.176,90.820,0
1486223915.866,-9.766,34.180,39.551,56.152,122.559,0
1486223915.870,70.312,28.320,29.785,53.711,10.742,0
1486223915.874,107.422,27.832,25.391,70.312,-16.602,0
1486223915.878,62.988,32.715,27.832,66.406,14.648,0
1486223915.882,-19.043,36.621,33.691,49.805,48.828,0
1486223915.886,-22.461,34.180,36.621,46.387,49.316,0
1486223915.889,84.473,31.738,47.363,60.059,-26.367,0
1486223915.893,120.117,30.762,45.410,67.871,2.441,0
1486223915.897,59.570,24.902,31.250,59.082,42.480,0
1486223915.901,-27.344,21.484,36.621,55.176,83.984,0
1486223915.905,-38.086,30.273,30.273,58.105,90.820,0
1486223915.909,57.129,28.320,21.484,58.105,-4.395,0
1486223915.913,98.633,23.438,28.320,62.500,-10.742,0
1486223915.917,67.871,27.832,36.621,63.477,6.836,0
1486223915.921,0.488,26.367,37.109,62.988,62.500,0
1486223915.925,-20.020,28.809,42.969,67.383,132.812,0
1486223915.929,53.223,30.762,42.969,60.547,41.016,0
1486223915.932,114.746,25.391,37.109,67.383,0.488,0
1486223915.936,95.215,27.344,44.922,80.078,45.410,0
1486223915.940,7.324,25.879,55.664,68.359,63.477,0
1486223915.944,-32.715,22.949,39.551,59.570,90.820,0
1486223915.948,46.875,27.832,22.461,61.523,10.254,0
1486223915.952,117.676,26.855,27.344,73.730,-21.973,0
1486223915.956,90.820,28.320,29.297,75.684,34.668,0
1486223915.960,14.648,27.344,40.039,69.824,73.242,0
1486223915.964,-29.785,24.902,40.527,66.406,117.188,0
1486223915.968,26.367,23.926,31.738,65.430,59.082,0
1486223915.972,113.770,35.645,36.621,83.496,0.977,0
1486223915.975,110.840,36.133,51.270,88.379,43.945,0
1486223915.979,38.086,20.508,47.363,70.312,57.617,0
1486223915.983,-24.902,20.020,30.273,49.805,63.477,0
1486223915.987,4.395,21.484,20.020,45.898,39.551,0
1486223915.991,87.402,25.879,15.625,58.594,-23.926,0
1486223915.995,93.262,30.273,31.250,65.430,15.137,0
1486223915.999,31.250,27.832,47.363,62.500,59.082,0
1486223916.003,-25.879,29.297,42.480,55.664,108.398,0
1486223916.007,-1.953,31.250,39.551,51.270,106.934,0
1486223916.011,84.961,31.738,40.527,58.594,2.441,0
1486223916.014,103.027,29.297,39.551,69.336,8.789,0
1486223916.018,33.691,21.484,28.809,51.758,56.641,0
1486223916.022,-31.738,25.879,25.879,50.781,104.980,0
1486223916.026,-11.230,28.809,22.949,56.641,93.262,0
1486223916.030,73.730,24.414,28.320,56.152,-9.766,0
1486223916.034,110.352,28.809,36.133,63.965,-19.043,0
1486223916.038,64.453,33.203,34.668,63.477,29.297,0
1486223916.042,-16.602,35.156,37.598,66.406,66.895,0
1486223916.046,-16.113,27.344,35.156,61.523,64.453,0
1486223916.050,76.172,21.484,35.156,61.523,-6.836,0
1486223916.054,120.117,33.691,49.316,81.543,-13.184,0
1486223916.057,69.336,38.086,49.316,69.824,2.930,0
1486223916.061,-6.348,25.879,27.344,58.105,42.969,0
1486223916.065,-30.762,18.066,23.926,66.406,105.469,0
1486223916.069,46.387,21.973,25.391,48.828,2.441,0
1486223916.073,120.605,29.297,34.668,61.523,-16.602,0
1486223916.077,77.148,27.344,33.203,65.918,55.176,0
1486223916.081,-14.648,22.949,27.832,58.594,79.590,0
1486223916.085,-41.016,22.461,36.621,62.012,119.141,0
1486223916.089,44.922,36.133,47.852,58.105,47.363,0
1486223916.093,95.215,31.738,44.434,64.453,12.207,0
1486223916.096,60.547,20.508,26.855,68.359,60.059,0
1486223916.100,-10.254,25.391,35.645,76.660,87.891,0
1486223916.104,-42.969,26.367,41.016,61.035,94.727,0
1486223916.108,23.438,23.926,29.297,43.945,38.086,0
1486223916.112,93.262,22.461,29.297,59.082,-2.441,0
1486223916.116,80.566,24.902,35.156,61.523,12.695,0
1486223916.120,1.465,21.973,40.039,50.293,53.711,0
1486223916.124,-41.992,28.809,38.574,55.664,94.238,0
1486223916.128,26.367,31.250,35.645,56.641,51.270,0
1486223916.132,84.961,18.066,31.250,56.641,11.230,0
1486223916.136,69.336,20.508,35.645,65.430,50.293,0
1486223916.139,14.160,25.879,33.691,55.176,51.758,0
1486223916.143,-40.039,22.461,35.645,48.340,75.195,0
1486223916.147,9.766,24.414,42.480,61.523,77.637,0
1486223916.151,88.867,22.949,40.527,66.895,2.930,0
1486223916.155,96.680,24.414,36.621,63.965,12.695,0
1486223916.159,44.434,38.086,41.504,72.754,42.480,0
1486223916.163,-16.113,37.598,45.410,78.613,74.219,0
1486223916.167,7.324,22.949,31.250,59.082,76.172,0
1486223916.171,98.633,31.738,38.574,65.430,18.555,0
1486223916.175,108.398,28.809,37.109,76.172,31.738,0
1486223916.179,31.738,18.555,26.367,61.035,38.086,0
1486223916.182,-31.250,23.926,36.621,54.688,71.289,0
1486223916.186,-8.301,27.344,32.715,45.410,83.008,0
1486223916.190,83.496,22.461,26.367,53.223,10.254,0
1486223916.194,109.375,23.926,32.227,70.312,-4.395,0
1486223916.198,48.828,27.344,35.645,59.570,18.555,0
1486223916.202,-17.090,25.391,35.645,54.688,58.105,0
1486223916.206,-4.395,35.645,42.480,60.059,91.797,0
1486223916.210,83.008,32.227,36.621,67.871,13.184,0
1486223916.214,121.094,26.855,28.320,79.102,19.531,0
1486223916.218,60.059,29.785,31.738,67.871,86.426,0
1486223916.221,-22.461,28.320,40.527,73.730,98.145,0
1486223916.225,-13.672,26.367,44.434,67.871,136.719,0
1486223916.229,73.242,24.414,30.273,50.781,48.828,0
1486223916.233,114.746,21.484,22.461,67.871,32.715,0
1486223916.237,71.777,26.367,39.551,76.660,74.219,0
1486223916.241,-8.789,30.762,45.410,65.430,89.355,0
1486223916.245,-38.086,29.297,27.344,62.500,109.863,0
1486223916.249,36.133,33.691,25.879,56.641,24.902,0
1486223916.253,104.492,31.250,40.527,64.453,-11.719,0
1486223916.257,79.590,26.367,38.574,65.918,32.227,0
1486223916.261,-3.906,28.809,27.832,50.781,69.336,0
1486223916.264,-38.574,28.809,26.367,41.992,118.164,0
1486223916.268,34.668,26.855,28.320,37.598,59.082,0
1486223916.272,93.750,27.344,34.668,57.617,-1.465,0
1486223916.276,73.730,26.367,35.645,54.199,17.578,0
1486223916.280,2.930,28.320,39.062,45.410,57.617,0
1486223916.284,-43.457,22.461,29.297,42.969,86.426,0
1486223916.288,11.719,23.438,29.297,41.504,40.039,0
1486223916.292,91.309,30.762,40.039,66.406,16.113,0
1486223916.296,81.543,26.855,31.250,62.988,44.434,0
1486223916.300,0.977,27.344,30.273,47.852,52.246,0
1486223916.304,-46.875,25.391,35.645,51.758,93.750,0
1486223916.307,3.906,24.902,28.809,43.457,67.383,0
1486223916.311,90.332,29.785,25.879,51.758,-0.977,0
1486223916.315,99.609,22.949,35.645,59.570,23.926,0
1486223916.319,21.484,20.020,35.645,47.363,16.113,0
1486223916.323,-34.668,34.180,35.156,58.594,51.758,0
1486223916.327,11.230,36.133,40.527,60.547,57.129,0
1486223916.331,84.473,21.973,33.203,53.223,3.418,0
1486223916.335,102.539,21.973,30.273,74.219,14.160,0
1486223916.339,42.969,30.762,44.434,75.195,17.578,0
1486223916.343,-16.113,39.551,49.805,65.430,75.684,0
1486223916.346,13.672,30.762,40.039,56.641,52.246,0
1486223916.350,83.008,18.555,32.227,45.898,-34.668,1
1486223916.354,109.375,28.809,34.668,60.059,14.648,0
1486223916.358,51.758,28.320,29.297,57.617,45.410,0
1486223916.362,-23.438,30.762,29.785,60.547,62.012,0
1486223916.366,-10.254,31.250,37.109,53.711,74.707,0
1486223916.370,64.941,20.020,26.855,43.457,13.184,0
1486223916.374,97.168,20.996,29.785,69.336,40.527,0
1486223916.378,48.828,24.902,42.480,64.453,40.039,0
1486223916.382,-33.691,24.414,39.062,48.828,87.891,0
1486223916.386,-41.016,20.508,22.949,37.109,122.559,0
1486223916.389,58.594,27.344,26.855,39.551,4.395,0
1486223916.393,109.863,29.785,36.621,61.035,-11.230,0
1486223916.397,56.641,24.902,35.645,55.664,29.785,0
1486223916.401,-21.484,21.973,26.367,51.758,90.332,0
1486223916.405,-33.203,20.020,23.926,53.711,68.848,0
1486223916.409,42.969,20.508,29.297,47.363,-22.461,0
1486223916.413,107.910,23.926,34.668,66.895,-20.996,0
1486223916.417,77.148,28.320,45.410,81.055,-2.441,0
1486223916.421,-9.277,28.320,38.086,72.754,19.043,0
1486223916.425,-39.551,23.438,41.992,70.312,82.031,0
1486223916.428,35.645,18.066,36.621,58.105,53.711,0
1486223916.432,99.609,23.438,25.391,66.406,20.020,0
1486223916.436,74.707,22.949,40.039,75.684,48.828,0
1486223916.440,13.184,25.879,41.992,68.848,104.004,0
1486223916.444,-34.180,29.297,35.156,61.035,163.086,0
1486223916.448,28.809,20.996,28.320,48.340,84.961,0
1486223916.452,110.840,23.438,33.203,61.035,17.090,0
1486223916.456,91.797,29.297,37.598,68.359,76.172,0
1486223916.460,9.766,24.414,30.762,50.293,123.047,0
1486223916.464,-36.133,22.949,40.039,54.199,153.809,0
1486223916.468,24.902,26.855,43.945,58.594,109.863,0
1486223916.471,105.957,33.203,27.832,63.965,16.602,0
1486223916.475,102.539,23.926,18.066,69.824,10.742,0
1486223916.479,37.109,27.832,24.902,67.383,23.438,0
1486223916.483,-18.555,33.203,39.551,75.195,62.012,0
1486223916.487,18.555,22.949,30.273,67.871,40.527,0
1486223916.491,95.703,23.438,27.344,61.523,-16.113,0
1486223916.495,110.352,29.297,33.203,69.336,66.895,0
1486223916.499,54.199,21.484,34.668,62.012,81.055,0
1486223916.503,-26.367,19.531,36.621,63.477,76.172,0
1486223916.507,11.230,34.668,46.875,68.359,72.266,0
1486223916.511,103.516,35.645,45.410,72.266,-5.859,0
1486223916.514,118.652,21.973,33.691,80.078,11.230,0
1486223916.518,59.570,20.508,37.109,70.312,26.855,0
1486223916.522,-30.762,23.926,40.039,69.336,69.336,0
1486223916.526,-24.414,20.996,34.180,53.223,89.355,0
1486223916.530,76.660,22.949,31.250,56.641,-24.902,0
1486223916.534,110.840,28.320,38.086,84.961,-39.551,0
1486223916.538,56.152,29.785,41.992,85.938,-6.348,0
1486223916.542,-23.438,28.809,41.992,72.754,55.664,0
1486223916.546,-13.672,27.344,39.062,58.105,93.750,0
1486223916.550,74.219,26.367,36.133,61.035,11.719,0
1486223916.553,104.004,23.926,29.785,68.359,10.254,0
1486223916.557,55.664,25.391,34.668,61.035,33.691,0
1486223916.561,-23.926,23.926,36.133,48.828,51.758,0
1486223916.565,-25.879,24.902,24.902,46.387,91.797,0
1486223916.569,57.129,27.832,24.902,54.688,54.688,0
1486223916.573,104.004,30.273,35.156,68.359,3.906,0
1486223916.577,67.383,33.203,36.621,64.453,20.020,0
1486223916.581,0.000,29.297,35.645,60.059,87.891,0
1486223916.585,-30.273,23.926,32.227,57.129,128.418,0
1486223916.589,49.316,33.691,37.109,47.852,47.363,0
1486223916.593,119.629,37.109,39.551,68.359,13.672,0
1486223916.596,83.496,29.785,38.574,69.824,68.848,0
1486223916.600,6.348,22.949,27.832,66.895,78.613,0
1486223916.604,-26.367,24.902,22.461,70.312,114.258,0
1486223916.608,41.504,31.738,40.039,55.664,70.312,0
1486223916.612,113.281,34.668,46.875,63.477,-8.789,0
1486223916.616,103.516,28.320,34.668,66.406,-12.695,0
1486223916.620,21.484,23.438,26.367,62.500,55.176,0
1486223916.624,-29.785,27.832,30.273,66.406,125.488,0
1486223916.628,31.250,24.902,36.133,58.105,70.801,0
1486223916.632,106.934,20.996,39.062,68.848,7.324,0
1486223916.636,81.543,22.949,33.691,83.984,47.852,0
1486223916.639,14.648,23.926,31.738,66.895,58.105,0
1486223916.643,-25.879,24.414,33.691,56.641,96.680,0
1486223916.647,11.719,31.738,34.180,60.059,71.289,0
1486223916.651,104.492,32.227,40.039,77.148,4.883,0
1486223916.655,104.980,24.414,41.992,77.637,23.926,0
1486223916.659,29.785,28.320,33.691,62.012,26.367,0
1486223916.663,-31.738,22.461,29.785,58.594,99.609,0
1486223916.667,-0.977,15.137,30.273,51.758,103.027,0
1486223916.671,90.820,24.902,31.738,62.500,-4.883,0
1486223916.675,106.934,32.227,44.434,80.078,-31.738,0
1486223916.678,32.715,22.461,37.598,63.965,14.160,0
1486223916.682,-35.156,25.879,30.273,61.035,57.617,0
1486223916.686,-9.277,25.879,38.086,57.617,25.879,0
1486223916.690,74.707,27.832,37.598,58.105,-39.551,0
1486223916.694,108.398,37.598,28.320,73.242,12.207,0
1486223916.698,65.430,36.133,29.297,65.918,44.922,0
1486223916.702,-18.066,31.738,33.691,61.035,46.875,0
1486223916.706,-18.066,24.902,22.949,55.176,52.734,0
1486223916.710,68.359,29.785,27.832,53.711,-10.254,0
1486223916.714,104.492,28.809,41.504,64.453,-32.227,0
1486223916.718,48.340,18.555,34.180,55.664,-12.695,0
1486223916.721,-28.809,22.949,29.297,58.594,76.660,0
1486223916.725,-27.832,23.438,33.691,60.059,100.098,0
1486223916.729,69.336,28.320,36.621,61.035,-5.859,0
1486223916.733,104.980,34.180,41.504,76.660,-2.441,0
1486223916.737,58.105,28.320,30.762,67.871,41.992,0
1486223916.741,1.465,35.156,25.879,65.430,84.961,0
1486223916.745,-14.160,30.762,31.738,64.941,134.277,0
1486223916.749,47.363,20.996,33.691,60.059,46.387,0
1486223916.753,104.980,22.949,36.621,68.848,7.812,0
1486223916.757,71.289,20.020,34.180,65.918,82.031,0
1486223916.760,-16.602,25.391,27.344,62.012,145.996,0
1486223916.764,-37.109,30.762,38.086,61.035,135.742,0
1486223916.768,40.039,20.020,47.363,55.664,40.527,0
1486223916.772,98.145,16.602,30.273,65.430,-0.488,0
1486223916.776,84.473,22.461,26.855,73.242,54.688,0
1486223916.780,13.184,23.926,35.156,64.941,80.566,0
1486223916.784,-31.250,31.738,33.203,65.430,96.680,0
1486223916.788,30.762,36.133,33.691,61.523,35.645,0
1486223916.792,103.027,35.645,37.109,68.848,-0.488,0
1486223916.796,96.680,28.809,31.250,72.754,7.812,0
1486223916.800,18.066,24.414,34.668,62.988,25.879,0
1486223916.803,-38.574,27.832,41.016,60.059,108.398,0
1486223916.807,12.695,27.344,36.621,57.617,61.035,0
1486223916.811,98.145,23.438,25.391,60.059,-30.273,0
1486223916.815,94.727,22.949,19.531,61.035,3.418,0
1486223916.819,20.020,22.949,26.855,63.965,63.965,0
1486223916.823,-26.855,21.973,38.086,64.941,97.168,0
1486223916.827,12.695,30.273,43.945,60.059,56.641,0
1486223916.831,88.867,24.414,30.762,66.895,-25.391,0
1486223916.835,97.656,25.391,21.484,75.195,-13.672,0
1486223916.839,51.270,37.109,36.621,69.824,6.348,0
1486223916.843,-21.484,23.438,44.434,67.871,69.824,0
1486223916.846,-13.672,17.090,35.156,59.082,76.172,0
1486223916.850,84.473,21.484,31.250,58.105,-10.742,0
1486223916.854,111.816,21.484,29.785,71.289,-36.621,0
1486223916.858,49.316,27.344,25.879,67.871,-27.832,0
1486223916.862,-16.602,36.621,44.434,72.754,-16.602,0
1486223916.866,0.000,31.738,49.316,69.336,3.418,0
1486223916.870,70.801,21.484,23.438,58.105,-27.344,0
1486223916.874,105.957,26.855,31.250,80.566,-47.363,0
1486223916.878,53.223,27.832,45.410,80.078,-12.695,0
1486223916.882,-26.855,24.414,35.645,56.152,49.316,0
1486223916.885,-28.320,22.461,28.320,43.457,78.125,0
1486223916.889,54.688,27.832,32.715,52.734,-8.789,0
1486223916.893,103.027,28.809,30.762,58.594,-36.133,0
1486223916.897,51.758,24.414,30.762,54.199,23.438,0
1486223916.901,-17.090,24.902,44.922,63.965,89.355,0
1486223916.905,-19.531,25.879,35.645,58.105,102.539,0
1486223916.909,47.363,25.391,23.438,43.945,-6.348,0
1486223916.913,108.398,23.926,33.691,70.312,-11.719,0
1486223916.917,74.707,28.320,34.180,66.895,42.969,1
1486223916.921,-15.625,28.320,38.574,54.199,52.734,0
1486223916.925,-47.852,17.090,32.715,57.617,88.379,0
1486223916.928,26.367,16.113,32.715,50.293,19.043,0
1486223916.932,96.680,23.926,41.504,68.359,-18.555,0
1486223916.936,80.566,37.109,36.133,75.684,38.574,0
1486223916.940,5.371,36.133,42.480,71.289,72.266,0
1486223916.944,-40.039,24.414,42.480,62.500,97.168,0
1486223916.948,27.832,20.020,27.344,45.410,39.062,0
1486223916.952,103.027,24.414,23.438,59.082,11.230,0
1486223916.956,91.797,29.785,30.273,68.848,59.570,0
1486223916.960,18.555,30.762,38.574,62.988,69.824,0
1486223916.964,-37.598,33.203,42.480,60.547,113.281,0
1486223916.968,16.602,33.691,37.109,44.434,76.660,0
1486223916.971,81.543,27.344,30.762,44.434,-10.742,0
1486223916.975,79.102,25.391,34.180,60.059,0.977,0
1486223916.979,24.414,31.738,40.527,59.570,27.832,0
1486223916.983,-34.180,29.785,44.922,69.336,83.008,0
1486223916.987,10.742,25.879,32.715,63.965,37.109,0
1486223916.991,92.285,20.996,24.902,60.547,-24.902,0
1486223916.995,96.680,26.367,37.109,69.824,-2.441,0
1486223916.999,36.621,36.133,38.086,64.453,43.945,0
1486223917.003,-26.367,27.832,36.133,66.895,97.656,0
1486223917.007,-5.859,26.367,44.434,57.129,70.312,0
1486223917.010,76.172,29.785,29.785,52.734,-9.766,0
1486223917.014,103.027,32.227,24.414,74.219,6.348,0
1486223917.018,48.340,35.645,37.109,68.359,28.320,0
1486223917.022,-23.926,29.785,49.316,56.641,31.250,0
1486223917.026,-14.648,20.508,42.480,54.199,65.918,0
1486223917.030,72.754,23.926,35.156,55.176,-15.625,0
1486223917.034,106.445,30.762,38.086,68.359,-16.602,0
1486223917.038,54.688,25.391,33.691,60.059,42.480,0
1486223917.042,-18.066,26.367,36.621,60.547,58.105,0
1486223917.046,-9.766,29.297,37.598,58.105,93.262,0
1486223917.050,76.660,28.320,34.668,56.641,-14.160,0
1486223917.053,121.582,33.203,40.527,78.125,-23.438,0
1486223917.057,79.102,29.785,47.363,73.242,37.598,0
1486223917.061,3.418,27.832,50.781,69.824,48.340,0
1486223917.065,-11.230,28.320,41.992,65.430,73.242,0
1486223917.069,60.547,25.879,23.438,56.152,25.391,0
1486223917.073,113.770,26.855,27.832,80.078,17.090,0
1486223917.077,79.102,31.250,36.133,81.055,45.410,0
1486223917.081,7.812,31.250,35.645,68.848,75.195,0
1486223917.085,-12.695,26.855,32.227,66.895,147.949,0
1486223917.089,52.734,29.297,30.273,61.035,66.895,0
1486223917.092,104.492,35.156,34.180,73.730,-1.953,0
1486223917.096,80.078,32.227,51.758,70.312,51.758,0
1486223917.100,-1.465,25.391,56.152,64.453,82.031,0
1486223917.104,-42.969,19.043,41.504,65.918,95.215,0
1486223917.108,18.066,18.555,38.086,48.828,44.434,0
1486223917.112,93.262,21.973,31.250,61.035,1.465,0
1486223917.116,80.566,23.926,31.738,73.730,50.293,0
1486223917.120,8.789,25.879,38.086,60.547,74.219,0
1486223917.124,-36.133,24.414,35.156,66.406,113.770,0
1486223917.128,16.602,24.902,36.133,59.082,54.688,0
1486223917.132,85.449,21.973,32.715,52.246,-8.789,0
1486223917.135,83.496,20.020,31.250,61.035,16.602,0
1486223917.139,21.973,28.320,45.410,57.617,23.926,0
1486223917.143,-36.133,27.832,52.246,58.594,67.383,0
1486223917.147,13.672,21.484,39.551,52.246,51.270,0
1486223917.151,99.609,27.832,39.062,62.500,6.836,0
1486223917.155,115.723,32.715,44.434,81.055,36.133,0
1486223917.159,43.457,32.715,36.621,78.613,2.441,0
1486223917.163,-30.762,31.738,29.785,71.777,19.043,0
1486223917.167,5.371,24.902,24.414,59.570,75.684,0
1486223917.171,92.285,23.438,29.297,64.453,24.414,0
1486223917.175,112.305,24.902,36.621,74.219,19.531,0
1486223917.178,47.852,24.902,40.039,63.477,50.781,0
1486223917.182,-18.555,32.227,50.293,62.988,75.684,0
1486223917.186,3.418,35.156,38.574,67.383,73.730,0
1486223917.190,88.379,31.250,26.855,77.637,13.184,0
1486223917.194,123.535,21.973,42.969,77.637,-2.930,0
1486223917.198,62.988,21.484,39.551,65.918,31.250,0
1486223917.202,-8.301,24.902,18.555,62.500,68.359,0
1486223917.206,-2.441,28.320,25.391,65.918,62.012,0
1486223917.210,77.637,31.738,37.598,60.059,-6.348,0
1486223917.214,120.117,20.508,33.203,62.500,4.883,0
1486223917.217,71.289,22.949,33.691,68.359,32.227,0
1486223917.221,-10.254,28.320,46.387,66.895,60.547,0
1486223917.225,-17.578,28.320,45.410,67.383,110.352,0
1486223917.229,62.500,21.484,28.320,56.641,46.875,0
1486223917.233,101.562,24.902,29.297,71.777,25.879,0
1486223917.237,69.824,31.250,25.391,81.055,60.547,0
1486223917.241,-4.883,20.508,27.344,69.336,68.848,0
1486223917.245,-30.762,22.949,47.852,59.082,100.098,0
1486223917.249,48.340,23.438,45.898,63.477,42.969,0
1486223917.253,102.539,19.531,41.992,74.707,-6.836,0
1486223917.257,78.125,24.414,44.922,68.848,54.199,0
1486223917.260,7.324,28.809,40.039,66.406,70.312,0
1486223917.264,-30.762,26.855,35.645,64.941,67.383,0
1486223917.268,30.762,20.996,30.273,63.477,58.105,0
1486223917.272,98.633,21.484,25.391,66.895,3.906,0
1486223917.276,80.566,29.297,27.344,64.453,-13.184,0
1486223917.280,12.695,30.273,36.133,63.477,45.410,0
1486223917.284,-19.043,22.461,35.156,64.453,106.445,0
1486223917.288,30.762,29.785,40.039,65.918,67.383,0
1486223917.292,99.609,24.902,44.434,77.148,1.465,0
1486223917.296,92.773,20.508,40.039,83.008,34.668,0
1486223917.300,18.066,22.461,33.203,64.941,69.824,0
1486223917.303,-31.738,25.879,40.527,56.641,106.445,0
1486223917.307,11.719,29.297,41.504,56.641,89.355,0
1486223917.311,93.262,21.973,33.691,62.012,6.836,0
1486223917.315,96.191,17.090,30.273,75.195,-0.977,0
1486223917.319,35.645,25.391,39.062,81.055,22.949,0
1486223917.323,-28.809,31.738,45.410,62.012,79.590,0
1486223917.327,-16.602,25.391,40.527,41.992,96.191,0
1486223917.331,73.242,19.043,40.039,47.363,11.719,0
1486223917.335,108.887,21.484,39.062,59.082,-6.836,0
1486223917.339,40.527,27.344,46.875,66.895,6.836,0
1486223917.342,-35.645,31.250,43.457,73.730,81.055,0
1486223917.346,-19.043,18.066,29.785,68.359,120.605,0
1486223917.350,73.242,15.625,29.785,60.059,0.488,0
1486223917.354,113.281,27.832,31.250,62.012,-5.371,0
1486223917.358,51.270,25.391,36.621,64.453,31.738,0
1486223917.362,-28.320,28.320,37.109,62.988,51.758,0
1486223917.366,-21.973,32.227,38.574,59.570,70.312,0
1486223917.370,63.965,26.855,39.551,59.082,-21.973,0
1486223917.374,109.375,32.227,40.527,74.219,-20.508,0
1486223917.378,72.266,28.809,37.598,80.566,29.785,0
1486223917.382,-26.367,20.996,25.879,67.871,62.500,0
1486223917.385,-30.762,27.832,20.508,51.270,79.590,0
1486223917.389,75.684,26.855,26.367,49.316,23.926,0
1486223917.393,101.562,18.555,31.738,60.059,6.836,0
1486223917.397,55.664,20.996,25.879,62.012,51.758,0
1486223917.401,-17.578,33.691,29.785,60.547,98.145,0
1486223917.405,-32.715,27.344,43.945,54.688,70.801,0
1486223917.409,55.176,33.691,43.945,58.105,13.672,0
1486223917.413,112.305,33.203,40.527,75.684,10.742,0
1486223917.417,75.684,17.578,34.668,64.453,19.531,0
1486223917.421,-7.324,24.902,31.250,60.547,41.992,0
1486223917.424,-35.645,25.879,26.367,62.988,82.520,0
1486223917.428,41.992,25.879,26.367,56.152,9.766,0
1486223917.432,113.281,30.762,37.109,65.430,-36.133,0
1486223917.436,77.637,24.902,40.527,68.359,19.531,0
1486223917.440,-8.301,22.949,35.645,69.336,54.688,0
1486223917.444,-31.738,30.762,24.902,58.594,99.609,0
1486223917.448,33.203,37.109,35.645,58.105,45.898,0
1486223917.452,113.281,39.551,55.176,72.754,-11.230,0
1486223917.456,99.121,36.621,39.551,75.684,13.672,0
1486223917.460,31.738,29.785,26.367,68.359,-2.441,0
1486223917.464,-15.137,25.879,33.691,60.547,76.660,0
1486223917.467,26.855,30.273,30.762,54.199,75.684,0
1486223917.471,100.098,28.320,32.715,64.453,-46.875,0
1486223917.475,101.562,29.297,48.828,74.219,-35.156,0
1486223917.479,38.086,31.250,52.734,81.055,10.254,0
1486223917.483,-24.902,37.598,42.480,84.961,65.918,0
1486223917.487,6.348,43.457,43.457,68.848,65.918,0
1486223917.491,84.961,29.785,35.156,61.523,-14.160,0
1486223917.495,93.262,21.973,28.320,68.359,14.160,0
1486223917.499,33.203,22.461,29.297,65.918,20.508,0
1486223917.503,-26.367,20.020,36.621,59.570,46.387,0
1486223917.507,-4.883,20.508,40.039,52.734,81.543,0
1486223917.510,81.055,28.320,49.805,62.500,16.602,0
1486223917.514,103.027,32.227,52.734,83.496,-20.508,0
1486223917.518,45.410,28.809,40.039,69.336,-17.578,1
1486223917.522,-25.391,31.738,41.016,55.664,70.312,0
1486223917.526,-18.066,28.320,44.922,59.082,89.844,0
1486223917.530,70.801,28.320,50.293,64.453,1.465,0
1486223917.534,104.492,32.715,57.129,71.777,24.902,0
1486223917.538,55.176,29.785,39.551,64.941,62.500,0
1486223917.542,-20.508,28.320,27.832,53.711,103.516,0
1486223917.546,-29.785,21.484,34.180,51.758,115.234,0
1486223917.549,57.617,28.809,44.434,45.410,38.574,0
1486223917.553,104.492,31.250,41.992,50.293,40.039,0
1486223917.557,62.500,22.461,36.621,57.129,69.824,0
1486223917.561,-14.160,22.461,45.898,53.711,112.793,0
1486223917.565,-32.227,24.414,42.480,41.504,133.789,0
1486223917.569,43.945,25.391,36.621,39.062,34.668,0
1486223917.573,97.656,28.320,36.133,58.594,29.785,0
1486223917.577,66.895,28.320,37.109,60.547,98.633,0
1486223917.581,-15.625,26.367,32.715,55.176,111.816,0
1486223917.585,-47.852,27.344,34.180,51.270,139.160,0
1486223917.589,22.949,28.320,36.621,43.945,71.289,0
1486223917.592,84.473,31.738,35.156,54.688,-9.277,0
1486223917.596,59.082,29.297,36.133,50.293,40.527,0
1486223917.600,-22.461,33.203,43.457,38.086,105.957,0
1486223917.604,-45.898,50.293,51.270,43.945,133.301,0
1486223917.608,13.184,39.551,41.504,27.344,65.918,0
1486223917.612,78.125,31.250,31.738,30.273,29.785,0
1486223917.616,65.918,36.621,33.691,40.039,43.457,0
1486223917.620,-15.625,28.809,41.504,26.367,71.777,0
1486223917.624,-59.082,27.344,37.109,32.227,153.320,0
1486223917.628,-4.883,31.738,33.203,27.344,104.492,0
1486223917.632,76.660,30.273,23.926,37.598,36.621,0
1486223917.635,87.891,28.320,29.297,54.688,69.824,0
1486223917.639,11.719,32.227,41.504,45.898,64.941,0
1486223917.643,-47.852,30.762,27.344,55.176,125.000,0
1486223917.647,-1.953,20.020,39.062,53.711,130.371,0
1486223917.651,83.496,21.973,47.363,59.570,8.789,0
1486223917.655,92.773,28.320,23.438,70.312,9.277,0
1486223917.659,20.996,27.832,21.973,63.965,69.824,0
1486223917.663,-41.504,23.926,30.273,67.383,78.125,0
1486223917.667,-1.953,22.461,33.203,61.523,40.039,0
1486223917.671,104.980,27.832,40.039,72.266,-12.695,0
1486223917.674,116.211,18.555,39.062,80.078,28.809,0
1486223917.678,51.270,28.809,43.457,64.453,62.988,0
1486223917.682,-19.531,32.715,41.016,73.730,86.914,0
1486223917.686,-16.602,17.090,27.832,62.988,85.938,0
1486223917.690,83.496,20.996,27.344,63.477,-29.297,0
1486223917.694,109.863,21.484,31.250,91.797,-12.207,0
1486223917.698,58.105,20.996,32.715,77.148,34.180,0
1486223917.702,-17.090,19.043,33.691,61.523,78.125,0
1486223917.706,-7.812,21.484,43.457,62.012,89.844,0
1486223917.710,88.379,28.320,45.410,70.312,-7.324,0
1486223917.714,105.957,28.320,28.320,77.637,3.418,0
1486223917.717,67.871,32.227,31.738,76.172,18.066,0
1486223917.721,-0.488,30.762,45.410,80.078,54.199,0
1486223917.725,-18.555,22.461,36.621,67.871,84.473,0
1486223917.729,58.594,18.066,30.762,61.035,-7.324,0
1486223917.733,110.840,21.973,39.062,73.730,-24.414,0
1486223917.737,77.637,18.555,44.922,73.730,31.738,0
1486223917.741,9.766,27.344,38.574,66.895,82.031,0
1486223917.745,-15.625,37.109,46.875,70.312,106.445,0
1486223917.749,50.781,20.508,44.922,70.312,23.926,0
1486223917.753,110.840,22.461,27.832,83.984,-13.184,0
1486223917.756,90.332,29.785,37.109,83.984,46.875,0
1486223917.760,11.230,17.578,41.016,71.289,93.262,0
1486223917.764,-26.855,22.461,35.645,73.730,121.094,0
1486223917.768,39.551,29.785,38.574,67.871,39.551,0
1486223917.772,108.398,29.785,50.781,79.590,-24.902,0
1486223917.776,107.910,40.039,51.758,94.727,20.996,0
1486223917.780,28.320,32.227,45.898,82.520,40.039,0
1486223917.784,-23.438,12.695,41.992,67.871,105.469,0
1486223917.788,28.320,24.902,32.227,63.477,97.168,0
1486223917.792,109.375,29.297,35.645,75.195,0.000,0
1486223917.796,106.934,21.484,37.109,82.031,11.719,0
1486223917.799,29.785,26.367,39.551,65.918,47.852,0
1486223917.803,-12.695,32.227,38.574,67.871,92.285,0
1486223917.807,22.461,38.574,41.992,72.266,50.781,0
1486223917.811,83.984,42.480,54.688,74.707,-20.508,0
1486223917.815,100.586,36.133,41.016,76.660,17.090,0
1486223917.819,44.922,28.320,30.762,64.453,32.227,0
1486223917.823,-28.809,25.879,33.691,53.711,70.801,0
1486223917.827,-2.441,31.738,33.691,56.641,51.270,0
1486223917.831,85.938,29.297,37.109,70.801,-18.066,0
1486223917.835,116.211,36.621,44.922,85.449,-12.207,0
1486223917.839,50.293,36.133,49.805,72.754,-23.926,0
1486223917.842,-30.273,31.250,41.504,64.453,36.621,0
1486223917.846,-10.254,35.645,40.039,59.082,73.242,0
1486223917.850,73.242,25.879,33.691,61.523,-20.020,0
1486223917.854,97.656,31.738,24.902,70.801,0.488,0
1486223917.858,45.410,29.785,26.855,61.035,78.613,0
1486223917.862,-24.414,30.273,31.250,63.965,123.047,0
1486223917.866,-17.090,36.621,34.668,58.105,125.488,0
1486223917.870,58.594,33.691,36.133,50.781,35.156,0
1486223917.874,97.656,32.715,37.109,66.895,5.859,0
1486223917.878,64.941,36.133,39.551,65.918,79.590,0
1486223917.881,-35.645,43.945,38.574,40.527,129.883,0
1486223917.885,-53.223,41.504,40.527,32.227,124.512,0
1486223917.889,43.945,38.086,35.645,39.062,37.598,0
1486223917.893,93.750,43.457,34.180,44.922,11.230,0
1486223917.897,55.664,46.875,44.922,38.086,42.480,0
1486223917.901,-20.020,47.363,46.387,36.621,88.867,0
1486223917.905,-45.410,36.133,52.734,41.016,119.629,0
1486223917.909,30.273,40.039,58.105,35.156,30.273,0
1486223917.913,86.426,41.016,41.016,37.598,-1.953,0
1486223917.917,56.641,41.016,41.504,39.551,49.316,0
1486223917.921,-20.996,53.711,43.945,31.738,55.664,0
1486223917.924,-74.707,41.016,42.480,20.996,97.656,0
1486223917.928,-7.812,37.598,43.945,15.137,45.410,0
1486223917.932,51.758,44.434,38.574,13.672,-0.488,0
1486223917.936,17.578,50.781,47.852,13.184,22.461,0
1486223917.940,-54.688,55.176,57.617,11.719,49.805,0
1486223917.944,-105.469,51.270,58.105,-2.930,103.027,0
1486223917.948,-49.805,58.594,44.922,-10.254,78.613,0
1486223917.952,17.578,62.988,44.922,-3.906,6.348,0
1486223917.956,2.930,57.129,51.758,-18.066,50.781,0
1486223917.960,-65.430,55.664,49.805,-20.508,98.633,0
1486223917.964,-127.441,51.270,41.992,-22.949,109.863,0
1486223917.967,-75.195,53.711,39.062,-34.668,82.520,0
1486223917.971,10.254,50.781,46.875,-17.090,16.113,0
1486223917.975,20.996,45.410,41.504,4.883,48.828,0
1486223917.979,-29.785,45.410,51.758,-6.348,65.918,0
1486223917.983,-99.121,44.922,53.711,-16.602,102.539,0
1486223917.987,-65.430,39.551,36.133,-14.160,98.633,0
1486223917.991,33.203,34.180,31.738,-4.883,5.371,0
1486223917.995,57.617,42.480,36.133,12.207,2.930,0
1486223917.999,8.789,39.551,36.621,25.879,34.668,0
1486223918.003,-51.270,35.156,36.621,39.551,83.984,0
1486223918.006,-29.785,31.250,34.668,43.945,81.543,0
1486223918.010,64.941,30.273,21.973,44.922,-7.812,0
1486223918.014,104.980,32.715,17.578,59.082,11.719,0
1486223918.018,49.316,22.461,28.320,68.359,50.781,0
1486223918.022,-13.672,20.996,39.062,75.195,63.477,0
1486223918.026,7.812,21.484,32.715,70.801,64.453,0
1486223918.030,101.074,17.578,28.320,75.195,2.441,0
1486223918.034,139.160,22.461,27.344,96.191,-31.250,0
1486223918.038,92.285,25.879,30.762,98.633,-21.484,0
1486223918.042,18.066,16.113,36.133,92.773,38.574,0
1486223918.046,14.648,11.719,27.344,88.867,73.242,0
1486223918.049,91.797,11.719,23.926,90.820,-20.508,0
1486223918.053,136.230,16.113,36.133,110.352,-32.715,0
1486223918.057,113.281,23.926,40.039,115.234,39.551,0
1486223918.061,29.785,18.555,31.738,101.562,64.453,0
1486223918.065,14.160,18.066,43.945,102.051,82.031,0
1486223918.069,96.680,16.602,40.039,104.004,-4.883,0
1486223918.073,150.391,17.578,31.738,114.258,-46.875,0
1486223918.077,125.000,20.508,39.062,117.676,-19.043,0
1486223918.081,40.527,18.066,36.133,103.516,29.297,0
1486223918.085,4.395,15.625,30.762,102.539,80.566,0
1486223918.089,72.266,12.207,28.320,87.891,14.648,0
1486223918.092,143.066,16.113,23.438,98.145,-19.043,0
1486223918.096,135.254,20.996,26.367,105.957,12.207,0
1486223918.100,45.898,20.996,41.992,95.215,36.133,0
1486223918.104,-2.441,23.438,45.410,97.168,68.359,0
1486223918.108,64.941,21.973,45.898,90.820,14.648,0
1486223918.112,142.090,25.391,33.203,97.168,-63.477,0
1486223918.116,141.113,30.273,28.320,108.398,-53.223,0
1486223918.120,60.059,19.531,37.598,99.609,31.250,0
1486223918.124,1.953,20.508,31.738,92.285,101.074,0
1486223918.128,60.059,19.531,29.785,88.867,21.973,0
1486223918.131,137.207,15.625,30.273,94.238,-35.156,0
1486223918.135,133.789,21.484,36.133,104.492,0.000,0
1486223918.139,69.824,22.949,45.410,104.492,17.090,0
1486223918.143,5.371,20.508,38.574,98.145,86.426,0
1486223918.147,47.363,29.297,37.109,95.215,57.129,0
1486223918.151,135.254,36.621,46.387,106.445,-46.387,0
1486223918.155,137.207,25.391,45.410,109.863,-9.766,0
1486223918.159,66.406,15.137,35.645,93.750,38.574,0
1486223918.163,1.953,20.508,36.133,91.797,68.359,0
1486223918.167,24.902,22.461,36.133,88.867,86.914,0
1486223918.171,114.258,21.484,31.250,87.891,18.555,0
1486223918.174,148.926,23.926,37.109,95.703,29.785,0
1486223918.178,86.914,27.344,53.223,96.191,20.996,1
1486223918.182,3.418,26.367,45.898,92.285,12.695,0
1486223918.186,6.348,29.297,34.180,80.078,56.152,0
1486223918.190,100.586,30.273,43.945,81.543,4.883,0
1486223918.194,129.883,20.020,37.109,95.703,-6.836,0
1486223918.198,74.219,17.090,36.133,85.938,49.805,0
1486223918.202,0.977,18.066,36.133,77.148,74.219,0
1486223918.206,-1.465,25.391,35.156,81.055,85.938,0
1486223918.210,86.426,27.344,43.457,81.055,22.949,0
1486223918.213,126.465,24.414,43.945,94.238,-41.992,0
1486223918.217,74.219,26.855,37.109,84.961,0.977,0
1486223918.221,-3.418,28.809,46.387,84.961,84.961,0
1486223918.225,-14.648,22.461,44.434,83.008,87.891,0
1486223918.229,68.848,20.020,38.574,68.848,-9.277,0
1486223918.233,117.676,23.926,45.410,84.961,-15.137,0
1486223918.237,73.730,23.926,37.109,80.078,-1.953,0
1486223918.241,0.977,20.508,37.598,64.453,30.273,0
1486223918.245,-27.344,21.484,41.016,53.711,81.055,0
1486223918.249,41.992,26.855,26.855,46.875,4.883,0
1486223918.253,116.699,25.879,30.273,64.941,-45.410,0
1486223918.256,95.215,27.832,39.062,68.359,-14.160,0
1486223918.260,8.789,29.297,31.250,57.617,63.477,0
1486223918.264,-39.551,22.461,33.203,63.965,101.562,0
1486223918.268,33.203,25.391,40.527,64.941,30.273,0
1486223918.272,112.305,30.762,39.551,74.219,-5.371,0
1486223918.276,87.891,29.297,37.109,78.125,28.809,0
1486223918.280,20.996,29.297,37.109,70.312,46.875,0
1486223918.284,-20.020,26.855,36.133,66.406,98.633,0
1486223918.288,26.855,24.902,24.902,62.012,66.406,0
1486223918.292,102.051,27.344,23.438,73.730,0.000,0
1486223918.296,102.539,32.715,33.203,82.031,37.598,0
1486223918.299,37.598,29.785,41.992,73.730,55.176,0
1486223918.303,-20.996,30.762,41.992,63.965,126.465,0
1486223918.307,5.371,31.250,27.344,52.246,131.348,0
1486223918.311,83.496,20.020,28.320,59.082,24.902,0
1486223918.315,101.562,22.949,36.621,70.801,50.293,0
1486223918.319,39.551,27.832,42.480,68.359,91.797,0
1486223918.323,-29.785,20.508,36.133,56.152,104.980,0
1486223918.327,10.742,30.762,31.738,54.199,95.703,0
1486223918.331,99.609,41.992,37.598,78.613,-2.441,0
1486223918.335,100.098,32.715,37.598,73.242,11.230,0
1486223918.338,37.598,28.320,39.551,60.547,48.340,0
1486223918.342,-19.531,26.367,47.852,69.824,59.082,0
1486223918.346,-2.930,23.926,43.457,61.035,83.496,0
1486223918.350,74.219,29.297,41.016,67.383,23.438,0
1486223918.354,101.562,31.738,37.598,78.125,-0.977,0
1486223918.358,40.039,22.949,31.738,56.641,36.133,0
1486223918.362,-28.809,26.855,37.598,64.941,82.031,0
1486223918.366,-18.555,27.832,40.039,65.918,72.754,0
1486223918.370,62.500,20.020,40.527,54.688,-4.883,0
1486223918.374,108.887,25.391,48.340,76.172,23.926,0
1486223918.378,72.754,30.273,48.340,78.125,74.219,0
1486223918.381,-18.066,22.949,33.691,63.477,94.238,0
1486223918.385,-14.160,29.297,39.062,59.082,110.840,0
1486223918.389,74.219,40.039,44.922,61.035,20.508,0
1486223918.393,109.375,24.902,35.156,68.359,23.926,0
1486223918.397,70.312,19.531,28.809,74.219,72.754,0
1486223918.401,-17.578,24.902,30.762,67.383,85.449,0
1486223918.405,-41.016,22.461,34.180,53.223,87.891,0
1486223918.409,49.805,22.949,41.504,56.641,-2.441,0
1486223918.413,116.211,27.832,42.969,72.754,-15.625,0
1486223918.417,85.449,28.809,38.086,79.590,11.230,0
1486223918.421,1.465,29.785,35.645,72.266,30.273,0
1486223918.424,-35.645,29.785,34.180,70.801,95.215,0
1486223918.428,43.945,26.855,39.062,68.359,52.734,0
1486223918.432,105.469,21.973,32.227,70.312,10.254,0
1486223918.436,82.520,21.484,29.785,68.848,60.547,0
1486223918.440,11.230,31.250,44.434,67.871,49.805,0
1486223918.444,-19.043,30.273,41.992,66.895,95.215,0
1486223918.448,39.062,22.461,37.109,59.570,80.566,0
1486223918.452,104.980,26.855,43.457,72.266,-4.395,0
1486223918.456,96.680,27.344,39.551,84.961,-0.977,0
1486223918.460,22.461,22.949,30.273,63.477,69.824,0
1486223918.463,-32.715,25.879,30.273,57.617,120.117,0
1486223918.467,12.207,24.902,35.645,62.988,67.871,0
1486223918.471,100.098,21.484,33.691,67.383,-30.273,0
1486223918.475,103.027,27.344,40.039,77.148,-16.602,0
1486223918.479,31.738,37.109,48.340,73.242,24.902,0
1486223918.483,-27.832,29.785,45.410,73.730,46.875,0
1486223918.487,15.625,25.879,50.293,72.754,34.180,0
1486223918.491,94.727,25.879,54.199,65.918,-41.016,0
1486223918.495,99.609,19.043,36.133,70.312,-25.391,0
1486223918.499,41.504,22.949,33.691,66.895,20.996,0
1486223918.503,-16.602,29.297,41.504,56.641,50.293,0
1486223918.506,-3.906,27.832,36.133,57.129,25.879,0
1486223918.510,80.078,30.273,36.621,68.848,-14.648,0
1486223918.514,118.164,35.645,42.480,77.148,20.996,0
1486223918.518,59.570,34.180,45.410,71.777,7.324,0
1486223918.522,-14.648,36.133,44.434,71.289,39.551,0
1486223918.526,-8.789,32.227,41.992,59.082,77.637,0
1486223918.530,67.871,20.508,20.508,41.992,5.371,0
1486223918.534,120.117,28.320,23.926,60.059,-0.488,0
1486223918.538,73.730,33.203,44.922,76.172,43.945,0
1486223918.542,-24.902,27.344,38.086,64.453,48.828,0
1486223918.545,-25.879,30.273,35.156,50.781,60.547,0
1486223918.549,68.848,30.762,34.180,47.363,3.906,0
1486223918.553,107.422,35.156,33.691,60.547,-43.457,0
1486223918.557,59.570,28.809,40.039,67.383,8.789,0
1486223918.561,-5.371,17.578,39.551,65.918,58.594,0
1486223918.565,-23.926,30.273,44.434,64.941,69.336,0
1486223918.569,56.641,30.762,33.691,60.547,4.883,0
1486223918.573,101.074,16.602,25.391,65.918,-16.602,0
1486223918.577,66.895,25.391,26.367,62.988,39.551,0
1486223918.581,-0.488,34.180,31.738,59.570,63.477,0
1486223918.585,-37.109,33.691,39.551,55.664,102.539,0
1486223918.588,42.480,36.621,33.203,54.199,66.895,0
1486223918.592,117.188,39.062,32.227,82.520,7.324,0
1486223918.596,100.098,36.133,37.598,78.613,20.020,0
1486223918.600,16.113,27.344,41.504,57.617,63.477,0
1486223918.604,-36.133,25.879,40.527,61.523,88.379,0
1486223918.608,37.109,33.203,35.156,58.594,55.664,0
1486223918.612,112.305,27.832,38.086,67.871,19.531,0
1486223918.616,76.660,20.996,38.574,75.195,54.688,0
1486223918.620,5.859,24.414,28.809,67.871,85.938,0
1486223918.624,-27.832,30.762,30.762,64.453,102.051,0
1486223918.628,20.996,33.691,48.828,60.059,88.867,0
1486223918.631,97.656,29.297,49.805,66.406,40.039,0
1486223918.635,92.285,28.809,33.691,71.289,33.691,0
1486223918.639,21.973,24.414,29.785,54.688,41.992,0
1486223918.643,-28.809,21.973,31.738,53.711,81.543,0
1486223918.647,8.789,24.414,30.762,61.523,46.875,0
1486223918.651,91.309,31.250,38.086,65.918,-30.273,0
1486223918.655,102.051,33.691,30.762,68.359,6.348,0
1486223918.659,33.691,30.273,34.668,71.777,36.621,0
1486223918.663,-22.461,31.250,44.434,71.289,37.598,0
1486223918.667,6.348,29.297,47.363,58.105,54.199,0
1486223918.670,79.102,28.320,42.480,63.477,-1.953,0
1486223918.674,99.609,25.879,34.180,73.242,10.254,0
1486223918.678,43.457,26.367,37.598,65.430,37.598,0
1486223918.682,-35.156,30.762,43.457,61.523,74.707,0
1486223918.686,-9.277,27.832,41.016,54.688,104.980,0
1486223918.690,84.473,28.320,31.250,55.176,-8.789,0
1486223918.694,107.910,32.227,40.527,80.078,4.395,0
1486223918.698,54.688,26.855,40.039,76.660,52.246,0
1486223918.702,-21.484,26.855,41.504,70.801,80.078,0
1486223918.706,-21.484,31.250,44.434,63.965,90.820,0
1486223918.710,65.430,22.461,35.156,46.387,-0.977,0
1486223918.713,121.582,29.785,41.504,64.453,-26.367,0
1486223918.717,82.520,36.621,37.109,68.359,42.969,0
1486223918.721,-15.137,26.367,25.391,58.105,86.426,0
1486223918.725,-24.414,30.762,43.945,63.965,110.840,0
1486223918.729,68.359,33.691,49.805,61.523,63.965,0
1486223918.733,108.887,26.367,33.203,62.500,26.855,0
1486223918.737,72.754,33.203,42.969,68.848,41.504,0
1486223918.741,2.441,33.691,41.504,56.152,66.895,0
1486223918.745,-28.320,25.879,30.762,50.293,92.773,0
1486223918.749,56.152,23.926,32.227,58.105,31.250,0
1486223918.753,120.605,23.926,32.227,72.266,-18.555,0
1486223918.756,80.078,22.949,24.902,63.965,10.742,0
1486223918.760,4.883,25.391,34.180,64.453,53.711,0
1486223918.764,-29.297,28.809,50.293,81.543,93.262,0
1486223918.768,33.691,28.809,41.992,70.312,38.086,0
1486223918.772,101.074,31.250,42.480,63.965,17.578,0
1486223918.776,85.938,29.297,45.410,67.383,39.551,0
1486223918.780,12.695,32.227,35.156,56.152,56.152,0
1486223918.784,-33.203,32.227,32.715,59.570,115.723,0
1486223918.788,21.973,20.996,34.180,54.199,95.215,0
1486223918.792,100.098,28.809,37.598,64.941,21.973,0
1486223918.795,98.145,36.621,39.062,76.660,37.109,0
1486223918.799,22.949,30.762,46.875,66.406,78.125,0
1486223918.803,-31.738,28.320,43.945,62.012,122.559,0
1486223918.807,1.953,26.367,36.621,58.105,71.777,0
1486223918.811,83.008,27.832,35.645,64.941,-33.691,0
1486223918.815,100.586,28.320,29.785,62.012,16.602,0
1486223918.819,44.922,30.762,27.344,57.617,64.453,0
1486223918.823,-11.230,35.645,34.668,67.871,95.215,1
1486223918.827,4.883,39.062,40.039,63.477,81.543,0
1486223918.831,80.078,34.668,42.480,65.918,-11.719,0
1486223918.835,105.469,37.598,51.270,83.008,-4.395,0
1486223918.838,42.969,35.645,41.992,75.195,22.949,0
1486223918.842,-38.574,27.344,37.109,64.941,56.641,0
1486223918.846,-26.367,22.461,35.156,53.711,59.570,0
1486223918.850,62.012,26.367,25.879,55.176,-12.695,0
1486223918.854,97.656,26.855,23.438,63.477,-13.184,0
1486223918.858,43.457,23.438,23.438,46.875,-16.602,0
1486223918.862,-34.668,27.832,28.320,44.434,39.551,0
1486223918.866,-33.203,26.855,33.691,42.480,84.473,0
1486223918.870,68.848,35.156,42.969,56.641,9.277,0
1486223918.874,120.605,37.109,51.270,81.055,-17.090,0
1486223918.877,70.801,24.414,45.410,68.359,-10.742,0
1486223918.881,-12.695,27.832,39.551,66.895,71.289,0
1486223918.885,-22.949,33.691,33.203,66.895,77.148,0
1486223918.889,57.617,28.320,28.320,58.105,-16.602,0
1486223918.893,104.980,27.344,28.320,78.125,4.883,0
1486223918.897,73.730,25.879,40.039,85.449,13.184,0
1486223918.901,-1.953,26.367,44.922,78.125,32.715,0
1486223918.905,-14.648,31.738,43.457,76.172,75.195,0
1486223918.909,56.152,29.297,40.527,66.406,1.953,0
1486223918.913,118.164,27.344,38.086,83.008,-0.977,0
1486223918.917,91.797,32.227,49.805,90.820,49.316,0
1486223918.920,1.953,29.785,52.734,75.195,56.641,0
1486223918.924,-25.879,34.180,46.387,70.312,106.934,0
1486223918.928,41.504,32.715,41.992,65.918,73.730,0
1486223918.932,99.609,23.438,24.414,69.336,41.992,0
1486223918.936,74.707,26.855,28.809,70.312,70.312,0
1486223918.940,-0.977,30.273,42.480,59.082,94.727,0
1486223918.944,-38.086,30.762,36.133,61.523,150.879,0
1486223918.948,25.391,35.156,40.039,63.965,91.797,0
1486223918.952,104.004,39.062,42.969,70.312,41.992,0
1486223918.956,83.984,34.668,27.344,64.453,60.059,0
1486223918.960,20.508,37.109,30.273,67.383,69.824,0
1486223918.963,-20.508,34.668,41.992,70.312,113.281,0
1486223918.967,20.020,22.949,29.297,55.664,76.172,0
1486223918.971,106.445,21.973,31.250,64.941,-32.715,0
1486223918.975,118.652,31.250,44.922,77.637,-12.695,0
1486223918.979,43.945,32.227,44.434,72.754,-15.137,0
1486223918.983,-23.926,31.738,39.062,76.172,37.109,0
1486223918.987,8.301,38.086,40.527,71.289,43.457,0
1486223918.991,90.332,34.180,33.691,65.918,-28.809,0
1486223918.995,108.887,26.367,28.320,73.242,17.090,0
1486223918.999,44.922,29.785,31.738,61.035,28.320,0
1486223919.002,-25.879,28.809,31.738,60.547,65.918,0
1486223919.006,-6.348,25.879,40.039,64.453,97.168,0
1486223919.010,83.984,23.926,47.852,68.848,11.719,0
1486223919.014,114.258,26.855,43.945,83.496,-19.531,0
1486223919.018,62.988,32.715,37.598,73.730,14.160,0
1486223919.022,-1.465,36.621,36.133,74.707,47.363,0
1486223919.026,-3.906,35.645,36.133,74.707,53.711,0
1486223919.030,76.172,26.855,42.969,73.730,-22.949,0
1486223919.034,117.188,22.461,43.457,83.008,-2.441,0
1486223919.038,65.918,25.879,34.668,72.266,23.926,0
1486223919.042,-14.648,31.738,37.598,71.777,54.688,0
1486223919.045,-21.484,26.367,44.922,70.312,91.797,0
1486223919.049,72.754,20.996,40.039,57.129,-20.996,0
1486223919.053,116.699,26.367,39.551,69.824,-19.043,0
1486223919.057,76.172,29.297,44.922,72.266,15.137,0
1486223919.061,0.977,32.227,40.527,64.453,47.363,0
1486223919.065,-21.973,28.809,37.598,56.152,87.402,0
1486223919.069,53.711,27.832,43.457,53.223,25.879,0
1486223919.073,103.027,24.414,38.574,67.383,3.906,0
1486223919.077,71.289,24.414,25.391,70.801,23.926,0
1486223919.081,2.441,25.391,32.227,59.082,58.105,0
1486223919.085,-20.508,27.344,42.969,67.871,125.977,0
1486223919.088,47.363,27.344,44.922,72.266,66.895,0
1486223919.092,97.656,31.250,42.969,68.359,-14.648,0
1486223919.096,91.309,34.180,41.016,74.219,8.789,0
1486223919.100,22.949,28.320,53.223,61.523,78.125,0
1486223919.104,-26.855,24.902,45.898,57.129,116.699,0
1486223919.108,41.992,25.391,31.738,66.406,82.520,0
1486223919.112,119.629,30.273,45.410,79.590,-4.883,0
1486223919.116,110.840,31.250,49.316,82.031,-25.879,0
1486223919.120,31.738,28.809,41.992,76.172,19.531,0
1486223919.124,-27.344,23.926,40.527,76.660,78.125,0
1486223919.127,26.855,23.438,36.133,56.641,75.684,0
1486223919.131,109.863,24.414,45.898,62.012,9.277,0
1486223919.135,104.980,29.297,42.480,71.777,31.250,0
1486223919.139,30.762,31.250,25.391,59.570,53.711,0
1486223919.143,-31.738,24.414,32.715,56.152,107.422,0
1486223919.147,2.930,31.250,39.062,60.547,93.750,0
1486223919.151,86.914,33.691,45.898,71.777,-9.277,0
1486223919.155,104.492,26.855,42.480,79.102,21.484,0
1486223919.159,49.316,32.715,37.598,69.824,67.383,0
1486223919.163,-19.043,28.809,35.645,54.199,65.918,0
1486223919.167,2.930,29.785,35.645,56.152,67.383,0
1486223919.170,85.938,30.762,41.504,70.312,31.738,0
1486223919.174,100.098,25.879,34.180,62.988,23.926,0
1486223919.178,49.316,26.367,38.086,55.176,38.086,0
1486223919.182,-27.344,33.203,32.227,57.129,70.312,0
1486223919.186,-25.879,30.762,26.855,61.523,82.031,0
1486223919.190,71.289,23.438,34.668,65.430,29.785,0
1486223919.194,104.004,26.367,32.227,70.801,3.418,0
1486223919.198,50.781,22.461,31.738,71.289,-9.766,0
1486223919.202,-15.137,27.344,55.176,80.566,35.156,0
1486223919.206,-21.973,28.320,47.852,64.941,79.590,0
1486223919.209,58.105,26.855,19.043,45.410,31.738,0
1486223919.213,100.098,27.832,31.738,66.895,32.227,0
1486223919.217,56.641,28.320,40.039,76.660,52.246,0
1486223919.221,-9.277,28.809,33.203,61.035,70.312,0
1486223919.225,-21.973,27.832,35.156,58.105,108.887,0
1486223919.229,38.086,30.762,39.062,60.547,52.734,0
1486223919.233,107.910,31.250,40.039,77.148,-16.113,0
1486223919.237,97.168,27.832,48.340,76.660,16.113,0
1486223919.241,-2.441,30.273,42.480,58.594,70.801,0
1486223919.245,-32.227,37.109,38.086,60.059,97.168,0
1486223919.249,47.852,31.738,40.527,50.781,17.090,0
1486223919.252,106.934,30.762,38.574,72.266,-36.621,0
1486223919.256,87.402,31.250,36.133,81.543,-1.953,0
1486223919.260,8.301,28.809,31.738,61.035,58.594,0
1486223919.264,-39.551,25.391,38.086,49.805,106.934,0
1486223919.268,27.832,25.879,36.133,41.992,35.645,0
1486223919.272,105.469,31.250,36.133,59.570,-4.883,0
1486223919.276,84.961,23.926,38.574,63.965,60.059,0
1486223919.280,-7.812,27.832,36.621,61.035,28.809,0
1486223919.284,-45.410,32.227,32.715,68.848,52.246,0
1486223919.288,39.551,28.320,28.320,55.176,48.828,0
1486223919.292,103.516,24.414,35.645,65.918,-16.113,0
1486223919.295,103.027,25.879,38.086,83.984,14.648,0
1486223919.299,40.527,28.809,37.109,65.430,7.812,0
1486223919.303,-30.762,32.715,41.016,62.988,64.941,0
1486223919.307,23.438,38.086,48.340,64.941,72.266,0
1486223919.311,99.121,33.691,39.062,65.918,-9.277,0
1486223919.315,92.285,27.832,27.344,68.848,19.531,0
1486223919.319,23.926,26.855,31.250,52.246,43.945,0
1486223919.323,-39.551,28.320,33.691,54.199,78.125,0
1486223919.327,-6.348,26.367,32.227,64.453,88.867,0
1486223919.331,80.566,26.367,36.621,68.848,-4.395,0
1486223919.334,115.723,34.668,41.016,81.055,-23.438,0
1486223919.338,60.547,37.598,50.293,80.078,11.230,0
1486223919.342,-26.855,28.809,49.805,75.195,87.891,0
1486223919.346,-12.695,25.391,36.621,64.453,101.562,0
1486223919.350,77.148,33.203,33.203,75.684,3.418,0
1486223919.354,95.703,24.414,33.691,77.637,23.438,0
1486223919.358,42.969,25.391,38.574,64.941,75.195,0
1486223919.362,-17.090,29.297,40.039,64.941,119.141,0
1486223919.366,-13.672,23.438,35.645,54.688,113.281,0
1486223919.370,69.336,23.926,29.785,55.176,0.977,0
1486223919.374,116.211,29.785,41.504,79.102,16.602,0
1486223919.377,76.660,39.062,60.547,82.520,43.457,0
1486223919.381,-17.090,28.809,50.781,69.824,85.449,0
1486223919.385,-31.738,22.949,38.086,62.500,124.512,0
1486223919.389,63.965,26.855,34.668,56.152,46.387,0
1486223919.393,104.004,32.227,37.598,71.777,45.410,0
1486223919.397,63.965,31.738,35.645,75.195,65.430,0
1486223919.401,3.906,29.297,37.109,83.496,92.285,0
1486223919.405,-24.902,27.344,43.945,75.195,129.883,0
1486223919.409,47.852,30.273,41.992,51.270,20.996,2
1486223919.413,109.375,27.344,30.273,60.059,-8.301,0
1486223919.417,88.379,31.250,36.133,72.754,45.898,0
1486223919.420,10.254,33.203,40.527,75.684,86.426,0
1486223919.424,-23.926,30.273,36.133,71.289,142.578,0
1486223919.428,42.969,31.250,35.156,59.570,87.402,0
1486223919.432,100.586,28.809,35.156,65.430,-16.113,0
1486223919.436,92.773,35.645,48.828,70.801,31.738,0
1486223919.440,16.602,35.645,55.176,61.035,74.219,0
1486223919.444,-34.180,31.250,46.387,64.453,120.117,0
1486223919.448,23.438,23.438,34.180,55.176,90.820,0
1486223919.452,93.262,20.508,29.297,65.918,7.812,0
1486223919.456,94.238,24.414,39.062,76.660,13.184,0
1486223919.459,25.391,26.855,42.969,65.430,37.109,0
1486223919.463,-39.551,31.250,38.574,58.105,79.102,0
1486223919.467,-4.883,30.762,35.645,46.875,35.645,0
1486223919.471,88.379,25.879,42.969,61.035,-23.926,0
1486223919.475,107.422,33.691,51.758,71.289,13.672,0
1486223919.479,32.227,34.668,41.504,64.453,19.043,0
1486223919.483,-30.273,28.320,30.762,74.707,63.965,0
1486223919.487,-2.930,18.066,31.738,58.105,70.801,0
1486223919.491,78.613,20.020,39.062,61.035,-15.137,0
1486223919.495,102.051,30.762,45.410,74.707,46.387,0
1486223919.499,44.922,25.879,46.875,61.035,90.820,0
1486223919.502,-30.273,24.902,43.457,63.477,77.637,0
1486223919.506,-13.184,25.879,38.574,51.758,93.750,0
1486223919.510,75.195,25.879,44.434,64.941,24.414,0
1486223919.514,106.445,32.227,40.039,82.520,2.441,0
1486223919.518,57.129,38.574,41.992,76.660,40.039,0
1486223919.522,-16.602,33.203,42.480,79.102,99.609,0
1486223919.526,-9.277,29.785,37.598,67.383,116.699,0
1486223919.530,72.754,36.621,42.480,65.430,12.207,0
1486223919.534,111.816,38.574,43.945,78.613,32.715,0
1486223919.538,77.637,34.668,52.246,82.031,69.824,0
1486223919.541,7.812,31.738,55.176,84.961,97.168,0
1486223919.545,-17.578,27.344,37.598,69.824,113.281,0
1486223919.549,62.500,31.738,37.109,62.988,8.301,0
1486223919.553,117.188,32.227,37.109,81.543,-22.461,0
1486223919.557,74.707,36.133,36.133,82.520,39.551,0
1486223919.561,-9.766,31.250,44.434,72.754,104.492,0
1486223919.565,-28.320,30.762,49.316,70.312,125.488,0
1486223919.569,38.086,35.645,45.410,53.223,54.688,0
1486223919.573,101.074,30.762,46.387,60.547,8.301,0
1486223919.577,81.055,27.832,47.363,67.871,-7.812,0
1486223919.581,-4.395,25.879,42.480,65.430,13.184,0
1486223919.584,-27.344,34.180,46.387,71.289,101.562,0
1486223919.588,41.992,36.621,49.316,64.941,42.480,0
1486223919.592,93.750,26.855,36.133,63.965,-31.250,0
1486223919.596,78.125,21.484,33.691,60.547,35.156,0
1486223919.600,13.672,29.785,41.504,62.500,66.895,0
1486223919.604,-36.133,26.367,36.621,59.082,121.094,0
1486223919.608,26.367,26.367,41.016,58.105,65.918,0
1486223919.612,117.676,32.715,51.758,78.613,-19.531,0
1486223919.616,104.980,26.855,42.969,75.684,53.223,0
1486223919.620,19.531,24.414,32.227,66.895,83.984,0
1486223919.624,-34.180,29.297,43.945,63.965,98.633,0
1486223919.627,20.020,27.832,54.688,57.129,56.641,0
1486223919.631,94.727,26.367,42.969,60.547,-9.766,0
1486223919.635,95.215,35.156,42.480,67.871,15.625,0
1486223919.639,35.156,36.621,55.664,69.824,47.852,0
1486223919.643,-25.879,27.832,47.852,64.941,77.148,0
1486223919.647,12.207,31.738,36.133,59.570,63.477,0
1486223919.651,94.238,25.879,40.527,71.289,11.230,0
1486223919.655,103.516,22.949,41.504,81.543,2.930,0
1486223919.659,55.664,28.320,41.504,74.707,65.918,0
1486223919.663,-9.766,30.273,38.574,66.895,101.562,0
1486223919.666,3.906,34.180,42.480,65.918,85.938,0
1486223919.670,95.703,37.109,42.480,67.871,37.598,0
1486223919.674,111.328,41.016,41.016,74.707,31.250,0
1486223919.678,46.875,29.785,47.363,62.988,41.016,0
1486223919.682,-24.902,19.043,41.992,57.617,59.570,0
1486223919.686,-14.160,21.484,31.738,56.641,88.379,0
1486223919.690,77.148,35.156,40.527,60.059,7.812,0
1486223919.694,113.770,38.086,44.922,76.172,3.906,0
1486223919.698,64.453,28.320,39.062,62.500,62.500,0
1486223919.702,-15.137,26.855,39.062,46.387,93.262,0
1486223919.706,-21.973,38.086,42.480,49.805,101.562,0
1486223919.709,56.152,39.062,53.223,52.734,52.734,0
1486223919.713,105.957,28.809,53.223,65.918,45.898,0
1486223919.717,64.453,21.973,41.504,66.895,93.750,0
1486223919.721,-23.438,27.832,39.551,59.082,159.180,0
1486223919.725,-35.645,33.203,44.922,54.199,129.883,0
1486223919.729,49.805,25.879,45.410,49.316,39.551,0
1486223919.733,107.910,34.668,41.992,66.895,9.277,0
1486223919.737,65.430,33.691,39.551,72.266,46.875,0
1486223919.741,-14.160,28.809,47.852,63.477,76.172,0
1486223919.745,-39.062,27.832,50.781,53.223,62.012,0
1486223919.749,33.691,22.949,45.410,47.852,48.340,0
1486223919.752,89.844,20.020,35.645,59.570,19.043,0
1486223919.756,82.031,23.438,36.133,68.359,6.348,0
1486223919.760,24.414,33.691,41.504,64.453,39.551,0
1486223919.764,-37.109,35.156,49.316,57.617,104.492,0
1486223919.768,19.043,27.344,40.039,52.734,63.965,0
1486223919.772,106.934,26.855,38.086,79.102,12.695,0
1486223919.776,103.027,36.133,52.246,86.914,33.691,0
1486223919.780,26.855,34.180,49.316,68.359,55.664,0
1486223919.784,-33.691,24.414,41.992,65.918,123.535,0
1486223919.788,11.230,24.902,33.203,63.477,89.844,0
1486223919.791,92.285,22.949,39.551,66.895,5.859,0
1486223919.795,90.820,24.902,47.363,75.684,28.320,0
1486223919.799,41.016,36.133,47.363,83.984,24.414,0
1486223919.803,-15.625,39.062,53.711,86.914,64.941,0
1486223919.807,6.348,32.715,44.922,64.453,75.684,0
1486223919.811,83.008,25.391,42.969,58.594,-6.348,0
1486223919.815,100.098,25.879,49.805,74.219,0.488,0
1486223919.819,45.410,26.855,41.504,66.406,40.527,0
1486223919.823,-21.484,29.297,38.574,62.988,90.332,0
1486223919.827,2.441,32.715,36.133,67.871,73.730,0
1486223919.831,88.867,33.203,28.809,70.801,-6.836,0
1486223919.834,102.539,32.715,33.691,81.543,-9.277,0
1486223919.838,46.875,33.691,46.387,75.195,24.902,0
1486223919.842,-6.836,30.762,46.387,63.477,64.453,0
1486223919.846,-3.418,30.273,42.969,53.711,85.938,0
1486223919.850,69.824,27.832,41.016,59.570,27.344,0
1486223919.854,107.422,24.414,35.156,80.078,2.930,0
1486223919.858,57.617,27.344,33.691,66.895,2.930,0
1486223919.862,-21.973,27.344,43.457,54.199,27.832,0
1486223919.866,-11.719,32.227,39.062,60.547,74.219,0
1486223919.870,77.148,37.109,32.715,69.824,15.625,0
1486223919.873,115.723,31.250,39.062,82.520,-13.184,0
1486223919.877,75.684,25.391,41.504,67.383,51.758,0
1486223919.881,4.395,27.344,43.457,58.594,132.324,0
1486223919.885,-14.160,29.785,28.809,61.523,138.672,0
1486223919.889,59.570,31.738,29.785,62.500,19.043,0
1486223919.893,112.793,30.762,43.457,71.289,-1.465,0
1486223919.897,80.566,27.344,38.086,73.242,59.082,0
1486223919.901,6.836,32.227,35.156,73.242,87.402,0
1486223919.905,-25.879,36.621,31.738,63.965,137.207,0
1486223919.909,52.734,34.668,34.668,62.988,54.688,0
1486223919.913,114.746,30.273,33.203,74.707,-19.043,0
1486223919.916,76.172,24.902,26.855,70.801,35.645,0
1486223919.920,10.742,30.273,43.457,67.871,68.848,0
1486223919.924,-25.879,34.180,52.246,64.941,101.074,0
1486223919.928,33.203,30.762,38.086,62.500,38.574,0
1486223919.932,101.074,26.367,46.875,75.195,-19.531,0
1486223919.936,86.426,23.926,48.828,73.730,-0.977,0
1486223919.940,17.578,27.344,42.480,73.242,23.926,0
1486223919.944,-22.461,31.250,43.945,76.172,102.051,0
1486223919.948,26.855,28.320,37.109,63.477,38.086,0
1486223919.952,89.844,21.973,34.668,56.641,-56.152,0
1486223919.956,92.773,28.320,38.574,72.754,2.930,0
1486223919.959,21.484,31.738,34.180,76.172,33.203,0
1486223919.963,-45.898,27.832,41.504,63.965,68.359,0
1486223919.967,5.859,27.832,49.316,51.758,83.984,0
1486223919.971,99.121,24.902,38.574,68.848,10.742,0
1486223919.975,102.051,24.414,40.527,73.242,23.438,0
1486223919.979,36.133,27.832,46.387,53.711,59.082,0
1486223919.983,-26.367,27.832,43.457,62.500,82.031,0
1486223919.987,8.301,34.668,34.668,53.223,63.477,0
1486223919.991,93.262,27.344,28.320,50.781,18.555,0
1486223919.995,103.516,21.973,33.691,72.754,29.297,0
1486223919.998,44.922,29.297,42.969,74.219,13.184,0
1486223920.002,-18.066,33.203,55.664,65.918,43.457,0
1486223920.006,1.953,33.691,51.758,61.035,97.656,0
1486223920.010,83.008,27.344,31.738,59.570,17.578,0
1486223920.014,119.629,23.926,31.738,68.359,20.020,0
1486223920.018,71.289,30.273,28.320,66.406,31.738,0
1486223920.022,-14.160,33.203,28.320,65.430,50.293,0
1486223920.026,-16.602,25.879,32.227,57.129,105.469,0
1486223920.030,64.453,29.785,34.668,56.152,4.883,0
1486223920.034,105.957,35.156,41.016,75.195,-20.020,0
1486223920.038,65.430,31.738,43.945,71.289,27.344,0
1486223920.041,-15.625,27.832,38.574,66.895,65.918,0
1486223920.045,-21.973,32.227,40.039,58.105,85.449,0
1486223920.049,64.941,35.156,48.828,53.711,-25.879,0
1486223920.053,111.816,25.391,50.293,69.336,-39.062,0
1486223920.057,75.195,26.855,31.738,68.359,17.090,0
1486223920.061,-2.441,33.203,25.391,59.082,65.430,0
1486223920.065,-36.621,32.715,36.133,56.152,99.121,0
1486223920.069,42.969,29.297,35.645,48.340,15.625,1
1486223920.073,123.047,25.879,43.457,68.848,11.230,0
1486223920.077,89.844,22.461,41.992,77.637,40.039,0
1486223920.081,0.000,27.344,37.109,59.570,33.203,0
1486223920.084,-34.668,32.715,44.922,59.082,104.004,0
1486223920.088,41.992,31.738,42.480,63.965,29.785,0
1486223920.092,101.074,28.320,43.457,75.684,-42.480,0
1486223920.096,72.266,26.855,27.832,62.500,-13.184,0
1486223920.100,11.230,25.879,27.344,55.664,28.809,0
1486223920.104,-33.203,29.785,44.434,56.641,80.078,0
1486223920.108,17.090,33.203,48.828,52.734,32.227,0
1486223920.112,91.797,27.832,44.434,62.988,11.230,0
1486223920.116,87.402,26.367,36.621,69.824,26.855,0
1486223920.120,19.531,33.203,38.574,70.312,25.391,0
1486223920.123,-36.133,30.762,39.551,68.359,77.148,0
1486223920.127,9.277,29.785,41.016,58.105,46.875,0
1486223920.131,87.891,28.320,40.527,58.105,-22.461,0
1486223920.135,103.027,27.344,31.250,64.941,9.766,0
1486223920.139,38.574,32.715,38.574,63.477,55.176,0
1486223920.143,-29.297,26.367,50.293,59.082,82.520,0
1486223920.147,9.766,31.250,45.898,49.805,72.754,0
1486223920.151,94.238,29.785,51.270,56.641,-11.719,0
1486223920.155,104.980,23.926,49.316,67.871,-1.465,0
1486223920.159,33.691,26.855,38.574,57.617,42.480,0
1486223920.163,-33.203,24.902,31.250,44.922,69.336,0
1486223920.166,-8.789,28.320,32.715,55.664,72.266,0
1486223920.170,76.172,31.738,34.668,67.871,-23.926,0
1486223920.174,108.398,30.762,43.457,72.266,-41.504,0
1486223920.178,54.199,27.344,50.293,67.871,19.043,0
1486223920.182,-19.531,35.156,37.109,62.988,83.984,0
1486223920.186,-10.254,36.621,39.062,60.547,67.871,0
1486223920.190,72.754,20.996,49.316,60.059,-30.762,0
1486223920.194,112.793,27.344,47.363,79.590,-45.898,0
1486223920.198,62.500,40.039,43.945,73.242,-9.766,0
1486223920.202,-25.879,32.227,39.062,62.500,92.773,0
1486223920.205,-29.785,27.344,31.250,57.617,111.816,0
1486223920.209,61.035,30.762,39.062,63.965,14.160,0
1486223920.213,107.910,30.762,47.852,79.102,-0.977,0
1486223920.217,77.148,38.574,45.898,75.684,9.277,0
1486223920.221,7.324,37.598,43.945,65.430,48.340,0
1486223920.225,-18.066,25.391,42.969,58.594,71.777,0
1486223920.229,57.617,28.809,42.969,67.383,-30.273,0
1486223920.233,121.582,34.668,41.016,74.219,-56.641,0
1486223920.237,82.031,27.344,41.016,65.918,12.207,0
1486223920.241,-10.742,23.926,39.062,58.594,62.500,0
1486223920.245,-41.016,29.785,36.621,53.711,96.680,0
1486223920.248,55.176,37.598,46.875,60.059,34.668,0
1486223920.252,116.211,38.574,50.781,78.125,-20.020,0
1486223920.256,73.730,26.855,39.551,75.684,4.883,0
1486223920.260,14.648,23.926,34.180,57.617,76.172,0
1486223920.264,-22.949,33.203,43.457,70.801,102.051,0
1486223920.268,30.762,27.832,50.781,71.289,26.367,0
1486223920.272,95.215,21.973,29.785,62.988,-7.812,0
1486223920.276,93.750,27.344,35.156,74.219,27.344,0
1486223920.280,20.020,24.414,37.598,63.477,73.242,0
1486223920.284,-39.062,25.879,34.668,55.664,138.672,0
1486223920.288,25.391,33.203,45.410,60.547,111.816,0
1486223920.291,105.469,32.715,39.062,75.195,2.441,0
1486223920.295,100.098,32.715,29.785,81.543,19.043,0
1486223920.299,38.574,33.203,36.621,65.918,72.754,0
1486223920.303,-14.160,30.762,45.410,62.988,119.141,0
1486223920.307,20.996,31.738,51.270,65.430,77.148,0
1486223920.311,100.586,33.691,44.922,66.895,-2.930,0
1486223920.315,114.258,29.297,26.367,81.543,32.227,0
1486223920.319,55.664,23.438,36.133,80.078,76.172,0
1486223920.323,-29.785,30.273,40.527,73.730,117.188,0
1486223920.327,-8.789,33.691,29.785,64.453,96.680,0
1486223920.330,98.145,24.902,33.203,65.918,6.836,0
1486223920.334,116.211,25.879,37.109,78.125,-36.133,0
1486223920.338,53.711,27.832,45.410,69.336,14.648,0
1486223920.342,-22.949,29.297,44.922,66.406,72.754,0
1486223920.346,-20.020,28.809,26.855,65.430,69.824,0
1486223920.350,65.430,30.273,23.926,60.059,22.461,0
1486223920.354,105.469,27.344,40.527,65.918,15.137,0
1486223920.358,54.688,26.367,33.203,67.383,21.973,0
1486223920.362,-22.949,34.668,30.273,61.523,46.875,0
1486223920.366,-29.297,30.762,45.410,54.199,74.219,0
1486223920.370,64.941,22.461,48.340,58.594,13.184,0
1486223920.373,116.211,27.832,45.410,73.730,0.000,0
1486223920.377,58.105,25.879,32.227,56.641,40.039,0
1486223920.381,-20.996,20.020,27.832,43.945,73.730,0
1486223920.385,-37.109,24.414,29.297,50.293,114.746,0
1486223920.389,37.109,27.832,26.855,49.316,61.523,0
1486223920.393,95.703,31.250,41.504,63.477,22.461,0
1486223920.397,60.547,32.715,47.363,62.500,37.109,0
1486223920.401,-11.719,30.273,40.527,55.176,62.500,0
1486223920.405,-26.855,21.973,40.039,61.035,115.723,0
1486223920.409,36.133,20.996,33.203,39.551,64.453,0
1486223920.413,93.750,26.367,38.574,46.875,18.066,0
1486223920.416,74.219,26.855,40.527,61.035,52.246,0
1486223920.420,-5.859,22.949,32.715,47.363,87.402,0
1486223920.424,-41.992,28.809,38.574,56.641,121.094,0
1486223920.428,13.672,25.879,39.551,46.387,83.984,0
1486223920.432,88.867,19.531,40.039,51.758,12.695,0
1486223920.436,91.309,34.668,32.715,68.359,63.965,0
1486223920.440,19.531,40.527,32.715,66.895,84.473,0
1486223920.444,-34.180,29.785,40.039,58.594,118.652,0
1486223920.448,10.742,24.414,37.109,45.898,64.453,0
1486223920.452,83.984,23.926,31.250,57.617,-10.742,0
1486223920.455,88.867,33.203,33.203,72.754,37.598,0
1486223920.459,23.438,30.762,40.039,69.336,43.945,0
1486223920.463,-36.133,23.438,44.922,62.500,98.145,0
1486223920.467,14.160,22.461,38.574,63.477,98.633,0
1486223920.471,98.633,31.250,41.016,83.008,-23.926,0
1486223920.475,104.004,31.250,33.691,81.055,-19.043,0
1486223920.479,50.293,34.180,35.645,63.965,66.406,0
1486223920.483,-21.973,35.645,47.363,59.082,104.004,0
1486223920.487,-5.859,23.926,40.039,55.664,97.656,0
1486223920.491,76.660,23.438,41.016,64.453,0.488,0
1486223920.495,103.027,27.832,41.504,75.195,-0.488,0
1486223920.498,54.688,30.273,42.480,62.012,31.738,0
1486223920.502,-20.508,25.391,42.480,50.293,87.402,0
1486223920.506,-3.418,27.832,41.504,62.500,91.797,0
1486223920.510,80.566,28.320,37.598,70.312,0.488,0
1486223920.514,109.375,34.180,43.945,79.590,-15.137,0
1486223920.518,62.988,33.203,44.922,69.824,22.949,0
1486223920.522,-13.672,26.855,35.156,59.082,75.684,0
1486223920.526,-23.438,33.203,33.203,58.594,118.652,0
1486223920.530,71.289,28.809,49.805,61.035,0.977,0
1486223920.534,126.953,31.250,43.457,70.801,-5.371,0
1486223920.537,71.777,27.832,24.414,62.988,55.664,0
1486223920.541,-13.184,21.973,35.156,67.871,92.773,0
1486223920.545,-19.043,27.832,47.363,71.777,111.328,0
1486223920.549,65.918,24.902,52.246,66.406,17.578,0
1486223920.553,113.281,29.297,45.410,66.406,15.625,0
1486223920.557,79.102,28.809,41.992,62.988,41.016,0
1486223920.561,-1.465,25.879,40.039,62.012,70.312,0
1486223920.565,-19.531,37.109,43.945,73.242,95.703,0
1486223920.569,70.312,36.621,45.410,67.383,26.855,0
1486223920.573,119.629,27.344,47.852,64.453,-38.574,0
1486223920.577,86.914,31.738,47.852,72.266,10.254,0
1486223920.580,10.742,30.273,41.504,69.336,60.059,0
1486223920.584,-30.273,29.785,47.363,67.383,104.492,0
1486223920.588,34.180,32.227,50.293,60.547,51.758,0
1486223920.592,108.398,30.273,44.922,70.801,-32.227,0
1486223920.596,93.750,27.832,41.016,73.730,-18.066,0
1486223920.600,23.438,33.691,41.016,69.824,6.836,0
1486223920.604,-24.414,33.691,43.457,73.730,71.777,0
1486223920.608,20.020,32.715,38.086,64.453,50.293,0
1486223920.612,91.309,32.715,32.715,65.918,11.719,0
1486223920.616,98.145,31.738,39.062,69.824,28.320,0
1486223920.620,38.086,34.668,54.199,59.570,24.902,0
1486223920.623,-26.367,28.320,56.641,59.082,80.566,0
1486223920.627,3.906,21.484,40.039,49.316,55.176,0
1486223920.631,91.309,30.762,39.062,54.199,-19.531,0
1486223920.635,96.680,32.715,38.086,64.453,1.953,0
1486223920.639,29.785,31.250,34.180,61.523,22.461,0
1486223920.643,-25.391,34.668,40.039,61.523,49.316,2
1486223920.647,6.348,30.273,41.016,57.129,79.590,0
1486223920.651,90.820,34.180,41.504,60.059,24.902,0
1486223920.655,102.539,35.156,52.246,70.312,-8.789,0
1486223920.659,37.598,28.320,56.152,67.383,11.719,0
1486223920.662,-26.367,34.180,43.457,60.547,62.012,0
1486223920.666,-12.207,30.762,47.363,53.223,36.133,0
1486223920.670,64.941,21.484,43.457,56.152,-44.922,0
1486223920.674,99.121,25.391,21.973,60.059,5.859,0
1486223920.678,44.922,32.715,26.367,61.035,47.852,0
1486223920.682,-31.738,35.156,36.621,63.965,72.266,0
1486223920.686,-15.625,30.273,40.527,51.758,67.383,0
1486223920.690,65.918,28.320,41.016,57.617,-25.391,0
1486223920.694,117.188,35.156,49.805,76.660,-2.930,0
1486223920.698,69.824,33.203,54.199,70.801,11.719,0
1486223920.702,-18.555,32.715,43.457,64.453,47.852,0
1486223920.705,-20.996,27.832,38.574,59.082,84.961,0
1486223920.709,60.059,22.461,32.227,51.270,-12.207,0
1486223920.713,114.746,30.762,31.250,69.824,-8.789,0
1486223920.717,71.289,31.738,38.086,71.289,37.109,0
1486223920.721,-9.766,31.738,36.621,59.570,81.543,0
1486223920.725,-30.273,31.738,34.668,60.547,119.141,0
1486223920.729,55.176,30.273,38.086,48.828,48.828,0
1486223920.733,115.234,34.180,35.645,55.664,11.719,0
1486223920.737,72.266,29.785,26.855,60.059,51.270,0
1486223920.741,6.348,26.367,34.668,50.781,79.102,0
1486223920.745,-9.766,27.832,38.086,55.176,107.910,0
1486223920.748,44.922,27.832,24.414,55.176,59.570,0
1486223920.752,97.656,24.902,32.715,56.641,-9.277,0
1486223920.756,80.566,26.367,43.945,65.430,32.227,0
1486223920.760,4.395,29.297,43.457,70.312,92.285,0
1486223920.764,-33.203,28.809,42.480,70.312,118.652,0
1486223920.768,23.438,27.344,38.086,61.035,60.547,0
1486223920.772,97.656,25.879,36.621,73.730,21.973,0
1486223920.776,100.098,28.809,39.551,86.914,49.805,0
1486223920.780,27.832,27.832,40.527,72.266,42.480,0
1486223920.784,-35.645,19.531,38.086,68.848,66.895,0
1486223920.787,3.418,20.996,35.645,61.523,33.691,0
1486223920.791,96.191,36.133,37.598,61.523,15.137,0
1486223920.795,104.492,32.227,33.203,68.359,43.945,0
1486223920.799,49.805,30.273,39.062,67.871,40.039,0
1486223920.803,-15.625,33.691,46.387,60.059,66.895,0
1486223920.807,-5.859,22.461,35.156,45.898,49.805,0
1486223920.811,85.449,23.926,24.414,56.641,-38.086,0
1486223920.815,110.352,27.344,21.484,71.777,0.488,0
1486223920.819,47.363,27.832,29.785,63.965,34.180,0
1486223920.823,-14.160,31.738,39.062,65.430,55.664,0
1486223920.827,4.395,29.785,31.250,61.035,71.777,0
1486223920.830,84.473,38.574,42.480,64.941,-10.742,0
1486223920.834,119.629,41.992,48.828,80.566,-8.789,0
1486223920.838,62.012,27.344,33.691,61.523,18.555,0
1486223920.842,-19.043,22.461,25.391,48.828,83.008,0
1486223920.846,-19.531,24.902,24.414,47.363,104.004,0
1486223920.850,80.078,29.297,31.738,58.105,17.090,0
1486223920.854,121.582,29.297,41.992,77.148,20.996,0
1486223920.858,57.617,30.273,40.527,67.871,42.480,0
1486223920.862,-15.625,33.691,38.574,64.453,61.035,0
1486223920.866,-8.789,35.156,50.293,67.383,107.910,0
1486223920.869,84.473,37.109,55.664,77.637,38.086,0
1486223920.873,121.094,28.320,46.875,85.938,32.227,0
1486223920.877,72.754,23.438,36.621,69.824,54.199,0
1486223920.881,4.883,30.273,25.879,63.965,66.895,0
1486223920.885,-18.555,28.320,29.785,63.965,114.258,0
1486223920.889,52.246,22.949,42.480,54.688,31.738,0
1486223920.893,114.746,32.227,52.246,71.289,-10.742,0
1486223920.897,82.520,27.832,39.062,73.242,43.457,0
1486223920.901,7.324,26.367,34.668,65.430,101.562,0
1486223920.905,-26.855,30.762,46.387,66.406,111.816,0
1486223920.909,41.992,27.832,27.832,67.383,46.387,0
1486223920.912,101.562,28.809,22.461,80.078,2.441,0
1486223920.916,97.168,33.203,39.551,83.008,29.785,0
1486223920.920,27.344,37.598,40.039,76.660,47.852,0
1486223920.924,-34.180,27.832,29.785,48.828,104.980,0
1486223920.928,35.156,25.391,39.551,41.504,52.734,0
1486223920.932,106.934,25.879,46.387,70.801,-17.578,0
1486223920.936,84.961,26.855,34.180,72.266,37.109,0
1486223920.940,13.672,35.156,35.156,63.477,32.227,0
1486223920.944,-42.969,28.320,34.668,63.965,46.387,0
1486223920.948,2.930,19.531,23.926,42.480,56.152,0
1486223920.952,93.750,26.855,31.250,61.035,28.320,0
1486223920.955,95.703,33.203,38.086,77.637,37.109,0
1486223920.959,18.066,22.461,34.180,53.711,68.848,0
1486223920.963,-36.621,22.461,44.922,55.664,117.188,0
1486223920.967,0.977,28.320,53.711,61.035,89.844,0
1486223920.971,85.449,20.508,44.434,71.289,2.930,0
1486223920.975,100.098,14.160,32.227,67.383,-2.930,0
1486223920.979,29.785,22.461,29.785,54.688,40.039,0
1486223920.983,-36.133,30.762,38.574,57.129,93.262,0
1486223920.987,-11.719,26.855,26.855,49.805,108.398,0
1486223920.991,76.172,24.902,24.902,59.570,41.992,0
1486223920.994,93.750,25.391,34.180,75.195,41.504,0
1486223920.998,37.598,27.832,42.969,67.383,58.594,0
1486223921.002,-19.043,30.762,49.805,66.406,103.027,0
1486223921.006,-10.254,22.949,41.992,66.406,109.375,0
1486223921.010,75.684,24.902,32.715,69.336,63.477,0
1486223921.014,103.027,25.879,39.062,73.242,64.941,0
1486223921.018,48.340,24.414,35.156,72.266,75.195,0
1486223921.022,-18.066,31.738,32.227,73.242,112.305,0
1486223921.026,-27.832,30.273,34.668,64.941,118.164,0
1486223921.030,65.918,26.367,27.832,60.547,26.855,0
1486223921.034,118.652,34.180,39.062,68.359,15.137,0
1486223921.037,72.754,39.062,48.828,66.406,37.598,0
1486223921.041,-15.625,33.203,41.016,50.781,62.500,0
1486223921.045,-20.996,33.203,44.434,47.363,100.098,0
1486223921.049,50.781,26.367,38.086,42.480,2.930,0
1486223921.053,100.586,27.344,28.320,54.199,-12.207,0
1486223921.057,80.566,34.668,34.180,59.570,40.527,0
1486223921.061,-5.859,30.273,43.945,52.246,62.988,0
1486223921.065,-40.527,27.344,33.691,59.082,114.746,0
1486223921.069,33.203,24.902,26.855,55.664,36.621,0
1486223921.073,90.332,24.902,35.645,56.641,-6.836,0
1486223921.077,73.730,33.203,47.363,61.523,1.465,0
1486223921.080,7.324,32.715,54.199,57.129,34.180,0
1486223921.084,-24.902,31.738,58.105,60.059,117.188,0
1486223921.088,44.922,30.762,40.527,53.711,43.945,0
1486223921.092,98.145,20.996,26.367,53.711,-16.113,0
1486223921.096,93.750,28.809,38.574,70.312,14.648,0
1486223921.100,20.020,32.715,39.551,53.223,49.316,0
1486223921.104,-36.621,31.250,39.551,53.223,114.746,0
1486223921.108,12.695,32.227,38.086,56.641,56.152,0
1486223921.112,84.961,23.438,31.250,52.734,-11.719,0
1486223921.116,90.332,27.344,39.062,65.430,13.184,0
1486223921.119,25.879,31.250,53.711,62.500,48.340,0
1486223921.123,-37.598,24.902,42.969,56.641,118.164,0
1486223921.127,8.301,26.367,25.391,49.805,44.434,0
1486223921.131,88.379,27.344,25.879,52.246,-9.766,0
1486223921.135,99.609,30.273,37.109,67.871,53.223,0
1486223921.139,33.691,34.180,39.551,56.152,49.316,0
1486223921.143,-44.922,31.738,42.969,54.199,100.586,0
1486223921.147,-11.719,32.227,40.039,54.199,102.051,0
1486223921.151,81.055,35.645,33.203,51.758,21.484,0
1486223921.155,109.863,34.668,39.062,66.895,39.551,0
1486223921.159,51.758,33.203,48.828,60.059,42.480,0
1486223921.162,-20.020,29.297,45.410,55.176,67.383,0
1486223921.166,-0.488,27.344,36.621,61.035,82.031,0
1486223921.170,79.102,22.949,36.621,70.312,27.344,0
1486223921.174,102.539,20.020,35.645,73.242,24.414,0
1486223921.178,48.828,28.320,39.062,61.035,31.250,0
1486223921.182,-23.438,27.832,45.898,54.688,51.758,0
1486223921.186,-16.602,24.902,47.852,56.152,90.820,0
1486223921.190,71.777,29.785,46.387,62.500,0.000,1
1486223921.194,104.980,28.320,35.156,72.266,-28.320,0
1486223921.198,60.547,26.367,27.344,66.895,17.090,0
1486223921.201,-12.207,35.645,42.480,64.941,55.176,0
1486223921.205,-19.531,27.344,49.316,74.219,93.262,0
1486223921.209,60.059,17.578,35.156,65.430,-8.301,0
1486223921.213,104.980,21.973,33.203,71.777,-32.227,0
1486223921.217,75.195,16.113,40.039,64.941,12.695,0
1486223921.221,-8.789,22.949,41.016,61.523,52.734,0
1486223921.225,-37.598,26.855,41.992,67.383,85.449,0
1486223921.229,53.223,22.461,41.992,56.152,-2.441,0
1486223921.233,109.863,28.320,30.273,70.801,-10.742,0
1486223921.237,75.195,28.809,24.414,67.383,53.711,0
1486223921.241,-9.277,23.926,36.133,47.363,63.965,0
1486223921.244,-30.273,34.180,45.410,63.477,96.191,0
1486223921.248,45.410,30.273,41.992,69.336,33.691,0
1486223921.252,113.770,20.508,41.016,72.266,-5.371,0
1486223921.256,95.703,29.297,44.922,73.242,15.625,0
1486223921.260,14.648,30.762,45.410,73.242,43.457,0
1486223921.264,-32.227,29.785,41.016,71.289,93.750,0
1486223921.268,38.574,32.227,49.316,59.082,40.039,0
1486223921.272,108.887,35.156,44.922,63.965,-16.113,0
1486223921.276,90.820,28.809,23.438,72.754,14.648,0
1486223921.280,38.086,30.273,35.645,70.801,29.297,0
1486223921.284,-27.344,32.227,36.133,65.430,58.594,0
1486223921.287,17.578,27.344,29.297,49.805,26.855,0
1486223921.291,101.562,24.902,32.715,48.828,-38.086,0
1486223921.295,106.445,31.738,36.621,65.430,-0.977,0
1486223921.299,34.668,33.203,37.598,64.941,17.578,0
1486223921.303,-32.227,31.250,32.227,62.012,50.781,0
1486223921.307,3.906,32.715,43.945,58.594,28.809,0
1486223921.311,85.938,24.414,50.781,78.613,-51.758,0
1486223921.315,100.586,30.273,44.922,84.473,-19.043,0
1486223921.319,53.223,36.621,41.016,63.965,37.598,0
1486223921.323,-23.926,22.461,37.109,66.895,83.984,0
1486223921.326,-1.465,30.762,47.852,73.242,61.035,0
1486223921.330,99.609,34.668,53.711,70.312,-6.836,0
1486223921.334,106.445,21.484,41.016,73.242,19.531,0
1486223921.338,54.199,25.879,33.691,80.566,48.340,0
1486223921.342,-4.883,27.344,41.992,78.125,64.453,0
1486223921.346,-1.953,30.273,33.203,67.383,66.895,0
1486223921.350,73.242,32.227,32.715,57.129,12.207,0
1486223921.354,111.328,29.297,41.016,64.941,24.414,0
1486223921.358,68.848,29.297,31.250,62.988,32.715,0
1486223921.362,-6.836,32.227,41.016,62.500,55.176,0
1486223921.366,-7.812,32.715,57.129,70.801,83.496,0
1486223921.369,69.824,33.203,50.293,68.848,-10.742,0
1486223921.373,110.352,34.668,41.992,75.684,-33.203,0
1486223921.377,70.312,30.762,47.852,67.383,23.926,0
1486223921.381,-14.160,27.344,34.668,56.641,97.168,0
1486223921.385,-22.461,32.715,40.527,62.988,153.320,0
1486223921.389,54.688,31.250,43.457,63.477,45.898,0
1486223921.393,103.027,22.461,27.832,68.359,-20.020,0
1486223921.397,87.891,26.367,41.992,66.406,35.156,0
1486223921.401,8.301,24.414,52.734,62.988,97.656,0
1486223921.405,-33.691,25.391,46.875,62.988,140.625,0
1486223921.409,47.852,38.086,40.527,62.012,42.480,0
1486223921.412,107.422,33.203,34.668,74.219,-35.645,0
1486223921.416,83.496,27.344,39.062,83.008,14.160,0
1486223921.420,28.320,28.320,48.828,76.660,74.707,0
1486223921.424,-16.602,28.320,49.316,79.102,131.836,0
1486223921.428,27.832,27.832,41.992,60.547,46.875,0
1486223921.432,107.422,22.949,41.992,65.430,-22.461,0
1486223921.436,106.934,20.508,37.598,83.496,14.648,0
1486223921.440,32.715,30.273,43.945,75.684,31.250,0
1486223921.444,-25.391,34.180,58.105,82.520,87.402,0
1486223921.448,18.555,29.785,46.387,68.848,49.805,0
1486223921.451,94.727,33.691,36.133,69.824,-40.527,0
1486223921.455,91.309,30.762,37.598,81.055,2.441,0
1486223921.459,34.668,32.227,44.434,67.383,36.133,0
1486223921.463,-23.926,29.297,40.039,61.035,90.332,0
1486223921.467,7.324,18.555,31.738,59.082,84.473,0
1486223921.471,97.168,21.973,35.156,63.477,-20.996,0
1486223921.475,111.816,26.855,41.992,72.266,-3.906,0
1486223921.479,50.293,31.250,45.898,64.941,54.688,0
1486223921.483,-9.277,36.133,40.527,56.641,90.332,0
1486223921.487,0.000,27.344,29.785,52.246,69.824,0
1486223921.491,81.055,30.762,37.598,56.641,29.785,0
1486223921.494,110.840,38.574,41.504,76.172,41.992,0
1486223921.498,41.016,29.297,26.367,61.523,25.879,0
1486223921.502,-24.902,28.809,38.574,58.105,47.852,0
1486223921.506,-13.672,33.203,49.805,59.570,99.121,0
1486223921.510,60.547,32.715,42.969,55.664,51.758,0
1486223921.514,106.445,31.250,42.969,78.125,13.672,0
1486223921.518,57.129,25.879,45.410,66.406,47.852,0
1486223921.522,-41.992,23.438,32.715,45.410,86.426,0
1486223921.526,-36.133,27.344,33.691,44.922,96.191,0
1486223921.530,61.035,27.344,41.016,50.781,-4.395,0
1486223921.533,98.145,28.320,35.156,66.895,-28.320,0
1486223921.537,56.152,34.180,30.762,61.523,28.320,0
1486223921.541,-6.836,36.621,42.480,68.848,61.035,0
1486223921.545,-21.973,34.668,46.387,64.941,96.191,0
1486223921.549,47.363,24.902,30.273,45.410,36.621,0
1486223921.553,110.352,30.273,30.762,69.824,9.766,0
1486223921.557,88.379,39.062,47.852,75.684,42.969,0
1486223921.561,-3.418,27.832,46.387,57.129,60.547,0
1486223921.565,-52.246,19.531,31.250,45.898,92.773,0
1486223921.569,19.043,22.949,28.320,40.527,10.742,0
1486223921.573,93.750,22.949,41.992,62.500,-20.996,0
1486223921.576,78.613,24.902,45.898,72.266,60.059,0
1486223921.580,8.789,34.180,37.598,53.711,76.172,0
1486223921.584,-38.086,29.785,40.039,51.758,107.422,0
1486223921.588,17.090,19.531,48.828,52.246,66.406,0
1486223921.592,99.121,31.250,52.246,70.312,14.648,0
1486223921.596,95.215,38.574,48.340,73.730,25.391,0
1486223921.600,19.531,25.391,45.410,51.270,20.996,0
1486223921.604,-33.203,23.926,45.898,51.270,77.637,0
1486223921.608,18.066,24.902,34.180,46.875,61.523,0
1486223921.612,99.121,26.855,30.762,55.664,-12.207,0
1486223921.616,96.680,30.762,37.598,67.871,32.227,0
1486223921.619,36.133,32.715,37.109,65.430,68.848,0
1486223921.623,-19.531,31.738,42.480,61.035,73.242,0
1486223921.627,12.207,28.809,50.293,58.105,48.340,0
1486223921.631,95.215,28.809,37.598,67.383,-3.906,0
1486223921.635,104.004,28.809,30.273,69.336,8.789,0
1486223921.639,37.598,30.273,42.480,58.105,25.879,0
1486223921.643,-28.320,29.785,47.852,52.734,83.008,0
1486223921.647,3.418,28.320,38.574,48.340,81.055,0
1486223921.651,89.844,29.297,29.785,61.035,-32.715,0
1486223921.655,108.398,31.738,33.203,69.336,13.184,0
1486223921.658,48.340,28.320,46.875,65.918,73.242,0
1486223921.662,-21.973,32.227,55.664,69.824,118.164,0
1486223921.666,-10.254,32.227,40.527,63.477,144.531,0
1486223921.670,83.984,25.879,31.738,64.941,32.227,0
1486223921.674,119.141,24.414,33.691,67.871,25.879,0
1486223921.678,58.594,29.785,37.109,64.941,65.918,0
1486223921.682,-20.508,27.832,38.574,59.570,91.309,0
1486223921.686,-12.695,21.973,32.227,46.387,108.887,0
1486223921.690,77.148,22.461,35.645,54.688,13.672,0
1486223921.694,106.934,24.902,38.574,60.059,-16.113,0
1486223921.698,64.453,33.203,50.781,63.477,36.621,0
1486223921.701,-18.555,36.133,52.246,60.059,69.336,0
1486223921.705,-37.109,24.902,40.039,49.316,85.938,0
1486223921.709,61.523,28.320,32.227,53.223,34.668,1
1486223921.713,115.723,26.367,27.832,70.801,20.508,0
1486223921.717,63.965,18.555,34.668,73.730,37.109,0
1486223921.721,-0.977,26.367,32.227,63.477,90.820,0
1486223921.725,-20.508,30.273,21.484,56.152,143.066,0
1486223921.729,48.340,35.645,37.109,64.941,37.598,0
1486223921.733,107.422,27.832,44.434,70.801,-12.207,0
1486223921.737,83.008,25.879,32.715,61.523,37.109,0
1486223921.741,19.043,36.133,41.992,71.289,51.758,0
1486223921.744,-34.180,28.809,45.410,64.941,74.707,0
1486223921.748,27.344,20.996,31.250,43.945,43.457,0
1486223921.752,103.516,21.484,26.855,52.246,7.812,0
1486223921.756,82.031,23.438,27.344,58.105,20.020,0
1486223921.760,16.602,35.156,37.598,63.965,15.137,0
1486223921.764,-36.133,35.156,41.992,66.406,64.453,0
1486223921.768,17.090,19.531,37.109,51.758,54.199,0
1486223921.772,91.309,18.555,36.133,55.176,18.066,0
1486223921.776,89.355,28.809,37.109,56.641,37.598,0
1486223921.780,21.973,32.227,45.410,50.781,46.875,0
1486223921.783,-35.156,25.879,35.156,51.758,69.336,0
1486223921.787,14.160,26.367,30.762,49.316,62.012,0
1486223921.791,93.262,39.551,41.992,64.941,32.227,0
1486223921.795,98.633,26.855,44.922,69.824,60.547,0
1486223921.799,32.715,15.137,40.527,61.035,31.738,0
1486223921.803,-33.691,27.832,41.016,64.941,75.195,0
1486223921.807,6.836,24.414,40.527,53.223,86.914,0
1486223921.811,89.844,25.391,33.203,46.875,3.418,0
1486223921.815,112.793,31.738,31.738,65.430,36.621,0
1486223921.819,48.340,25.879,35.156,65.918,56.152,0
1486223921.823,-34.180,27.344,40.039,61.035,73.730,0
1486223921.826,-14.160,28.320,33.203,60.059,66.406,0
1486223921.830,73.242,28.809,36.621,53.711,22.461,0
1486223921.834,94.238,26.855,42.969,56.641,44.922,0
1486223921.838,36.621,28.320,42.480,51.270,60.547,0
1486223921.842,-38.574,27.344,38.086,51.758,84.473,0
1486223921.846,-31.738,24.414,22.949,50.293,84.473,0
1486223921.850,69.824,28.320,29.297,55.664,-4.395,0
1486223921.854,108.398,26.855,41.016,72.754,18.555,0
