timestamps,TP9,AF7,AF8,TP10,Right AUX,Marker
1485534104.914,37.598,28.320,35.156,67.383,-212.402,0
1485534104.918,0.977,31.738,27.832,87.402,196.289,0
1485534104.922,22.949,33.203,32.227,57.129,491.211,0
1485534104.926,42.480,34.180,38.086,27.832,15.137,0
1485534104.930,40.527,28.320,47.363,56.152,-266.602,0
1485534104.934,35.156,26.367,49.316,57.129,65.918,0
1485534104.938,18.066,33.691,49.805,78.613,376.953,0
1485534104.942,15.137,36.621,45.410,74.707,783.691,0
1485534104.946,53.223,35.156,40.039,26.367,354.980,0
1485534104.950,75.684,44.922,50.293,44.922,-283.691,0
1485534104.953,35.645,34.668,45.898,68.359,-244.629,0
1485534104.957,15.137,26.367,35.156,79.590,-19.043,0
1485534104.961,42.969,35.156,37.598,90.820,352.051,0
1485534104.965,35.645,31.738,34.180,49.316,-84.473,0
1485534104.969,37.109,34.668,33.691,42.480,-445.312,0
1485534104.973,53.223,36.133,27.832,62.988,-297.363,0
1485534104.977,27.832,34.180,23.926,91.797,-67.383,0
1485534104.981,17.090,39.062,31.738,90.820,693.848,0
1485534104.985,31.738,39.551,29.785,24.902,554.688,0
1485534104.989,40.527,32.715,33.691,35.645,-291.992,0
1485534104.993,48.828,32.227,43.945,57.617,-308.105,0
1485534104.996,41.992,32.227,50.781,76.660,-74.707,0
1485534105.000,17.090,34.668,47.852,97.656,427.734,0
1485534105.004,14.648,35.156,41.504,55.664,156.738,0
1485534105.008,65.918,27.832,32.227,39.062,-414.551,0
1485534105.012,73.730,41.504,40.039,60.547,-339.355,0
1485534105.016,30.762,48.340,51.758,73.242,-146.484,0
1485534105.020,-10.254,32.227,38.574,55.664,387.207,0
1485534105.024,9.766,31.250,38.086,20.996,225.098,0
1485534105.028,42.480,31.250,26.855,32.227,-113.281,0
1485534105.032,42.969,34.668,17.578,59.570,99.121,0
1485534105.035,41.992,33.691,36.133,76.660,-74.707,0
1485534105.039,5.859,36.621,40.527,72.754,439.941,0
1485534105.043,1.953,39.062,38.086,26.367,765.625,0
1485534105.047,45.410,31.738,37.598,14.160,-161.133,0
1485534105.051,61.035,29.785,36.621,44.922,-406.250,0
1485534105.055,41.016,32.715,41.016,72.754,-225.586,0
1485534105.059,11.719,35.645,41.016,85.938,328.613,0
1485534105.063,22.949,35.645,41.016,51.758,378.418,0
1485534105.067,39.062,31.250,38.086,35.645,-384.277,0
1485534105.071,45.410,30.273,38.574,66.895,-405.762,0
1485534105.075,40.039,30.762,39.551,90.820,35.156,0
1485534105.078,22.461,44.434,48.340,91.309,551.758,0
1485534105.082,19.043,38.574,45.410,61.523,832.031,0
1485534105.086,34.180,23.438,28.320,24.902,80.566,0
1485534105.090,57.617,28.809,15.137,55.664,-413.574,0
1485534105.094,55.664,31.738,29.785,91.797,-256.348,0
1485534105.098,22.949,32.715,46.875,95.215,153.809,0
1485534105.102,9.766,34.180,40.039,59.570,541.992,0
1485534105.106,31.250,26.367,35.156,29.297,-91.309,0
1485534105.110,48.340,24.902,39.062,35.156,-431.152,0
1485534105.114,38.574,33.203,46.875,64.941,-267.090,0
1485534105.118,27.832,35.645,50.781,93.262,47.363,0
1485534105.121,16.113,38.574,42.969,83.984,491.699,0
1485534105.125,25.391,36.133,34.668,44.434,97.656,0
1485534105.129,47.852,29.785,41.016,44.434,-354.980,0
1485534105.133,32.715,34.668,50.781,62.012,-226.562,0
1485534105.137,33.203,48.828,62.012,79.590,-9.277,0
1485534105.141,12.207,37.598,44.434,67.871,661.621,0
1485534105.145,11.230,25.879,30.762,20.508,402.344,0
1485534105.149,54.199,24.414,29.785,39.062,-391.113,0
1485534105.153,57.617,26.367,35.645,70.312,-309.570,0
1485534105.157,26.855,33.691,46.875,75.195,52.734,0
1485534105.160,16.602,35.156,43.457,68.848,527.832,0
1485534105.164,12.207,27.344,39.551,42.969,137.207,0
1485534105.168,25.391,28.320,41.992,41.504,-58.105,0
1485534105.172,46.875,37.109,46.875,67.383,10.742,0
1485534105.176,36.133,34.668,46.387,93.750,-127.441,0
1485534105.180,0.977,28.809,43.457,77.637,524.902,0
1485534105.184,8.301,23.926,45.410,36.621,378.906,0
1485534105.188,59.082,25.879,42.480,40.527,-429.688,0
1485534105.192,67.871,42.969,52.734,68.359,-344.727,0
1485534105.196,23.926,31.738,41.504,81.543,-144.531,0
1485534105.200,-19.531,25.391,20.020,73.730,522.461,0
1485534105.203,7.324,29.297,31.250,33.691,559.082,0
1485534105.207,46.875,24.414,37.109,17.578,-336.426,0
1485534105.211,36.621,30.762,32.227,60.059,-342.773,0
1485534105.215,35.156,32.715,37.598,81.543,122.070,0
1485534105.219,11.230,33.203,41.992,80.078,686.035,0
1485534105.223,25.879,35.156,38.086,50.293,762.207,0
1485534105.227,65.430,32.715,42.969,19.531,-96.680,0
1485534105.231,58.105,33.691,38.574,53.223,-416.504,0
1485534105.235,36.133,33.691,39.062,81.543,-200.684,0
1485534105.239,13.184,33.203,47.852,94.727,315.430,0
1485534105.242,20.996,33.203,46.387,76.660,367.676,0
1485534105.246,52.246,34.668,55.176,56.152,-327.637,0
1485534105.250,48.340,21.973,26.855,45.410,-403.809,0
1485534105.254,41.992,15.625,20.996,58.105,-191.895,0
1485534105.258,-6.836,20.996,44.434,86.426,208.984,0
1485534105.262,-27.832,23.926,40.527,65.918,525.879,0
1485534105.266,9.766,20.996,38.086,26.367,161.621,0
1485534105.270,48.828,20.508,34.180,32.227,-231.445,0
1485534105.274,50.781,30.273,37.109,70.312,-229.492,0
1485534105.278,24.902,28.809,43.457,90.820,203.613,0
1485534105.282,21.484,25.391,40.039,79.102,879.395,0
1485534105.285,60.059,33.203,34.668,43.945,366.211,0
1485534105.289,75.684,30.762,35.156,61.523,-409.668,0
1485534105.293,70.312,42.480,47.363,104.492,-230.957,0
1485534105.297,36.621,38.086,42.969,103.027,120.605,0
1485534105.301,7.324,23.926,35.156,82.031,304.688,0
1485534105.305,37.598,27.832,29.297,43.457,-125.488,0
1485534105.309,58.105,27.832,17.578,57.129,-85.938,0
1485534105.313,69.824,26.367,36.133,88.379,96.191,0
1485534105.317,41.016,35.156,35.156,84.961,-45.410,0
1485534105.321,-1.953,36.133,28.320,80.078,606.934,0
1485534105.325,27.344,26.367,46.875,41.992,538.086,0
1485534105.328,46.875,22.461,48.828,49.316,-360.352,0
1485534105.332,41.504,23.438,43.457,82.520,-345.215,0
1485534105.336,27.832,28.809,41.992,98.145,130.859,0
1485534105.340,7.812,32.227,45.410,81.055,552.734,0
1485534105.344,18.555,27.344,44.922,39.062,25.879,0
1485534105.348,57.617,37.109,51.270,55.664,-475.586,0
1485534105.352,57.617,37.109,43.457,73.242,-274.414,0
1485534105.356,22.949,25.391,34.180,54.688,167.480,0
1485534105.360,15.137,33.203,39.062,66.406,719.727,0
1485534105.364,18.555,28.809,21.484,45.410,611.816,0
1485534105.367,47.363,28.809,24.902,34.180,-233.887,0
1485534105.371,52.246,33.203,35.645,83.984,-261.719,0
1485534105.375,35.645,37.109,40.527,89.355,-89.355,0
1485534105.379,25.391,38.574,41.992,76.660,304.688,1
1485534105.383,32.227,30.762,40.039,57.617,239.258,0
1485534105.387,59.082,27.344,47.852,45.410,-396.484,0
1485534105.391,64.941,28.809,38.574,58.105,-375.977,0
1485534105.395,45.410,30.762,24.902,62.988,-30.273,0
1485534105.399,34.180,47.852,41.504,108.398,528.320,0
1485534105.403,27.344,46.875,45.898,83.008,565.430,0
1485534105.407,42.969,23.438,29.785,22.461,-20.508,0
1485534105.410,61.523,24.902,17.578,42.480,-254.883,0
1485534105.414,28.809,25.879,21.484,81.055,-160.645,0
1485534105.418,9.766,28.809,46.387,104.004,159.668,0
1485534105.422,21.973,30.273,44.922,62.988,760.254,0
1485534105.426,57.129,26.367,38.086,25.391,154.785,0
1485534105.430,63.477,28.809,33.203,67.383,-439.941,0
1485534105.434,45.898,35.645,34.668,98.633,-176.270,0
1485534105.438,36.621,37.598,46.875,113.770,126.465,0
1485534105.442,35.645,35.645,54.199,77.637,306.641,0
1485534105.446,42.969,32.715,41.992,17.090,-194.336,0
1485534105.450,71.777,44.434,43.457,46.387,-163.574,0
1485534105.453,61.035,52.734,61.035,100.586,189.941,0
1485534105.457,12.207,36.621,46.875,108.887,211.426,0
1485534105.461,8.301,31.738,25.879,68.359,674.316,0
1485534105.465,42.480,30.273,25.391,45.898,391.113,0
1485534105.469,65.918,28.320,38.574,71.289,-420.410,0
1485534105.473,47.852,31.738,42.969,60.059,-220.703,0
1485534105.477,25.391,37.598,46.875,69.336,40.527,0
1485534105.481,18.555,35.156,48.340,78.613,249.023,0
1485534105.485,25.879,28.320,49.316,51.758,-66.895,0
1485534105.489,53.223,28.809,42.969,52.734,-428.711,0
1485534105.492,50.781,33.691,42.969,72.754,-198.242,0
1485534105.496,27.344,35.156,45.898,88.379,194.824,0
1485534105.500,5.859,33.203,35.156,73.242,781.250,0
1485534105.504,36.133,30.273,32.227,41.016,561.523,0
1485534105.508,75.195,33.203,32.715,44.434,-317.871,0
1485534105.512,58.594,34.668,37.109,63.477,-261.719,0
1485534105.516,39.551,40.527,31.250,95.703,132.812,0
1485534105.520,45.410,55.176,31.738,122.559,416.504,0
1485534105.524,42.480,39.062,40.039,77.637,79.590,0
1485534105.528,39.062,23.438,34.180,41.992,-401.367,0
1485534105.532,62.988,24.902,37.109,54.199,-211.426,0
1485534105.535,46.875,26.367,41.992,78.125,-106.445,0
1485534105.539,12.695,31.738,41.992,109.375,297.363,0
1485534105.543,15.137,29.785,36.133,66.895,512.207,0
1485534105.547,21.973,30.273,28.809,29.297,0.000,0
1485534105.551,45.898,37.109,29.297,55.664,-164.551,0
1485534105.555,57.129,36.133,39.551,73.242,-239.258,0
1485534105.559,18.555,32.715,38.574,84.473,211.426,0
1485534105.563,5.371,35.645,35.156,68.359,773.438,0
1485534105.567,63.965,45.410,56.641,42.480,-54.688,0
1485534105.571,57.617,31.250,30.762,68.848,-381.348,0
1485534105.574,40.039,21.973,20.508,94.238,15.137,0
1485534105.578,41.992,31.250,45.410,79.590,303.711,0
1485534105.582,3.906,32.715,35.156,57.129,328.613,0
1485534105.586,11.230,29.297,35.156,43.457,-212.402,0
1485534105.590,33.203,31.250,39.062,54.199,-11.719,0
1485534105.594,34.668,31.738,35.645,67.383,216.797,0
1485534105.598,25.879,32.715,35.645,97.168,136.719,0
1485534105.602,-4.883,31.738,39.062,93.262,710.449,0
1485534105.606,31.250,28.809,41.992,46.875,304.688,0
1485534105.610,57.129,28.320,38.086,47.852,-310.059,0
1485534105.614,32.715,27.344,35.156,68.359,-167.480,0
1485534105.617,31.250,33.691,42.969,85.938,-32.715,0
1485534105.621,39.062,49.805,59.570,78.613,267.090,0
1485534105.625,48.828,32.227,32.227,45.898,-128.418,0
1485534105.629,46.387,20.996,10.742,56.152,-334.473,0
1485534105.633,52.246,32.227,35.156,77.148,62.012,0
1485534105.637,37.109,29.785,43.945,96.191,333.008,0
1485534105.641,5.371,30.762,35.156,76.172,782.227,0
1485534105.645,23.438,34.180,29.297,19.043,433.594,0
1485534105.649,54.688,34.668,31.738,30.762,-315.430,0
1485534105.653,46.387,35.156,29.297,60.059,-270.020,0
1485534105.657,17.578,37.109,34.180,82.520,-138.672,0
1485534105.660,5.371,36.621,44.434,93.750,230.469,0
1485534105.664,24.902,32.715,41.992,55.176,-15.137,0
1485534105.668,60.059,28.320,38.574,44.434,-348.633,0
1485534105.672,64.453,28.809,32.715,69.336,-242.188,0
1485534105.676,27.344,33.691,32.715,81.055,-167.969,0
1485534105.680,2.930,30.762,41.016,82.520,287.598,0
1485534105.684,27.832,41.992,51.758,66.406,419.434,0
1485534105.688,76.660,46.387,54.199,63.477,-29.297,0
1485534105.692,55.176,31.738,28.809,70.801,-69.824,0
1485534105.696,26.855,34.180,33.691,87.402,-106.445,0
1485534105.699,-3.906,37.109,41.992,89.355,374.512,0
1485534105.703,0.977,35.156,32.715,60.547,742.188,0
1485534105.707,65.918,32.227,29.785,36.133,-77.637,0
1485534105.711,79.590,35.156,34.668,65.430,-307.129,0
1485534105.715,45.898,33.691,42.969,75.195,-233.398,0
1485534105.719,5.859,36.133,39.551,76.172,247.559,0
1485534105.723,9.277,37.109,34.668,72.754,291.504,0
1485534105.727,32.227,30.273,27.344,44.434,-283.203,0
1485534105.731,47.363,31.738,29.785,46.875,43.457,0
1485534105.735,64.941,37.598,27.832,73.242,37.598,0
1485534105.739,78.613,54.688,32.227,111.816,159.180,0
1485534105.742,38.574,49.316,37.109,79.590,769.531,0
1485534105.746,3.418,26.855,31.738,11.719,86.914,0
1485534105.750,44.434,27.344,32.227,36.133,-235.352,0
1485534105.754,45.898,29.297,37.109,60.059,-154.297,0
1485534105.758,14.160,34.668,41.992,81.543,47.363,0
1485534105.762,8.789,39.062,37.598,79.590,333.496,0
1485534105.766,38.086,34.668,41.992,56.641,-153.320,0
1485534105.770,77.148,29.785,35.156,64.453,-347.656,0
1485534105.774,53.223,32.227,31.738,78.613,-246.094,0
1485534105.778,6.836,39.551,44.434,88.379,241.699,0
1485534105.782,3.418,38.574,30.762,60.547,890.625,0
1485534105.785,38.574,36.621,26.367,27.344,372.559,0
1485534105.789,71.777,45.410,53.223,51.270,-341.797,0
1485534105.793,58.594,33.691,40.527,76.660,-192.871,0
1485534105.797,15.625,24.414,26.855,95.703,-25.879,0
1485534105.801,11.719,32.227,39.551,86.914,244.141,0
1485534105.805,40.039,27.344,40.039,42.480,-62.012,0
1485534105.809,53.711,21.973,44.922,48.828,-203.613,0
1485534105.813,59.082,26.367,39.551,73.730,-139.160,0
1485534105.817,40.039,34.668,35.645,90.820,-113.281,0
1485534105.821,20.020,34.668,40.527,77.637,298.340,0
1485534105.824,44.922,29.297,41.504,53.711,354.492,2
1485534105.828,67.383,30.762,40.039,66.406,-20.020,0
1485534105.832,56.152,35.156,37.109,73.730,-250.488,0
1485534105.836,59.082,36.133,36.621,83.984,-212.402,0
1485534105.840,50.293,51.270,55.176,104.980,505.371,0
1485534105.844,40.527,49.316,42.969,63.965,667.480,0
1485534105.848,65.918,28.809,11.230,35.156,-174.316,0
1485534105.852,68.848,30.762,27.344,58.594,-307.129,0
1485534105.856,39.551,35.156,34.180,83.984,-165.039,0
1485534105.860,14.648,36.133,40.039,86.914,325.684,0
1485534105.864,27.832,36.621,45.898,48.340,251.953,0
1485534105.867,61.035,34.668,33.691,48.828,-131.836,0
1485534105.871,61.523,31.738,31.250,71.289,94.727,0
1485534105.875,24.902,28.320,41.992,83.008,-17.578,0
1485534105.879,21.484,31.738,42.480,105.469,341.309,0
1485534105.883,11.719,30.762,36.621,58.105,793.457,0
1485534105.887,62.500,43.457,48.828,40.039,-37.598,0
1485534105.891,62.012,38.574,46.875,61.523,-416.016,0
1485534105.895,15.137,18.066,35.156,58.594,-258.789,0
1485534105.899,16.113,26.855,23.926,93.262,221.680,0
1485534105.903,12.207,27.832,19.531,69.336,411.621,0
1485534105.906,39.551,26.367,38.086,30.273,-196.289,0
1485534105.910,58.594,27.344,41.992,49.805,-366.211,0
1485534105.914,38.086,26.367,40.039,77.637,-250.488,0
1485534105.918,5.859,36.621,44.922,103.516,328.125,0
1485534105.922,12.207,40.527,45.898,62.988,865.234,0
1485534105.926,41.504,35.156,38.086,27.344,385.742,0
1485534105.930,54.199,31.250,36.133,62.988,-131.836,0
1485534105.934,50.293,42.480,50.781,85.449,-259.277,0
1485534105.938,20.020,39.551,43.945,90.820,27.344,0
1485534105.942,15.625,24.902,33.691,58.105,371.582,0
1485534105.946,35.645,24.902,39.062,32.227,-90.332,0
1485534105.949,48.340,30.273,21.484,41.992,-375.977,0
1485534105.953,70.801,37.109,19.043,64.941,-275.879,0
1485534105.957,62.500,36.133,41.016,98.633,-32.715,0
1485534105.961,22.949,33.691,44.434,86.914,316.895,0
1485534105.965,53.223,28.320,38.086,40.039,237.793,0
1485534105.969,96.680,29.785,30.273,55.664,-17.578,0
1485534105.973,60.059,28.320,37.109,69.336,-191.406,0
1485534105.977,42.480,42.969,62.500,109.863,-185.547,0
1485534105.981,26.855,40.527,52.246,87.402,555.664,0
1485534105.985,22.949,23.438,30.273,24.902,676.270,0
1485534105.989,47.852,25.391,40.039,38.574,-207.031,0
1485534105.992,48.828,22.949,37.109,65.430,-359.863,0
1485534105.996,30.273,28.320,36.621,99.609,-161.621,0
1485534106.000,-5.859,27.344,41.992,98.633,360.352,0
1485534106.004,41.504,29.785,36.621,52.246,257.324,0
1485534106.008,83.496,35.645,21.484,55.176,-360.352,0
1485534106.012,36.621,37.598,22.949,73.730,-29.785,0
1485534106.016,25.391,36.133,39.551,76.172,71.777,0
1485534106.020,10.254,35.156,41.016,92.285,469.727,0
1485534106.024,4.883,34.668,38.086,46.387,706.543,0
1485534106.028,43.457,28.320,37.109,28.809,-206.055,0
1485534106.031,59.082,37.598,47.363,70.312,-407.227,0
1485534106.035,46.875,33.691,48.340,75.684,-217.773,0
1485534106.039,12.207,25.879,35.645,92.773,296.875,0
1485534106.043,17.578,29.297,34.668,64.941,469.727,0
1485534106.047,45.410,29.297,32.715,22.949,-57.617,0
1485534106.051,44.434,35.645,35.645,46.875,-312.988,0
1485534106.055,46.875,35.156,36.133,72.266,-265.137,0
1485534106.059,25.879,34.180,23.926,101.074,451.172,0
1485534106.063,14.648,37.109,32.227,59.570,871.582,0
1485534106.067,45.410,35.156,48.828,18.066,-20.996,0
1485534106.071,65.918,33.691,38.574,65.430,-405.273,0
1485534106.074,47.852,33.691,34.668,94.238,-269.043,0
1485534106.078,15.625,30.762,45.410,106.934,206.055,0
1485534106.082,30.273,41.992,57.617,83.984,502.441,0
1485534106.086,45.898,32.227,41.992,26.855,-174.316,0
1485534106.090,51.758,13.184,23.926,42.480,-380.371,0
1485534106.094,63.965,23.926,25.391,86.914,-246.582,0
1485534106.098,26.367,32.715,33.203,121.094,97.656,0
1485534106.102,18.066,33.203,43.945,113.281,540.039,0
1485534106.106,55.176,32.227,39.551,87.402,276.855,0
1485534106.110,70.312,31.250,36.621,68.848,-13.184,0
1485534106.114,74.707,31.738,35.645,55.176,-157.227,0
1485534106.117,36.133,37.598,47.363,77.637,39.062,0
1485534106.121,-7.324,37.109,51.270,97.656,466.309,0
1485534106.125,14.648,25.391,44.922,41.992,-2.930,0
1485534106.129,73.242,38.086,55.176,50.293,-386.719,0
1485534106.133,63.477,37.598,50.293,83.496,-254.395,0
1485534106.137,10.254,17.090,36.133,82.031,-83.008,0
1485534106.141,3.418,23.926,37.598,83.496,673.340,0
1485534106.145,21.973,25.391,34.180,31.738,526.855,0
1485534106.149,54.199,24.414,32.227,42.480,-318.359,0
1485534106.153,68.848,26.855,29.785,83.008,-0.488,0
1485534106.156,30.273,29.297,37.109,115.723,110.840,0
1485534106.160,-0.488,31.738,42.969,94.238,582.520,0
1485534106.164,13.184,34.668,35.645,20.508,583.496,0
1485534106.168,44.922,24.414,26.367,34.668,-350.098,0
1485534106.172,55.664,17.578,37.598,70.801,-406.250,0
1485534106.176,56.641,37.109,65.918,100.098,-153.320,0
1485534106.180,44.434,36.133,57.129,97.656,376.953,0
1485534106.184,29.297,23.438,31.738,56.152,165.039,0
1485534106.188,49.805,26.855,28.320,36.133,-407.715,0
1485534106.192,23.438,25.391,29.785,41.016,-327.637,0
1485534106.196,-20.020,25.879,30.762,67.871,-144.531,0
1485534106.199,-26.367,29.297,32.227,95.215,610.352,0
1485534106.203,9.766,28.320,38.086,41.504,766.113,0
1485534106.207,36.621,28.809,38.086,22.461,-213.867,0
1485534106.211,39.551,29.785,39.551,69.336,-397.949,0
1485534106.215,50.781,28.809,45.410,78.125,-111.816,0
1485534106.219,19.531,26.855,40.527,80.078,391.113,0
1485534106.223,48.340,42.969,45.410,74.219,511.719,0
1485534106.227,80.566,43.457,57.129,84.961,-231.445,0
1485534106.231,62.012,20.020,38.086,85.449,-360.840,0
1485534106.235,56.641,21.973,41.504,77.148,-194.824,0
1485534106.238,40.039,33.203,46.875,100.586,334.961,0
1485534106.242,28.809,38.086,41.016,65.430,462.891,0
1485534106.246,52.246,32.715,36.621,28.809,14.648,0
1485534106.250,61.035,29.785,32.715,64.941,-84.961,0
1485534106.254,39.062,29.785,36.621,88.867,-229.492,0
1485534106.258,20.508,36.133,44.922,96.680,124.023,0
1485534106.262,4.395,37.598,42.969,68.359,833.496,0
1485534106.266,47.363,36.133,39.551,39.062,241.211,0
1485534106.270,75.195,34.180,42.969,43.457,-439.453,0
1485534106.274,46.387,26.367,33.203,62.012,-253.418,0
1485534106.278,40.039,35.645,39.062,106.934,126.465,0
1485534106.281,20.020,32.715,46.875,87.891,455.566,0
1485534106.285,20.996,16.113,36.133,35.156,-89.355,0
1485534106.289,67.383,23.926,37.598,38.086,-430.176,0
1485534106.293,69.824,30.273,28.809,64.941,-4.883,0
1485534106.297,42.480,29.785,31.738,87.402,432.129,0
1485534106.301,6.348,32.227,37.598,69.336,862.305,0
1485534106.305,20.508,36.133,36.621,32.715,428.711,0
1485534106.309,50.781,34.180,41.504,44.434,-407.227,0
1485534106.313,45.410,27.832,36.621,63.477,-331.543,0
1485534106.317,37.109,30.273,40.527,97.168,10.254,2
1485534106.321,15.137,31.738,41.992,91.797,336.426,0
1485534106.324,24.414,35.645,45.898,41.992,-5.371,0
1485534106.328,81.055,42.969,56.641,49.316,-393.555,0
1485534106.332,59.082,27.344,23.926,55.664,-269.043,0
1485534106.336,13.672,21.973,20.020,76.172,-27.344,0
1485534106.340,4.883,28.809,43.945,90.332,658.691,0
1485534106.344,15.625,31.738,41.992,34.180,629.883,0
1485534106.348,58.594,32.227,37.109,26.855,-192.383,0
1485534106.352,60.059,31.738,33.691,61.523,-331.543,0
1485534106.356,35.645,34.668,45.410,88.867,-140.137,0
1485534106.360,11.719,37.109,46.875,91.797,501.465,0
1485534106.363,14.648,35.645,32.715,55.664,414.062,0
1485534106.367,35.645,30.762,33.691,34.668,-396.973,0
1485534106.371,49.316,38.574,41.992,48.828,-346.191,0
1485534106.375,39.062,46.387,54.199,85.449,-102.539,0
1485534106.379,-2.930,31.738,43.457,79.102,385.742,0
1485534106.383,16.113,25.391,30.762,50.293,321.289,0
1485534106.387,56.152,26.855,31.738,44.434,-85.449,0
1485534106.391,49.805,27.344,21.973,41.504,-22.949,0
1485534106.395,39.551,30.762,26.367,66.406,-100.098,0
1485534106.399,15.137,36.133,46.387,116.211,385.254,0
1485534106.403,-3.418,37.109,51.758,77.637,841.309,0
1485534106.406,41.016,35.645,46.875,29.297,19.531,0
1485534106.410,71.289,37.109,40.527,56.152,-428.711,0
1485534106.414,45.898,36.133,39.062,75.684,-152.344,0
1485534106.418,34.180,38.086,40.527,91.309,213.867,0
1485534106.422,9.277,36.133,39.551,85.449,417.969,0
1485534106.426,4.883,30.273,36.621,32.715,-49.316,0
1485534106.430,24.902,25.879,27.832,25.879,-329.102,0
1485534106.434,23.438,35.156,43.457,63.965,79.102,0
1485534106.438,25.391,43.457,62.012,87.891,432.129,0
1485534106.442,-9.277,25.879,36.133,50.781,800.293,0
1485534106.446,-2.930,20.996,30.273,3.418,339.355,0
1485534106.449,30.273,23.926,27.832,17.578,-421.875,0
1485534106.453,17.578,25.879,30.762,43.457,-252.930,0
1485534106.457,-1.465,28.320,35.156,61.523,166.504,0
1485534106.461,-0.977,31.250,28.320,66.895,340.820,0
1485534106.465,35.156,32.715,37.109,39.551,-155.762,0
1485534106.469,62.012,28.809,42.969,43.945,-436.523,0
1485534106.473,61.523,31.738,40.039,64.941,-227.051,0
1485534106.477,59.082,37.598,39.062,85.938,-48.828,0
1485534106.481,26.367,40.527,36.133,84.473,633.301,0
1485534106.485,29.297,37.598,34.668,39.062,467.773,0
1485534106.488,79.590,34.180,36.133,61.035,-427.246,0
1485534106.492,79.590,40.039,33.691,99.609,-273.438,0
1485534106.496,42.969,43.945,40.039,92.285,-32.227,0
1485534106.500,13.672,39.551,39.551,79.102,363.770,0
1485534106.504,40.527,47.363,51.758,62.012,164.062,0
1485534106.508,73.730,43.457,45.898,51.270,-386.230,0
1485534106.512,46.387,24.414,25.879,64.453,-251.465,0
1485534106.516,27.344,25.879,27.832,81.543,92.285,0
1485534106.520,30.762,30.273,37.598,87.402,456.543,0
1485534106.524,26.855,28.320,50.781,62.012,178.711,0
1485534106.528,30.273,26.367,37.109,53.711,-63.477,0
1485534106.531,65.430,27.344,30.273,61.035,64.453,0
1485534106.535,55.176,32.715,44.434,65.430,-140.137,0
1485534106.539,8.301,36.621,44.434,79.102,369.141,0
1485534106.543,13.672,35.645,41.992,61.523,780.273,0
1485534106.547,46.875,26.367,42.969,43.945,-111.328,0
1485534106.551,80.566,34.180,50.781,69.824,-362.305,0
1485534106.555,76.660,44.922,55.176,109.863,-154.297,0
1485534106.559,0.000,23.926,33.203,105.957,272.461,0
1485534106.563,4.883,20.996,31.250,58.594,417.969,0
1485534106.567,26.855,27.832,35.156,30.273,-264.160,0
1485534106.570,39.551,29.297,33.691,71.289,-311.035,0
1485534106.574,59.082,36.133,40.039,99.609,113.281,0
1485534106.578,29.785,41.504,33.691,100.098,566.406,0
1485534106.582,19.531,37.598,33.691,82.520,512.695,0
1485534106.586,74.219,37.598,47.363,53.711,-246.582,0
1485534106.590,98.145,37.109,49.316,79.590,-357.422,0
1485534106.594,55.664,36.133,50.293,96.191,-171.875,0
1485534106.598,30.762,40.527,50.781,103.027,47.852,0
1485534106.602,7.812,40.527,43.457,77.148,665.527,0
1485534106.606,44.922,35.156,40.527,38.086,166.992,0
1485534106.610,73.730,35.156,41.016,52.734,-368.652,0
1485534106.613,31.738,36.621,31.738,70.312,-150.879,0
1485534106.617,44.922,53.711,50.293,101.562,14.648,0
1485534106.621,38.574,57.129,54.688,104.004,470.215,0
1485534106.625,17.578,33.691,27.344,28.320,168.457,0
1485534106.629,54.199,30.273,22.949,4.883,-348.633,0
1485534106.633,53.711,36.133,15.137,41.504,3.906,0
1485534106.637,31.250,38.574,29.297,72.266,193.848,0
1485534106.641,16.113,40.039,45.410,64.453,595.215,0
1485534106.645,27.832,40.039,40.039,32.227,426.270,0
1485534106.649,51.758,31.738,39.062,38.574,-361.816,0
1485534106.653,63.477,27.832,35.156,68.848,-262.207,0
1485534106.656,32.715,32.715,42.969,80.078,-85.449,0
1485534106.660,-0.977,33.203,47.363,70.801,252.441,0
1485534106.664,11.230,28.809,40.527,43.945,59.082,0
1485534106.668,44.922,31.738,36.621,27.344,-114.746,0
1485534106.672,43.457,34.668,36.133,39.551,132.324,0
1485534106.676,20.996,35.645,44.434,76.172,-110.352,0
1485534106.680,8.789,37.109,42.969,76.172,410.156,0
1485534106.684,31.738,48.340,45.898,45.410,658.691,0
1485534106.688,59.082,48.340,47.363,41.016,-284.180,0
1485534106.692,51.758,31.738,31.250,57.129,-161.133,0
1485534106.695,37.598,33.691,26.367,74.707,57.129,0
1485534106.699,4.395,33.203,35.156,74.707,258.789,0
1485534106.703,-4.395,26.367,46.875,67.871,251.953,0
1485534106.707,24.902,25.391,42.480,34.180,-306.641,0
1485534106.711,25.391,28.320,39.062,34.180,-232.422,0
1485534106.715,30.762,34.668,42.480,63.477,50.293,0
1485534106.719,32.227,38.086,39.551,79.590,552.734,0
1485534106.723,4.883,33.203,37.598,56.641,813.965,0
1485534106.727,37.598,28.809,38.086,33.691,25.879,0
1485534106.731,63.477,29.785,28.320,49.316,-320.801,0
1485534106.735,54.688,32.715,36.621,74.219,-240.234,0
1485534106.738,5.371,28.809,44.434,90.332,128.418,0
1485534106.742,25.391,46.875,52.246,65.918,371.582,0
1485534106.746,56.152,45.898,50.293,32.227,-273.926,0
1485534106.750,29.785,20.996,25.391,36.133,-158.203,0
1485534106.754,42.969,23.926,33.203,74.707,73.730,0
1485534106.758,26.855,29.785,45.898,102.539,76.172,0
1485534106.762,18.066,33.691,32.715,75.195,454.590,0
1485534106.766,43.457,31.250,29.297,38.086,168.457,0
1485534106.770,60.547,25.391,38.574,57.129,-200.195,0
1485534106.774,59.570,29.297,42.480,70.801,-229.004,0
1485534106.778,43.945,36.133,51.270,98.633,-90.820,0
1485534106.781,32.715,41.016,45.898,103.516,651.367,0
1485534106.785,47.363,41.992,41.504,46.875,441.406,2
1485534106.789,56.641,34.180,41.992,51.270,-304.688,0
1485534106.793,82.520,47.852,53.223,88.379,-278.809,0
1485534106.797,62.500,55.176,61.035,115.234,-88.867,0
1485534106.801,9.766,31.738,40.527,91.309,252.441,0
1485534106.805,51.758,27.832,31.250,51.758,-20.020,0
1485534106.809,62.012,30.273,28.809,44.434,-60.547,0
1485534106.813,48.828,32.715,32.715,67.871,176.270,0
1485534106.817,52.734,36.621,39.062,106.934,65.918,0
1485534106.820,29.785,39.062,43.457,107.422,460.449,0
1485534106.824,39.551,37.109,47.852,71.289,281.738,0
1485534106.828,76.172,36.133,44.922,58.594,-345.215,0
1485534106.832,76.660,39.062,37.598,65.430,-276.367,0
1485534106.836,35.156,38.574,39.551,83.984,-258.789,0
1485534106.840,12.207,36.621,46.875,101.562,437.500,0
1485534106.844,48.340,36.133,51.270,62.012,646.973,0
1485534106.848,83.496,36.133,44.922,47.363,-93.750,0
1485534106.852,74.707,34.180,39.551,78.125,-297.852,0
1485534106.856,37.109,34.180,43.457,88.867,-14.648,0
1485534106.860,13.184,39.062,46.875,102.539,659.668,0
1485534106.863,40.039,38.574,41.504,71.777,700.195,0
1485534106.867,59.570,37.109,42.969,56.152,-87.891,0
1485534106.871,70.312,48.828,54.688,82.520,-180.176,0
1485534106.875,78.613,35.645,44.434,77.637,-177.246,0
1485534106.879,20.996,20.996,38.574,84.473,233.887,0
1485534106.883,18.555,24.902,43.457,63.965,354.492,0
1485534106.887,64.941,23.926,35.156,44.922,-243.164,0
1485534106.891,64.941,25.879,33.691,73.242,-325.195,0
1485534106.895,55.176,32.227,38.086,80.078,-329.102,0
1485534106.899,1.953,36.133,40.039,84.473,165.527,0
1485534106.902,-2.930,36.133,39.551,62.988,604.004,0
1485534106.906,55.664,34.668,36.621,24.414,107.422,0
1485534106.910,50.293,33.691,36.133,35.645,-254.395,0
1485534106.914,30.762,33.691,41.504,78.613,-305.664,0
1485534106.918,35.645,32.715,44.922,99.121,8.301,0
1485534106.922,13.184,34.668,39.551,62.012,743.164,0
1485534106.926,4.883,29.297,38.574,15.625,349.121,0
1485534106.930,27.832,24.414,38.574,35.645,-139.648,0
1485534106.934,39.551,29.297,40.039,38.574,-168.945,0
1485534106.938,7.324,32.227,46.875,61.523,-10.254,0
1485534106.942,-2.441,30.762,44.922,82.520,347.168,0
1485534106.945,10.742,35.645,40.527,40.527,-46.875,0
1485534106.949,37.598,32.227,40.039,57.617,-119.141,0
1485534106.953,53.223,30.273,40.527,79.102,-4.395,0
1485534106.957,22.949,37.109,48.340,84.473,-109.863,0
1485534106.961,3.906,35.645,44.922,67.383,597.656,0
1485534106.965,16.602,32.715,27.832,38.574,571.289,0
1485534106.969,43.457,27.832,33.691,51.758,-306.152,0
1485534106.973,42.480,28.320,45.410,61.523,-380.859,0
1485534106.977,37.109,34.180,39.551,73.242,-130.859,0
1485534106.981,44.434,47.852,53.711,87.891,264.648,0
1485534106.985,41.504,44.922,55.664,61.523,122.070,0
1485534106.988,8.789,21.973,30.762,54.199,-136.719,0
1485534106.992,42.969,25.879,31.250,66.406,-200.195,0
1485534106.996,62.988,27.344,35.156,121.582,38.086,0
1485534107.000,35.645,33.203,37.598,118.164,713.379,0
1485534107.004,35.156,35.156,40.039,38.086,667.480,0
1485534107.008,46.875,28.809,38.574,39.062,-183.105,0
1485534107.012,58.105,28.809,38.086,72.754,-405.762,0
1485534107.016,51.758,28.809,43.945,94.727,-247.559,0
1485534107.020,21.484,36.621,45.410,96.680,285.156,0
1485534107.024,27.832,33.203,43.457,50.293,306.641,0
1485534107.027,60.059,29.297,37.109,47.852,-284.668,0
1485534107.031,65.918,31.738,34.668,68.359,-367.188,0
1485534107.035,56.152,34.668,39.062,78.125,-272.461,0
1485534107.039,24.902,40.039,45.898,106.934,285.645,0
1485534107.043,22.461,36.133,47.852,92.773,599.609,0
1485534107.047,50.293,31.738,38.086,46.875,127.441,0
1485534107.051,60.059,31.738,32.715,52.734,-150.391,0
1485534107.055,41.992,33.691,41.504,75.195,-263.184,0
1485534107.059,6.836,38.086,43.945,88.379,302.734,0
1485534107.063,8.301,39.062,38.574,56.641,883.789,0
1485534107.067,53.223,34.180,35.645,36.133,74.707,0
1485534107.070,103.027,48.828,49.316,87.891,-499.023,0
1485534107.074,77.148,50.781,52.246,80.566,-355.469,0
1485534107.078,7.324,27.832,38.086,77.637,69.824,0
1485534107.082,1.465,30.762,41.992,69.336,443.848,0
1485534107.086,33.691,34.668,37.109,17.090,-115.723,0
1485534107.090,66.895,34.668,29.297,38.086,-96.191,0
1485534107.094,45.410,36.133,36.133,68.359,10.254,0
1485534107.098,10.254,37.598,40.527,94.727,-34.668,0
1485534107.102,20.996,39.551,37.109,80.566,765.137,0
1485534107.106,36.621,35.645,37.109,31.738,486.328,0
1485534107.110,51.758,31.738,38.086,24.902,-379.395,0
1485534107.113,58.594,32.715,41.016,48.340,-342.773,0
1485534107.117,38.574,40.039,41.504,87.891,-49.316,0
1485534107.121,22.949,38.086,45.898,87.402,350.586,0
1485534107.125,37.109,35.156,47.363,52.734,13.672,0
1485534107.129,49.805,34.180,39.062,45.898,-426.758,0
1485534107.133,51.758,32.227,40.039,51.758,-321.289,0
1485534107.137,34.668,38.086,48.828,82.031,266.602,0
1485534107.141,11.719,39.062,51.758,92.773,712.402,0
1485534107.145,40.039,35.645,40.527,46.387,121.094,0
1485534107.149,64.941,39.062,35.156,26.855,-381.348,0
1485534107.152,65.918,49.316,49.805,55.176,-316.406,0
1485534107.156,44.434,37.109,44.922,94.727,-145.020,0
1485534107.160,-3.906,26.855,37.109,94.238,425.293,0
1485534107.164,7.812,31.738,38.574,25.879,388.672,0
1485534107.168,45.410,29.785,33.203,0.000,-279.785,0
1485534107.172,62.012,31.738,34.668,65.918,-373.047,0
1485534107.176,50.293,38.086,38.574,92.773,-207.520,0
1485534107.180,40.527,38.086,41.992,90.820,421.387,0
1485534107.184,17.578,34.180,43.457,53.223,607.910,0
1485534107.188,16.602,35.156,41.016,20.508,-74.707,0
1485534107.192,57.129,35.645,37.109,56.641,-323.730,0
1485534107.195,62.012,37.109,38.086,65.430,-262.695,0
1485534107.199,32.715,38.086,37.109,69.336,376.953,0
1485534107.203,23.926,34.180,34.668,59.570,909.668,0
1485534107.207,42.480,32.227,41.016,47.852,47.363,0
1485534107.211,43.457,30.762,41.992,35.156,-420.410,0
1485534107.215,33.203,31.738,41.016,41.992,-272.949,0
1485534107.219,2.930,29.785,44.434,92.285,278.809,0
1485534107.223,0.000,29.297,47.852,86.426,622.070,0
1485534107.227,37.598,32.715,40.527,41.504,-80.078,0
1485534107.231,57.617,41.992,48.340,41.016,-52.734,0
1485534107.234,50.293,36.133,51.758,62.500,102.051,0
1485534107.238,-1.465,24.902,36.133,95.703,223.633,0
1485534107.242,-31.738,28.320,36.133,80.566,828.613,0
1485534107.246,18.555,22.949,40.039,34.668,164.062,0
1485534107.250,39.062,28.809,35.156,45.410,-468.262,0
1485534107.254,36.133,35.156,33.691,78.613,-314.453,0
1485534107.258,33.691,37.109,42.480,94.727,125.000,0
1485534107.262,7.324,38.574,45.410,50.781,427.734,0
1485534107.266,4.883,33.691,39.551,23.438,-110.352,0
1485534107.270,44.434,29.785,35.156,51.758,-295.410,0
1485534107.274,42.969,31.250,40.039,56.152,-229.980,0
1485534107.277,-2.930,34.668,42.480,86.426,319.336,0
1485534107.281,10.742,35.645,40.039,87.891,844.238,1
1485534107.285,46.387,36.621,37.598,37.109,129.883,0
1485534107.289,37.109,30.273,44.922,60.059,-448.242,0
1485534107.293,48.340,28.320,46.875,63.477,-303.711,0
1485534107.297,44.434,34.180,42.480,66.406,-13.184,0
1485534107.301,23.926,37.598,43.945,93.750,429.688,0
1485534107.305,62.988,37.598,39.062,33.203,45.410,0
1485534107.309,53.223,32.227,33.691,27.344,-414.062,0
1485534107.313,44.922,25.879,36.621,79.102,-291.992,0
1485534107.317,38.086,26.367,43.945,91.797,-50.781,0
1485534107.320,4.395,27.344,47.852,98.145,419.434,0
1485534107.324,20.508,26.855,44.922,71.777,418.457,0
1485534107.328,44.922,24.902,35.156,30.273,-108.398,0
1485534107.332,72.754,41.504,50.293,55.664,-330.078,0
1485534107.336,70.312,42.969,52.734,88.867,-187.500,0
1485534107.340,19.043,28.320,31.738,84.473,533.691,0
1485534107.344,28.809,33.691,28.809,44.434,461.426,0
1485534107.348,67.383,34.180,26.367,35.156,-389.160,0
1485534107.352,59.082,29.297,31.738,86.426,-349.121,0
1485534107.356,33.691,28.809,40.527,104.004,-196.777,0
1485534107.359,16.113,33.691,40.039,120.605,483.887,0
1485534107.363,35.645,34.180,34.180,82.520,587.402,0
1485534107.367,62.988,30.273,33.203,16.602,-295.898,0
1485534107.371,56.641,32.227,33.203,23.438,-58.594,0
1485534107.375,30.273,29.297,36.621,60.059,86.426,0
1485534107.379,24.414,32.715,39.551,90.820,375.977,0
1485534107.383,32.227,35.156,40.527,72.266,817.871,0
1485534107.387,42.480,31.250,39.551,33.691,-16.113,0
1485534107.391,31.250,29.785,37.598,62.012,-406.250,0
1485534107.395,36.133,27.344,41.992,83.496,-194.824,0
1485534107.399,57.129,34.668,41.992,79.102,330.566,0
1485534107.402,34.668,34.668,40.527,92.773,436.523,0
1485534107.406,35.156,30.273,38.086,64.941,-254.883,0
1485534107.410,62.012,29.297,34.668,45.898,-394.043,0
1485534107.414,54.688,30.273,40.527,66.406,-188.477,0
1485534107.418,8.301,33.691,48.828,81.055,349.609,0
1485534107.422,11.719,36.621,44.434,68.359,898.926,0
1485534107.426,41.992,34.668,33.691,28.320,252.930,0
1485534107.430,60.059,41.992,49.316,73.730,-431.152,0
1485534107.434,70.801,42.969,48.828,91.309,-252.930,0
1485534107.438,27.832,29.297,36.133,79.590,111.816,0
1485534107.441,-3.418,30.762,42.480,64.941,370.605,0
1485534107.445,41.016,34.180,40.527,28.809,-102.539,0
1485534107.449,88.379,30.762,37.109,42.480,-401.367,0
1485534107.453,76.660,35.156,33.691,58.105,-281.738,0
1485534107.457,17.090,34.668,39.551,84.961,185.547,0
1485534107.461,-15.625,29.297,45.898,91.309,526.367,0
1485534107.465,22.949,30.762,40.039,40.527,225.586,0
1485534107.469,71.777,32.715,38.574,33.691,-118.652,0
1485534107.473,78.613,31.738,32.715,61.035,-261.719,0
1485534107.477,41.992,32.227,35.645,100.098,-61.035,0
1485534107.481,-7.812,34.180,41.504,112.305,684.570,0
1485534107.484,18.066,33.203,39.551,43.457,581.055,0
1485534107.488,71.777,33.691,32.227,35.156,-333.496,0
1485534107.492,50.781,31.250,19.531,64.453,-318.848,0
1485534107.496,31.250,31.738,27.832,64.941,-35.156,0
1485534107.500,14.160,33.203,39.062,77.148,375.488,0
1485534107.504,25.391,27.344,39.551,44.922,141.602,0
1485534107.508,59.082,25.879,36.133,33.203,-382.812,0
1485534107.512,34.180,28.809,37.598,54.688,-16.113,0
1485534107.516,15.625,28.320,35.156,53.711,270.020,0
1485534107.520,31.738,43.457,45.898,70.801,693.359,0
1485534107.524,25.879,51.270,57.129,41.016,699.707,0
1485534107.527,43.945,27.344,35.156,20.020,-204.102,0
1485534107.531,47.363,24.414,30.273,35.645,-362.793,0
1485534107.535,33.203,32.715,40.527,45.898,-138.184,0
1485534107.539,18.066,36.133,37.109,80.078,301.758,0
1485534107.543,6.836,30.273,37.598,60.547,325.195,0
1485534107.547,35.645,25.391,39.062,42.969,-333.984,0
1485534107.551,48.828,27.832,36.133,63.965,-385.742,0
1485534107.555,29.785,26.367,41.016,92.773,-50.293,0
1485534107.559,14.160,30.273,44.434,90.332,478.027,0
1485534107.563,7.324,33.203,42.480,65.430,851.074,0
1485534107.566,41.504,32.227,41.504,33.203,59.570,0
1485534107.570,52.734,30.273,45.410,50.781,-458.496,0
1485534107.574,61.523,29.297,44.922,79.590,-112.305,0
1485534107.578,55.176,37.109,40.527,89.355,407.715,0
1485534107.582,5.371,34.180,42.480,72.754,377.930,0
1485534107.586,23.438,24.902,40.039,28.809,-272.461,0
1485534107.590,42.969,27.832,34.668,31.738,-423.828,0
1485534107.594,27.832,29.297,35.645,61.523,-230.957,0
1485534107.598,32.227,30.273,43.945,91.797,62.500,0
1485534107.602,4.883,32.715,42.480,69.824,312.012,0
1485534107.606,15.137,31.738,33.691,25.879,177.246,0
1485534107.609,68.848,27.344,32.715,30.273,-2.930,0
1485534107.613,75.195,29.297,37.598,68.359,-78.613,0
1485534107.617,38.574,35.645,43.457,93.750,-51.270,0
1485534107.621,-2.441,33.203,31.738,90.332,605.957,0
1485534107.625,35.156,29.785,25.879,46.387,477.539,0
1485534107.629,81.543,30.273,36.621,34.180,-381.836,0
1485534107.633,82.031,31.250,41.016,69.824,-224.609,0
1485534107.637,49.316,35.645,48.340,104.492,203.613,0
1485534107.641,8.789,36.133,44.922,85.938,398.926,0
1485534107.645,42.969,50.293,54.199,32.227,-40.527,0
1485534107.649,70.801,45.898,54.199,35.645,-392.090,0
1485534107.652,41.016,23.926,27.344,29.297,85.449,0
1485534107.656,12.695,27.344,34.180,46.875,213.379,0
1485534107.660,10.254,31.250,40.527,58.105,580.566,0
1485534107.664,13.184,33.203,35.645,6.348,607.910,0
1485534107.668,27.832,29.785,36.621,-7.324,-289.062,0
1485534107.672,62.988,30.762,34.668,15.137,-250.977,0
1485534107.676,50.781,37.109,36.133,61.035,-67.871,0
1485534107.680,26.855,40.527,42.480,78.613,314.453,0
1485534107.684,20.996,40.527,42.969,50.293,196.289,0
1485534107.688,62.988,35.645,36.621,44.922,-354.004,0
1485534107.691,77.148,35.645,34.180,67.871,-121.094,0
1485534107.695,42.969,37.598,42.969,88.379,37.109,0
1485534107.699,43.457,36.133,46.387,103.516,565.430,0
1485534107.703,55.664,33.203,42.480,61.035,564.941,0
1485534107.707,60.059,32.715,41.016,41.992,-318.848,0
1485534107.711,63.477,29.297,33.203,66.895,-291.992,0
1485534107.715,67.871,31.250,40.039,94.727,-201.660,0
1485534107.719,41.504,37.598,39.062,113.770,222.168,0
1485534107.723,0.000,31.738,22.949,60.547,700.195,0
1485534107.727,22.949,31.250,38.086,26.855,-77.637,0
1485534107.731,62.500,41.504,59.570,51.758,-319.824,0
1485534107.734,16.602,26.855,48.340,55.176,-171.875,0
1485534107.738,-38.086,18.555,36.621,57.617,134.277,0
1485534107.742,-9.766,24.414,38.086,45.410,398.926,0
1485534107.746,44.434,23.438,32.227,44.922,123.047,0
1485534107.750,64.941,24.414,28.809,57.617,97.656,0
1485534107.754,66.895,30.762,32.227,49.805,51.270,0
1485534107.758,31.250,34.180,40.039,68.848,37.109,0
1485534107.762,2.441,30.762,35.645,58.594,681.641,0
1485534107.766,34.668,28.809,30.273,25.391,314.941,0
1485534107.770,55.176,27.832,34.180,38.574,-361.816,0
1485534107.773,52.734,30.273,40.527,74.219,-230.469,0
1485534107.777,36.621,32.715,43.457,109.375,-75.195,0
1485534107.781,23.438,33.691,42.480,105.957,271.484,2
1485534107.785,52.246,32.715,46.875,64.941,-76.660,0
1485534107.789,69.824,29.785,44.922,53.711,-345.703,0
1485534107.793,57.129,32.715,38.086,62.500,69.824,0
1485534107.797,51.270,36.621,43.457,93.262,275.391,0
1485534107.801,17.578,32.715,43.945,77.148,697.266,0
1485534107.805,-7.324,31.250,36.133,14.160,553.223,0
1485534107.809,53.223,32.715,40.527,16.113,-239.746,0
1485534107.813,59.082,32.715,42.480,53.223,-84.961,0
1485534107.816,16.113,31.738,42.480,87.402,-16.602,0
1485534107.820,0.488,32.227,45.898,78.613,243.164,0
1485534107.824,16.113,30.762,37.598,45.410,73.242,0
1485534107.828,37.109,25.879,23.926,41.016,-318.848,0
1485534107.832,54.199,26.367,29.297,39.062,-262.207,0
1485534107.836,58.105,32.715,43.945,73.730,-238.770,0
1485534107.840,22.461,31.738,46.875,98.145,578.613,0
1485534107.844,20.020,33.691,44.922,72.266,703.125,0
1485534107.848,63.477,44.434,55.664,51.758,-186.035,0
1485534107.852,64.941,31.738,44.922,58.105,-290.527,0
1485534107.856,24.902,22.461,37.109,78.613,-219.238,0
1485534107.859,2.441,28.320,42.480,89.844,277.344,0
1485534107.863,34.668,23.438,37.598,65.430,287.109,0
1485534107.867,62.012,21.973,28.809,51.270,-298.828,0
1485534107.871,72.754,24.902,31.250,70.312,-139.160,0
1485534107.875,64.941,26.367,39.062,74.707,-131.836,0
1485534107.879,18.555,28.320,43.457,77.148,217.285,0
1485534107.883,16.113,29.785,42.480,48.340,383.789,0
1485534107.887,38.086,26.855,35.645,28.809,85.938,0
1485534107.891,47.363,23.926,37.109,45.898,59.570,0
1485534107.895,51.758,25.391,39.551,61.523,-255.371,0
1485534107.898,24.414,27.832,40.527,83.496,117.676,0
1485534107.902,15.625,22.949,42.969,78.613,809.570,0
1485534107.906,45.898,30.762,42.480,56.641,178.223,0
1485534107.910,57.129,37.598,50.781,62.012,-385.742,0
1485534107.914,45.898,20.996,33.203,51.270,-307.129,0
1485534107.918,20.996,21.973,14.648,57.129,60.059,0
1485534107.922,4.395,23.926,34.180,61.035,379.883,0
1485534107.926,28.320,22.949,42.480,41.504,-124.023,0
1485534107.930,49.805,24.414,34.668,30.762,-212.891,0
1485534107.934,30.273,29.297,39.551,47.852,83.984,0
1485534107.938,11.719,33.203,44.922,92.773,370.605,0
1485534107.941,24.902,31.738,43.945,75.684,566.895,0
1485534107.945,40.039,29.785,41.992,39.551,29.785,0
1485534107.949,48.340,29.297,37.598,40.527,-391.602,0
1485534107.953,56.152,29.297,34.668,58.105,-366.699,0
1485534107.957,33.203,28.320,38.574,76.660,-199.707,0
1485534107.961,12.207,31.738,41.016,87.402,473.145,0
1485534107.965,32.715,33.203,42.969,44.434,267.578,0
1485534107.969,62.012,28.320,39.062,48.340,-378.418,0
1485534107.973,62.988,23.438,34.180,76.660,-328.613,0
1485534107.977,60.547,27.832,40.527,76.172,-214.844,0
1485534107.981,33.203,31.250,44.922,76.172,599.609,0
1485534107.984,52.246,31.250,33.691,45.410,529.785,0
1485534107.988,63.965,30.273,24.902,37.598,-177.734,0
1485534107.992,36.133,27.344,31.738,54.199,-188.477,0
1485534107.996,26.855,30.762,39.551,84.961,-229.004,0
1485534108.000,15.625,33.691,47.363,89.844,327.148,0
1485534108.004,33.203,45.898,52.734,65.918,247.559,0
1485534108.008,47.852,37.109,46.387,54.199,-324.707,0
1485534108.012,61.523,23.438,33.691,53.711,-365.234,0
1485534108.016,58.105,24.902,32.715,73.730,-261.230,0
1485534108.020,23.926,26.855,37.598,81.543,306.152,0
1485534108.023,11.719,28.809,43.457,61.035,356.934,0
1485534108.027,37.109,25.391,43.457,38.086,41.992,0
1485534108.031,61.035,27.344,41.992,50.293,45.410,0
1485534108.035,41.016,32.227,49.316,60.547,-210.938,0
1485534108.039,13.184,33.203,45.898,103.516,241.699,0
1485534108.043,3.906,32.715,36.621,86.426,910.156,0
1485534108.047,39.551,29.785,38.086,30.762,303.711,0
1485534108.051,66.895,25.879,38.574,60.059,-264.160,0
1485534108.055,49.316,24.414,36.621,75.195,-319.824,0
1485534108.059,16.113,29.785,31.738,88.379,151.367,0
1485534108.063,16.113,31.250,40.527,79.102,451.660,0
1485534108.066,41.504,30.273,44.434,32.715,-138.672,0
1485534108.070,50.781,29.297,40.039,40.527,-336.426,0
1485534108.074,42.969,29.297,45.410,83.984,33.203,0
1485534108.078,25.391,33.691,51.758,109.863,304.688,0
1485534108.082,18.555,37.598,48.340,75.195,770.996,0
1485534108.086,28.320,28.320,40.039,17.090,294.434,0
1485534108.090,48.340,36.621,42.480,39.551,-425.781,0
1485534108.094,60.547,49.316,53.711,78.613,-316.895,0
1485534108.098,16.602,27.832,40.039,81.055,-1.465,0
1485534108.102,3.906,20.508,33.203,62.500,356.445,0
1485534108.105,41.016,24.414,36.621,13.672,106.934,0
1485534108.109,42.480,23.926,32.715,21.484,-116.699,0
1485534108.113,16.602,25.879,32.227,53.223,-137.207,0
1485534108.117,22.949,28.320,36.133,79.102,-50.293,0
1485534108.121,0.977,27.832,41.504,70.312,508.789,0
1485534108.125,4.395,24.414,39.062,26.367,291.992,0
1485534108.129,67.383,22.461,28.809,33.203,-389.648,0
1485534108.133,61.523,27.832,31.250,55.176,-352.539,0
1485534108.137,21.484,31.738,41.992,93.750,-180.176,0
1485534108.141,10.742,29.785,48.828,88.379,443.359,0
1485534108.145,25.879,29.785,43.457,30.762,299.805,0
1485534108.148,51.758,28.809,36.133,45.410,-415.039,0
1485534108.152,66.406,27.344,37.598,74.219,-384.766,0
1485534108.156,33.691,33.203,43.945,85.938,-199.219,0
1485534108.160,7.812,32.715,50.781,85.449,349.121,0
1485534108.164,17.578,29.785,44.434,40.527,283.203,0
1485534108.168,49.805,31.738,35.156,21.973,-63.965,0
1485534108.172,58.594,26.367,29.297,46.875,83.496,0
1485534108.176,29.297,35.645,49.805,81.543,-126.953,0
1485534108.180,15.137,37.109,47.852,93.750,414.551,0
1485534108.184,7.324,21.484,23.438,36.621,760.254,0
1485534108.188,26.367,21.973,25.391,0.000,-172.852,0
1485534108.191,40.039,21.973,32.227,19.531,-404.297,0
1485534108.195,20.508,25.391,27.344,37.109,-262.695,0
1485534108.199,6.348,31.250,23.438,69.336,283.203,0
1485534108.203,18.555,32.715,39.551,58.594,448.242,0
1485534108.207,43.457,30.273,40.039,33.691,-272.949,0
1485534108.211,51.758,34.668,33.203,54.688,-371.094,0
1485534108.215,47.852,34.668,38.574,89.355,-3.906,0
1485534108.219,53.223,32.227,36.133,120.605,471.680,0
1485534108.223,37.598,37.109,31.250,87.891,861.328,0
1485534108.227,56.641,34.180,36.621,42.969,172.852,0
1485534108.230,61.523,27.344,37.109,46.875,-416.504,0
1485534108.234,29.785,25.879,35.645,71.777,-333.008,0
1485534108.238,6.348,31.250,36.621,88.379,144.043,0
1485534108.242,22.461,35.156,40.039,62.988,506.348,0
1485534108.246,46.387,31.738,36.621,28.320,-127.441,0
1485534108.250,41.992,29.297,30.762,37.109,-355.469,0
1485534108.254,52.734,29.785,30.762,57.617,-226.562,0
1485534108.258,24.414,31.738,20.996,96.680,64.941,0
1485534108.262,-4.395,36.133,31.738,67.871,684.082,0
1485534108.266,29.785,27.344,40.527,17.090,320.312,0
1485534108.270,49.316,20.508,34.668,24.414,-325.195,1
1485534108.273,50.781,38.086,50.293,55.664,-279.297,0
1485534108.277,24.902,34.180,45.898,83.496,-60.547,0
1485534108.281,2.441,26.367,33.691,65.430,704.590,0
1485534108.285,20.996,27.344,38.574,26.855,561.523,0
1485534108.289,58.594,26.855,35.156,32.715,-311.523,0
1485534108.293,50.781,27.832,28.320,60.059,-352.539,0
1485534108.297,30.273,26.367,36.133,83.984,-57.617,0
1485534108.301,10.254,31.738,42.969,77.148,380.371,0
1485534108.305,15.625,30.762,36.621,30.762,78.125,0
1485534108.309,41.992,23.926,34.180,21.973,-112.305,0
1485534108.313,43.945,27.344,35.156,51.270,-52.734,0
1485534108.316,35.645,31.738,40.527,85.938,-193.848,0
1485534108.320,20.020,34.668,34.668,101.074,574.219,0
1485534108.324,32.715,36.133,24.414,59.570,642.090,0
1485534108.328,56.152,30.762,34.180,37.109,-284.668,0
1485534108.332,41.504,29.297,40.039,54.688,-349.609,0
1485534108.336,29.297,29.785,43.945,70.801,-151.855,0
1485534108.340,17.090,31.738,43.457,73.730,430.176,0
1485534108.344,22.949,28.320,39.551,56.152,477.539,0
1485534108.348,51.270,26.367,35.645,48.828,-253.906,0
1485534108.352,54.688,24.902,35.645,54.688,-345.215,0
1485534108.355,39.551,28.320,50.293,75.684,92.285,0
1485534108.359,29.297,45.898,60.059,104.492,715.820,0
1485534108.363,21.973,37.109,35.645,63.965,764.648,0
1485534108.367,35.156,18.066,26.855,15.137,-117.188,0
1485534108.371,62.500,15.137,32.227,35.156,-395.996,0
1485534108.375,54.199,21.973,27.832,71.289,-208.008,0
1485534108.379,9.277,27.832,29.785,103.516,357.910,0
1485534108.383,18.066,26.367,33.203,85.449,468.750,0
1485534108.387,61.035,20.508,36.133,46.875,-256.348,0
1485534108.391,55.176,18.066,34.668,57.617,-362.305,0
1485534108.395,51.758,20.020,39.551,69.336,-247.070,0
1485534108.398,15.625,25.879,47.852,94.238,279.785,0
1485534108.402,20.508,28.809,53.223,72.266,634.766,0
1485534108.406,44.922,27.344,48.340,26.367,186.035,0
1485534108.410,44.434,24.414,35.156,35.645,-107.422,0
1485534108.414,54.688,25.391,35.156,88.867,-264.160,0
1485534108.418,18.066,29.297,33.203,102.539,128.418,0
1485534108.422,17.090,29.297,32.715,77.637,686.035,0
1485534108.426,57.617,23.926,41.992,46.875,65.430,0
1485534108.430,53.711,24.414,38.574,40.039,-411.133,0
1485534108.434,49.805,26.367,35.156,56.641,-279.785,0
1485534108.437,27.344,25.879,41.992,76.660,60.059,0
1485534108.441,20.996,44.922,45.410,89.844,625.977,0
1485534108.445,44.922,37.109,34.668,53.711,137.695,0
1485534108.449,39.062,14.160,27.344,30.762,-123.047,0
1485534108.453,30.762,21.973,37.109,44.922,38.574,0
1485534108.457,22.461,22.949,41.504,73.242,-20.020,0
1485534108.461,13.184,27.344,41.992,70.801,697.754,0
1485534108.465,32.227,27.344,41.992,34.668,551.270,0
1485534108.469,46.387,24.414,34.668,39.062,-345.703,0
1485534108.473,34.668,24.902,32.715,58.594,-333.496,0
1485534108.477,19.043,27.832,40.527,66.895,-15.137,0
1485534108.480,3.418,33.691,42.969,75.195,384.766,0
1485534108.484,25.391,27.832,37.598,47.363,124.023,0
1485534108.488,55.176,24.414,30.273,32.227,-338.379,0
1485534108.492,46.875,27.832,31.738,60.547,-270.020,0
1485534108.496,34.180,29.785,42.480,70.801,166.504,0
1485534108.500,0.488,34.180,44.922,72.266,800.293,0
1485534108.504,7.812,30.273,36.621,33.691,652.832,0
1485534108.508,51.758,25.879,37.598,20.996,-208.496,0
1485534108.512,62.012,30.762,33.691,56.641,-358.887,0
1485534108.516,57.617,31.738,23.438,77.148,-74.707,0
1485534108.520,19.531,33.691,29.785,104.004,482.910,0
1485534108.523,-5.371,33.691,45.898,64.941,329.102,0
1485534108.527,46.875,27.832,42.480,37.109,-334.473,0
1485534108.531,76.660,27.344,27.832,54.688,-292.969,0
1485534108.535,55.664,42.480,46.875,63.477,-35.156,0
1485534108.539,19.531,39.062,59.570,86.914,375.000,0
1485534108.543,-2.930,16.602,33.691,62.012,601.074,0
1485534108.547,39.551,18.066,26.855,41.504,-21.484,0
1485534108.551,76.660,21.484,30.273,54.688,-330.566,0
1485534108.555,57.617,24.414,37.598,63.477,-204.102,0
1485534108.559,19.043,27.344,43.945,90.820,259.766,0
1485534108.562,20.508,27.344,35.156,90.332,825.195,0
1485534108.566,38.086,25.391,30.273,46.387,102.051,0
1485534108.570,57.129,28.809,32.715,36.621,-435.547,0
1485534108.574,47.852,28.320,41.992,72.754,-181.641,0
1485534108.578,26.367,34.180,44.434,97.168,333.008,0
1485534108.582,20.508,35.645,31.250,75.195,447.754,0
1485534108.586,31.738,27.344,31.738,46.387,-217.285,0
1485534108.590,57.129,26.855,41.016,50.781,-93.750,0
1485534108.594,34.180,30.762,48.340,79.102,239.258,0
1485534108.598,14.160,34.668,52.734,105.957,97.168,0
1485534108.602,6.836,34.668,49.316,64.453,665.039,0
1485534108.605,22.949,29.297,48.828,20.508,419.922,0
1485534108.609,60.059,25.879,48.340,22.461,-434.570,0
1485534108.613,59.570,29.297,41.504,52.734,-292.480,0
1485534108.617,44.434,29.297,33.203,89.844,-20.020,0
1485534108.621,29.297,33.203,34.668,75.684,270.996,0
1485534108.625,30.273,28.320,34.668,36.133,-43.457,0
1485534108.629,53.711,31.250,40.039,47.363,-435.547,0
1485534108.633,51.270,41.016,47.852,69.336,-212.891,0
1485534108.637,22.949,26.367,36.133,67.871,201.172,0
1485534108.641,2.930,22.461,29.785,68.848,764.648,0
1485534108.645,1.953,19.531,17.578,33.203,587.402,0
1485534108.648,39.551,14.648,22.949,29.297,-302.246,0
1485534108.652,40.527,15.625,33.203,49.805,-332.031,0
1485534108.656,28.320,19.043,41.504,67.871,-106.445,0
1485534108.660,10.742,20.508,49.316,85.938,278.809,0
1485534108.664,5.371,21.973,40.527,51.758,162.109,0
1485534108.668,43.945,23.438,38.086,26.367,-354.980,0
1485534108.672,41.992,27.344,44.434,41.504,-269.043,0
1485534108.676,10.742,26.855,48.828,89.355,-118.164,0
1485534108.680,-3.418,26.367,48.828,109.375,313.965,0
1485534108.684,13.184,26.367,43.457,45.898,523.438,0
1485534108.687,40.039,22.949,39.551,13.672,-87.891,0
1485534108.691,58.594,21.484,43.457,38.086,-302.734,2
1485534108.695,37.109,26.367,42.480,60.059,-55.176,0
1485534108.699,7.324,29.297,42.969,82.031,495.117,0
1485534108.703,13.184,29.297,38.086,56.152,700.195,0
1485534108.707,53.711,29.297,31.738,36.133,-135.254,0
1485534108.711,61.523,30.273,43.945,61.523,-339.355,0
1485534108.715,35.156,28.809,42.480,80.566,-228.027,0
1485534108.719,20.996,39.062,40.527,98.145,225.586,0
1485534108.723,33.691,51.758,59.570,86.914,534.668,0
1485534108.727,46.875,27.832,50.293,36.621,-211.426,0
1485534108.730,48.828,19.043,30.273,31.738,-43.457,0
1485534108.734,45.898,28.320,34.180,63.965,119.629,0
1485534108.738,20.508,29.297,41.504,93.262,75.195,0
1485534108.742,27.344,27.344,41.992,80.566,807.129,0
1485534108.746,60.547,25.879,41.016,28.809,285.645,0
1485534108.750,51.270,27.832,39.062,45.898,-440.918,0
1485534108.754,39.062,24.902,41.016,83.984,-82.520,0
1485534108.758,35.645,27.832,39.062,111.328,176.270,0
1485534108.762,33.203,35.645,30.762,90.820,295.898,0
1485534108.766,43.457,32.715,41.992,35.645,-108.398,0
1485534108.769,53.223,28.809,48.828,54.199,-361.816,0
1485534108.773,64.453,30.762,41.016,78.125,-228.027,0
1485534108.777,58.105,34.180,37.598,88.379,260.742,0
1485534108.781,30.273,36.133,41.992,74.219,702.637,0
1485534108.785,50.293,28.320,42.969,41.016,62.012,0
1485534108.789,77.148,25.391,37.109,34.180,-354.492,0
1485534108.793,42.480,27.832,32.227,52.246,-173.828,0
1485534108.797,23.438,34.180,46.387,92.285,-152.832,0
1485534108.801,20.020,43.457,61.035,82.031,549.316,0
1485534108.805,10.254,26.855,41.992,29.785,497.559,0
1485534108.809,41.992,17.090,33.203,20.996,-355.469,0
1485534108.812,57.129,22.461,30.762,51.758,-90.820,0
1485534108.816,31.738,28.320,26.367,74.707,130.859,0
1485534108.820,23.438,30.762,33.203,84.961,302.734,0
1485534108.824,42.969,28.320,43.457,73.242,378.418,0
1485534108.828,52.246,28.809,42.969,55.176,-80.078,0
1485534108.832,46.875,30.273,42.969,69.824,-237.793,0
1485534108.836,43.945,30.273,53.711,111.328,-240.234,0
1485534108.840,34.668,33.203,48.340,106.445,430.176,0
1485534108.844,35.156,33.203,41.504,39.062,727.051,0
1485534108.848,44.434,27.832,41.992,11.719,-143.066,0
1485534108.852,48.340,27.344,34.668,43.457,-266.113,0
1485534108.855,28.320,30.273,40.039,61.523,-210.449,0
1485534108.859,17.578,28.320,52.734,94.727,279.785,0
1485534108.863,48.828,30.273,47.363,79.590,347.656,0
1485534108.867,36.133,27.832,27.832,32.227,-279.785,0
1485534108.871,27.344,23.926,27.344,41.992,36.621,0
1485534108.875,34.180,24.902,27.832,59.570,150.879,0
1485534108.879,2.930,25.879,30.762,84.473,338.379,0
1485534108.883,-5.859,27.832,44.922,67.871,798.340,0
1485534108.887,20.996,24.902,46.875,20.996,58.105,0
1485534108.891,40.527,14.160,36.133,41.016,-366.699,0
1485534108.894,49.805,30.273,49.316,73.730,-303.223,0
1485534108.898,17.578,37.598,58.105,101.074,87.891,0
1485534108.902,-16.113,12.695,34.668,70.312,358.398,0
1485534108.906,24.902,13.672,30.762,27.344,-207.031,0
1485534108.910,58.594,20.508,34.668,44.434,-333.008,0
1485534108.914,49.805,19.531,43.457,73.242,-286.621,0
1485534108.918,14.160,24.414,44.922,90.820,254.883,0
1485534108.922,7.812,30.273,36.621,68.359,541.504,0
1485534108.926,46.875,29.785,28.320,24.414,-159.180,0
1485534108.930,60.059,29.297,28.809,31.738,-230.957,0
1485534108.934,48.828,28.320,25.391,57.617,-12.207,0
1485534108.937,35.156,27.832,28.320,76.660,-106.445,0
1485534108.941,12.207,26.855,42.969,72.754,636.230,0
1485534108.945,31.738,23.926,44.434,21.484,522.461,0
1485534108.949,59.082,20.020,40.527,50.293,-340.820,0
1485534108.953,30.273,21.484,44.922,98.145,-295.898,0
1485534108.957,-9.766,27.832,46.875,72.754,-6.836,0
1485534108.961,-8.301,28.320,39.551,49.805,283.203,0
1485534108.965,24.414,25.391,39.551,27.344,304.688,0
1485534108.969,49.316,25.879,34.668,26.855,-10.254,0
1485534108.973,25.879,24.414,29.297,58.594,-269.043,0
1485534108.977,17.090,27.832,40.527,83.496,-278.809,0
1485534108.980,13.184,33.691,45.898,94.238,480.469,0
1485534108.984,13.184,28.320,40.039,55.664,585.449,0
1485534108.988,76.172,42.480,51.758,53.711,-179.199,0
1485534108.992,72.266,39.551,38.574,64.941,-131.836,0
1485534108.996,12.695,25.391,25.879,59.570,-238.281,0
1485534109.000,5.859,30.273,50.781,85.449,354.492,0
1485534109.004,23.438,30.762,46.387,42.480,429.199,0
1485534109.008,33.691,27.344,36.133,28.320,-290.039,0
1485534109.012,44.434,28.320,35.156,69.824,-22.461,0
1485534109.016,34.668,31.738,34.180,90.820,17.090,0
1485534109.019,1.465,28.320,37.109,92.285,365.234,0
1485534109.023,26.367,33.203,45.410,61.523,694.336,0
1485534109.027,58.594,34.180,35.645,23.926,-90.820,0
1485534109.031,51.758,28.320,27.832,36.133,-341.797,0
1485534109.035,34.180,30.273,42.969,72.754,-344.727,0
1485534109.039,16.113,29.297,43.945,87.402,225.098,0
1485534109.043,22.461,24.414,40.039,59.082,439.453,0
1485534109.047,33.203,27.344,30.762,30.762,-179.199,0
1485534109.051,26.367,25.879,20.508,54.199,-93.750,0
1485534109.055,23.926,30.273,28.809,72.266,-138.184,0
1485534109.059,22.949,32.227,40.527,94.727,340.820,0
1485534109.062,27.344,23.438,39.062,50.293,663.086,0
1485534109.066,27.344,38.574,49.805,39.062,-48.340,0
1485534109.070,45.898,40.039,47.852,54.688,-282.227,0
1485534109.074,32.715,22.461,26.367,25.391,-278.809,0
1485534109.078,-6.836,25.879,30.762,86.914,41.504,0
1485534109.082,-0.488,28.320,37.109,76.660,572.754,0
1485534109.086,45.410,27.344,35.645,2.930,119.629,0
1485534109.090,60.059,22.461,30.762,31.738,-310.547,0
1485534109.094,45.898,22.949,35.645,55.176,-253.906,0
1485534109.098,29.785,27.344,41.992,82.031,13.184,0
1485534109.101,15.137,29.297,41.992,91.797,388.672,0
1485534109.105,28.320,28.809,27.832,51.758,312.012,0
1485534109.109,63.477,26.855,20.508,53.711,93.750,0
1485534109.113,50.293,26.855,43.457,53.711,-131.348,0
1485534109.117,19.531,28.320,49.805,66.406,-166.016,0
1485534109.121,7.812,30.762,41.504,80.078,584.473,0
1485534109.125,43.457,30.762,36.621,45.898,526.855,0
1485534109.129,66.406,24.902,34.180,43.457,-302.246,0
1485534109.133,52.246,23.438,34.668,65.918,-339.844,0
1485534109.137,39.551,26.855,44.434,85.938,-150.879,0
1485534109.141,7.812,27.832,52.246,82.031,323.730,0
1485534109.144,20.020,25.391,42.480,37.109,211.914,0
1485534109.148,43.457,25.391,35.156,43.457,-296.875,0
1485534109.152,50.781,29.297,39.551,68.359,-4.395,0
1485534109.156,52.734,32.715,47.363,68.848,118.164,0
1485534109.160,35.645,34.668,35.645,88.867,450.195,0
1485534109.164,19.043,32.715,24.414,54.199,487.305,0
1485534109.168,52.734,37.598,49.316,47.363,-60.059,0
1485534109.172,77.148,33.691,48.828,78.125,-222.656,0
1485534109.176,58.105,26.367,32.227,84.473,-362.305,1
1485534109.180,12.207,31.250,35.156,105.957,364.746,0
1485534109.184,14.648,32.715,38.574,84.961,638.672,0
1485534109.187,61.523,29.297,37.598,41.016,-217.285,0
1485534109.191,70.312,28.809,39.551,49.805,-425.293,0
1485534109.195,63.477,31.738,48.340,88.867,-303.223,0
1485534109.199,57.129,32.227,40.527,110.840,424.805,0
1485534109.203,48.340,29.785,38.574,73.730,889.648,0
1485534109.207,40.527,22.949,39.551,39.062,-2.930,0
1485534109.211,45.898,23.438,35.156,49.805,-406.250,0
1485534109.215,27.344,29.297,36.621,63.965,-277.344,0
1485534109.219,16.602,31.250,42.969,86.426,187.012,0
1485534109.223,29.297,32.715,39.551,61.035,494.629,0
1485534109.226,39.062,31.250,30.273,43.457,35.645,0
1485534109.230,44.434,28.809,34.180,58.594,-239.746,0
1485534109.234,35.645,29.785,41.504,65.430,-312.012,0
1485534109.238,1.953,32.715,47.852,100.098,92.773,0
1485534109.242,-5.371,32.227,46.387,67.383,479.004,0
1485534109.246,33.691,28.809,40.527,38.086,200.195,0
1485534109.250,63.965,28.320,34.180,62.500,-24.902,0
1485534109.254,66.895,30.273,38.086,50.781,-193.359,0
1485534109.258,36.133,35.645,42.480,73.730,-104.980,0
1485534109.262,20.996,37.109,37.109,71.777,763.672,0
1485534109.266,48.340,34.668,36.621,29.297,511.719,0
1485534109.269,37.109,33.691,41.992,38.086,-407.227,0
1485534109.273,44.434,34.668,33.691,71.289,-363.281,0
1485534109.277,39.062,33.203,16.113,88.867,-73.730,0
1485534109.281,14.160,44.922,46.387,100.098,363.770,0
1485534109.285,20.508,40.039,57.617,41.504,177.734,0
1485534109.289,35.645,20.508,31.738,13.184,-293.457,0
1485534109.293,62.500,23.926,33.203,55.176,-24.902,0
1485534109.297,37.598,26.855,40.039,77.148,106.445,0
1485534109.301,10.742,29.785,40.039,85.449,574.219,0
1485534109.305,37.598,29.785,36.133,37.598,609.375,0
1485534109.309,73.730,31.738,39.551,20.996,-343.262,0
1485534109.312,62.500,36.133,39.551,45.410,-406.738,0
1485534109.316,41.504,39.551,38.086,72.754,-191.895,0
1485534109.320,-0.977,39.062,47.852,92.285,340.820,0
1485534109.324,5.859,29.297,51.758,68.359,219.727,0
1485534109.328,45.410,28.809,41.504,56.152,-381.836,0
1485534109.332,65.918,37.598,41.016,51.270,-381.836,0
1485534109.336,60.059,35.156,42.969,81.055,-241.699,0
1485534109.340,30.273,32.227,35.156,112.305,564.453,0
1485534109.344,28.809,35.645,38.086,60.059,791.016,0
1485534109.348,56.152,36.133,43.457,30.762,-171.875,0
1485534109.351,56.152,36.133,45.898,61.035,-416.992,0
1485534109.355,47.363,34.668,47.363,105.469,-259.766,0
1485534109.359,39.062,36.133,44.922,125.488,331.543,0
1485534109.363,23.926,34.180,41.504,59.570,418.945,0
1485534109.367,45.410,27.832,40.039,33.691,-289.062,0
1485534109.371,56.152,24.902,42.480,44.922,-401.855,0
1485534109.375,41.992,26.367,40.039,66.406,-283.203,0
1485534109.379,15.625,31.250,39.551,95.703,355.957,0
1485534109.383,7.324,30.273,50.781,65.918,485.352,0
1485534109.387,49.805,28.320,44.922,45.898,-4.883,0
1485534109.391,78.125,27.832,35.645,58.105,-11.719,0
1485534109.394,60.059,31.738,37.598,60.547,-212.402,0
1485534109.398,12.207,32.715,40.039,85.938,84.473,0
1485534109.402,2.441,29.297,41.504,61.035,846.191,0
1485534109.406,36.133,26.367,37.598,17.578,202.637,0
1485534109.410,47.852,24.902,30.273,37.109,-445.312,0
1485534109.414,37.598,28.809,41.504,65.430,-313.965,0
1485534109.418,14.648,25.879,44.434,98.145,76.172,0
1485534109.422,17.578,41.992,54.199,86.914,454.102,0
1485534109.426,43.457,45.410,60.547,44.922,-112.305,0
1485534109.430,45.410,19.043,40.039,37.598,-417.480,0
1485534109.433,47.852,20.996,39.062,67.383,-30.273,0
1485534109.437,33.691,30.273,37.109,82.520,361.816,0
1485534109.441,15.625,32.227,34.668,89.355,859.375,0
1485534109.445,56.641,34.668,40.039,63.965,449.707,0
1485534109.449,55.664,29.785,44.922,40.527,-387.207,0
1485534109.453,29.297,26.367,42.480,55.176,-366.211,0
1485534109.457,32.227,31.738,38.086,83.984,-83.008,0
1485534109.461,23.926,31.250,40.039,96.191,435.059,0
1485534109.465,35.645,26.367,41.016,55.664,144.043,0
1485534109.469,61.523,30.273,27.832,39.062,-382.812,0
1485534109.473,56.152,35.156,20.020,60.547,-358.887,0
1485534109.476,39.551,34.180,35.156,85.938,-120.605,0
1485534109.480,24.902,36.133,44.922,97.656,520.508,0
1485534109.484,25.879,32.715,46.387,68.848,316.895,0
1485534109.488,62.012,28.320,41.992,42.480,-360.352,0
1485534109.492,86.426,31.250,37.109,49.805,-354.004,0
1485534109.496,74.707,31.250,44.434,89.355,-204.102,0
1485534109.500,39.062,32.715,41.016,103.027,519.043,0
1485534109.504,29.297,32.715,37.598,63.477,644.531,0
1485534109.508,62.988,28.809,38.086,44.922,-248.047,0
1485534109.512,72.266,27.344,30.273,37.598,-381.348,0
1485534109.516,52.246,37.109,34.668,71.289,-188.477,0
1485534109.519,30.273,48.828,50.781,121.094,399.902,0
1485534109.523,11.230,33.203,32.227,68.359,462.891,0
1485534109.527,39.062,22.949,22.461,32.715,52.246,0
1485534109.531,51.758,26.367,28.809,51.758,97.168,0
1485534109.535,48.340,24.414,33.691,83.008,-127.930,0
1485534109.539,19.531,20.508,36.133,97.656,272.949,0
1485534109.543,-14.160,24.414,25.391,51.270,841.309,0
1485534109.547,26.855,19.531,32.715,11.719,16.113,0
1485534109.551,42.969,20.020,39.551,41.016,-451.172,0
1485534109.555,35.645,22.461,39.062,83.008,-260.742,0
1485534109.558,19.531,23.926,41.504,85.449,248.535,0
1485534109.562,1.465,30.273,41.016,72.754,476.074,0
1485534109.566,20.996,27.344,42.969,51.758,-186.035,0
1485534109.570,73.730,25.391,40.527,32.227,-369.141,0
1485534109.574,53.223,28.320,30.273,50.293,30.273,0
1485534109.578,1.465,27.832,41.992,79.102,488.281,0
1485534109.582,20.020,31.250,47.852,70.312,889.648,0
1485534109.586,47.852,33.203,39.551,35.645,356.445,0
1485534109.590,48.828,29.297,42.480,46.387,-229.004,0
1485534109.594,51.270,28.320,40.039,59.082,-191.895,0
1485534109.598,36.133,31.250,42.969,90.820,80.078,0
1485534109.601,20.508,33.691,48.340,105.957,390.625,0
1485534109.605,43.457,30.273,41.016,50.781,-59.570,0
1485534109.609,73.730,37.598,54.199,63.965,-416.504,0
1485534109.613,65.918,35.645,45.898,77.637,-294.434,0
1485534109.617,25.391,29.297,21.484,78.613,4.395,0
1485534109.621,3.418,31.738,41.504,104.980,451.660,0
1485534109.625,6.348,24.414,41.992,47.363,202.148,0
1485534109.629,34.668,20.020,28.809,23.438,-367.676,0
1485534109.633,39.551,21.484,29.297,37.109,-309.570,0
1485534109.637,27.832,26.367,34.180,59.082,-78.613,0
1485534109.641,17.578,28.320,41.504,87.891,638.184,0
1485534109.644,21.973,25.879,41.992,53.711,637.695,0
1485534109.648,41.016,22.461,39.551,34.668,-298.340,0
1485534109.652,30.273,24.902,41.016,54.199,-360.352,0
1485534109.656,18.066,26.367,39.062,70.312,-65.918,0
1485534109.660,28.809,27.832,40.039,86.426,359.375,0
1485534109.664,25.879,32.715,39.062,57.617,213.867,0
1485534109.668,30.273,29.785,36.621,42.480,-17.090,0
1485534109.672,47.363,28.809,30.762,51.758,32.715,2
1485534109.676,41.504,32.227,27.344,67.871,-158.203,0
1485534109.680,12.207,30.762,36.133,89.844,414.551,0
1485534109.683,13.184,30.273,42.480,63.477,805.176,0
1485534109.687,38.086,30.273,40.039,20.508,-82.031,0
1485534109.691,46.387,31.250,33.691,29.785,-390.137,0
1485534109.695,62.500,35.156,38.086,63.477,-154.297,0
1485534109.699,19.043,31.738,45.410,102.051,443.848,0
1485534109.703,4.395,27.832,44.434,77.637,472.656,0
1485534109.707,30.273,32.227,41.504,22.461,-314.453,0
1485534109.711,43.457,30.762,36.133,41.992,-373.047,0
1485534109.715,53.711,32.227,32.715,71.289,64.941,0
1485534109.719,49.316,47.363,52.734,104.492,523.926,0
1485534109.723,10.742,34.180,46.875,78.613,823.242,0
1485534109.726,34.668,21.973,31.250,24.902,87.891,0
1485534109.730,66.406,28.320,29.297,34.180,-431.152,0
1485534109.734,41.992,28.320,24.414,50.293,-202.148,0
1485534109.738,8.789,30.762,37.109,73.730,146.484,0
1485534109.742,-3.906,30.273,45.410,67.383,384.277,0
1485534109.746,19.531,24.414,38.086,20.020,-150.391,0
1485534109.750,40.527,22.949,41.016,34.668,-387.695,0
1485534109.754,36.621,24.902,41.504,61.523,-189.453,0
1485534109.758,15.137,28.809,40.527,84.473,319.336,0
1485534109.762,7.812,32.227,43.945,89.844,725.586,0
1485534109.765,28.320,26.855,41.992,42.480,134.277,0
1485534109.769,63.965,25.391,42.480,35.156,-390.137,0
1485534109.773,39.062,29.785,40.039,49.805,-214.844,0
1485534109.777,16.602,32.715,36.133,81.055,-88.867,0
1485534109.781,8.301,31.250,39.551,103.027,548.828,0
1485534109.785,15.137,28.320,40.527,36.133,391.602,0
1485534109.789,53.711,26.855,39.062,16.113,-394.531,0
1485534109.793,69.336,28.809,30.762,54.199,-243.164,0
1485534109.797,28.809,31.250,22.949,85.449,0.488,0
1485534109.801,17.090,47.852,53.711,95.215,338.867,0
1485534109.805,38.086,43.457,61.035,52.246,73.730,0
1485534109.808,41.992,22.949,33.203,24.902,-94.727,0
1485534109.812,42.480,26.367,31.250,41.016,147.461,0
1485534109.816,37.598,26.855,42.480,62.500,69.336,0
1485534109.820,37.109,29.785,44.434,72.754,566.406,0
1485534109.824,18.066,32.715,37.598,33.203,656.738,0
1485534109.828,32.715,28.809,43.457,14.648,-243.164,0
1485534109.832,42.480,23.438,46.387,45.898,-301.758,0
1485534109.836,37.598,23.438,41.992,69.824,-169.434,0
1485534109.840,16.602,32.715,53.223,98.633,253.418,0
1485534109.844,16.602,29.785,54.688,68.359,289.062,0
1485534109.848,62.012,28.809,41.504,36.621,-299.805,0
1485534109.851,49.805,33.691,30.273,49.805,-247.070,0
1485534109.855,23.438,30.273,31.250,63.477,82.520,0
1485534109.859,23.926,29.785,46.387,82.031,600.586,0
1485534109.863,25.879,31.738,50.781,69.336,806.152,0
1485534109.867,54.688,29.785,48.340,38.574,-33.691,0
1485534109.871,67.383,30.273,43.945,76.660,-304.688,0
1485534109.875,54.199,34.180,46.387,112.305,-2.930,0
1485534109.879,38.574,34.180,47.852,103.027,281.250,0
1485534109.883,40.039,40.039,56.641,76.660,337.891,0
1485534109.887,49.805,47.852,61.035,54.199,-245.605,0
1485534109.890,45.410,29.297,38.574,47.852,-284.668,0
1485534109.894,54.199,22.949,35.156,54.199,-204.102,0
1485534109.898,39.062,31.250,43.945,92.773,71.289,0
1485534109.902,-7.812,31.250,41.504,84.473,549.805,0
1485534109.906,32.715,28.809,39.062,41.504,78.125,0
1485534109.910,73.730,23.926,40.527,51.270,-292.480,0
1485534109.914,59.082,24.902,40.527,72.266,-268.066,0
1485534109.918,24.902,26.855,31.250,95.703,-103.027,0
1485534109.922,0.977,25.391,31.250,76.172,673.828,0
1485534109.926,32.227,22.949,46.387,15.625,269.531,0
1485534109.930,37.109,18.555,42.480,38.086,-395.020,0
1485534109.933,39.551,21.484,33.203,65.918,-99.609,0
1485534109.937,29.785,26.855,40.039,83.496,8.789,0
1485534109.941,-6.348,32.715,42.969,87.891,253.906,0
1485534109.945,25.391,29.785,40.527,43.945,-19.043,0
1485534109.949,45.410,19.043,41.992,46.387,-67.871,0
1485534109.953,40.039,24.902,44.922,63.965,47.852,0
1485534109.957,48.828,32.227,44.922,78.613,-243.164,0
1485534109.961,33.691,37.109,41.016,88.867,510.742,0
1485534109.965,32.715,31.738,30.273,49.316,598.633,0
1485534109.969,54.199,29.297,34.668,28.809,-250.000,0
1485534109.973,59.570,43.945,45.410,88.379,-268.066,0
1485534109.976,33.203,36.621,35.156,113.281,-162.598,0
1485534109.980,14.648,29.297,32.227,77.148,281.738,0
1485534109.984,20.020,28.320,33.203,34.668,203.125,0
1485534109.988,67.383,21.484,32.715,25.391,-251.953,0
1485534109.992,93.262,24.902,35.156,56.641,-52.246,0
1485534109.996,63.965,30.762,44.434,77.637,126.465,0
1485534110.000,18.066,32.227,43.457,101.074,642.090,0
1485534110.004,41.016,35.156,33.691,64.941,697.266,0
1485534110.008,57.617,35.156,36.621,34.180,-107.910,0
1485534110.012,71.289,34.668,34.668,45.898,-223.633,0
1485534110.015,38.086,34.668,33.691,53.711,-292.480,0
1485534110.019,-10.254,34.668,45.410,98.145,206.055,0
1485534110.023,30.273,32.227,48.340,74.219,316.406,0
1485534110.027,70.312,31.738,26.855,33.203,-269.531,0
1485534110.031,65.918,27.344,20.996,67.871,-297.363,0
1485534110.035,43.457,27.344,41.504,84.961,-332.520,0
1485534110.039,20.020,37.598,45.410,98.633,192.383,0
1485534110.043,0.977,35.645,39.062,92.773,661.133,0
1485534110.047,36.133,27.832,40.039,41.016,43.945,0
1485534110.051,40.527,29.297,37.598,44.434,-98.145,0
1485534110.055,27.344,25.879,34.180,56.152,-129.395,0
1485534110.058,38.574,38.574,52.734,115.234,24.414,0
1485534110.062,26.367,45.410,58.105,99.609,788.574,0
1485534110.066,28.320,20.508,31.738,11.719,261.719,0
1485534110.070,28.320,17.578,32.227,26.367,-354.004,0
1485534110.074,17.578,18.555,42.969,44.922,-337.891,0
1485534110.078,5.371,20.508,41.016,74.219,-9.766,1
1485534110.082,-2.441,29.785,40.039,67.383,366.699,0
1485534110.086,27.344,29.297,38.086,20.996,-66.895,0
1485534110.090,44.434,26.367,24.414,44.922,-6.836,0
1485534110.094,41.504,30.762,31.250,55.176,136.719,0
1485534110.097,39.062,32.227,44.434,69.824,-30.762,0
1485534110.101,17.090,35.156,42.969,74.219,549.805,0
1485534110.105,21.484,30.762,40.039,29.297,256.348,0
1485534110.109,46.875,24.902,35.156,41.992,-218.262,0
1485534110.113,41.016,25.879,40.039,73.242,-149.414,0
1485534110.117,3.418,26.367,43.457,71.777,-196.289,0
1485534110.121,-3.418,27.832,41.992,68.359,317.383,0
1485534110.125,24.902,21.973,37.109,33.203,184.570,0
1485534110.129,45.410,17.090,31.738,24.414,-326.660,0
1485534110.133,42.480,19.043,36.133,49.805,-319.824,0
1485534110.137,27.344,19.531,40.039,62.988,44.434,0
1485534110.140,-0.977,21.484,38.086,73.242,729.980,0
1485534110.144,8.301,28.320,38.086,43.457,717.773,0
1485534110.148,40.039,26.855,34.180,22.949,-144.531,0
1485534110.152,59.570,38.574,46.387,60.059,-392.090,0
1485534110.156,32.227,40.039,41.504,69.336,-257.812,0
1485534110.160,-7.324,23.438,19.043,71.777,353.027,0
1485534110.164,9.277,25.879,30.273,42.969,353.027,0
1485534110.168,35.645,25.879,33.203,19.043,-106.934,0
1485534110.172,43.945,22.461,32.715,48.828,-186.035,0
1485534110.176,30.273,23.926,35.156,67.871,-323.242,0
1485534110.180,16.113,29.785,37.598,84.473,235.840,0
1485534110.183,26.855,30.273,37.109,64.941,599.121,0
1485534110.187,59.570,28.809,31.738,35.645,17.578,0
1485534110.191,81.055,30.762,31.738,52.246,-336.914,0
1485534110.195,50.293,34.668,42.480,86.914,-356.934,0
1485534110.199,7.324,35.645,47.852,96.191,250.977,0
1485534110.203,23.438,33.691,41.504,68.359,640.625,0
1485534110.207,69.336,32.715,41.016,39.551,-115.723,0
1485534110.211,66.406,30.762,41.016,52.734,-352.539,0
1485534110.215,40.527,26.855,40.527,70.801,-327.148,0
1485534110.219,22.461,32.715,33.203,84.473,148.438,0
1485534110.222,13.184,34.668,30.762,67.383,611.328,0
1485534110.226,30.762,25.391,43.457,29.297,137.207,0
1485534110.230,42.480,26.367,45.410,50.293,75.195,0
1485534110.234,54.199,30.762,43.945,72.754,-49.316,0
1485534110.238,22.461,30.273,46.387,82.031,46.875,0
1485534110.242,-8.301,29.297,47.852,71.289,494.629,0
1485534110.246,27.344,24.902,43.945,32.227,-3.418,0
1485534110.250,49.805,21.484,36.133,43.457,-390.625,0
1485534110.254,62.012,19.043,35.156,68.359,-328.613,0
1485534110.258,29.785,33.691,54.199,104.980,-118.652,0
1485534110.262,7.324,43.945,61.035,95.215,635.254,0
1485534110.265,23.438,22.461,34.180,27.832,384.277,0
1485534110.269,49.316,18.555,28.320,28.809,-332.031,0
1485534110.273,69.336,22.949,34.668,66.895,-304.199,0
1485534110.277,37.598,23.438,35.156,104.980,206.543,0
1485534110.281,21.973,20.996,40.527,77.637,594.238,0
1485534110.285,39.062,22.461,41.504,49.805,242.188,0
1485534110.289,41.504,24.902,24.414,65.918,-135.254,0
1485534110.293,49.316,26.367,24.414,54.688,-296.875,0
1485534110.297,45.410,29.785,43.457,63.965,-236.816,0
1485534110.301,26.855,32.715,45.410,85.449,497.070,0
1485534110.305,25.879,33.203,39.062,41.504,530.762,0
1485534110.308,49.805,32.227,35.645,20.020,-327.148,0
1485534110.312,30.762,29.297,35.645,61.523,-375.488,0
1485534110.316,35.645,25.391,42.969,87.402,-230.469,0
1485534110.320,23.926,34.180,48.340,99.121,353.516,0
1485534110.324,9.766,39.062,45.898,56.641,624.023,0
1485534110.328,49.316,34.180,36.621,27.344,-53.223,0
1485534110.332,53.223,32.715,29.297,57.129,-354.492,0
1485534110.336,48.828,46.387,49.316,91.309,-301.758,0
1485534110.340,28.809,42.969,51.270,106.445,365.723,0
1485534110.344,15.137,23.438,28.320,64.941,808.105,0
1485534110.347,42.969,21.484,31.738,43.945,166.992,0
1485534110.351,64.453,22.949,33.691,47.852,-233.887,0
1485534110.355,59.570,27.344,24.414,61.523,-312.988,0
1485534110.359,29.297,31.250,34.180,95.703,287.598,0
1485534110.363,13.184,34.668,49.805,61.523,484.863,0
1485534110.367,34.668,32.715,46.875,37.109,-223.633,0
1485534110.371,42.480,29.785,39.062,46.387,-74.219,0
1485534110.375,48.828,34.668,44.922,67.871,-43.457,0
1485534110.379,25.391,32.227,39.551,99.609,199.219,0
1485534110.383,6.836,29.785,32.227,72.266,649.414,0
1485534110.387,37.598,31.738,34.180,40.039,-129.883,0
1485534110.390,46.875,30.273,30.273,41.504,-438.965,0
1485534110.394,35.156,31.250,33.203,38.574,-351.562,0
1485534110.398,32.715,32.715,41.016,68.848,47.363,0
1485534110.402,25.391,29.785,40.527,72.266,558.594,0
1485534110.406,28.320,25.879,40.527,31.738,139.648,0
1485534110.410,42.480,28.809,42.969,34.668,-327.637,0
1485534110.414,44.922,25.879,43.945,55.664,-353.027,0
1485534110.418,24.414,24.902,42.969,82.031,283.203,0
1485534110.422,4.395,30.273,35.645,77.637,723.145,0
1485534110.426,30.273,24.414,31.738,39.551,9.277,0
1485534110.429,71.777,40.527,49.805,71.289,-391.113,0
1485534110.433,70.801,46.387,52.246,89.844,-182.617,0
1485534110.437,39.062,24.902,35.156,79.102,-89.355,0
1485534110.441,23.438,28.809,39.062,86.426,658.691,0
1485534110.445,33.691,26.367,37.109,45.898,686.035,0
1485534110.449,42.480,24.902,34.180,20.020,-235.840,0
1485534110.453,41.992,25.879,40.527,50.781,-346.680,0
1485534110.457,38.574,27.344,46.387,86.914,-106.445,0
1485534110.461,26.367,32.227,45.410,91.309,395.508,0
1485534110.465,36.133,26.855,42.480,48.828,413.086,0
1485534110.469,47.363,26.855,42.480,39.551,39.062,0
1485534110.472,51.270,33.203,42.969,68.359,-199.219,0
1485534110.476,32.715,31.738,46.875,85.449,-266.602,0
1485534110.480,23.438,34.668,44.922,89.844,552.246,0
1485534110.484,20.508,37.109,34.668,44.922,681.641,0
1485534110.488,42.969,34.180,34.668,28.320,-267.578,0
1485534110.492,57.129,33.203,40.039,48.828,-417.969,0
1485534110.496,41.016,33.691,49.805,74.707,-248.535,0
1485534110.500,36.621,32.715,49.805,91.309,365.723,0
1485534110.504,14.160,24.414,46.875,62.012,341.797,0
1485534110.508,22.461,20.020,41.016,39.551,-338.379,0
1485534110.512,45.410,24.414,36.621,49.316,-70.312,0
1485534110.515,33.691,28.809,43.945,63.477,-13.672,0
1485534110.519,16.602,30.762,42.480,83.496,410.156,0
1485534110.523,35.156,29.297,38.574,67.871,698.242,0
1485534110.527,46.387,28.320,38.086,40.527,-172.852,0
1485534110.531,41.504,28.320,32.715,55.664,-376.953,1
1485534110.535,31.250,27.832,32.227,67.871,-283.691,0
1485534110.539,22.461,39.551,49.316,98.633,316.406,0
1485534110.543,37.109,37.598,39.551,77.637,668.457,0
1485534110.547,41.504,20.996,16.113,18.066,-138.184,0
1485534110.551,37.598,20.508,26.367,33.203,-433.105,0
1485534110.554,50.293,23.926,36.621,56.641,-301.758,0
1485534110.558,8.301,27.832,42.480,82.031,351.562,0
1485534110.562,-16.602,27.832,46.387,88.867,939.453,0
1485534110.566,44.922,27.832,40.039,43.457,175.293,0
1485534110.570,51.270,29.297,33.691,35.645,-425.293,0
1485534110.574,41.992,26.367,36.621,54.199,-329.102,0
1485534110.578,28.809,26.855,39.062,78.613,66.406,0
1485534110.582,14.160,29.297,39.551,88.379,497.559,0
1485534110.586,48.828,28.809,44.922,70.312,-60.547,0
1485534110.590,69.824,25.879,42.480,58.594,-451.660,0
1485534110.594,52.734,26.855,36.133,56.152,-333.496,0
1485534110.597,14.160,27.832,39.551,82.031,13.672,0
1485534110.601,-3.418,28.320,42.480,81.055,412.598,0
1485534110.605,18.066,25.391,38.086,49.805,289.551,0
1485534110.609,41.992,19.531,24.902,48.340,50.293,0
1485534110.613,23.438,21.973,19.043,55.176,-164.062,0
1485534110.617,1.465,23.926,37.109,79.590,-105.957,0
1485534110.621,0.000,25.391,42.480,79.102,683.594,0
1485534110.625,17.578,25.879,33.203,35.156,587.402,0
1485534110.629,58.105,23.926,34.180,33.203,-328.613,0
1485534110.633,32.715,27.344,40.527,66.406,-366.211,0
1485534110.637,41.504,41.016,52.246,95.703,-89.844,0
1485534110.640,29.785,25.391,39.551,91.309,466.309,0
1485534110.644,12.695,11.719,27.344,40.527,310.059,0
1485534110.648,38.086,21.973,29.297,24.902,-344.238,0
1485534110.652,33.203,27.832,23.438,59.570,-77.637,0
1485534110.656,23.438,24.902,31.250,74.707,200.195,0
1485534110.660,-4.395,28.320,41.016,80.078,613.281,0
1485534110.664,17.090,29.785,35.156,51.270,707.520,0
1485534110.668,74.707,24.414,32.715,21.973,-180.664,0
1485534110.672,54.688,29.297,34.668,36.621,-429.688,0
1485534110.676,41.992,34.180,30.273,71.777,-214.844,0
1485534110.679,28.809,30.273,31.250,102.051,354.492,0
1485534110.683,15.137,28.320,44.434,61.523,349.121,0
1485534110.687,52.734,28.320,43.945,20.508,-294.434,0
1485534110.691,74.219,25.879,42.969,55.664,-346.191,0
1485534110.695,52.246,28.809,39.551,81.055,-182.617,0
1485534110.699,3.906,28.809,39.062,90.332,511.719,0
1485534110.703,11.230,28.809,39.551,63.477,752.441,0
1485534110.707,54.688,31.250,36.621,27.344,-112.793,0
1485534110.711,57.617,28.320,36.621,44.434,-390.625,0
1485534110.715,38.086,31.738,38.574,65.918,-251.953,0
1485534110.719,19.043,37.598,46.387,104.980,209.961,0
1485534110.722,28.320,30.273,46.387,89.355,627.930,0
1485534110.726,57.129,26.367,34.180,43.457,-45.898,0
1485534110.730,39.062,26.855,31.738,60.547,-401.367,0
1485534110.734,19.043,25.391,31.250,70.801,-227.051,0
1485534110.738,16.602,37.598,39.551,89.844,120.605,0
1485534110.742,51.270,46.387,58.594,86.914,410.645,0
1485534110.746,56.152,25.391,42.480,24.902,228.027,0
1485534110.750,71.289,20.996,31.250,24.414,-64.941,0
1485534110.754,36.133,27.344,35.645,76.660,-244.141,0
1485534110.758,-29.785,25.391,38.086,95.215,106.934,0
1485534110.761,-21.973,23.926,41.504,73.242,841.309,0
1485534110.765,9.766,22.949,42.480,37.109,456.055,0
1485534110.769,41.504,20.996,40.039,51.758,-385.742,0
1485534110.773,49.805,28.809,33.691,71.289,-296.875,0
1485534110.777,41.016,34.668,38.574,90.332,-43.945,0
1485534110.781,22.461,33.691,41.016,84.961,285.156,0
1485534110.785,47.852,36.621,35.645,48.828,53.711,0
1485534110.789,60.547,31.250,35.645,40.039,-368.164,0
1485534110.793,33.691,28.320,27.832,51.758,17.578,0
1485534110.797,31.250,34.668,24.414,83.008,103.027,0
1485534110.801,23.926,37.598,37.598,81.055,499.512,0
1485534110.804,33.691,37.109,41.016,46.387,647.949,0
1485534110.808,75.195,30.762,39.062,37.598,-270.020,0
1485534110.812,58.105,29.297,38.574,53.711,-395.996,0
1485534110.816,24.902,34.180,38.086,83.008,-7.324,0
1485534110.820,25.879,35.156,39.062,111.816,416.504,0
1485534110.824,25.391,31.738,39.551,71.289,159.180,0
1485534110.828,60.547,33.691,39.551,44.922,-352.539,0
1485534110.832,70.312,31.250,35.156,67.383,-338.379,0
1485534110.836,40.039,33.691,41.992,82.520,-238.770,0
1485534110.840,27.832,48.340,52.734,123.535,469.727,0
1485534110.844,16.113,33.691,34.668,74.219,791.504,0
1485534110.847,41.992,20.996,24.414,24.414,-159.180,0
1485534110.851,58.594,27.832,23.926,45.410,-324.219,0
1485534110.855,34.668,27.344,14.648,53.711,-94.727,0
1485534110.859,10.254,31.250,29.785,85.938,256.348,0
1485534110.863,16.113,32.227,49.316,68.848,386.719,0
1485534110.867,61.523,31.738,36.621,40.039,-249.023,0
1485534110.871,67.871,33.691,27.832,60.059,-359.863,0
1485534110.875,48.828,31.250,35.645,71.289,-91.797,0
1485534110.879,28.809,32.715,37.598,96.680,317.383,0
1485534110.883,35.645,35.156,36.621,79.102,397.461,0
1485534110.886,36.133,32.227,37.109,33.203,130.371,0
1485534110.890,31.250,32.227,37.598,46.875,-12.207,0
1485534110.894,43.457,33.691,38.574,55.176,-266.602,0
1485534110.898,30.273,30.762,37.598,87.402,-54.688,0
1485534110.902,10.254,33.203,37.598,86.426,772.461,0
1485534110.906,46.387,33.203,41.016,28.809,282.227,0
1485534110.910,80.078,30.762,45.898,31.250,-397.461,0
1485534110.914,46.875,32.227,35.645,56.641,-225.098,0
1485534110.918,17.090,31.738,26.367,80.566,-37.109,0
1485534110.922,10.742,29.785,40.527,90.332,351.562,0
1485534110.926,37.109,26.855,48.828,49.805,-46.875,0
1485534110.929,38.574,26.855,47.852,45.898,-335.449,0
1485534110.933,25.391,23.926,47.852,65.918,16.602,0
1485534110.937,36.133,27.832,48.828,72.754,268.555,0
1485534110.941,-2.930,28.809,43.457,79.590,811.523,0
1485534110.945,23.438,31.738,44.434,48.340,526.367,0
1485534110.949,92.285,40.527,53.711,59.570,-318.359,0
1485534110.953,45.898,23.438,40.527,71.777,-301.758,0
1485534110.957,7.324,20.508,33.691,78.125,-145.996,0
1485534110.961,27.832,30.273,45.410,102.539,266.602,1
1485534110.965,35.645,27.832,43.945,66.406,113.281,0
1485534110.969,49.805,28.320,29.785,32.715,-332.031,0
1485534110.972,62.012,31.250,26.367,47.852,-267.578,0
1485534110.976,13.672,33.203,24.902,61.523,-220.703,0
1485534110.980,-4.883,38.574,39.551,87.891,552.734,0
1485534110.984,13.184,34.180,51.758,71.289,728.027,0
1485534110.988,50.293,27.344,43.945,35.156,-211.426,0
1485534110.992,53.223,27.344,40.527,38.574,-118.164,0
1485534110.996,40.039,30.273,47.852,65.918,22.461,0
1485534111.000,11.719,34.668,47.363,94.727,231.934,0
1485534111.004,11.719,32.227,41.992,67.383,286.621,0
1485534111.008,33.203,28.809,41.016,48.340,-228.027,0
1485534111.011,47.363,29.297,42.969,52.246,-243.164,0
1485534111.015,70.801,31.250,42.480,62.500,-265.625,0
1485534111.019,27.344,32.715,41.016,89.355,230.957,0
1485534111.023,2.441,28.809,42.480,75.684,406.250,0
1485534111.027,24.414,26.855,37.598,50.293,103.516,0
1485534111.031,52.246,24.902,33.203,47.363,42.480,0
1485534111.035,63.477,37.109,50.293,83.984,-320.801,0
1485534111.039,33.203,40.527,54.688,117.676,129.883,0
1485534111.043,8.789,20.020,21.973,63.965,853.516,0
1485534111.047,21.484,19.043,20.508,25.391,82.520,0
1485534111.051,24.414,20.508,35.156,63.477,-187.500,0
1485534111.054,44.922,20.020,37.109,88.867,-6.836,0
1485534111.058,30.273,22.949,46.875,90.332,39.551,0
1485534111.062,16.602,25.391,48.340,73.730,423.828,0
1485534111.066,57.129,27.344,41.992,34.668,54.199,0
1485534111.070,57.129,26.367,41.504,49.316,-227.539,0
1485534111.074,49.805,24.414,39.062,74.219,-25.879,0
1485534111.078,43.945,24.414,42.969,76.660,140.625,0
1485534111.082,4.883,27.832,43.457,84.473,707.031,0
1485534111.086,20.020,28.809,34.180,44.434,432.617,0
1485534111.090,64.453,23.438,32.715,39.551,-292.969,0
1485534111.093,42.969,25.879,35.645,78.613,-322.266,0
1485534111.097,8.789,27.344,41.016,86.914,-143.066,0
1485534111.101,14.648,27.344,38.086,83.496,319.336,0
1485534111.105,38.574,26.855,27.832,39.551,70.312,0
1485534111.109,51.270,24.902,32.715,37.598,-131.836,0
1485534111.113,67.871,29.297,38.086,53.223,-15.137,0
1485534111.117,38.086,31.738,42.480,66.895,-160.156,0
1485534111.121,8.789,29.297,42.969,106.934,563.965,0
1485534111.125,28.320,22.949,41.992,51.270,589.844,0
1485534111.129,24.902,19.531,42.480,22.461,-194.824,0
1485534111.133,41.992,27.344,38.574,52.734,-287.598,0
1485534111.136,51.270,36.133,39.062,83.008,-225.098,0
1485534111.140,60.547,35.645,37.598,79.102,336.426,0
1485534111.144,70.801,35.156,31.738,47.363,299.316,0
1485534111.148,52.246,47.363,42.480,55.664,-177.246,0
1485534111.152,19.531,37.109,41.992,51.270,-213.379,0
1485534111.156,10.742,24.414,32.227,62.988,-230.957,0
1485534111.160,5.859,28.809,38.574,73.242,263.184,0
1485534111.164,11.719,27.344,29.785,43.457,355.957,0
1485534111.168,40.527,26.367,20.020,25.391,81.543,0
1485534111.172,37.109,24.414,36.621,38.574,164.551,0
1485534111.176,37.598,24.902,47.852,61.035,-80.566,0
1485534111.179,29.297,31.738,44.434,87.891,318.359,0
1485534111.183,13.672,37.109,39.551,77.148,814.941,0
1485534111.187,36.621,34.180,38.086,43.457,59.082,0
1485534111.191,58.105,26.855,39.551,46.875,-307.129,0
1485534111.195,47.363,25.391,43.457,63.965,-360.840,0
1485534111.199,28.809,29.785,41.016,86.914,174.316,0
1485534111.203,22.461,32.227,39.551,88.379,499.512,0
1485534111.207,25.879,30.762,38.086,65.918,-94.727,0
1485534111.211,43.457,26.367,36.133,48.828,-273.926,0
1485534111.215,42.480,29.785,36.133,59.082,-88.379,0
1485534111.218,27.832,34.180,37.598,92.285,340.820,0
1485534111.222,25.879,36.133,36.133,93.262,832.031,0
1485534111.226,51.758,34.180,22.461,50.781,291.992,0
1485534111.230,66.895,29.297,25.879,51.758,-125.488,0
1485534111.234,71.289,29.297,43.945,73.730,-231.445,0
1485534111.238,56.152,33.691,45.898,94.238,-73.730,0
1485534111.242,20.020,31.738,40.039,85.938,393.066,0
1485534111.246,36.133,29.297,36.133,40.527,31.250,0
1485534111.250,92.773,42.969,50.293,59.570,-342.285,0
1485534111.254,61.523,33.203,45.410,91.309,-404.785,0
1485534111.258,-2.930,24.414,30.273,64.941,-174.805,0
1485534111.261,-4.883,30.762,37.109,55.664,452.637,0
1485534111.265,15.625,25.391,38.574,36.133,345.703,0
1485534111.269,42.969,25.391,34.180,27.344,-304.199,0
1485534111.273,43.945,29.297,35.645,44.434,-351.074,0
1485534111.277,23.438,34.180,41.504,90.820,-109.863,0
1485534111.281,27.344,31.738,44.434,99.121,543.945,0
1485534111.285,32.715,27.832,41.504,41.504,555.176,0
1485534111.289,41.992,28.809,22.949,42.969,-113.281,0
1485534111.293,42.480,32.227,19.531,53.223,-312.988,0
1485534111.297,25.879,34.180,42.480,57.129,-263.184,0
1485534111.301,21.973,34.668,55.176,83.008,254.395,0
1485534111.304,35.156,30.762,49.805,53.711,243.652,0
1485534111.308,59.082,27.832,37.598,48.828,17.578,0
1485534111.312,81.055,33.691,39.062,72.754,-65.918,0
1485534111.316,47.363,36.621,44.922,81.543,-322.266,0
1485534111.320,17.578,34.180,39.551,101.074,389.648,0
1485534111.324,25.391,30.273,34.668,65.918,786.133,0
1485534111.328,39.062,28.320,40.039,24.902,-107.422,0
1485534111.332,42.969,27.344,37.598,32.227,-428.223,0
1485534111.336,33.691,34.668,47.363,68.359,-333.008,0
1485534111.340,52.734,45.898,57.617,110.840,204.102,0
1485534111.343,39.062,26.367,42.480,77.637,427.734,0
1485534111.347,25.879,17.578,22.461,27.344,6.348,0
1485534111.351,54.688,24.414,9.277,43.945,-202.148,0
1485534111.355,35.645,24.414,24.902,66.406,-103.516,0
1485534111.359,15.137,29.785,36.621,81.543,470.703,0
1485534111.363,34.180,31.738,36.133,66.406,866.211,0
1485534111.367,52.734,25.391,42.480,32.227,93.750,0
1485534111.371,59.570,22.949,44.434,46.387,-411.621,0
1485534111.375,46.387,29.785,40.039,58.105,-376.953,0
1485534111.379,4.395,32.227,41.016,93.262,95.703,0
1485534111.383,11.230,33.203,40.039,87.402,592.773,0
1485534111.386,49.316,34.668,32.227,26.367,-27.832,0
1485534111.390,71.777,30.273,29.785,30.762,-390.137,0
1485534111.394,66.406,29.785,33.203,54.199,-354.492,0
1485534111.398,14.160,33.691,40.039,88.379,12.207,0
1485534111.402,0.488,34.180,42.480,85.449,613.770,0
1485534111.406,22.461,25.879,36.621,23.926,436.523,0
1485534111.410,36.133,22.949,34.668,31.250,-95.703,0
1485534111.414,45.898,24.414,43.457,80.566,-371.094,2
1485534111.418,35.156,26.367,36.133,102.051,-171.387,0
1485534111.422,24.902,31.250,27.344,79.590,721.680,0
1485534111.425,40.527,29.297,38.574,31.738,506.836,0
1485534111.429,46.387,24.902,41.992,28.320,-369.629,0
1485534111.433,45.898,38.574,55.176,63.965,-369.141,0
1485534111.437,27.832,33.691,51.270,84.961,-148.438,0
1485534111.441,15.137,23.438,32.715,78.125,340.820,0
1485534111.445,40.527,27.832,32.227,49.805,167.480,0
1485534111.449,58.594,27.344,24.902,52.734,-65.430,0
1485534111.453,62.012,30.273,26.855,69.336,-84.961,0
1485534111.457,62.012,31.250,39.551,57.617,-265.137,0
1485534111.461,23.438,33.691,38.086,83.496,516.602,0
1485534111.465,13.184,33.203,33.203,61.035,765.137,0
1485534111.468,54.688,29.297,38.086,26.367,-166.504,0
1485534111.472,55.176,30.273,24.414,49.805,-402.832,0
1485534111.476,25.879,33.691,20.508,69.336,-231.445,0
1485534111.480,2.930,32.715,40.039,94.238,310.547,0
1485534111.484,19.531,29.297,42.969,66.895,359.863,0
1485534111.488,54.199,27.344,37.109,39.551,-165.039,0
1485534111.492,74.219,32.715,39.551,53.711,-324.219,0
1485534111.496,37.598,37.109,39.551,64.941,-32.715,0
1485534111.500,5.859,35.156,41.016,87.402,660.156,0
1485534111.504,17.090,36.621,42.480,71.289,751.953,0
1485534111.508,60.059,33.691,39.062,45.898,-119.629,0
1485534111.511,62.500,29.785,32.715,54.688,-407.715,0
1485534111.515,38.086,36.621,42.480,54.688,-318.848,0
1485534111.519,21.484,45.410,57.617,93.750,237.305,0
1485534111.523,16.113,26.367,37.598,87.891,646.973,0
1485534111.527,39.062,15.625,26.367,33.691,64.453,0
1485534111.531,45.410,22.949,25.391,37.109,-349.609,0
1485534111.535,49.316,22.461,27.832,55.664,-378.906,0
1485534111.539,32.715,28.320,36.621,78.613,191.895,0
1485534111.543,23.438,34.180,39.062,79.102,691.406,0
1485534111.547,45.410,30.762,40.527,51.758,47.363,0
1485534111.550,74.219,28.320,39.062,51.758,-384.766,0
1485534111.554,55.664,30.762,41.504,57.129,-375.977,0
1485534111.558,29.785,34.668,40.039,86.914,39.551,0
1485534111.562,29.785,31.250,35.645,84.473,842.773,0
1485534111.566,38.086,24.414,37.109,36.621,309.082,0
1485534111.570,54.688,24.902,41.992,43.457,-382.324,0
1485534111.574,55.664,30.762,42.969,74.219,-333.984,0
1485534111.578,13.672,36.621,36.621,103.516,-13.672,0
1485534111.582,8.301,34.668,37.109,91.309,564.941,0
1485534111.586,14.160,26.855,39.551,40.039,137.207,0
1485534111.590,36.621,27.832,34.180,34.668,-100.098,0
1485534111.593,66.895,32.715,23.926,56.641,-31.250,0
1485534111.597,21.484,36.621,32.227,86.426,-129.395,0
1485534111.601,5.371,34.180,43.945,104.004,675.781,0
1485534111.605,49.316,30.762,40.039,60.059,553.223,0
1485534111.609,58.105,29.785,37.598,36.621,-361.328,0
1485534111.613,53.223,29.785,35.645,56.152,-411.621,0
1485534111.617,41.992,35.645,40.039,76.660,-161.621,0
1485534111.621,16.602,31.738,40.039,96.191,313.477,0
1485534111.625,34.668,38.086,49.316,59.570,143.555,0
1485534111.629,73.242,36.133,48.340,42.480,-358.398,0
1485534111.633,45.898,20.020,31.738,70.801,-366.211,0
1485534111.636,5.371,19.531,31.250,68.359,51.270,0
1485534111.640,-1.953,24.902,34.180,68.359,768.066,0
1485534111.644,32.227,29.297,34.668,40.039,659.668,0
1485534111.648,69.336,25.391,40.039,21.484,-217.285,0
1485534111.652,42.480,25.391,29.785,59.082,-395.508,0
1485534111.656,24.902,27.344,25.879,78.125,-233.887,0
1485534111.660,24.902,24.902,41.992,80.566,326.172,0
1485534111.664,10.742,26.855,43.457,69.336,339.844,0
1485534111.668,41.992,27.832,42.969,30.273,-233.398,0
1485534111.672,58.594,24.414,46.387,33.203,-327.148,0
1485534111.675,35.645,25.879,38.574,62.012,-231.445,0
1485534111.679,23.438,31.738,36.621,88.867,370.605,0
1485534111.683,15.625,32.715,37.598,82.520,734.863,0
1485534111.687,42.969,29.785,36.133,37.109,98.145,0
1485534111.691,47.852,27.344,39.062,35.645,-325.684,0
1485534111.695,24.414,27.832,38.086,66.406,-224.121,0
1485534111.699,-4.395,30.273,35.156,89.355,422.363,0
1485534111.703,2.930,28.809,40.039,74.219,891.113,0
1485534111.707,50.293,28.320,39.062,29.785,125.000,0
1485534111.711,58.105,24.902,23.926,37.109,-389.160,0
1485534111.715,54.688,34.668,24.414,61.523,-314.941,0
1485534111.718,29.297,46.875,44.922,108.887,163.574,0
1485534111.722,8.789,30.273,39.551,82.520,453.125,0
1485534111.726,6.836,21.484,26.855,25.391,-143.066,0
1485534111.730,26.855,23.926,22.461,26.855,-120.117,0
1485534111.734,51.758,25.391,26.367,33.691,-23.438,0
1485534111.738,16.113,26.855,34.668,69.824,0.977,0
1485534111.742,-0.488,29.785,37.109,72.266,770.508,0
1485534111.746,39.551,33.203,40.039,30.762,401.367,0
1485534111.750,36.133,32.715,36.621,22.461,-410.156,0
1485534111.754,36.133,33.691,35.156,61.035,-340.332,0
1485534111.757,54.199,41.992,42.480,89.844,-29.785,0
1485534111.761,34.668,41.504,46.387,88.379,352.051,0
1485534111.765,31.250,33.691,43.457,53.223,49.316,0
1485534111.769,59.570,28.809,40.527,33.691,-368.652,0
1485534111.773,67.383,29.297,28.809,51.270,-335.449,0
1485534111.777,41.992,35.645,27.832,97.168,222.656,0
1485534111.781,26.367,36.621,45.898,112.305,725.586,0
1485534111.785,46.875,34.180,47.363,49.805,230.469,0
1485534111.789,71.777,32.715,43.457,34.668,-360.840,0
1485534111.793,44.922,31.250,43.457,57.129,-310.547,0
1485534111.797,24.902,26.855,44.434,71.777,-135.742,0
1485534111.800,15.625,26.855,44.434,94.238,529.297,0
1485534111.804,14.648,25.879,40.039,68.359,510.254,0
1485534111.808,37.598,25.879,38.086,33.691,-283.203,0
1485534111.812,50.781,38.086,52.734,65.430,-349.609,0
1485534111.816,14.648,27.832,45.410,73.730,-143.555,0
1485534111.820,0.000,18.555,36.133,71.777,417.480,0
1485534111.824,29.785,22.949,35.156,67.871,584.961,0
1485534111.828,59.082,20.996,33.203,41.992,-32.227,0
1485534111.832,52.734,20.996,33.691,49.316,-310.059,0
1485534111.836,28.320,26.367,20.996,58.594,-218.262,0
1485534111.840,11.230,28.809,27.832,89.355,379.395,0
1485534111.843,22.461,30.273,40.527,70.312,836.914,0
1485534111.847,36.621,29.297,35.645,20.508,-39.062,0
1485534111.851,39.062,23.926,30.762,49.805,-423.828,0
1485534111.855,31.738,30.273,34.180,65.430,-235.352,0
1485534111.859,29.297,35.156,41.992,72.266,324.707,2
1485534111.863,50.293,33.691,45.898,74.219,475.586,0
1485534111.867,35.156,33.691,35.645,27.344,-222.168,0
1485534111.871,29.785,31.250,31.250,40.039,-63.965,0
1485534111.875,44.922,29.785,39.062,71.777,34.668,0
1485534111.879,24.414,31.250,36.621,87.891,281.738,0
1485534111.882,20.996,31.250,32.715,74.219,861.328,0
1485534111.886,46.387,32.227,32.715,20.020,136.230,0
1485534111.890,62.500,30.273,31.738,32.227,-447.266,0
1485534111.894,60.547,31.738,29.297,55.176,-258.789,0
1485534111.898,40.039,38.086,23.926,86.914,73.242,0
1485534111.902,26.367,35.156,35.156,86.426,339.355,0
1485534111.906,30.762,26.367,44.434,41.504,-73.730,0
1485534111.910,42.969,25.879,38.086,64.453,-231.445,0
1485534111.914,61.035,26.855,39.551,79.102,-208.496,0
1485534111.918,48.340,39.062,60.547,99.121,134.766,0
1485534111.922,26.855,43.457,62.500,117.188,858.887,0
1485534111.925,15.137,20.020,36.133,40.039,463.379,0
1485534111.929,49.316,15.137,31.250,21.973,-345.215,0
1485534111.933,44.922,20.996,29.785,48.340,-294.922,0
1485534111.937,24.414,28.320,35.645,66.406,183.594,0
1485534111.941,30.762,33.203,44.922,85.938,476.562,0
1485534111.945,31.738,29.785,38.086,53.223,17.090,0
1485534111.949,33.691,25.879,28.809,34.668,-362.793,0
1485534111.953,45.898,29.297,32.227,58.594,-290.527,0
1485534111.957,42.480,33.691,32.715,85.938,-185.547,0
1485534111.961,15.137,31.250,41.016,92.773,216.797,0
1485534111.965,21.973,32.715,43.457,60.059,435.547,0
1485534111.968,47.852,31.250,35.645,41.016,-47.852,0
1485534111.972,63.965,26.367,41.992,43.945,-256.348,0
1485534111.976,44.434,32.227,42.969,70.312,-281.738,0
1485534111.980,21.484,36.621,42.480,99.121,377.930,0
1485534111.984,22.949,34.668,43.457,78.613,814.941,0
1485534111.988,48.340,31.738,41.504,46.387,-86.426,0
1485534111.992,62.500,29.297,41.016,54.688,-313.965,0
1485534111.996,47.852,30.273,42.480,87.402,-114.746,0
1485534112.000,39.062,36.621,44.922,95.215,280.762,0
1485534112.004,39.551,34.668,46.387,53.711,293.945,0
1485534112.007,47.363,32.715,40.527,22.949,-253.418,0
1485534112.011,55.664,34.180,28.809,39.062,14.160,0
1485534112.015,45.410,30.762,28.320,70.312,21.973,0
1485534112.019,12.695,30.273,40.527,88.379,281.738,0
1485534112.023,22.949,30.273,41.016,81.055,762.695,0
1485534112.027,64.941,33.691,40.039,38.574,-37.109,0
1485534112.031,53.223,30.273,35.645,38.086,-309.082,0
1485534112.035,52.734,41.504,52.734,74.219,-263.184,0
1485534112.039,41.504,49.805,60.059,105.957,139.648,0
1485534112.043,39.062,29.297,39.551,69.336,583.008,0
1485534112.047,66.895,25.879,33.203,20.020,-102.539,0
1485534112.050,55.176,26.855,32.715,36.133,-310.059,0
1485534112.054,29.785,26.855,42.480,70.312,-72.266,0
1485534112.058,17.578,26.367,44.434,89.355,331.055,0
1485534112.062,29.785,28.320,38.086,73.242,831.055,0
1485534112.066,44.434,32.227,41.992,31.738,192.383,0
1485534112.070,45.898,25.879,40.527,40.039,-334.473,0
1485534112.074,42.969,25.391,31.250,54.688,-270.996,0
1485534112.078,34.668,31.250,38.574,83.496,-118.164,0
1485534112.082,26.855,30.762,44.434,92.285,366.211,0
1485534112.086,57.617,29.785,38.086,52.246,55.664,0
1485534112.089,64.941,27.832,40.527,40.527,-284.180,0
1485534112.093,34.668,26.367,40.039,47.363,-245.117,0
1485534112.097,4.883,29.785,39.551,73.730,-143.555,0
1485534112.101,10.742,27.832,44.922,93.262,298.340,0
1485534112.105,27.832,25.391,35.645,44.434,409.668,0
1485534112.109,35.645,20.996,28.320,24.902,106.445,0
1485534112.113,65.918,25.879,34.668,61.523,-43.457,0
1485534112.117,57.617,31.250,39.551,74.219,-159.180,0
1485534112.121,20.508,40.527,54.199,92.285,547.852,0
1485534112.125,23.926,38.086,53.711,49.805,666.504,0
1485534112.129,24.414,16.113,28.809,23.438,-220.215,0
1485534112.132,38.574,19.043,13.672,49.316,-330.078,0
1485534112.136,19.043,25.391,17.090,52.246,-288.574,0
1485534112.140,-5.371,26.855,34.668,74.707,207.031,0
1485534112.144,17.090,26.367,42.969,56.152,223.145,0
1485534112.148,35.156,26.367,42.480,36.133,-272.949,0
1485534112.152,51.270,27.832,34.668,48.828,-19.043,0
1485534112.156,35.156,29.785,40.039,75.684,-66.895,0
1485534112.160,9.277,29.297,40.527,89.844,323.242,0
1485534112.164,18.555,26.855,41.992,56.641,519.043,0
1485534112.168,66.895,26.367,40.039,40.039,-278.320,0
1485534112.172,52.734,26.367,24.414,44.434,-179.199,0
1485534112.175,27.344,27.832,29.297,45.898,-249.512,0
1485534112.179,14.160,28.320,34.180,86.426,199.707,0
1485534112.183,11.230,28.320,39.062,76.660,816.895,0
1485534112.187,55.664,28.809,37.598,36.621,28.809,0
1485534112.191,55.664,24.902,22.461,43.945,-360.840,0
1485534112.195,34.668,28.809,31.738,56.152,-343.262,0
1485534112.199,32.715,35.645,43.945,86.426,270.020,0
1485534112.203,20.996,29.297,43.945,66.406,877.930,0
1485534112.207,27.344,28.320,39.062,21.973,142.090,0
1485534112.211,54.688,27.344,32.227,39.062,-354.004,0
1485534112.214,54.688,22.461,38.574,64.941,-383.789,0
1485534112.218,27.832,25.391,39.062,98.145,-12.695,0
1485534112.222,3.418,25.879,34.668,83.496,416.016,0
1485534112.226,19.043,21.973,35.156,21.484,-61.035,0
1485534112.230,55.664,24.414,36.133,30.273,-139.160,0
1485534112.234,61.035,40.039,52.734,70.312,-175.781,0
1485534112.238,22.461,34.180,51.270,97.168,-114.746,0
1485534112.242,19.043,22.949,30.273,95.703,361.816,0
1485534112.246,26.367,24.902,16.113,42.969,317.383,0
1485534112.250,22.461,20.508,23.438,33.203,155.762,0
1485534112.254,47.852,16.602,39.062,60.547,-159.668,0
1485534112.257,39.062,22.949,44.434,87.891,-234.375,0
1485534112.261,24.902,32.715,37.598,95.703,528.320,0
1485534112.265,39.551,35.645,32.715,38.086,376.465,0
1485534112.269,65.918,31.250,39.551,41.992,-302.734,0
1485534112.273,62.012,27.344,40.527,67.871,-330.078,0
1485534112.277,16.602,29.785,38.574,75.684,-243.652,0
1485534112.281,17.090,32.715,41.504,103.516,466.797,0
1485534112.285,25.391,29.297,41.504,59.570,424.805,0
1485534112.289,26.855,23.438,36.621,43.457,-109.375,0
1485534112.293,32.227,25.391,34.180,72.754,22.949,0
1485534112.297,18.066,27.832,36.133,75.684,78.613,0
1485534112.300,17.578,28.809,42.480,85.938,414.551,0
1485534112.304,37.109,29.297,32.715,68.359,279.297,0
1485534112.308,56.152,27.344,27.832,43.457,-265.137,2
1485534112.312,36.133,27.344,38.574,48.828,-376.953,0
1485534112.316,28.320,28.320,47.852,59.570,-400.879,0
1485534112.320,29.785,41.504,56.641,104.004,343.750,0
1485534112.324,16.113,30.273,35.645,61.523,854.492,0
1485534112.328,41.016,12.695,22.461,-3.906,44.434,0
1485534112.332,41.504,19.043,30.762,37.109,-260.742,0
1485534112.336,33.691,25.391,33.203,58.594,-301.758,0
1485534112.339,-2.441,27.832,36.133,84.961,429.199,0
1485534112.343,6.348,29.297,41.016,73.730,661.133,0
1485534112.347,52.734,32.227,38.574,37.598,-3.906,0
1485534112.351,69.824,33.691,36.621,71.777,-108.398,0
1485534112.355,54.688,36.621,50.293,92.773,-389.160,0
1485534112.359,27.344,38.086,48.828,124.512,159.180,0
1485534112.363,26.367,35.645,29.297,108.887,694.336,0
1485534112.367,45.898,34.180,33.203,33.691,-38.086,0
1485534112.371,65.918,35.645,43.945,40.527,-404.297,0
1485534112.375,60.059,38.086,40.527,69.824,-382.324,0
1485534112.379,41.504,42.480,37.109,108.398,55.664,0
1485534112.382,30.273,41.016,39.062,92.773,478.516,0
1485534112.386,40.039,36.621,39.551,40.039,293.457,0
1485534112.390,62.988,36.621,38.086,42.969,-24.414,0
1485534112.394,47.363,32.715,42.969,48.340,-346.191,0
1485534112.398,33.203,28.320,44.922,71.289,-90.820,0
1485534112.402,34.180,37.598,45.898,84.473,721.680,0
1485534112.406,58.594,49.316,52.734,47.363,554.199,0
1485534112.410,48.340,31.250,33.203,35.156,-148.926,0
1485534112.414,34.180,21.973,29.297,46.875,-366.699,0
1485534112.418,13.672,27.344,31.738,63.965,-154.785,0
1485534112.421,4.395,25.391,20.996,71.777,370.605,0
1485534112.425,33.691,23.926,33.203,41.016,132.324,0
1485534112.429,28.320,20.996,40.039,33.203,-354.004,0
1485534112.433,41.992,24.902,37.109,53.711,-62.500,0
1485534112.437,39.551,31.738,43.945,75.195,36.133,0
1485534112.441,27.344,34.180,40.039,92.285,558.594,0
1485534112.445,47.852,34.668,32.715,65.918,649.414,0
1485534112.449,62.500,27.832,34.668,38.086,-278.809,0
1485534112.453,66.895,29.297,31.738,46.875,-416.016,0
1485534112.457,41.016,35.645,31.738,77.637,-214.355,0
1485534112.461,10.742,33.203,36.621,100.586,242.676,0
1485534112.464,27.344,30.273,35.645,59.082,411.621,0
1485534112.468,52.734,29.785,36.621,24.902,-2.930,0
1485534112.472,57.617,32.227,40.527,41.016,-372.070,0
1485534112.476,33.203,32.227,30.762,55.664,-295.410,0
1485534112.480,17.578,32.227,24.902,87.402,544.434,0
1485534112.484,29.785,35.156,43.945,61.035,798.340,0
1485534112.488,51.758,28.320,45.410,29.297,-139.648,0
1485534112.492,59.570,25.879,36.133,54.199,-391.602,0
1485534112.496,55.176,40.527,54.688,76.172,-289.551,0
1485534112.500,19.531,30.273,48.340,82.520,274.902,0
1485534112.504,10.742,16.602,33.203,62.012,497.559,0
1485534112.507,45.898,20.020,34.180,44.434,-170.898,0
1485534112.511,46.387,23.438,39.551,49.316,-361.328,0
1485534112.515,44.434,24.902,41.504,80.078,-321.289,0
1485534112.519,54.688,28.809,35.156,99.121,224.121,0
1485534112.523,28.809,29.297,39.062,68.359,540.039,0
1485534112.527,23.438,24.414,38.086,41.992,94.727,0
1485534112.531,46.875,24.902,33.203,47.852,80.566,0
1485534112.535,38.574,27.832,39.062,56.152,-84.473,0
1485534112.539,18.555,31.250,44.434,83.008,182.129,0
1485534112.543,31.738,30.762,30.273,90.332,701.172,0
1485534112.546,56.641,25.879,28.320,50.293,-17.578,0
1485534112.550,64.941,25.391,40.039,48.340,-390.625,0
1485534112.554,58.594,26.855,42.480,76.172,-326.172,0
1485534112.558,25.391,26.855,48.340,105.469,16.602,0
1485534112.562,16.113,24.414,43.945,97.168,757.324,0
1485534112.566,41.016,26.855,42.480,36.133,206.543,0
1485534112.570,54.688,25.391,37.598,28.320,-427.734,0
1485534112.574,55.664,24.414,30.273,63.477,-72.266,0
1485534112.578,34.180,31.250,40.527,89.844,118.652,0
1485534112.582,14.160,31.250,41.504,89.844,711.914,0
1485534112.586,36.621,27.832,38.086,57.617,605.469,0
1485534112.589,63.965,27.344,40.039,54.199,-288.086,0
1485534112.593,57.617,30.273,41.992,66.406,-403.809,0
1485534112.597,33.203,33.203,39.062,80.566,-142.578,0
1485534112.601,15.625,24.902,27.832,91.797,411.621,0
1485534112.605,49.316,32.715,52.246,83.984,201.172,0
1485534112.609,55.176,35.156,56.152,60.547,-336.914,0
1485534112.613,21.484,19.043,31.250,35.645,-367.188,0
1485534112.617,27.344,24.902,37.598,62.012,-211.426,0
1485534112.621,12.695,35.156,39.551,91.309,644.531,0
1485534112.625,11.230,33.203,43.457,59.570,627.441,0
1485534112.628,43.457,28.320,39.551,31.250,-283.203,0
1485534112.632,51.270,29.297,37.598,48.340,-373.047,0
1485534112.636,29.297,32.715,50.293,82.520,-219.727,0
1485534112.640,-1.465,32.227,43.457,81.543,425.293,0
1485534112.644,17.578,29.785,34.668,44.434,558.105,0
1485534112.648,38.574,24.414,35.156,34.668,-154.785,0
1485534112.652,34.180,23.438,31.250,43.945,-323.242,0
1485534112.656,30.273,29.297,36.133,60.059,-201.660,0
1485534112.660,11.230,34.180,34.180,108.398,401.367,0
1485534112.664,29.297,36.621,35.156,89.355,463.867,0
1485534112.668,57.617,30.273,45.898,35.156,94.727,0
1485534112.671,52.734,25.391,41.504,46.875,-21.484,0
1485534112.675,44.434,28.320,44.922,69.824,-323.242,0
1485534112.679,24.902,29.785,44.434,99.121,330.566,0
1485534112.683,26.367,30.762,38.574,77.637,794.922,0
1485534112.687,79.590,27.832,38.086,36.621,-49.316,0
1485534112.691,92.773,38.086,52.246,66.895,-393.066,0
1485534112.695,63.477,36.621,49.805,92.773,-333.496,0
1485534112.699,20.020,21.973,23.926,96.680,233.398,0
1485534112.703,16.113,26.855,28.809,72.754,731.445,0
1485534112.707,40.527,24.414,37.598,34.180,7.324,0
1485534112.711,55.176,22.949,23.438,59.570,-368.164,0
1485534112.714,22.949,26.855,14.160,72.266,-24.902,0
1485534112.718,12.695,27.832,30.273,84.473,344.727,0
1485534112.722,10.742,28.809,39.551,73.242,838.379,0
1485534112.726,25.879,27.344,39.551,12.207,302.734,0
1485534112.730,43.457,27.344,37.598,15.625,-408.203,0
1485534112.734,17.578,24.902,38.086,41.016,-380.859,0
1485534112.738,10.742,29.785,39.551,71.777,-6.348,1
1485534112.742,22.949,32.715,42.480,81.543,448.730,0
1485534112.746,37.598,24.414,42.969,44.922,-30.273,0
1485534112.750,39.551,22.461,34.668,28.809,-374.023,0
1485534112.753,44.434,28.320,30.762,60.547,-208.984,0
1485534112.757,21.484,30.273,27.832,92.773,-22.949,0
1485534112.761,2.441,28.320,30.273,80.566,474.121,0
1485534112.765,22.949,27.344,33.691,39.062,467.285,0
1485534112.769,63.965,31.738,36.621,32.227,-45.898,0
1485534112.773,59.570,29.297,37.598,69.336,-315.430,0
1485534112.777,27.344,28.320,31.738,91.309,-165.527,0
1485534112.781,24.902,29.785,38.086,88.379,589.844,0
1485534112.785,59.082,38.574,57.129,62.012,474.121,0
1485534112.789,67.383,42.480,56.641,37.109,-347.168,0
1485534112.793,18.555,20.020,30.762,28.809,-384.766,0
1485534112.796,7.324,18.066,28.320,62.500,-155.273,0
1485534112.800,20.020,26.367,35.156,81.055,435.547,0
1485534112.804,36.133,30.273,37.598,63.477,337.402,0
1485534112.808,46.387,27.344,30.762,40.527,1.953,0
1485534112.812,59.570,24.902,28.320,39.062,-23.926,0
1485534112.816,36.133,29.785,28.809,66.895,-218.262,0
1485534112.820,19.043,34.180,35.156,98.633,452.637,0
1485534112.824,43.457,34.180,41.504,68.848,862.793,0
1485534112.828,53.711,30.762,43.945,41.504,-54.199,0
1485534112.832,52.246,32.227,34.668,57.617,-420.410,0
1485534112.836,57.617,36.621,23.438,64.453,-257.812,0
1485534112.839,38.086,37.109,38.086,93.750,292.480,0
1485534112.843,25.879,39.062,49.805,78.613,415.039,0
1485534112.847,44.922,38.574,48.828,47.852,-255.371,0
1485534112.851,53.711,34.180,46.387,57.129,-382.812,0
1485534112.855,53.711,31.250,40.039,72.266,-29.785,0
1485534112.859,35.156,36.133,41.992,104.980,519.531,0
1485534112.863,15.625,39.062,46.387,91.309,629.883,0
1485534112.867,44.922,33.691,41.504,53.711,-100.098,0
1485534112.871,53.711,29.785,39.551,62.012,-372.559,0
1485534112.875,45.410,33.203,41.504,77.148,-296.875,0
1485534112.878,38.574,37.109,45.410,91.797,229.980,0
1485534112.882,20.020,39.551,49.316,92.773,599.121,0
1485534112.886,51.758,41.504,47.852,44.922,-73.242,0
1485534112.890,62.988,35.645,50.293,48.828,-357.422,0
1485534112.894,40.527,30.762,36.621,74.707,-238.770,0
1485534112.898,27.344,30.273,27.832,91.797,-33.203,0
1485534112.902,14.648,29.785,39.062,99.121,782.227,0
1485534112.906,50.293,42.480,55.176,60.547,543.945,0
1485534112.910,74.707,46.387,57.617,63.477,-356.934,0
1485534112.914,54.688,24.902,35.156,61.035,-300.781,0
1485534112.918,31.738,25.391,34.180,76.660,-39.062,0
1485534112.921,23.438,32.227,41.016,87.402,354.980,0
1485534112.925,41.504,30.273,38.574,54.199,81.055,0
1485534112.929,50.781,29.785,36.133,39.062,-338.867,0
1485534112.933,52.246,27.344,38.574,57.617,-314.453,0
1485534112.937,30.762,29.297,41.992,84.961,105.469,0
1485534112.941,23.438,34.668,45.410,103.516,513.184,0
1485534112.945,44.922,29.297,39.551,64.941,120.605,0
1485534112.949,39.062,29.297,36.621,44.434,-16.602,0
1485534112.953,47.363,29.785,25.391,54.688,-1.953,0
1485534112.957,52.246,28.809,22.949,69.336,-203.613,0
1485534112.960,15.625,28.320,38.086,95.215,437.500,0
1485534112.964,20.508,25.879,47.852,66.406,483.887,0
1485534112.968,65.918,24.902,52.734,33.203,-322.754,0
1485534112.972,54.688,24.902,41.504,48.828,-349.121,0
1485534112.976,24.414,30.273,38.574,67.871,-283.691,0
1485534112.980,7.324,28.809,43.457,85.449,385.742,0
1485534112.984,2.441,25.879,38.086,63.477,610.352,0
1485534112.988,25.879,27.344,37.109,35.156,-271.484,0
1485534112.992,46.875,36.133,48.340,56.641,-327.637,0
1485534112.996,35.645,28.809,41.016,68.848,21.484,0
1485534113.000,-6.348,17.090,26.367,75.195,591.797,0
1485534113.003,5.371,23.926,32.227,53.711,793.945,0
1485534113.007,50.781,21.973,35.156,21.973,-74.707,0
1485534113.011,63.477,18.555,37.598,36.133,-374.512,0
1485534113.015,55.176,24.414,35.156,67.383,-275.879,0
1485534113.019,21.484,32.227,32.227,98.145,187.988,0
1485534113.023,6.836,31.250,41.992,65.918,441.406,0
1485534113.027,28.809,28.320,42.969,32.715,-200.684,0
1485534113.031,49.805,27.832,37.598,46.875,-311.035,0
1485534113.035,51.758,32.227,36.133,50.293,-236.816,0
1485534113.039,14.160,34.180,39.551,83.008,102.539,0
1485534113.043,12.207,32.715,42.480,88.867,642.090,0
1485534113.046,42.480,31.250,41.016,40.527,122.559,0
1485534113.050,55.664,29.297,38.086,40.527,-358.398,0
1485534113.054,49.316,34.180,37.598,65.430,-114.746,0
1485534113.058,23.438,37.109,46.387,94.238,273.438,0
1485534113.062,12.695,37.109,44.922,86.914,562.012,0
1485534113.066,36.621,32.227,35.645,49.805,68.848,0
1485534113.070,43.945,26.855,36.621,58.105,-328.125,0
1485534113.074,37.109,23.438,37.109,59.570,-255.859,0
1485534113.078,32.227,24.414,29.785,77.148,-79.102,0
1485534113.082,3.418,27.344,33.203,80.078,547.852,0
1485534113.085,38.574,39.062,57.617,59.082,247.070,0
1485534113.089,62.988,33.691,50.781,55.176,-34.668,0
1485534113.093,31.250,20.996,23.926,23.926,39.551,0
1485534113.097,26.367,26.855,29.297,57.617,-229.980,0
1485534113.101,10.254,25.879,36.621,101.562,545.410,0
1485534113.105,15.625,27.344,30.273,49.805,612.793,0
1485534113.109,69.336,29.297,30.762,24.414,-324.219,0
1485534113.113,60.059,24.902,35.645,59.570,-180.664,0
1485534113.117,22.949,24.414,33.691,61.035,56.152,0
1485534113.121,12.695,26.855,31.250,66.406,235.352,0
1485534113.125,9.277,26.367,33.691,51.270,135.742,0
1485534113.128,24.414,25.391,36.621,14.160,-306.641,0
1485534113.132,31.250,23.438,30.273,29.297,-257.812,0
1485534113.136,40.527,30.273,15.625,84.473,-21.973,0
1485534113.140,19.043,33.691,16.113,93.262,610.352,0
1485534113.144,8.301,31.738,34.668,45.410,571.777,0
1485534113.148,43.457,28.809,40.527,25.391,-241.211,0
1485534113.152,53.223,24.414,32.715,50.781,-299.316,1
1485534113.156,34.668,29.785,36.621,76.172,-320.312,0
1485534113.160,26.855,32.715,35.156,82.520,268.066,0
1485534113.164,67.383,47.363,43.945,79.590,470.215,0
1485534113.168,81.543,40.527,44.434,41.016,-271.973,0
1485534113.171,38.574,17.090,26.367,44.434,-120.117,0
1485534113.175,17.090,24.414,25.879,68.848,7.812,0
1485534113.179,4.395,32.715,29.297,75.684,256.836,0
1485534113.183,5.859,32.227,29.785,70.801,706.055,0
1485534113.187,35.645,27.832,32.227,37.109,87.402,0
1485534113.191,56.641,25.391,32.227,42.969,-261.230,0
1485534113.195,57.617,25.879,34.180,56.641,-354.980,0
1485534113.199,41.016,33.691,31.738,97.656,13.184,0
1485534113.203,23.926,37.109,28.809,104.492,903.809,0
1485534113.207,47.852,33.691,43.457,39.551,354.492,0
1485534113.210,62.500,29.785,45.898,32.227,-324.219,0
1485534113.214,55.176,30.762,42.969,62.500,-342.773,0
1485534113.218,33.203,36.133,45.898,92.773,-25.879,0
1485534113.222,20.020,36.621,44.922,83.984,375.488,0
1485534113.226,59.570,32.227,34.668,42.480,-89.844,0
1485534113.230,58.594,33.203,26.855,39.551,-42.969,0
1485534113.234,43.457,35.645,33.691,50.293,141.113,0
1485534113.238,39.062,31.738,45.410,80.566,-36.133,0
1485534113.242,14.160,34.180,42.480,87.891,665.527,0
1485534113.246,37.598,45.898,47.852,64.453,581.543,0
1485534113.250,66.895,32.715,43.457,46.875,-264.160,0
1485534113.253,60.547,23.438,20.508,40.039,-341.309,0
1485534113.257,36.621,33.203,18.066,78.125,-202.148,0
1485534113.261,20.508,34.668,29.297,96.191,251.465,0
1485534113.265,34.180,33.691,35.645,52.246,84.473,0
1485534113.269,48.340,28.809,37.598,32.227,-280.273,0
1485534113.273,45.410,27.832,36.621,56.152,-287.109,0
1485534113.277,39.062,28.809,40.527,89.355,-19.531,0
1485534113.281,9.766,30.273,44.922,96.191,721.191,0
1485534113.285,13.184,34.180,42.969,56.152,645.020,0
1485534113.289,38.574,31.738,44.434,35.645,-154.785,0
1485534113.292,39.551,27.344,40.039,50.781,-100.586,0
1485534113.296,33.691,30.273,40.039,62.988,-101.074,0
1485534113.300,24.414,35.645,48.828,80.078,218.262,0
1485534113.304,32.715,34.180,36.133,65.918,273.438,0
1485534113.308,49.805,28.320,21.973,24.414,-145.996,0
1485534113.312,35.645,31.738,37.109,35.645,-269.531,0
1485534113.316,40.527,33.203,46.387,62.500,-348.633,0
1485534113.320,32.715,33.203,47.852,83.008,220.215,0
1485534113.324,27.344,34.180,45.898,77.148,620.605,0
1485534113.328,62.012,29.297,37.598,38.574,123.535,0
1485534113.332,82.520,33.203,34.668,31.250,-246.582,0
1485534113.335,66.895,37.598,35.645,49.805,-409.668,0
1485534113.339,52.734,48.828,48.828,92.285,245.117,0
1485534113.343,47.852,42.969,49.805,72.754,840.332,0
1485534113.347,42.969,20.508,27.832,17.578,108.887,0
1485534113.351,22.461,22.949,26.367,43.945,-150.391,0
1485534113.355,17.578,29.297,34.668,62.988,-284.180,0
1485534113.359,18.066,29.785,37.109,95.215,83.008,0
1485534113.363,21.973,30.762,42.969,85.938,463.379,0
1485534113.367,47.852,29.785,34.668,42.969,-64.453,0
1485534113.371,43.945,32.715,20.020,44.434,17.578,0
1485534113.375,40.039,35.156,36.133,42.480,-37.109,0
1485534113.378,10.254,36.133,46.875,83.008,-3.418,0
1485534113.382,-6.836,34.668,46.387,94.238,823.242,0
1485534113.386,40.039,30.762,42.969,31.250,432.617,0
1485534113.390,53.711,25.391,41.504,34.668,-309.570,0
1485534113.394,38.086,26.855,44.922,71.289,-402.344,0
1485534113.398,26.855,29.297,41.504,76.172,-106.445,0
1485534113.402,21.484,28.809,43.457,79.102,370.117,0
1485534113.406,15.625,32.227,42.969,48.340,102.539,0
1485534113.410,37.109,31.250,38.574,40.039,-66.895,0
1485534113.414,51.270,27.832,40.527,66.895,-176.270,0
1485534113.417,41.992,29.297,41.504,96.191,93.750,0
1485534113.421,43.457,49.316,54.688,107.910,831.055,0
1485534113.425,43.457,47.363,56.152,51.270,587.402,0
1485534113.429,51.270,24.414,31.250,20.020,-233.887,0
1485534113.433,49.805,23.438,21.973,52.246,-429.199,0
1485534113.437,33.203,30.273,33.691,83.984,-245.605,0
1485534113.441,40.039,32.715,45.410,96.191,228.027,0
1485534113.445,38.574,27.344,49.316,83.496,215.332,0
1485534113.449,44.922,25.879,47.363,60.059,-253.906,0
1485534113.453,48.828,29.785,43.945,43.457,-381.348,0
1485534113.457,30.762,30.273,41.992,68.848,-257.812,0
1485534113.460,12.695,32.227,42.480,87.402,269.531,0
1485534113.464,22.461,29.785,41.016,59.082,560.547,0
1485534113.468,54.688,29.297,42.480,38.086,189.453,0
1485534113.472,62.500,26.855,40.527,55.176,-124.023,0
1485534113.476,42.480,25.391,37.598,83.008,-364.258,0
1485534113.480,13.184,28.320,42.480,98.633,347.656,0
1485534113.484,16.602,28.809,44.434,67.383,810.059,0
1485534113.488,56.152,29.785,43.945,28.320,-59.082,0
1485534113.492,42.969,28.320,28.809,46.875,-422.363,0
1485534113.496,30.762,29.785,26.367,66.406,-386.230,0
1485534113.500,17.578,30.273,45.898,75.684,238.281,0
1485534113.503,30.762,37.109,63.965,89.844,528.320,0
1485534113.507,62.012,26.855,53.223,61.035,-123.047,0
1485534113.511,57.129,16.113,29.297,35.645,-53.711,0
1485534113.515,49.316,21.484,39.062,68.848,-125.000,0
1485534113.519,15.625,28.320,43.945,87.402,166.504,0
1485534113.523,-3.418,31.738,38.574,64.453,881.836,0
1485534113.527,25.879,25.391,38.574,32.715,271.973,0
1485534113.531,64.941,28.809,35.156,56.152,-296.387,0
1485534113.535,54.688,31.250,34.668,62.988,-393.555,0
1485534113.539,1.953,30.273,38.574,71.289,37.109,0
1485534113.542,17.090,36.621,42.480,82.031,515.137,0
1485534113.546,51.270,39.062,41.992,41.016,-24.414,0
1485534113.550,57.617,35.645,31.738,39.551,-390.625,0
1485534113.554,34.180,31.738,31.738,72.754,-363.770,0
1485534113.558,-1.953,31.738,45.898,89.355,125.488,0
1485534113.562,-10.742,34.180,44.922,62.988,904.297,0
1485534113.566,26.855,30.762,44.434,10.254,415.527,0
1485534113.570,53.711,27.344,43.945,21.973,-370.117,0
1485534113.574,35.156,29.297,45.410,50.781,-384.766,0
1485534113.578,17.090,33.203,50.781,89.355,-124.512,0
1485534113.582,22.461,31.738,44.434,92.773,349.121,0
1485534113.585,35.645,27.344,34.668,41.504,308.105,1
1485534113.589,58.594,30.762,34.180,39.062,-65.918,0
1485534113.593,55.664,27.344,37.109,53.711,-296.875,0
1485534113.597,58.105,41.992,52.734,87.402,-108.887,0
1485534113.601,53.711,55.176,59.082,105.957,333.984,0
1485534113.605,25.391,31.738,36.621,57.617,474.121,0
1485534113.609,71.289,28.320,29.297,37.598,-30.273,0
1485534113.613,73.242,33.203,24.902,42.480,-396.973,0
1485534113.617,36.621,32.715,32.715,85.938,-367.676,0
1485534113.621,15.625,35.156,40.039,108.887,467.285,0
1485534113.624,5.371,33.691,41.504,58.105,691.895,0
1485534113.628,26.855,27.832,41.992,32.227,-241.699,0
1485534113.632,39.551,27.832,38.086,57.617,-430.176,0
1485534113.636,34.668,30.273,41.016,80.078,-279.785,0
1485534113.640,23.926,30.762,49.316,93.262,259.766,0
1485534113.644,22.461,32.715,49.805,75.684,533.203,0
1485534113.648,44.434,32.227,42.969,47.363,45.898,0
1485534113.652,53.711,29.785,38.086,68.848,-66.406,0
1485534113.656,39.062,30.273,41.992,77.637,-41.016,0
1485534113.660,39.551,44.922,57.617,90.332,396.484,0
1485534113.664,36.133,38.574,55.664,59.570,785.645,0
1485534113.667,47.363,21.973,34.668,17.578,-107.910,0
1485534113.671,54.688,28.320,18.066,47.852,-465.332,0
1485534113.675,37.598,28.809,22.461,71.777,-384.277,0
1485534113.679,31.738,28.320,41.016,94.238,198.730,0
1485534113.683,27.344,29.297,41.504,58.594,502.930,0
1485534113.687,46.387,27.344,37.598,20.508,-179.199,0
1485534113.691,44.922,27.832,37.109,30.762,-407.715,0
1485534113.695,22.949,29.297,39.062,48.828,-350.586,0
1485534113.699,9.766,34.180,42.969,100.586,307.617,0
