timestamps,TP9,AF7,AF8,TP10,Right AUX,Marker
1485534552.433,42.480,25.879,38.574,77.637,304.199,0
1485534552.437,60.059,25.879,42.969,51.758,-240.234,0
1485534552.441,62.012,29.297,43.945,77.148,-397.461,0
1485534552.445,37.598,34.180,49.805,92.285,-150.879,0
1485534552.449,40.527,36.133,44.434,103.027,354.980,0
1485534552.453,53.711,35.156,41.992,92.285,381.348,0
1485534552.457,69.336,30.273,41.504,78.125,156.738,0
1485534552.461,78.613,25.879,40.039,84.961,-182.129,0
1485534552.465,58.105,28.320,40.527,86.914,-344.238,0
1485534552.469,43.457,33.203,43.945,104.492,540.039,0
1485534552.473,52.734,31.250,45.898,99.121,639.648,0
1485534552.476,88.379,30.273,40.039,79.102,-236.328,0
1485534552.480,105.957,30.273,40.527,71.777,-326.660,0
1485534552.484,79.590,37.598,43.945,79.590,-264.160,0
1485534552.488,66.895,40.039,42.480,108.398,229.004,0
1485534552.492,71.289,34.668,42.480,94.238,444.336,0
1485534552.496,81.055,37.598,38.086,66.895,-142.090,0
1485534552.500,76.660,37.598,28.809,79.102,-47.363,0
1485534552.504,60.059,36.133,38.574,90.332,6.348,0
1485534552.508,45.898,37.109,49.316,106.934,383.301,0
1485534552.512,40.527,29.297,44.922,93.262,766.113,0
1485534552.516,62.500,29.785,44.434,68.359,38.574,0
1485534552.519,91.309,39.551,50.293,90.820,-339.355,0
1485534552.523,85.938,29.297,40.527,90.332,-354.492,0
1485534552.527,54.688,24.414,33.691,99.609,209.473,0
1485534552.531,37.109,25.879,38.574,104.492,393.555,0
1485534552.535,46.875,20.508,32.715,69.824,-173.828,0
1485534552.539,71.289,20.996,29.297,69.336,-353.516,0
1485534552.543,77.637,25.391,34.668,83.984,-359.863,0
1485534552.547,48.828,34.180,35.156,103.027,372.070,0
1485534552.551,36.133,35.645,37.109,101.074,888.184,0
1485534552.555,71.777,29.297,39.551,63.477,89.844,0
1485534552.558,85.449,31.250,33.691,52.734,-334.961,0
1485534552.562,73.242,30.762,33.691,71.289,-358.398,0
1485534552.566,53.711,31.250,32.227,84.961,100.586,0
1485534552.570,46.387,32.715,24.902,92.773,447.266,0
1485534552.574,58.105,26.855,32.227,73.730,52.734,0
1485534552.578,68.848,26.367,40.039,52.734,-138.672,0
1485534552.582,67.383,27.344,40.039,59.082,-324.219,0
1485534552.586,53.711,26.855,41.992,88.379,33.203,0
1485534552.590,39.551,31.738,43.457,98.633,478.516,0
1485534552.594,42.480,33.691,38.086,61.035,363.770,0
1485534552.598,60.059,30.762,34.668,54.199,74.219,0
1485534552.601,62.012,30.762,36.133,72.754,-272.949,0
1485534552.605,44.434,30.762,41.016,79.102,-116.211,0
1485534552.609,32.715,28.809,35.645,87.891,721.680,0
1485534552.613,56.152,43.457,42.969,71.777,494.629,0
1485534552.617,68.848,46.387,55.664,60.059,-273.926,0
1485534552.621,48.340,21.973,34.180,50.293,-290.527,0
1485534552.625,28.809,20.020,25.391,57.129,-92.285,0
1485534552.629,24.902,22.949,36.133,87.402,311.523,0
1485534552.633,35.156,21.484,40.527,73.242,150.391,0
1485534552.637,47.363,23.438,36.133,44.434,-253.418,0
1485534552.640,55.176,25.391,27.344,52.734,0.000,0
1485534552.644,44.434,27.832,24.902,56.152,127.441,0
1485534552.648,20.020,27.832,39.062,88.379,560.059,0
1485534552.652,23.926,26.855,45.898,76.172,665.527,0
1485534552.656,48.340,27.832,46.875,25.391,-190.430,0
1485534552.660,48.828,27.832,37.598,33.203,-355.957,0
1485534552.664,33.691,27.344,31.250,44.922,-196.289,0
1485534552.668,22.461,32.715,37.109,63.477,228.516,0
1485534552.672,28.809,37.598,39.062,59.570,248.047,0
1485534552.676,39.062,29.785,37.109,39.062,-188.965,0
1485534552.680,46.387,24.414,34.668,42.969,-305.664,0
1485534552.683,33.691,26.855,32.227,47.852,-239.746,0
1485534552.687,18.066,30.762,33.203,72.754,515.137,0
1485534552.691,23.438,30.273,36.133,69.336,709.961,0
1485534552.695,36.133,26.855,38.086,35.645,-112.305,0
1485534552.699,55.176,26.855,35.156,40.527,-284.668,0
1485534552.703,49.805,26.367,31.250,49.805,-245.117,0
1485534552.707,21.484,28.320,32.227,67.383,312.988,0
1485534552.711,22.949,31.738,36.621,75.195,587.402,0
1485534552.715,43.945,28.809,35.645,38.574,-62.012,0
1485534552.719,60.059,25.879,32.227,38.574,-290.527,0
1485534552.723,53.223,27.832,22.949,61.035,-202.637,0
1485534552.726,33.691,28.809,26.855,68.359,309.570,0
1485534552.730,21.973,27.344,41.016,75.195,425.781,0
1485534552.734,24.902,23.438,38.086,51.270,247.070,0
1485534552.738,42.480,21.484,37.109,33.203,82.031,0
1485534552.742,46.875,22.949,37.109,40.527,-291.992,0
1485534552.746,14.648,25.391,35.156,61.523,0.488,0
1485534552.750,-0.977,23.438,33.691,85.938,770.020,0
1485534552.754,28.320,22.949,40.039,49.805,302.734,1
1485534552.758,41.992,22.949,40.527,33.691,-322.266,0
1485534552.762,53.223,26.855,34.668,56.152,-286.133,0
1485534552.765,48.340,34.180,39.551,77.148,-55.664,0
1485534552.769,33.203,33.691,46.875,96.191,335.938,0
1485534552.773,39.551,29.785,43.945,64.941,76.660,0
1485534552.777,52.734,28.320,35.645,52.246,-259.277,0
1485534552.781,42.969,27.344,35.156,62.012,0.977,0
1485534552.785,36.621,26.367,38.086,70.312,193.848,0
1485534552.789,30.762,30.762,38.574,90.820,690.918,0
1485534552.793,32.715,30.762,44.922,70.312,563.477,0
1485534552.797,45.898,20.996,41.504,40.527,-258.301,0
1485534552.801,63.965,30.273,55.176,71.289,-291.504,0
1485534552.805,57.129,29.785,44.434,83.496,-193.848,0
1485534552.808,14.648,15.625,25.879,72.754,129.883,0
1485534552.812,19.043,20.996,42.969,59.082,155.762,0
1485534552.816,47.852,23.926,40.039,40.039,-235.840,0
1485534552.820,53.711,25.879,37.598,53.223,-291.992,0
1485534552.824,43.457,29.785,38.086,66.406,-195.801,0
1485534552.828,30.762,33.203,41.504,87.891,288.574,0
1485534552.832,34.668,31.738,46.387,80.078,535.156,0
1485534552.836,50.781,29.785,42.480,46.387,-62.012,0
1485534552.840,68.848,29.297,36.621,54.688,-299.805,0
1485534552.844,54.199,30.273,37.109,66.895,-131.836,0
1485534552.848,30.762,32.227,37.109,88.379,488.770,0
1485534552.851,35.156,30.273,44.434,90.332,686.523,0
1485534552.855,54.199,28.809,44.922,60.547,-107.422,0
1485534552.859,61.035,26.855,34.180,56.152,-279.297,0
1485534552.863,46.875,26.367,33.691,55.664,-239.258,0
1485534552.867,31.250,27.832,41.504,76.172,104.004,0
1485534552.871,29.297,30.273,41.504,84.473,356.934,0
1485534552.875,40.039,27.832,36.133,59.570,235.352,0
1485534552.879,47.363,24.902,32.227,53.711,111.816,0
1485534552.883,53.223,25.391,23.438,59.082,-299.316,0
1485534552.887,32.715,26.367,32.227,79.102,123.047,0
1485534552.890,16.602,25.879,48.340,90.820,840.332,0
1485534552.894,32.715,23.438,48.828,47.363,173.828,0
1485534552.898,40.039,19.043,40.039,43.945,-301.270,0
1485534552.902,38.086,18.555,36.133,54.199,-115.234,0
1485534552.906,20.996,25.391,39.551,63.965,149.902,0
1485534552.910,16.113,26.855,44.922,85.449,350.098,0
1485534552.914,29.297,26.855,40.039,55.176,0.000,0
1485534552.918,35.645,27.344,31.738,49.316,-211.914,0
1485534552.922,35.156,25.879,32.227,73.242,53.223,0
1485534552.926,30.273,27.344,35.156,62.500,264.160,0
1485534552.930,31.738,37.598,41.016,78.613,716.797,0
1485534552.933,52.246,48.828,52.246,81.055,420.410,0
1485534552.937,62.012,31.250,35.645,41.992,-96.680,0
1485534552.941,64.453,20.508,23.438,43.457,-213.867,0
1485534552.945,44.434,24.414,28.809,69.336,-218.750,0
1485534552.949,20.020,26.855,34.180,93.262,220.215,0
1485534552.953,35.645,31.250,38.086,78.125,116.699,0
1485534552.957,60.059,29.297,26.367,46.875,-248.535,0
1485534552.961,56.152,29.297,26.367,39.551,-98.633,0
1485534552.965,38.574,29.785,38.574,56.152,5.859,0
1485534552.969,27.344,29.297,40.527,77.637,289.551,0
1485534552.972,39.551,32.227,42.969,59.082,469.238,0
1485534552.976,50.293,32.715,37.598,37.109,-83.008,0
1485534552.980,44.434,30.273,33.691,52.734,-316.895,0
1485534552.984,41.016,29.785,40.527,61.523,-416.016,0
1485534552.988,22.461,30.762,39.551,78.125,310.059,0
1485534552.992,12.207,27.832,39.551,71.777,619.629,0
1485534552.996,27.344,25.391,38.086,26.855,-158.203,0
1485534553.000,43.945,22.461,31.738,41.992,-271.484,0
1485534553.004,48.340,22.949,35.645,59.082,-323.730,0
1485534553.008,25.391,28.809,38.086,73.730,23.438,0
1485534553.012,20.020,28.320,38.086,79.590,254.395,0
1485534553.015,37.598,21.484,32.715,38.086,198.242,0
1485534553.019,51.758,24.902,32.227,31.738,309.570,0
1485534553.023,58.594,28.809,36.133,47.852,-12.695,0
1485534553.027,38.086,33.691,37.598,64.941,158.203,0
1485534553.031,20.508,34.668,42.480,67.871,401.855,0
1485534553.035,28.809,26.367,40.527,43.945,-82.520,0
1485534553.039,47.363,25.391,29.297,45.410,-176.758,0
1485534553.043,55.664,41.992,37.598,69.336,-412.109,0
1485534553.047,24.902,38.574,39.551,88.867,74.707,0
1485534553.051,-4.883,21.973,30.762,80.078,737.793,0
1485534553.055,20.996,22.461,35.156,42.480,83.984,0
1485534553.058,48.340,23.438,33.691,37.109,-213.379,0
1485534553.062,48.340,24.414,33.691,62.500,-24.902,0
1485534553.066,27.832,26.855,38.574,81.055,285.645,0
1485534553.070,20.996,29.785,39.551,89.355,764.648,0
1485534553.074,35.645,24.902,38.086,60.059,225.586,0
1485534553.078,53.711,23.926,31.738,34.668,-153.809,0
1485534553.082,50.781,24.414,32.715,49.805,-115.723,0
1485534553.086,32.227,25.879,36.133,67.871,-122.070,0
1485534553.090,28.809,28.809,34.668,78.613,265.625,0
1485534553.094,36.621,24.902,35.645,63.965,37.598,0
1485534553.097,47.852,21.484,30.762,45.410,-198.242,0
1485534553.101,51.758,20.020,29.785,47.852,-305.176,0
1485534553.105,42.480,24.414,34.668,71.289,-233.887,0
1485534553.109,33.691,29.785,36.621,93.750,351.074,0
1485534553.113,30.762,30.762,30.762,62.988,549.805,0
1485534553.117,38.086,30.273,15.137,33.203,86.914,0
1485534553.121,52.246,29.297,22.461,58.105,-304.688,0
1485534553.125,44.434,29.785,38.574,67.383,-323.730,0
1485534553.129,13.672,29.785,37.598,70.312,390.625,0
1485534553.133,9.277,24.902,39.551,70.801,406.738,0
1485534553.137,31.250,20.020,38.574,50.781,-64.453,0
1485534553.140,35.645,22.461,37.598,53.711,-20.020,0
1485534553.144,8.789,21.973,39.062,62.988,-249.512,0
1485534553.148,17.578,20.508,41.016,85.449,225.098,0
1485534553.152,37.598,27.344,39.551,77.637,345.215,0
1485534553.156,52.734,31.250,35.156,50.293,215.332,0
1485534553.160,69.824,28.809,35.645,57.129,102.539,0
1485534553.164,63.477,29.785,39.551,68.848,-436.035,0
1485534553.168,37.109,26.855,41.016,96.191,281.738,0
1485534553.172,47.852,37.109,54.199,106.445,748.047,0
1485534553.176,62.988,34.180,55.176,71.289,-29.785,0
1485534553.180,48.340,13.672,30.762,55.664,-307.617,0
1485534553.183,49.316,17.090,30.762,66.406,-401.367,0
1485534553.187,35.645,23.438,38.574,86.914,5.859,0
1485534553.191,32.715,22.949,27.344,88.867,305.176,0
1485534553.195,35.156,20.020,26.855,52.246,3.418,0
1485534553.199,38.574,21.484,41.016,46.387,-58.594,0
1485534553.203,38.086,22.949,44.434,47.363,-13.672,0
1485534553.207,6.836,24.902,41.504,65.430,437.988,2
1485534553.211,-2.930,28.809,40.039,77.148,827.148,0
1485534553.215,4.395,25.879,39.062,32.227,217.773,0
1485534553.219,19.043,21.484,38.086,27.344,-249.023,0
1485534553.222,28.320,23.438,41.016,51.758,-434.082,0
1485534553.226,20.508,28.809,41.504,70.801,-35.645,0
1485534553.230,15.137,30.273,43.945,94.238,368.164,0
1485534553.234,35.645,27.832,41.504,57.129,85.938,0
1485534553.238,54.688,26.367,36.621,29.785,-175.293,0
1485534553.242,43.457,25.879,35.156,49.805,-406.738,0
1485534553.246,30.273,26.367,41.992,76.660,-136.719,0
1485534553.250,20.508,30.273,43.945,102.051,527.344,0
1485534553.254,35.645,24.902,38.574,73.242,541.504,0
1485534553.258,52.246,17.578,39.062,57.129,119.141,0
1485534553.262,52.246,20.996,37.109,59.570,-303.223,0
1485534553.265,55.664,39.062,49.805,81.543,-248.047,0
1485534553.269,46.387,47.363,60.059,118.652,627.441,0
1485534553.273,24.414,25.391,38.574,69.824,583.008,0
1485534553.277,40.039,23.438,18.555,47.852,-166.016,0
1485534553.281,56.152,26.367,28.320,71.777,-395.508,0
1485534553.285,31.250,24.414,39.062,73.242,-295.898,0
1485534553.289,16.113,27.832,38.086,98.145,199.707,0
1485534553.293,26.367,31.738,48.828,86.914,261.719,0
1485534553.297,40.527,30.273,41.992,44.922,166.504,0
1485534553.301,48.340,25.391,32.227,47.363,28.809,0
1485534553.304,33.691,24.414,35.156,63.477,-352.051,0
1485534553.308,22.461,28.320,37.109,79.590,371.094,0
1485534553.312,44.922,30.762,40.527,68.359,754.395,0
1485534553.316,51.758,31.250,40.039,46.387,85.938,0
1485534553.320,55.176,31.250,37.109,63.965,-251.953,0
1485534553.324,57.129,31.250,40.039,71.777,-387.207,0
1485534553.328,44.922,34.180,41.992,82.031,28.320,0
1485534553.332,62.500,38.574,36.621,86.914,326.660,0
1485534553.336,78.125,36.621,31.738,48.340,-79.102,0
1485534553.340,80.078,33.203,35.645,39.551,-341.309,0
1485534553.344,57.617,31.738,24.902,61.035,-161.133,0
1485534553.347,31.738,36.621,18.066,78.125,477.051,0
1485534553.351,34.668,38.086,35.156,76.660,771.973,0
1485534553.355,45.410,30.762,38.574,44.434,55.664,0
1485534553.359,53.223,29.297,36.133,46.387,-195.312,0
1485534553.363,54.688,32.715,42.969,53.711,-336.914,0
1485534553.367,30.762,30.273,40.527,72.754,-1.465,0
1485534553.371,28.809,28.809,40.039,90.820,376.465,0
1485534553.375,46.387,30.273,40.039,68.359,185.059,0
1485534553.379,34.668,25.391,41.016,53.223,-32.715,0
1485534553.383,41.504,27.832,43.945,55.176,-405.762,0
1485534553.387,30.762,35.645,41.504,76.660,-30.273,0
1485534553.390,12.695,34.180,41.504,94.727,669.922,0
1485534553.394,38.086,33.203,43.945,64.941,472.656,0
1485534553.398,72.754,44.922,51.758,56.152,-97.168,0
1485534553.402,50.293,34.668,41.504,70.312,-408.203,0
1485534553.406,9.766,22.461,28.809,70.312,-1.953,0
1485534553.410,13.184,28.809,39.551,80.078,620.605,0
1485534553.414,27.344,26.855,39.062,62.500,204.102,0
1485534553.418,40.527,23.926,27.344,47.852,-259.766,0
1485534553.422,47.363,24.902,37.109,46.875,-367.676,0
1485534553.426,30.762,24.414,41.992,61.035,-144.531,0
1485534553.429,8.789,26.367,42.480,77.637,629.395,0
1485534553.433,13.184,25.879,43.945,64.941,513.184,0
1485534553.437,37.598,26.367,36.133,47.852,149.902,0
1485534553.441,57.129,27.832,33.691,35.645,-7.812,0
1485534553.445,37.598,24.414,38.086,50.293,-256.348,0
1485534553.449,12.207,29.297,38.086,67.383,588.379,0
1485534553.453,30.273,30.273,41.504,58.105,672.852,0
1485534553.457,32.227,24.414,40.039,41.992,-200.684,0
1485534553.461,35.156,21.973,34.668,53.223,-371.582,0
1485534553.465,45.410,25.391,40.527,75.684,-305.664,0
1485534553.469,18.555,31.250,45.410,81.055,317.383,0
1485534553.472,18.066,31.738,43.457,64.941,407.715,0
1485534553.476,40.527,26.855,36.621,42.969,-202.148,0
1485534553.480,52.734,27.344,33.203,40.039,-341.309,0
1485534553.484,44.434,30.273,36.133,54.199,-24.902,0
1485534553.488,26.855,32.227,36.621,78.125,630.859,0
1485534553.492,24.414,33.203,27.832,83.984,822.266,0
1485534553.496,52.734,29.297,25.391,47.852,136.719,0
1485534553.500,52.246,26.855,37.109,46.387,-352.051,0
1485534553.504,39.062,28.809,40.527,65.430,-401.367,0
1485534553.508,26.855,31.250,43.457,74.707,59.082,0
1485534553.512,30.273,33.691,47.363,75.684,280.762,0
1485534553.515,55.664,29.297,43.945,46.387,-141.602,0
1485534553.519,53.223,20.508,39.551,47.852,-373.047,0
1485534553.523,44.922,17.090,37.109,56.152,-415.039,0
1485534553.527,21.484,22.461,36.133,71.289,99.609,0
1485534553.531,8.301,25.391,40.039,81.055,636.230,0
1485534553.535,40.039,26.855,41.504,49.805,414.551,0
1485534553.539,70.312,27.832,33.691,49.805,-91.797,0
1485534553.543,63.477,26.367,32.227,53.711,-442.871,0
1485534553.547,20.996,26.367,33.691,70.801,145.996,0
1485534553.551,24.902,26.855,36.133,87.402,863.770,0
1485534553.554,51.758,24.414,42.480,59.082,217.285,0
1485534553.558,55.176,24.414,40.039,51.758,-325.684,0
1485534553.562,60.059,25.879,41.992,63.477,-430.176,0
1485534553.566,39.062,27.832,34.668,86.914,16.602,0
1485534553.570,30.762,30.762,26.855,114.258,466.797,0
1485534553.574,51.758,30.273,40.527,86.914,26.367,0
1485534553.578,49.805,27.832,39.062,53.223,101.074,0
1485534553.582,44.922,26.367,36.133,57.617,-14.160,0
1485534553.586,30.273,24.902,40.527,80.078,-107.910,0
1485534553.590,14.160,26.367,39.062,96.680,719.727,0
1485534553.594,35.645,27.344,42.480,74.219,433.594,0
1485534553.597,60.059,25.879,39.062,47.852,-270.996,0
1485534553.601,55.176,22.461,38.574,48.340,-373.047,0
1485534553.605,32.227,21.484,40.039,58.105,-217.285,0
1485534553.609,12.207,26.855,38.086,87.402,428.223,0
1485534553.613,15.625,26.855,41.504,74.219,419.922,0
1485534553.617,39.551,21.484,33.691,27.832,-198.730,0
1485534553.621,70.801,37.109,44.922,63.477,-357.422,0
1485534553.625,44.434,36.621,54.199,88.379,1.953,0
1485534553.629,-7.324,17.090,33.691,70.312,723.633,0
1485534553.633,5.859,17.578,30.273,72.754,604.492,0
1485534553.636,36.133,18.555,30.762,44.434,-214.355,0
1485534553.640,49.316,19.043,33.203,41.992,-405.273,0
1485534553.644,44.922,24.902,25.879,60.547,-326.172,0
1485534553.648,31.250,30.762,26.855,75.195,92.285,0
1485534553.652,29.785,28.320,38.574,72.266,206.543,0
1485534553.656,47.852,27.832,39.062,41.992,-181.152,0
1485534553.660,55.176,27.832,39.062,45.410,-374.512,0
1485534553.664,48.340,28.809,34.180,62.500,-324.219,0
1485534553.668,42.969,32.227,38.574,84.961,127.441,0
1485534553.672,30.762,33.203,41.504,91.309,512.207,2
1485534553.676,29.297,30.762,34.180,57.617,288.086,0
1485534553.679,59.082,28.809,37.109,52.246,-149.902,0
1485534553.683,57.129,31.738,43.457,75.195,-412.109,0
1485534553.687,30.273,32.227,41.016,96.680,276.367,0
1485534553.691,25.391,26.855,41.504,96.191,784.180,0
1485534553.695,51.758,24.902,43.457,51.758,33.203,0
1485534553.699,66.406,28.320,42.969,56.641,-354.980,0
1485534553.703,44.434,31.738,42.969,74.707,-340.332,0
1485534553.707,23.926,28.320,46.875,84.961,96.191,0
1485534553.711,36.621,26.855,43.457,98.633,322.266,0
1485534553.715,45.410,25.879,28.809,65.918,-7.324,0
1485534553.719,49.316,24.414,31.738,49.316,52.246,0
1485534553.722,61.523,29.297,42.480,60.059,60.547,0
1485534553.726,45.410,31.250,48.828,79.590,224.609,0
1485534553.730,20.020,30.762,44.922,104.004,786.621,0
1485534553.734,40.527,29.297,42.969,70.801,280.762,0
1485534553.738,62.500,28.320,40.039,41.504,-311.523,0
1485534553.742,62.988,30.762,39.551,57.129,-350.586,0
1485534553.746,46.875,32.227,41.992,77.148,-7.812,0
1485534553.750,27.344,30.762,43.945,100.098,346.191,0
1485534553.754,42.969,31.738,44.434,79.590,72.754,0
1485534553.758,64.941,33.203,34.668,51.758,-235.840,0
1485534553.761,65.430,30.762,28.809,57.617,-276.855,0
1485534553.765,60.059,42.969,39.551,85.938,133.789,0
1485534553.769,59.082,52.246,58.105,110.840,768.066,0
1485534553.773,38.086,32.227,47.363,68.848,479.004,0
1485534553.777,30.762,20.020,37.598,41.504,-196.777,0
1485534553.781,43.945,20.996,41.504,61.035,-200.195,0
1485534553.785,30.273,23.438,36.621,62.988,-6.348,0
1485534553.789,14.160,26.367,34.180,74.707,295.898,0
1485534553.793,31.250,23.926,47.852,71.289,134.766,0
1485534553.797,46.875,22.949,44.434,46.875,-208.984,0
1485534553.801,65.918,25.879,37.598,55.664,-281.738,0
1485534553.804,57.129,27.832,43.457,75.684,-180.664,0
1485534553.808,41.992,24.902,41.504,98.633,119.141,0
1485534553.812,35.645,25.391,38.574,96.191,447.754,0
1485534553.816,26.855,24.902,40.039,54.199,288.574,0
1485534553.820,48.340,19.531,37.109,39.062,-104.004,0
1485534553.824,51.270,24.414,41.992,56.641,-334.473,0
1485534553.828,27.344,32.227,45.410,87.402,340.332,0
1485534553.832,25.391,31.250,35.156,86.426,750.488,0
1485534553.836,44.922,27.832,28.320,28.809,-44.922,0
1485534553.840,50.781,22.949,31.738,34.180,-364.258,0
1485534553.844,31.250,24.414,31.250,53.223,-127.930,0
1485534553.847,8.789,32.227,35.645,65.430,289.551,0
1485534553.851,15.137,28.809,33.203,84.473,235.352,0
1485534553.855,41.992,28.320,22.949,61.523,-130.859,0
1485534553.859,72.266,41.504,41.016,63.477,65.918,0
1485534553.863,59.082,29.297,41.504,71.289,7.812,0
1485534553.867,24.902,19.531,35.645,81.543,172.852,0
1485534553.871,23.926,23.926,36.621,97.168,755.859,0
1485534553.875,42.480,22.461,34.668,66.895,146.484,0
1485534553.879,54.199,20.508,32.715,53.711,-279.785,0
1485534553.883,45.410,21.484,36.621,62.500,-235.352,0
1485534553.886,34.180,26.855,39.551,73.730,89.355,0
1485534553.890,21.484,26.855,40.527,85.449,332.520,0
1485534553.894,12.695,24.902,38.086,57.617,11.719,0
1485534553.898,38.574,26.855,35.156,43.457,-223.633,0
1485534553.902,47.852,29.785,39.551,52.734,-257.324,0
1485534553.906,36.133,33.203,36.621,61.523,171.387,0
1485534553.910,35.645,34.180,34.668,83.496,797.852,0
1485534553.914,41.504,28.809,34.180,62.012,340.332,0
1485534553.918,50.293,26.367,22.949,51.270,-247.559,0
1485534553.922,51.758,23.438,29.785,61.035,-260.254,0
1485534553.926,39.551,22.949,40.527,58.594,-118.164,0
1485534553.929,33.691,31.250,42.969,79.102,192.871,0
1485534553.933,41.992,29.297,40.039,65.430,99.121,0
1485534553.937,42.969,22.461,35.156,40.527,-169.922,0
1485534553.941,40.039,24.414,32.227,46.875,-226.562,0
1485534553.945,25.391,29.785,35.156,67.871,-167.969,0
1485534553.949,17.090,32.715,39.062,91.309,151.367,0
1485534553.953,30.273,29.785,38.086,80.566,460.938,0
1485534553.957,42.969,30.273,33.691,50.781,202.148,0
1485534553.961,59.082,38.086,40.527,66.895,-146.973,0
1485534553.965,39.551,29.297,40.039,69.824,-125.000,0
1485534553.968,11.230,23.438,33.203,73.730,497.070,0
1485534553.972,23.926,30.762,26.367,76.172,672.363,0
1485534553.976,44.434,27.832,27.832,41.016,-92.773,0
1485534553.980,55.664,23.926,39.062,44.434,-185.547,0
1485534553.984,47.852,23.438,37.598,63.965,-220.703,0
1485534553.988,35.645,30.273,41.992,86.426,39.551,0
1485534553.992,31.738,32.715,39.551,88.379,348.145,0
1485534553.996,39.062,27.344,37.598,48.340,-43.945,0
1485534554.000,55.176,23.438,36.621,55.176,121.582,0
1485534554.004,56.641,25.391,36.621,70.312,7.812,0
1485534554.008,21.973,29.785,40.527,82.520,272.461,0
1485534554.011,13.184,32.715,40.527,92.285,767.090,0
1485534554.015,36.133,29.785,41.504,49.316,16.602,0
1485534554.019,48.340,24.902,35.645,34.668,-216.309,0
1485534554.023,53.711,27.344,38.086,54.688,-62.012,0
1485534554.027,44.922,31.250,34.180,69.336,123.535,0
1485534554.031,34.668,32.715,28.809,76.660,229.004,0
1485534554.035,38.574,26.367,37.598,56.152,-40.039,0
1485534554.039,39.062,19.043,31.738,32.715,-173.828,0
1485534554.043,59.082,40.527,46.387,58.105,-295.410,0
1485534554.047,41.016,41.992,50.781,79.102,250.000,0
1485534554.051,3.906,21.484,30.762,74.707,711.914,0
1485534554.054,16.602,21.484,30.273,54.688,66.895,0
1485534554.058,25.879,20.020,31.250,40.527,-155.273,0
1485534554.062,33.203,20.020,31.250,53.223,-281.250,0
1485534554.066,19.043,19.043,33.691,74.707,-71.289,0
1485534554.070,29.297,21.484,38.086,90.820,407.227,0
1485534554.074,43.457,22.949,39.551,66.895,97.656,0
1485534554.078,34.180,21.973,35.645,45.898,-171.387,0
1485534554.082,47.363,24.414,39.551,54.199,-93.262,0
1485534554.086,41.016,23.926,35.156,70.312,113.281,0
1485534554.090,21.973,25.391,33.203,88.379,289.062,0
1485534554.093,25.879,29.297,41.992,79.102,400.391,0
1485534554.097,43.945,22.949,39.551,52.246,187.500,0
1485534554.101,55.176,18.066,39.062,65.918,-291.992,0
1485534554.105,45.898,21.973,40.527,83.984,-313.965,0
1485534554.109,31.738,26.855,40.039,97.656,192.383,0
1485534554.113,43.945,32.227,38.086,88.379,139.160,0
1485534554.117,52.246,31.250,34.668,46.387,-146.484,0
1485534554.121,60.059,30.273,35.156,57.617,-223.145,2
1485534554.125,56.152,28.809,39.551,77.148,-354.980,0
1485534554.129,23.438,29.297,41.504,94.238,383.301,0
1485534554.133,28.320,33.691,42.480,79.590,585.449,0
1485534554.136,56.152,31.250,42.480,43.457,-51.758,0
1485534554.140,54.688,28.320,28.320,50.781,50.781,0
1485534554.144,37.109,30.762,21.973,65.918,137.695,0
1485534554.148,33.691,43.457,47.852,96.191,562.988,0
1485534554.152,34.668,35.645,48.340,91.797,541.016,0
1485534554.156,36.133,17.090,27.344,45.898,-72.754,0
1485534554.160,51.758,19.531,31.250,41.504,-248.047,0
1485534554.164,55.664,25.879,38.574,65.918,-399.902,0
1485534554.168,23.926,26.367,37.109,80.078,145.508,0
1485534554.172,10.742,22.949,32.227,84.961,449.707,0
1485534554.176,36.133,22.461,32.715,62.500,0.977,0
1485534554.179,53.711,25.879,33.691,52.246,-207.031,0
1485534554.183,49.805,28.809,36.133,72.266,-410.156,0
1485534554.187,37.598,33.691,36.621,93.750,304.199,0
1485534554.191,29.785,34.668,41.504,89.844,725.098,0
1485534554.195,28.809,28.809,43.945,57.129,61.523,0
1485534554.199,44.922,21.973,39.062,44.434,34.668,0
1485534554.203,55.664,23.438,32.227,57.617,-85.449,0
1485534554.207,27.344,27.832,24.414,74.707,96.191,0
1485534554.211,13.184,27.344,34.180,82.031,522.949,0
1485534554.215,31.250,23.438,42.480,59.082,107.422,0
1485534554.218,42.480,21.484,40.039,46.875,-180.176,0
1485534554.222,47.852,20.508,40.039,54.199,-420.898,0
1485534554.226,43.457,26.367,39.551,75.684,-117.188,0
1485534554.230,27.832,30.273,43.457,99.121,289.551,0
1485534554.234,23.926,25.879,42.480,74.707,341.797,0
1485534554.238,55.176,25.879,36.621,46.387,283.203,0
1485534554.242,63.965,22.949,34.180,60.059,-235.840,0
1485534554.246,30.273,19.043,34.180,78.613,-213.867,0
1485534554.250,29.785,37.109,50.293,109.863,682.617,0
1485534554.254,45.898,35.645,46.387,92.285,483.398,0
1485534554.258,38.574,16.602,27.832,48.828,8.789,0
1485534554.261,53.223,22.949,32.715,48.828,-147.949,0
1485534554.265,43.457,25.879,30.762,59.570,-233.887,0
1485534554.269,21.973,28.320,34.668,80.078,185.547,0
1485534554.273,23.926,28.320,27.832,62.988,180.176,0
1485534554.277,38.086,26.855,25.391,42.969,-104.004,0
1485534554.281,53.223,26.855,34.668,63.477,32.715,0
1485534554.285,39.062,23.438,33.203,62.012,18.555,0
1485534554.289,24.414,26.367,39.062,73.242,483.398,0
1485534554.293,33.203,25.391,42.969,75.195,703.613,0
1485534554.297,39.551,17.578,39.551,49.316,-85.449,0
1485534554.300,50.781,20.508,35.156,62.500,-361.816,0
1485534554.304,51.270,25.879,36.621,67.871,-354.980,0
1485534554.308,27.344,28.809,38.574,80.566,-17.090,0
1485534554.312,30.762,27.832,41.504,98.633,189.453,0
1485534554.316,47.363,25.391,37.109,62.012,120.605,0
1485534554.320,59.082,26.367,30.273,47.363,-124.023,0
1485534554.324,60.547,26.855,31.738,64.941,-422.363,0
1485534554.328,30.762,26.367,37.598,82.520,365.234,0
1485534554.332,26.855,27.344,32.715,81.543,789.062,0
1485534554.336,41.016,27.832,19.043,47.363,69.336,0
1485534554.340,44.434,26.367,27.344,41.016,-271.973,0
1485534554.343,43.945,29.785,40.039,58.594,-368.164,0
1485534554.347,29.297,32.227,42.480,70.312,21.973,0
1485534554.351,26.855,28.809,42.480,83.984,359.863,0
1485534554.355,40.039,23.926,40.039,64.453,88.867,0
1485534554.359,45.898,22.461,38.574,51.270,-215.332,0
1485534554.363,45.410,24.414,39.062,59.570,-362.305,0
1485534554.367,21.484,27.344,37.109,68.359,13.184,0
1485534554.371,22.949,31.250,41.992,90.820,371.582,0
1485534554.375,45.898,34.180,39.062,60.059,382.812,0
1485534554.379,39.062,23.438,28.320,43.457,271.484,0
1485534554.383,64.941,37.109,46.387,79.590,-20.020,0
1485534554.386,48.340,45.898,48.828,85.938,123.535,0
1485534554.390,2.930,22.461,32.227,77.637,750.488,0
1485534554.394,22.949,17.090,38.574,66.895,395.020,0
1485534554.398,56.152,22.949,25.879,54.199,-197.754,0
1485534554.402,65.918,24.414,25.879,58.594,-410.156,0
1485534554.406,31.738,24.902,41.016,66.895,-163.574,0
1485534554.410,13.184,30.273,41.992,85.938,368.652,0
1485534554.414,41.016,30.273,43.945,76.172,310.547,0
1485534554.418,47.363,24.902,45.410,51.758,-135.254,0
1485534554.422,41.504,27.832,39.551,61.035,-101.074,0
1485534554.425,38.574,29.297,41.504,74.707,167.480,0
1485534554.429,18.066,28.809,41.504,90.332,626.465,0
1485534554.433,17.578,31.250,37.598,83.984,689.453,0
1485534554.437,56.641,26.367,41.504,62.012,34.180,0
1485534554.441,68.848,27.832,42.480,58.594,-404.297,0
1485534554.445,39.551,30.273,38.086,68.848,-328.613,0
1485534554.449,25.391,29.297,41.016,83.496,125.000,0
1485534554.453,23.926,33.691,41.992,86.426,259.277,0
1485534554.457,28.809,30.762,27.344,53.223,-118.652,0
1485534554.461,67.383,26.855,18.555,36.621,-345.703,0
1485534554.465,67.383,26.855,32.715,63.965,-301.758,0
1485534554.468,7.812,23.438,42.969,83.496,248.047,0
1485534554.472,6.836,21.973,39.551,77.148,633.301,0
1485534554.476,39.551,22.461,35.156,45.898,73.730,0
1485534554.480,46.875,21.484,41.016,42.969,-314.453,0
1485534554.484,24.414,23.438,39.062,55.176,-396.484,0
1485534554.488,13.672,25.391,34.180,76.172,244.629,0
1485534554.492,11.719,22.949,37.109,89.355,868.164,0
1485534554.496,28.809,25.391,39.551,58.594,251.953,0
1485534554.500,57.617,25.879,37.598,42.480,-317.383,0
1485534554.504,46.875,23.926,36.133,57.129,-395.508,0
1485534554.508,26.367,24.414,42.480,75.195,-2.441,0
1485534554.511,35.645,28.809,44.434,82.031,324.219,0
1485534554.515,50.293,29.297,37.598,58.594,309.082,0
1485534554.519,44.922,23.438,37.598,44.434,180.176,0
1485534554.523,47.852,23.926,26.855,57.617,-314.453,0
1485534554.527,38.574,27.832,24.414,81.055,92.285,0
1485534554.531,28.320,27.832,45.410,104.004,822.266,0
1485534554.535,44.434,29.785,49.316,71.289,156.250,0
1485534554.539,77.637,29.785,39.551,39.062,-366.699,0
1485534554.543,81.543,29.785,37.598,56.641,-471.191,0
1485534554.547,17.090,30.273,40.527,77.637,-128.418,0
1485534554.550,0.977,32.227,45.410,93.262,466.309,0
1485534554.554,19.531,33.691,41.992,75.195,317.383,0
1485534554.558,50.293,31.250,32.227,45.898,-219.727,0
1485534554.562,64.453,31.738,28.809,66.406,-158.203,0
1485534554.566,46.387,34.180,31.250,83.984,236.328,0
1485534554.570,30.762,37.109,35.156,93.262,740.723,0
1485534554.574,30.273,36.621,39.551,67.383,368.652,0
1485534554.578,43.945,32.715,37.598,39.062,-269.043,0
1485534554.582,60.547,32.715,34.180,51.270,-436.523,0
1485534554.586,50.781,31.738,30.762,62.012,-238.281,0
1485534554.590,28.320,26.367,37.109,87.402,289.551,2
1485534554.593,39.062,26.367,34.180,79.590,199.219,0
1485534554.597,57.129,28.809,30.762,37.109,-179.688,0
1485534554.601,60.547,24.902,41.016,46.875,-357.422,0
1485534554.605,47.363,25.391,40.039,65.430,-284.180,0
1485534554.609,20.020,25.879,38.086,83.496,328.125,0
1485534554.613,40.527,38.574,56.641,92.773,622.559,0
1485534554.617,66.895,42.480,62.012,67.871,15.137,0
1485534554.621,52.734,19.531,33.691,53.711,-304.199,0
1485534554.625,47.363,19.043,38.086,68.848,-152.832,0
1485534554.629,21.484,25.879,43.457,86.426,507.812,0
1485534554.632,22.461,26.855,40.039,86.914,679.199,0
1485534554.636,45.410,24.414,42.969,53.711,-117.676,0
1485534554.640,56.152,25.391,41.504,49.805,-365.723,0
1485534554.644,50.293,28.809,41.992,71.289,-319.336,0
1485534554.648,21.973,31.738,38.086,82.031,55.664,0
1485534554.652,27.832,34.180,26.855,86.914,248.047,0
1485534554.656,49.805,33.203,30.762,62.988,195.801,0
1485534554.660,56.152,29.785,34.668,49.805,129.395,0
1485534554.664,56.641,27.832,38.574,64.941,-288.086,0
1485534554.668,42.480,30.762,44.434,81.543,220.703,0
1485534554.672,36.133,32.715,45.410,87.402,689.941,0
1485534554.675,58.594,28.320,40.039,54.688,4.883,0
1485534554.679,64.453,25.879,38.086,40.039,-313.965,0
1485534554.683,53.711,30.762,41.504,55.176,-415.527,0
1485534554.687,40.039,35.645,40.039,71.777,247.070,0
1485534554.691,29.297,32.227,40.039,86.914,685.059,0
1485534554.695,41.992,26.855,37.109,63.477,13.184,0
1485534554.699,60.059,25.391,33.203,61.035,-245.605,0
1485534554.703,62.012,26.367,36.133,82.520,-80.078,0
1485534554.707,39.551,28.320,38.574,71.289,416.504,0
1485534554.711,30.762,27.344,34.180,80.078,776.855,0
1485534554.715,42.480,26.855,34.180,68.359,199.707,0
1485534554.718,59.082,24.902,39.062,48.340,-274.414,0
1485534554.722,53.711,21.973,40.039,60.547,-397.461,0
1485534554.726,35.156,25.879,44.922,80.566,-15.137,0
1485534554.730,33.203,30.762,47.363,95.703,501.953,0
1485534554.734,40.527,29.785,42.969,83.008,137.207,0
1485534554.738,56.641,25.391,35.156,54.199,-267.578,0
1485534554.742,62.012,24.414,37.598,55.664,-394.531,0
1485534554.746,51.270,30.762,37.598,65.918,-105.469,0
1485534554.750,58.105,30.273,37.109,84.473,437.500,0
1485534554.754,35.645,27.344,40.527,87.891,485.352,0
1485534554.757,25.879,30.762,38.574,64.941,82.031,0
1485534554.761,54.688,30.762,40.039,58.594,-357.910,0
1485534554.765,41.504,32.715,39.062,62.500,-186.035,0
1485534554.769,24.902,32.227,42.969,101.074,349.121,0
1485534554.773,41.016,28.809,38.574,101.074,212.891,0
1485534554.777,73.242,33.203,31.250,67.383,-204.590,0
1485534554.781,81.543,30.273,32.227,58.594,-368.652,0
1485534554.785,53.711,41.992,48.340,81.543,-271.484,0
1485534554.789,21.484,42.480,52.734,107.422,367.676,0
1485534554.793,8.789,21.973,35.645,73.730,407.227,0
1485534554.797,28.809,19.531,30.273,46.387,203.613,0
1485534554.800,46.875,21.973,29.785,39.062,55.664,0
1485534554.804,35.156,22.949,33.691,39.062,-356.934,0
1485534554.808,-8.301,22.949,35.645,65.430,357.422,0
1485534554.812,30.273,26.855,36.621,79.590,731.445,0
1485534554.816,59.082,27.832,35.156,46.387,-72.754,0
1485534554.820,26.367,24.414,32.227,35.645,-373.535,0
1485534554.824,33.691,20.996,31.738,47.852,-267.090,0
1485534554.828,23.438,21.973,36.621,61.035,31.250,0
1485534554.832,13.184,25.391,40.039,76.660,229.980,0
1485534554.836,14.648,26.855,36.133,47.363,136.230,0
1485534554.840,46.875,28.809,22.461,34.668,-196.777,0
1485534554.843,59.570,29.785,19.043,56.641,-70.801,0
1485534554.847,27.832,32.227,34.668,74.707,553.223,0
1485534554.851,25.391,34.180,42.480,88.867,708.496,0
1485534554.855,35.645,27.832,41.504,72.266,66.895,0
1485534554.859,59.570,21.973,34.668,49.805,-263.672,0
1485534554.863,59.082,28.320,33.691,44.922,-320.312,0
1485534554.867,33.691,33.691,40.527,67.383,121.582,0
1485534554.871,32.227,33.203,41.992,82.520,349.121,0
1485534554.875,30.273,29.785,35.645,64.453,-30.273,0
1485534554.879,44.434,26.367,35.156,45.898,-262.207,0
1485534554.882,53.711,28.809,35.645,52.246,-333.984,0
1485534554.886,42.480,29.297,32.227,67.871,27.344,0
1485534554.890,35.156,33.691,34.180,96.191,518.066,0
1485534554.894,44.922,45.898,50.781,88.867,465.332,0
1485534554.898,52.734,31.250,27.344,35.645,-44.922,0
1485534554.902,47.363,19.531,9.766,41.016,-362.793,0
1485534554.906,36.621,27.344,28.809,61.523,55.664,0
1485534554.910,13.184,27.344,38.086,75.684,426.758,0
1485534554.914,10.742,24.414,41.992,69.336,138.672,0
1485534554.918,40.039,25.391,39.551,41.016,-176.270,0
1485534554.922,54.688,27.344,35.645,43.945,-288.574,0
1485534554.925,37.109,27.344,34.668,51.758,-115.234,0
1485534554.929,22.949,29.297,38.574,68.848,508.301,0
1485534554.933,22.461,29.297,47.852,74.707,437.012,0
1485534554.937,42.480,25.391,45.410,50.293,173.340,0
1485534554.941,59.570,21.973,36.621,46.875,83.984,0
1485534554.945,44.434,23.438,41.992,75.195,-272.461,0
1485534554.949,24.414,28.809,40.527,90.820,453.125,0
1485534554.953,18.555,30.273,40.527,82.031,682.617,0
1485534554.957,42.480,29.297,41.016,52.246,-106.445,0
1485534554.961,53.711,26.855,38.574,55.664,-307.129,0
1485534554.964,43.457,24.414,41.016,70.801,-33.691,0
1485534554.968,12.207,26.367,38.086,82.520,243.164,0
1485534554.972,19.531,27.832,30.273,82.031,159.668,0
1485534554.976,57.617,29.297,37.109,61.523,-62.988,0
1485534554.980,52.246,29.785,40.527,55.176,-195.801,0
1485534554.984,37.598,27.832,38.086,60.059,10.254,0
1485534554.988,23.926,29.785,40.527,77.148,568.359,0
1485534554.992,20.996,31.250,40.039,85.938,704.590,0
1485534554.996,42.969,30.273,39.551,62.988,-9.766,0
1485534555.000,61.035,29.297,36.133,51.270,-308.105,0
1485534555.004,50.781,31.250,39.551,70.801,-298.340,0
1485534555.007,36.621,31.738,48.828,90.332,-30.762,0
1485534555.011,28.320,29.785,45.898,89.844,174.805,0
1485534555.015,31.738,26.855,39.551,61.035,-24.902,0
1485534555.019,47.363,26.855,36.133,42.969,-241.699,1
1485534555.023,56.152,29.785,35.156,62.500,-194.336,0
1485534555.027,41.504,29.297,40.527,81.543,119.141,0
1485534555.031,35.645,29.785,34.180,89.355,423.340,0
1485534555.035,43.457,32.227,25.879,82.031,410.645,0
1485534555.039,42.480,25.391,37.109,64.453,82.031,0
1485534555.043,53.223,23.438,42.480,64.941,-264.160,0
1485534555.047,38.086,28.320,45.410,86.426,178.711,0
1485534555.050,25.879,32.227,46.875,107.910,713.379,0
1485534555.054,39.062,31.250,45.410,85.449,190.918,0
1485534555.058,51.758,26.855,38.086,58.594,-210.938,0
1485534555.062,59.570,29.297,32.715,58.594,-343.262,0
1485534555.066,65.918,33.691,30.273,60.059,-86.914,0
1485534555.070,35.645,34.180,38.086,81.055,397.949,0
1485534555.074,3.418,33.203,45.410,71.289,110.352,0
1485534555.078,29.785,31.250,39.062,38.086,112.793,0
1485534555.082,51.758,26.855,34.668,43.945,204.590,0
1485534555.086,42.969,26.855,36.621,56.641,-75.684,0
1485534555.089,37.109,33.203,38.574,87.402,519.531,0
1485534555.093,54.199,34.180,28.320,87.891,496.094,0
1485534555.097,66.895,26.367,29.297,36.133,-173.340,0
1485534555.101,78.613,22.461,38.574,46.387,-258.789,0
1485534555.105,64.941,26.367,39.551,64.453,-257.812,0
1485534555.109,28.320,29.785,42.480,77.148,81.543,0
1485534555.113,35.156,33.203,41.016,88.867,121.094,0
1485534555.117,58.594,32.227,32.715,46.875,-109.863,0
1485534555.121,67.871,25.391,26.367,38.086,-233.398,0
1485534555.125,69.336,29.785,32.715,58.105,40.527,0
1485534555.129,62.988,40.527,51.270,99.121,295.410,0
1485534555.132,16.113,22.949,44.922,99.121,152.832,0
1485534555.136,3.906,10.742,30.273,41.992,-95.215,0
1485534555.140,27.344,16.113,29.297,39.551,-46.387,0
1485534555.144,39.551,19.531,35.645,62.988,-79.102,0
1485534555.148,19.531,24.414,36.621,71.289,-8.301,0
1485534555.152,9.766,23.926,30.273,83.008,177.734,0
1485534555.156,31.250,22.461,37.109,61.035,-66.406,0
1485534555.160,50.293,28.320,40.527,47.363,-198.730,0
1485534555.164,51.270,25.391,40.527,73.730,-409.180,0
1485534555.168,44.922,22.949,44.434,86.426,-2.441,0
1485534555.172,29.785,30.273,48.340,101.074,551.758,0
1485534555.175,40.527,29.785,42.480,80.078,468.262,0
1485534555.179,64.453,29.297,35.156,59.570,73.242,0
1485534555.183,59.570,29.297,35.645,65.430,-451.172,0
1485534555.187,31.738,30.273,36.133,74.219,36.133,0
1485534555.191,8.789,30.273,39.551,95.215,934.570,0
1485534555.195,25.391,27.832,41.504,64.453,367.188,0
1485534555.199,53.223,27.344,39.551,46.387,-81.543,0
1485534555.203,61.523,26.367,34.180,62.012,-83.496,0
1485534555.207,39.551,26.367,28.809,70.801,-9.277,0
1485534555.211,31.738,30.273,38.574,86.914,205.566,0
1485534555.214,46.875,31.250,36.133,75.195,35.645,0
1485534555.218,52.734,29.297,16.602,39.551,215.820,0
1485534555.222,47.363,27.344,28.320,42.969,-153.809,0
1485534555.226,43.457,30.762,41.504,63.477,-142.090,0
1485534555.230,36.133,37.598,40.527,74.707,517.578,0
1485534555.234,36.621,32.227,44.922,60.547,212.402,0
1485534555.238,48.828,29.297,43.945,31.738,-88.379,0
1485534555.242,63.477,30.762,34.668,37.109,-338.379,0
1485534555.246,39.062,29.297,31.250,53.223,-222.656,0
1485534555.250,32.715,33.203,39.062,75.195,394.043,0
1485534555.254,47.363,32.715,36.621,64.453,282.715,0
1485534555.257,27.344,27.344,29.785,39.551,142.578,0
1485534555.261,37.598,20.996,29.785,55.664,59.082,0
1485534555.265,56.152,23.926,33.203,64.941,8.301,0
1485534555.269,29.297,29.785,27.344,79.590,652.832,0
1485534555.273,26.367,32.227,24.414,88.379,584.961,0
1485534555.277,50.293,41.504,47.852,68.848,-42.969,0
1485534555.281,59.570,30.762,41.016,42.969,-312.988,0
1485534555.285,61.035,20.996,29.297,52.246,-354.980,0
1485534555.289,26.855,25.879,40.039,80.566,34.668,0
1485534555.293,26.855,28.809,39.551,82.520,145.020,0
1485534555.296,46.875,27.832,38.574,49.805,60.059,0
1485534555.300,53.223,23.926,36.133,35.156,-191.895,0
1485534555.304,59.082,28.320,34.668,62.988,-387.207,0
1485534555.308,44.922,32.227,38.086,73.730,-28.320,0
1485534555.312,37.598,32.227,41.016,82.520,442.383,0
1485534555.316,43.945,37.109,43.945,71.289,518.555,0
1485534555.320,72.266,35.156,38.574,56.641,178.711,0
1485534555.324,62.988,30.273,39.551,67.871,-371.582,0
1485534555.328,23.438,32.715,41.992,76.172,161.133,0
1485534555.332,22.949,34.668,34.668,86.914,752.441,0
1485534555.336,52.246,30.273,41.504,64.453,192.383,0
1485534555.339,67.383,27.344,42.969,41.504,-187.988,0
1485534555.343,44.922,27.832,38.574,64.453,-412.598,0
1485534555.347,30.762,30.762,42.480,78.613,-83.984,0
1485534555.351,50.293,31.250,49.805,88.379,191.406,0
1485534555.355,53.223,30.273,47.363,74.707,104.980,0
1485534555.359,52.734,25.879,41.016,67.871,184.570,0
1485534555.363,60.059,22.949,39.062,68.848,-111.328,0
1485534555.367,24.902,22.949,40.527,70.801,84.961,0
1485534555.371,19.043,24.902,41.504,86.914,720.215,0
1485534555.375,39.062,27.832,47.363,74.219,334.961,0
1485534555.379,43.945,22.461,41.992,48.828,64.453,0
1485534555.382,56.152,20.508,34.180,49.805,-278.809,0
1485534555.386,33.691,23.438,33.691,60.059,-122.070,0
1485534555.390,14.160,25.391,31.738,79.102,264.648,0
1485534555.394,33.691,26.855,34.668,85.449,174.316,0
1485534555.398,39.551,23.438,36.133,44.922,-73.730,0
1485534555.402,49.805,33.203,50.293,40.527,-388.184,0
1485534555.406,45.410,34.180,49.805,62.500,31.250,0
1485534555.410,9.766,20.020,32.227,69.824,726.562,0
1485534555.414,7.812,20.508,40.039,68.848,542.969,0
1485534555.418,18.555,19.531,37.598,49.805,-39.062,0
1485534555.421,44.922,18.066,32.227,48.828,-360.840,0
1485534555.425,43.457,22.461,38.086,63.477,-242.676,0
1485534555.429,35.645,27.344,44.434,84.961,137.695,0
1485534555.433,43.457,28.809,41.016,85.449,250.488,0
1485534555.437,45.410,25.391,37.109,52.246,171.387,0
1485534555.441,64.453,22.949,38.086,48.340,-243.652,0
1485534555.445,58.105,28.320,39.551,75.684,-336.914,0
1485534555.449,26.855,29.785,42.480,92.285,83.008,0
1485534555.453,30.762,27.832,32.715,91.797,509.766,0
1485534555.457,42.480,27.344,31.250,63.477,355.957,0
1485534555.461,53.223,23.926,43.945,45.410,-202.637,0
1485534555.464,54.199,24.414,43.945,59.570,-403.320,0
1485534555.468,34.180,29.297,40.527,87.891,361.816,0
1485534555.472,30.762,32.715,45.898,86.914,780.762,0
1485534555.476,47.363,26.855,44.434,57.617,85.938,0
1485534555.480,56.641,21.973,40.527,58.594,-323.730,0
1485534555.484,47.852,23.926,41.016,60.059,-384.766,0
1485534555.488,19.043,24.902,39.551,62.988,-31.250,0
1485534555.492,15.137,25.391,45.410,85.449,276.367,0
1485534555.496,41.016,24.902,45.410,62.988,235.840,0
1485534555.500,53.711,26.367,38.574,38.574,162.109,0
1485534555.504,51.758,24.902,34.668,50.781,-56.641,0
1485534555.507,41.992,23.926,37.598,64.453,278.809,0
1485534555.511,43.945,27.344,38.574,84.473,765.625,0
1485534555.515,46.875,28.809,42.480,71.289,168.945,1
1485534555.519,68.359,27.344,31.738,54.199,-336.426,0
1485534555.523,82.031,26.367,20.508,57.617,-447.266,0
1485534555.527,30.762,29.297,34.180,59.570,-100.586,0
1485534555.531,-3.418,28.809,42.480,79.590,269.043,0
1485534555.535,20.508,27.344,45.898,75.684,128.418,0
1485534555.539,40.039,28.809,41.992,37.109,-216.797,0
1485534555.543,47.852,27.832,40.039,45.410,-422.363,0
1485534555.546,35.156,26.855,41.992,68.359,143.555,0
1485534555.550,13.672,27.832,37.109,73.242,786.621,0
1485534555.554,21.484,25.391,34.668,74.707,484.375,0
1485534555.558,32.227,22.949,32.227,34.180,-98.633,0
1485534555.562,41.504,22.949,33.691,24.902,-435.059,0
1485534555.566,41.504,25.879,32.715,57.129,-151.855,0
1485534555.570,33.203,29.297,36.133,76.660,273.926,0
1485534555.574,36.133,25.879,40.039,79.590,169.922,0
1485534555.578,41.016,21.484,27.832,49.805,-152.832,0
1485534555.582,58.105,21.973,20.020,48.828,-404.785,0
1485534555.586,48.828,28.320,31.250,71.289,-201.660,0
1485534555.589,33.691,34.180,41.016,83.008,293.945,0
1485534555.593,33.691,31.738,41.504,80.078,524.902,0
1485534555.597,41.504,28.320,37.598,55.664,331.543,0
1485534555.601,58.594,27.832,37.598,53.223,-217.285,0
1485534555.605,58.105,25.879,33.203,62.012,-391.602,0
1485534555.609,22.461,28.809,29.785,72.266,453.613,0
1485534555.613,20.508,29.785,36.133,79.590,833.008,0
1485534555.617,37.109,27.832,37.109,48.828,166.992,0
1485534555.621,46.875,22.461,33.691,41.504,-334.473,0
1485534555.625,47.363,24.414,36.621,68.848,-389.160,0
1485534555.628,35.645,34.180,38.574,77.148,14.160,0
1485534555.632,24.902,30.273,41.992,86.914,203.125,0
1485534555.636,15.625,24.902,38.086,65.430,-23.926,0
1485534555.640,32.227,23.926,31.738,43.945,41.992,0
1485534555.644,65.430,39.062,42.480,67.871,8.789,0
1485534555.648,39.551,39.062,41.016,78.125,363.770,0
1485534555.652,7.812,22.461,32.227,69.336,788.086,0
1485534555.656,26.367,23.438,37.109,62.012,120.605,0
1485534555.660,46.875,23.438,34.668,50.781,-332.031,0
1485534555.664,58.594,27.832,33.691,65.430,-396.484,0
1485534555.668,35.645,33.203,40.039,72.754,-69.824,0
1485534555.671,40.039,34.180,40.039,78.613,372.070,0
1485534555.675,65.918,36.133,37.109,69.824,325.195,0
1485534555.679,41.992,31.738,34.668,54.688,-109.375,0
1485534555.683,39.062,25.879,33.203,65.430,-430.176,0
1485534555.687,36.133,28.320,34.180,79.102,244.141,0
1485534555.691,21.973,29.785,36.133,86.914,787.109,0
1485534555.695,28.320,28.320,36.621,56.152,163.574,0
1485534555.699,44.922,27.832,34.180,34.180,-240.723,0
1485534555.703,56.152,30.762,30.762,48.828,-407.715,0
1485534555.707,44.434,32.715,32.715,62.988,-70.312,0
1485534555.711,50.293,31.738,35.645,79.590,282.227,0
1485534555.714,47.852,30.273,27.344,79.102,74.707,0
1485534555.718,50.781,28.809,26.855,50.293,-166.016,0
1485534555.722,53.711,26.855,35.156,54.199,-392.578,0
1485534555.726,41.992,25.879,36.133,58.594,-81.543,0
1485534555.730,38.086,26.367,40.039,74.219,450.195,0
1485534555.734,37.109,27.344,45.410,81.055,557.129,0
1485534555.738,44.434,28.809,42.969,43.945,285.645,0
1485534555.742,63.965,28.809,39.062,57.617,-282.715,0
1485534555.746,50.781,29.297,41.504,81.543,-196.289,0
1485534555.750,14.648,29.297,44.434,100.586,655.762,0
1485534555.753,16.602,28.809,45.898,92.285,498.047,0
1485534555.757,40.527,30.273,40.527,52.246,-181.152,0
1485534555.761,55.176,29.297,36.621,57.617,-390.137,0
1485534555.765,53.223,28.320,35.645,72.754,-244.629,0
1485534555.769,49.316,32.715,40.527,87.402,177.734,0
1485534555.773,42.480,37.109,36.621,101.074,165.039,0
1485534555.777,37.598,35.156,23.438,65.918,-42.969,0
1485534555.781,33.203,29.297,34.180,55.176,11.719,0
1485534555.785,37.109,30.762,46.387,72.266,144.043,0
1485534555.789,32.227,33.203,49.805,79.590,639.648,0
1485534555.793,22.461,32.715,54.199,78.125,664.551,0
1485534555.796,57.617,34.180,49.316,52.734,3.906,0
1485534555.800,65.430,28.320,33.691,40.527,-286.621,0
1485534555.804,47.852,43.945,46.875,71.289,-311.523,0
1485534555.808,44.434,46.875,55.176,80.078,-18.555,0
1485534555.812,27.832,22.461,38.574,72.266,107.422,0
1485534555.816,40.039,23.926,36.621,61.523,-14.160,0
1485534555.820,58.594,22.461,34.668,56.152,-261.230,0
1485534555.824,56.641,18.555,30.762,71.777,-352.539,0
1485534555.828,22.461,23.438,29.785,64.941,400.879,0
1485534555.832,17.090,28.809,39.551,76.660,685.547,0
1485534555.836,38.086,26.855,36.133,76.660,67.871,0
1485534555.839,52.734,22.461,21.484,54.688,-232.910,0
1485534555.843,60.059,23.438,31.250,57.129,-395.996,0
1485534555.847,47.363,27.344,39.062,77.637,202.637,0
1485534555.851,35.156,28.809,43.945,91.797,511.230,0
1485534555.855,41.992,26.855,48.828,81.543,35.156,0
1485534555.859,65.430,23.926,41.016,60.059,-215.820,0
1485534555.863,61.035,22.461,36.621,59.570,-343.262,0
1485534555.867,18.066,25.391,36.621,60.059,49.805,0
1485534555.871,12.207,27.344,40.039,86.914,219.238,0
1485534555.875,17.090,25.879,40.527,83.984,356.445,0
1485534555.878,36.133,23.438,40.527,43.945,225.098,0
1485534555.882,48.828,21.484,41.016,58.105,-342.773,0
1485534555.886,39.062,23.926,40.527,68.848,18.555,0
1485534555.890,41.504,25.879,42.969,69.824,727.051,0
1485534555.894,51.758,23.926,42.480,65.918,355.469,0
1485534555.898,42.969,21.973,38.086,40.527,-185.547,0
1485534555.902,36.133,25.391,35.645,45.898,-336.426,0
1485534555.906,34.180,28.320,22.461,64.453,-40.039,0
1485534555.910,27.832,28.809,27.832,81.055,265.137,0
1485534555.914,39.551,28.809,41.504,83.984,76.660,0
1485534555.918,49.316,25.879,37.109,48.828,-145.996,0
1485534555.921,70.312,26.367,34.668,45.898,-36.133,0
1485534555.925,66.406,27.832,34.668,49.805,196.289,0
1485534555.929,20.508,29.297,38.574,61.035,628.418,0
1485534555.933,17.578,27.344,37.109,73.242,576.660,0
1485534555.937,36.133,24.902,30.762,44.434,-89.355,0
1485534555.941,40.039,24.902,32.715,31.738,-298.828,0
1485534555.945,40.527,22.949,32.715,54.199,-198.730,0
1485534555.949,20.996,26.855,35.645,72.266,76.660,0
1485534555.953,5.859,26.855,41.992,66.895,139.648,0
1485534555.957,25.391,21.973,36.621,44.434,-33.203,0
1485534555.960,43.457,20.996,33.691,35.156,-262.207,0
1485534555.964,41.992,22.461,27.832,53.223,-249.023,0
1485534555.968,27.832,27.344,21.484,61.523,90.820,0
1485534555.972,11.719,29.785,34.668,64.453,509.277,0
1485534555.976,30.762,26.855,43.457,53.711,347.168,0
1485534555.980,50.293,24.414,40.039,35.645,-137.695,0
1485534555.984,57.129,24.902,39.062,50.781,-312.500,0
1485534555.988,33.691,28.320,40.039,65.430,273.438,0
1485534555.992,15.137,31.250,45.898,78.125,691.895,0
1485534555.996,39.062,27.344,44.922,66.406,93.262,0
1485534556.000,62.012,24.902,35.645,45.898,-246.582,0
1485534556.003,60.547,29.785,34.180,62.988,-235.840,0
1485534556.007,31.738,33.691,36.621,78.613,34.180,0
1485534556.011,15.137,29.785,39.551,90.332,113.770,0
1485534556.015,32.715,41.992,53.711,89.355,305.176,0
1485534556.019,59.570,38.086,48.828,61.035,145.020,1
1485534556.023,63.477,23.438,29.297,42.480,-313.965,0
1485534556.027,49.805,31.738,37.109,45.898,203.613,0
1485534556.031,39.062,35.156,41.016,83.984,716.309,0
1485534556.035,31.738,34.180,33.691,77.148,188.965,0
1485534556.039,27.832,27.344,36.133,32.715,-232.910,0
1485534556.043,49.316,26.367,43.457,50.293,-321.777,0
1485534556.046,41.992,32.227,45.898,70.801,-36.133,0
1485534556.050,18.555,35.156,49.316,84.961,192.383,0
1485534556.054,28.809,34.180,44.434,83.008,26.367,0
1485534556.058,46.875,34.180,37.598,51.758,-129.883,0
1485534556.062,62.012,36.621,35.156,51.758,-9.766,0
1485534556.066,55.664,35.645,39.062,70.801,232.910,0
1485534556.070,31.250,34.668,41.992,88.379,642.578,0
1485534556.074,37.109,28.809,43.457,91.309,425.293,0
1485534556.078,53.711,28.320,41.992,63.477,-165.039,0
1485534556.082,80.566,34.180,35.645,62.012,-268.555,0
1485534556.085,75.684,31.738,31.738,83.984,54.688,0
1485534556.089,26.367,27.832,43.457,82.520,194.336,0
1485534556.093,17.090,31.738,39.551,88.379,13.184,0
1485534556.097,35.645,30.762,19.531,62.988,-51.758,0
1485534556.101,55.176,28.809,26.855,35.645,-103.027,0
1485534556.105,51.270,31.738,38.086,50.293,-203.125,0
1485534556.109,33.691,28.809,37.598,65.918,135.254,0
1485534556.113,23.438,26.367,38.086,66.406,360.840,0
1485534556.117,40.527,25.391,39.062,55.176,-6.348,0
1485534556.121,44.922,21.484,34.668,51.270,-161.133,0
1485534556.125,31.738,26.367,34.668,55.176,-285.645,0
1485534556.128,17.090,29.297,36.621,70.801,286.133,0
1485534556.132,15.137,25.879,38.086,85.449,618.652,0
1485534556.136,47.363,26.367,37.598,67.383,-0.977,0
1485534556.140,56.641,26.367,37.598,52.734,-168.457,0
1485534556.144,56.152,27.832,41.016,73.242,24.902,0
1485534556.148,48.828,25.879,46.875,92.285,86.914,0
1485534556.152,28.320,21.484,40.527,105.957,91.309,0
1485534556.156,34.180,20.508,22.949,83.496,303.711,0
1485534556.160,58.594,20.508,26.855,62.012,304.199,0
1485534556.164,63.477,24.414,44.922,71.777,-225.586,0
1485534556.167,38.086,27.344,44.434,74.707,119.629,0
1485534556.171,33.203,27.832,43.945,87.891,725.586,0
1485534556.175,56.641,26.855,44.434,80.566,123.535,0
1485534556.179,62.500,23.926,37.109,56.641,-171.387,0
1485534556.183,36.133,20.508,43.457,70.312,-302.246,0
1485534556.187,15.137,20.996,42.969,67.871,-89.355,0
1485534556.191,18.066,24.414,41.504,75.684,161.621,0
1485534556.195,29.297,25.879,46.387,78.613,28.320,0
1485534556.199,43.945,25.879,34.668,37.598,-86.914,0
1485534556.203,53.223,25.391,33.203,65.430,-40.039,0
1485534556.207,44.434,27.344,41.016,78.125,305.176,0
1485534556.210,17.090,27.344,39.551,66.895,699.219,0
1485534556.214,35.156,27.344,39.062,68.359,306.152,0
1485534556.218,56.641,28.320,40.039,53.223,-100.586,0
1485534556.222,62.500,26.367,30.762,52.734,-298.828,0
1485534556.226,55.176,24.414,22.461,65.918,-149.902,0
1485534556.230,29.785,27.344,40.039,82.520,176.758,0
1485534556.234,31.738,27.832,49.316,85.449,68.848,0
1485534556.238,41.504,28.320,41.016,52.734,-9.277,0
1485534556.242,61.035,30.273,38.086,50.781,-273.438,0
1485534556.246,50.293,26.367,34.180,71.777,-238.281,0
1485534556.250,24.414,27.832,36.133,88.379,282.715,0
1485534556.253,31.250,31.250,45.410,97.168,520.508,0
1485534556.257,54.199,28.809,41.992,63.477,278.809,0
1485534556.261,60.059,30.273,34.668,53.223,-27.344,0
1485534556.265,68.848,29.785,34.668,67.383,-244.141,0
1485534556.269,36.621,30.273,37.598,75.684,405.762,0
1485534556.273,27.344,32.227,40.039,76.660,637.695,0
1485534556.277,48.340,31.250,37.598,56.152,37.598,0
1485534556.281,54.688,32.227,33.203,43.457,-189.941,0
1485534556.285,49.316,31.738,35.645,54.199,-327.637,0
1485534556.289,34.180,31.250,37.109,62.500,-39.062,0
1485534556.292,12.207,30.762,41.016,74.707,135.742,0
1485534556.296,3.418,31.250,40.039,66.406,416.992,0
1485534556.300,49.805,29.785,32.715,45.898,203.613,0
1485534556.304,58.594,28.809,32.227,50.293,-400.391,0
1485534556.308,14.648,30.762,25.391,62.500,315.430,0
1485534556.312,11.719,34.668,36.133,79.590,742.188,0
1485534556.316,35.645,34.180,45.898,65.918,95.703,0
1485534556.320,50.293,30.273,41.992,37.109,-20.996,0
1485534556.324,58.105,29.785,41.504,49.316,-229.492,0
1485534556.328,45.410,29.785,42.969,73.730,-139.160,0
1485534556.332,31.738,33.203,45.410,86.426,125.488,0
1485534556.335,44.434,32.715,38.574,69.824,67.871,0
1485534556.339,59.570,25.879,34.668,45.410,-115.234,0
1485534556.343,63.965,22.949,35.156,47.852,-147.949,0
1485534556.347,45.410,25.879,32.715,64.941,348.145,0
1485534556.351,31.738,28.809,35.645,79.102,660.645,0
1485534556.355,38.574,30.273,41.016,72.266,231.445,0
1485534556.359,44.434,28.809,35.156,43.945,-144.531,0
1485534556.363,68.359,27.832,31.250,45.410,-434.570,0
1485534556.367,47.852,26.367,35.645,64.941,-120.117,0
1485534556.371,15.625,25.879,41.992,77.148,224.609,0
1485534556.375,25.391,25.391,41.016,74.707,58.594,0
1485534556.378,40.527,24.902,27.344,58.105,134.766,0
1485534556.382,39.062,21.973,22.949,54.688,-68.848,0
1485534556.386,25.391,25.879,33.691,52.734,-116.699,0
1485534556.390,30.762,33.203,39.551,68.359,393.555,0
1485534556.394,27.344,27.832,39.062,82.031,518.555,0
1485534556.398,20.508,23.926,36.621,47.852,128.906,0
1485534556.402,48.828,26.855,36.621,47.363,-407.715,0
1485534556.406,41.016,31.250,32.715,72.266,-273.438,0
1485534556.410,18.555,35.645,34.180,58.105,569.824,0
1485534556.414,29.785,33.203,42.480,68.848,548.828,0
1485534556.417,36.133,24.902,41.504,65.918,-5.859,0
1485534556.421,45.898,25.391,39.551,46.875,-300.293,0
1485534556.425,50.293,28.320,40.527,56.152,-279.297,0
1485534556.429,38.086,28.320,41.992,71.777,42.969,0
1485534556.433,20.996,29.297,38.086,84.961,152.344,0
1485534556.437,16.602,25.879,33.691,61.035,338.867,0
1485534556.441,39.062,26.855,28.320,48.340,270.996,0
1485534556.445,53.223,28.809,23.926,66.406,-121.582,0
1485534556.449,30.762,24.902,37.109,78.613,383.301,0
1485534556.453,12.207,22.949,46.875,77.148,718.750,0
1485534556.457,17.578,25.879,45.898,60.059,91.309,0
1485534556.460,29.785,25.879,41.992,54.199,-260.254,0
1485534556.464,35.645,22.949,40.039,61.035,-381.836,0
1485534556.468,32.227,25.391,41.016,65.918,-121.582,0
1485534556.472,41.992,28.320,47.363,87.891,140.137,0
1485534556.476,29.785,27.344,45.898,69.336,105.957,0
1485534556.480,43.457,26.367,40.039,52.734,-182.129,0
1485534556.484,59.570,27.832,38.574,58.594,-157.715,1
1485534556.488,35.156,25.879,33.691,55.176,439.941,0
1485534556.492,33.691,39.062,49.316,97.656,647.949,0
1485534556.496,64.453,43.457,57.129,105.957,329.590,0
1485534556.499,50.781,20.996,30.762,49.805,62.500,0
1485534556.503,50.293,20.020,26.855,57.617,-390.137,0
1485534556.507,44.434,23.438,32.227,71.289,-138.672,0
1485534556.511,36.621,25.391,31.738,80.078,172.363,0
1485534556.515,45.898,28.320,34.668,81.543,115.723,0
1485534556.519,55.664,26.855,32.227,42.480,-103.027,0
1485534556.523,68.848,25.391,19.531,47.363,-250.488,0
1485534556.527,63.965,26.855,24.902,61.523,-10.742,0
1485534556.531,31.250,29.785,42.969,94.727,462.891,0
1485534556.535,11.230,30.273,47.852,99.609,565.918,0
1485534556.539,48.828,29.297,43.945,46.387,172.852,0
1485534556.542,71.777,29.297,41.016,41.504,-438.477,0
1485534556.546,61.523,31.738,38.574,61.035,-133.789,0
1485534556.550,31.250,31.738,39.062,76.660,680.176,0
1485534556.554,32.715,30.762,47.852,76.172,469.238,0
1485534556.558,42.969,27.832,47.363,51.758,195.312,0
1485534556.562,37.598,25.391,43.945,42.480,-231.445,0
1485534556.566,35.645,26.367,37.598,59.082,-247.559,0
1485534556.570,19.531,29.785,35.645,83.496,192.383,0
1485534556.574,22.949,30.273,49.805,92.773,180.664,0
1485534556.578,34.180,25.391,46.875,50.293,284.180,0
1485534556.582,44.922,27.344,40.527,33.203,31.738,0
1485534556.585,52.246,31.250,42.969,55.176,-291.992,0
1485534556.589,24.902,31.738,26.855,70.312,471.191,0
1485534556.593,26.367,32.715,31.738,81.055,646.484,0
1485534556.597,49.805,30.762,46.875,69.336,-61.035,0
1485534556.601,60.547,27.832,43.457,57.129,-379.395,0
1485534556.605,54.688,27.832,40.039,58.105,-399.902,0
1485534556.609,34.668,30.762,40.527,74.219,-57.129,0
1485534556.613,28.809,34.668,43.945,89.844,244.141,0
1485534556.617,28.809,32.715,39.551,56.641,256.836,0
1485534556.621,33.691,25.879,35.156,37.109,-193.359,0
1485534556.624,41.992,24.902,37.598,60.547,-151.367,0
1485534556.628,21.484,25.391,40.039,68.359,555.664,0
1485534556.632,18.066,22.949,39.551,75.195,707.031,0
1485534556.636,45.410,24.414,35.156,61.035,88.867,0
1485534556.640,41.016,27.832,34.180,42.480,-286.621,0
1485534556.644,38.086,28.320,41.504,58.105,-391.113,0
1485534556.648,34.668,31.738,41.016,66.406,-105.957,0
1485534556.652,25.879,33.691,39.062,91.309,203.125,0
1485534556.656,30.762,32.227,41.016,74.707,93.262,0
1485534556.660,37.109,28.320,34.668,38.574,-229.004,0
1485534556.664,47.852,27.344,23.926,53.223,-403.320,0
1485534556.667,33.691,27.832,29.297,68.359,-36.621,0
1485534556.671,30.762,33.691,45.410,89.844,545.898,0
1485534556.675,41.016,31.250,46.875,75.684,604.492,0
1485534556.679,37.598,24.414,37.109,35.645,139.648,0
1485534556.683,51.758,26.367,36.621,40.039,-445.312,0
1485534556.687,40.527,31.250,35.645,62.988,50.293,0
1485534556.691,34.668,33.203,40.527,86.426,791.504,0
1485534556.695,46.387,33.691,46.875,86.914,304.199,0
1485534556.699,54.688,33.203,41.016,58.105,-174.805,0
1485534556.703,76.660,30.273,37.598,48.828,-390.137,0
1485534556.707,50.781,31.250,35.645,68.359,-55.176,0
1485534556.710,23.926,34.668,41.016,89.355,329.102,0
1485534556.714,39.062,33.203,45.898,91.797,181.641,0
1485534556.718,47.363,26.855,37.109,63.477,256.348,0
1485534556.722,61.523,22.949,35.156,45.410,-56.641,0
1485534556.726,50.293,28.320,37.598,65.918,-101.074,0
1485534556.730,29.297,31.250,40.039,88.379,713.379,0
1485534556.734,43.945,32.715,44.434,88.379,681.152,0
1485534556.738,47.363,32.715,35.645,49.316,68.359,0
1485534556.742,41.016,30.273,19.531,30.762,-406.250,0
1485534556.746,40.039,28.320,27.832,63.477,-298.340,0
1485534556.749,28.809,29.785,42.969,85.449,145.508,0
1485534556.753,13.184,29.785,45.410,90.820,181.152,0
1485534556.757,20.020,27.344,41.504,63.965,-37.109,0
1485534556.761,52.734,28.320,35.156,35.156,-313.477,0
1485534556.765,55.664,31.738,33.691,44.922,-63.965,0
1485534556.769,8.789,29.297,37.598,65.918,655.762,0
1485534556.773,8.301,26.855,44.434,80.566,626.953,0
1485534556.777,37.598,28.320,42.969,60.059,21.973,0
1485534556.781,48.340,27.832,35.156,38.086,-298.340,0
1485534556.785,58.594,26.367,31.738,54.688,-401.367,0
1485534556.789,47.363,28.809,35.156,77.148,-18.555,0
1485534556.792,24.414,31.250,40.039,93.262,379.395,0
1485534556.796,36.133,29.785,39.551,64.941,175.781,0
1485534556.800,44.434,23.926,37.598,34.180,-277.344,0
1485534556.804,32.227,22.461,32.715,47.363,-386.230,0
1485534556.808,16.602,25.391,29.297,56.152,-51.758,0
1485534556.812,15.137,28.809,38.086,82.031,401.367,0
1485534556.816,13.672,27.832,43.945,71.289,450.195,0
1485534556.820,23.926,20.020,43.945,37.109,-45.410,0
1485534556.824,41.016,20.996,42.969,61.523,-476.074,0
1485534556.828,15.625,27.344,40.039,63.477,190.918,0
1485534556.831,5.859,27.832,40.527,51.758,724.121,0
1485534556.835,35.645,25.391,42.969,61.035,150.879,0
1485534556.839,60.547,23.438,40.039,39.062,-247.559,0
1485534556.843,54.199,25.879,39.551,40.527,-437.988,0
1485534556.847,28.320,29.785,39.551,62.012,-7.324,0
1485534556.851,18.066,33.691,44.434,84.961,333.496,0
1485534556.855,32.227,31.250,43.457,86.426,119.629,0
1485534556.859,38.574,25.879,35.645,50.293,142.578,0
1485534556.863,53.223,23.926,38.574,45.898,-145.508,0
1485534556.867,49.316,25.391,39.551,67.871,45.410,0
1485534556.871,27.344,26.855,37.598,96.680,716.797,0
1485534556.874,37.598,23.926,31.250,99.121,293.945,0
1485534556.878,73.242,36.133,50.781,74.219,-177.734,0
1485534556.882,65.918,36.621,64.941,65.918,-425.781,0
1485534556.886,19.043,18.066,43.457,64.941,-83.496,0
1485534556.890,19.531,19.531,38.574,76.660,187.500,0
1485534556.894,23.438,20.996,39.551,85.449,32.227,0
1485534556.898,28.320,21.484,41.016,65.430,-62.500,0
1485534556.902,46.387,20.996,39.062,52.246,-320.801,0
1485534556.906,37.109,22.461,39.551,57.129,70.801,2
1485534556.910,25.879,19.531,43.457,76.172,729.004,0
1485534556.914,35.645,20.508,44.922,87.891,493.164,0
1485534556.917,42.969,25.879,39.551,57.129,-42.480,0
1485534556.921,55.664,27.344,35.156,52.734,-334.961,0
1485534556.925,58.594,27.832,34.180,66.406,-228.516,0
1485534556.929,31.738,30.273,41.504,83.496,91.309,0
1485534556.933,35.645,30.273,46.875,106.934,90.332,0
1485534556.937,59.570,27.832,26.855,83.008,-20.996,0
1485534556.941,48.828,25.879,29.785,64.453,-233.398,0
1485534556.945,47.363,26.367,44.434,81.543,-95.215,0
1485534556.949,50.293,28.809,42.969,95.703,80.078,0
1485534556.953,35.156,28.809,43.945,104.980,338.379,0
1485534556.956,33.691,26.855,44.922,88.379,469.727,0
1485534556.960,53.223,24.414,39.062,55.664,63.477,0
1485534556.964,65.918,26.855,40.039,72.754,-347.168,0
1485534556.968,35.156,31.250,41.504,85.938,298.828,0
1485534556.972,22.949,33.691,40.527,94.238,703.613,0
1485534556.976,42.480,31.250,43.945,88.379,74.219,0
1485534556.980,67.383,26.367,41.016,52.246,-254.883,0
1485534556.984,68.359,29.297,41.992,66.406,-302.246,0
1485534556.988,35.156,30.273,44.922,78.613,-19.043,0
1485534556.992,24.902,24.414,41.992,94.727,84.473,0
1485534556.996,26.367,20.508,36.133,93.262,40.527,0
1485534556.999,45.898,24.414,34.668,55.176,173.340,0
1485534557.003,63.477,26.855,33.203,67.871,-55.176,0
1485534557.007,47.852,30.762,24.902,94.727,170.410,0
1485534557.011,39.551,33.203,32.715,99.609,664.062,0
1485534557.015,51.270,25.879,44.922,87.402,195.312,0
1485534557.019,56.641,26.367,41.504,57.129,-215.820,0
1485534557.023,65.430,28.809,39.062,62.012,-363.770,0
1485534557.027,46.875,29.297,40.039,74.219,3.418,0
1485534557.031,45.410,31.250,49.316,97.168,151.855,0
1485534557.035,53.223,26.855,44.434,110.840,44.922,0
1485534557.039,61.523,40.039,49.805,88.867,-97.168,0
1485534557.042,54.688,38.086,52.246,64.453,-324.707,0
1485534557.046,28.320,17.090,27.344,56.641,183.105,0
1485534557.050,27.832,22.949,29.297,69.336,714.355,0
1485534557.054,18.555,25.391,41.016,77.637,358.887,0
1485534557.058,28.809,20.508,42.480,64.941,-107.910,0
1485534557.062,55.176,19.531,38.086,50.781,-314.453,0
1485534557.066,40.039,21.973,40.527,72.754,-97.168,0
1485534557.070,18.066,23.438,43.457,96.191,141.602,0
1485534557.074,16.602,21.484,33.203,107.422,62.500,0
1485534557.078,38.574,16.113,33.691,75.684,-20.508,0
1485534557.081,47.363,16.602,45.410,48.340,-266.602,0
1485534557.085,33.203,20.508,45.410,62.500,-26.855,0
1485534557.089,28.809,23.926,46.387,77.148,174.316,0
1485534557.093,29.785,24.414,47.363,100.586,343.262,0
1485534557.097,42.969,26.855,46.875,99.609,338.867,0
1485534557.101,55.664,27.344,42.480,70.801,-194.824,0
1485534557.105,56.152,25.879,35.645,70.801,-357.422,0
1485534557.109,34.668,29.297,36.133,81.055,385.254,0
1485534557.113,22.461,34.668,43.457,90.332,661.621,0
1485534557.117,48.828,30.273,41.504,79.590,23.926,0
1485534557.121,62.012,38.086,46.387,57.129,-214.844,0
1485534557.124,50.293,34.668,43.945,65.430,-284.180,0
1485534557.128,39.062,23.438,23.438,71.289,-105.469,0
1485534557.132,28.320,26.855,32.715,82.031,51.758,0
1485534557.136,25.879,21.484,39.062,81.055,50.293,0
1485534557.140,33.691,25.391,31.738,64.453,142.578,0
1485534557.144,57.617,30.273,35.156,57.617,164.551,0
1485534557.148,42.480,28.320,37.598,50.293,459.473,0
1485534557.152,16.113,26.855,45.410,78.125,679.199,0
1485534557.156,52.246,29.297,54.688,79.102,246.582,0
1485534557.160,51.270,27.344,52.734,45.898,-109.375,0
1485534557.163,35.156,27.832,41.992,62.500,-282.715,0
1485534557.167,35.156,29.785,41.016,84.473,-78.613,0
1485534557.171,18.066,28.320,41.992,91.309,94.727,0
1485534557.175,19.043,30.273,43.457,82.520,57.129,0
1485534557.179,49.316,30.762,45.898,54.688,-57.129,0
1485534557.183,71.289,29.297,38.086,48.340,-333.496,0
1485534557.187,47.852,28.809,25.391,65.430,196.289,0
1485534557.191,28.809,28.809,25.391,71.777,710.449,0
1485534557.195,33.691,27.344,41.016,73.242,231.445,0
1485534557.199,32.227,31.738,56.152,64.941,-141.113,0
1485534557.203,44.434,32.715,50.781,60.059,-163.086,0
1485534557.206,60.547,30.762,33.203,72.266,156.738,0
1485534557.210,51.270,43.945,53.711,93.750,118.652,0
1485534557.214,26.367,37.598,51.758,97.168,-15.625,0
1485534557.218,20.020,22.949,24.414,52.734,-23.926,0
1485534557.222,37.109,23.438,36.621,33.203,-302.734,0
1485534557.226,54.199,21.484,43.457,55.176,-184.570,0
1485534557.230,57.129,24.414,36.621,85.938,117.188,0
1485534557.234,46.387,29.297,36.133,99.121,373.535,0
1485534557.238,44.922,31.250,39.062,71.777,391.113,0
1485534557.242,56.152,29.297,46.387,46.875,-179.199,0
1485534557.246,57.617,26.855,38.086,70.801,-312.988,0
1485534557.249,44.922,31.738,26.367,92.285,498.047,0
1485534557.253,41.016,35.156,41.016,88.867,554.688,0
1485534557.257,50.781,32.227,43.457,73.242,-1.953,0
1485534557.261,59.082,31.250,39.062,56.641,-141.602,0
1485534557.265,51.270,31.738,39.062,71.777,-114.746,0
1485534557.269,35.156,29.785,42.480,79.102,20.020,0
1485534557.273,29.785,29.785,47.852,83.984,36.621,0
1485534557.277,19.043,26.367,47.363,74.219,53.223,0
1485534557.281,39.551,22.949,40.039,50.293,237.305,0
1485534557.285,53.711,20.996,32.227,42.480,-17.578,0
1485534557.288,45.898,40.527,48.340,77.148,230.957,0
1485534557.292,42.480,43.457,59.570,102.051,576.172,0
1485534557.296,27.832,20.020,41.504,73.730,79.102,0
1485534557.300,54.199,21.484,24.902,53.223,-145.508,0
1485534557.304,64.941,23.438,32.715,67.871,-406.250,0
1485534557.308,38.574,24.414,41.016,88.379,-3.906,0
1485534557.312,23.926,23.438,43.945,91.309,236.328,0
1485534557.316,29.297,17.090,44.922,87.402,48.340,0
1485534557.320,52.734,20.508,40.039,71.289,-41.016,0
1485534557.324,46.875,25.391,34.180,62.500,-67.383,0
1485534557.328,32.227,30.273,35.645,77.637,241.699,0
1485534557.331,51.758,39.062,47.852,93.750,428.223,0
1485534557.335,54.199,33.691,43.457,72.754,233.398,0
1485534557.339,53.223,28.809,39.062,40.527,-37.109,0
1485534557.343,64.453,32.715,40.527,51.270,-437.500,0
1485534557.347,53.223,36.133,38.574,71.777,1.465,0
1485534557.351,33.203,31.250,39.062,75.195,528.320,0
1485534557.355,55.176,40.527,62.012,98.633,147.949,0
1485534557.359,71.289,42.480,58.594,76.172,-41.992,0
1485534557.363,47.852,18.555,16.602,48.340,-321.777,0
1485534557.367,29.785,19.531,22.461,66.406,-1.465,0
1485534557.371,31.738,27.344,39.551,68.848,135.742,0
1485534557.374,25.391,26.855,41.016,82.031,259.277,0
1485534557.378,29.297,21.973,38.574,53.711,575.195,0
1485534557.382,53.711,24.902,36.621,36.621,31.738,0
1485534557.386,54.199,31.250,36.621,62.500,-158.203,0
1485534557.390,39.551,35.645,35.645,89.355,558.594,0
1485534557.394,27.344,31.738,35.156,103.516,390.625,0
1485534557.398,30.273,28.320,37.598,73.242,51.758,0
1485534557.402,51.270,29.785,39.062,26.855,-209.961,1
1485534557.406,43.945,26.855,32.715,64.453,-235.840,0
1485534557.410,40.527,30.273,41.016,106.934,56.641,0
1485534557.413,49.805,32.227,45.410,88.867,56.641,0
1485534557.417,41.504,26.855,40.039,51.270,135.742,0
1485534557.421,47.852,25.879,36.133,27.344,119.141,0
1485534557.425,30.273,24.902,34.668,48.340,-34.180,0
1485534557.429,23.926,29.297,38.086,99.121,366.699,0
1485534557.433,38.086,34.668,41.016,119.141,472.168,0
1485534557.437,33.691,33.203,31.738,72.266,124.023,0
1485534557.441,45.898,41.992,30.762,36.621,4.395,0
1485534557.445,40.039,29.297,37.109,44.922,-308.594,0
1485534557.449,34.668,17.090,33.691,58.105,-143.555,0
1485534557.453,33.691,26.855,36.133,84.961,66.406,0
1485534557.456,32.715,32.227,39.062,84.961,148.438,0
1485534557.460,52.246,30.762,38.086,44.434,-138.184,0
1485534557.464,45.898,29.297,34.668,57.129,-418.457,0
1485534557.468,33.203,32.715,39.062,84.473,-10.254,0
1485534557.472,42.969,38.086,41.016,63.477,354.004,0
1485534557.476,33.203,33.691,40.039,50.781,283.203,0
1485534557.480,27.344,27.832,39.062,48.828,-102.539,0
1485534557.484,48.340,25.879,38.574,58.105,-502.930,0
1485534557.488,60.547,28.809,39.062,77.148,115.723,0
1485534557.492,36.621,29.297,37.598,75.684,606.445,0
1485534557.495,30.273,42.480,54.199,84.473,221.680,0
1485534557.499,38.574,39.551,57.129,56.641,163.086,0
1485534557.503,45.410,18.555,30.273,37.598,-217.773,0
1485534557.507,36.133,25.879,18.555,55.664,-135.254,0
1485534557.511,12.695,28.320,24.902,74.707,111.816,0
1485534557.515,14.160,27.832,38.086,83.008,448.730,0
1485534557.519,33.691,27.832,41.504,35.156,328.125,0
1485534557.523,57.129,27.832,45.898,33.691,-446.777,0
1485534557.527,45.410,31.250,41.016,62.012,-87.891,0
1485534557.531,20.020,36.621,37.598,70.801,602.051,0
1485534557.535,30.762,38.086,43.945,85.938,342.285,0
1485534557.538,50.293,33.203,41.504,61.035,-28.320,0
1485534557.542,52.734,30.273,37.598,37.598,-421.875,0
1485534557.546,42.480,29.785,42.480,63.477,-166.504,0
1485534557.550,37.598,35.156,46.387,90.332,156.738,0
1485534557.554,31.738,35.645,43.945,88.867,157.715,0
1485534557.558,25.391,31.250,38.086,52.734,260.742,0
1485534557.562,40.039,29.785,35.645,46.387,40.527,0
1485534557.566,38.086,32.715,38.086,49.805,121.582,0
1485534557.570,21.973,33.203,43.457,62.988,608.887,0
1485534557.574,37.109,30.273,34.668,77.148,556.152,0
1485534557.578,59.570,39.062,33.203,72.754,216.309,0
1485534557.581,59.082,45.410,57.617,76.660,-253.906,0
1485534557.585,55.176,30.273,43.945,58.105,-349.121,0
1485534557.589,42.480,26.367,29.785,72.754,-4.883,0
1485534557.593,37.598,29.785,42.480,100.098,138.184,0
1485534557.597,19.043,25.391,47.852,68.848,136.719,0
1485534557.601,26.367,24.414,39.062,38.574,-237.305,0
1485534557.605,45.410,26.855,34.668,55.664,-357.910,0
1485534557.609,31.250,28.809,37.598,76.660,95.215,0
1485534557.613,12.207,30.762,41.016,95.215,404.297,0
1485534557.617,10.254,29.297,41.016,78.125,336.914,0
1485534557.620,45.410,27.344,40.039,40.039,-101.562,0
1485534557.624,58.594,27.344,38.086,58.105,-480.957,0
1485534557.628,28.320,31.738,40.039,63.965,216.797,0
1485534557.632,20.020,37.109,43.457,77.148,641.113,0
1485534557.636,45.410,36.621,44.922,77.637,147.461,0
1485534557.640,60.547,34.668,46.875,60.547,-218.262,0
1485534557.644,42.480,33.691,36.621,62.500,-408.691,0
1485534557.648,29.297,32.227,34.668,57.617,-138.184,0
1485534557.652,39.551,37.109,32.227,77.148,140.625,0
1485534557.656,56.641,36.621,29.785,84.961,474.121,0
1485534557.660,74.219,34.180,39.551,55.664,244.141,0
1485534557.663,62.988,37.109,43.945,39.551,-425.781,0
1485534557.667,34.668,29.785,38.086,63.965,62.012,0
1485534557.671,50.781,43.945,54.199,87.891,665.039,0
1485534557.675,64.453,49.316,62.500,92.285,417.480,0
1485534557.679,37.109,26.855,33.203,43.457,15.137,0
1485534557.683,54.199,28.809,28.809,33.203,-420.410,0
1485534557.687,46.875,32.227,36.133,67.871,-120.117,0
1485534557.691,20.996,34.180,44.434,82.520,175.293,0
1485534557.695,31.738,32.227,46.387,93.750,124.512,0
1485534557.699,32.715,28.809,40.039,76.172,-35.645,0
1485534557.703,35.645,30.273,39.062,54.199,-97.168,0
1485534557.706,43.457,32.227,37.109,71.289,208.008,0
1485534557.710,22.949,31.250,43.457,96.680,629.883,0
1485534557.714,26.855,28.809,48.340,73.730,398.438,0
1485534557.718,57.129,31.250,41.016,47.852,-56.152,0
1485534557.722,56.152,31.250,39.551,45.410,-377.441,0
1485534557.726,43.457,30.762,24.414,60.547,-229.004,0
1485534557.730,52.734,30.762,22.949,82.031,113.770,0
1485534557.734,48.340,33.691,44.922,92.285,285.156,0
1485534557.738,31.250,31.250,47.363,66.406,197.754,0
1485534557.742,46.387,26.855,40.039,45.410,-340.332,0
1485534557.745,57.129,30.762,35.156,56.152,-291.016,0
1485534557.749,32.715,32.715,34.668,62.988,208.496,0
1485534557.753,30.273,31.250,39.062,80.078,516.113,0
1485534557.757,37.598,33.203,44.434,66.406,344.238,0
1485534557.761,46.387,37.598,43.457,47.363,-233.887,0
1485534557.765,56.641,35.156,36.133,58.594,-441.406,0
1485534557.769,30.762,33.203,37.109,71.289,392.090,0
1485534557.773,22.461,31.738,45.410,81.543,671.387,0
1485534557.777,30.762,27.832,39.062,68.848,24.902,0
1485534557.781,30.762,31.738,32.715,47.852,-299.805,0
1485534557.785,31.738,19.043,42.480,58.594,-375.000,0
1485534557.788,26.855,19.043,50.781,59.570,-96.680,0
1485534557.792,29.297,37.109,38.086,85.449,184.082,0
1485534557.796,33.691,43.945,39.062,99.609,503.906,0
1485534557.800,62.500,51.758,62.988,63.965,210.938,0
1485534557.804,62.500,31.250,48.340,49.316,-436.523,0
1485534557.808,44.434,24.902,32.715,58.594,169.434,0
1485534557.812,38.574,32.715,43.945,83.496,694.824,0
1485534557.816,33.691,27.832,46.875,79.590,111.328,2
1485534557.820,55.664,32.227,42.480,55.176,-220.215,0
1485534557.824,83.008,35.156,39.062,57.129,-439.453,0
1485534557.827,59.082,32.227,39.062,67.871,-130.859,0
1485534557.831,33.203,37.598,45.410,86.426,118.652,0
1485534557.835,33.203,35.156,45.898,87.402,73.242,0
1485534557.839,39.551,27.344,43.457,40.039,-72.266,0
1485534557.843,41.992,26.855,41.016,56.641,-156.738,0
1485534557.847,40.039,30.273,39.062,76.172,300.781,0
1485534557.851,41.504,31.250,41.992,69.824,718.262,0
1485534557.855,36.621,27.344,46.875,78.125,319.824,0
1485534557.859,43.457,27.832,47.363,49.805,-104.980,0
1485534557.863,60.547,29.785,33.691,47.363,-429.688,0
1485534557.867,51.270,29.297,22.461,75.195,-93.750,0
1485534557.870,46.875,31.738,41.504,82.520,180.664,0
1485534557.874,47.363,37.109,45.898,85.449,35.645,0
1485534557.878,37.598,33.691,41.992,69.336,-2.930,0
1485534557.882,37.598,29.297,45.410,51.758,-375.488,0
1485534557.886,48.340,31.738,45.410,58.594,-171.875,0
1485534557.890,36.133,29.785,42.969,67.383,391.113,0
1485534557.894,42.480,29.785,39.551,84.961,405.273,0
1485534557.898,64.941,45.898,54.688,84.473,73.242,0
1485534557.902,90.332,40.527,43.457,54.688,-343.262,0
1485534557.906,76.172,20.020,24.414,55.176,-292.969,0
1485534557.910,14.648,25.879,35.645,72.266,554.688,0
1485534557.913,15.137,31.250,45.410,85.938,580.566,0
1485534557.917,39.551,25.879,46.875,54.688,7.324,0
1485534557.921,55.176,27.344,40.527,22.461,-278.320,0
1485534557.925,59.082,31.738,35.645,50.293,-243.652,0
1485534557.929,47.852,33.203,31.738,71.777,61.523,0
1485534557.933,29.785,33.691,36.133,86.426,47.363,0
1485534557.937,25.879,32.227,44.434,70.801,363.281,0
1485534557.941,43.457,29.785,40.527,33.691,121.582,0
1485534557.945,42.480,27.344,37.598,45.898,-429.199,0
1485534557.949,18.555,27.832,39.551,55.176,304.688,0
1485534557.952,38.574,31.250,41.016,75.684,654.785,0
1485534557.956,50.293,32.227,43.457,87.402,83.008,0
1485534557.960,34.180,29.785,44.922,52.734,-195.801,0
1485534557.964,54.688,29.785,36.621,62.500,-380.859,0
1485534557.968,57.617,32.227,35.645,78.613,11.719,0
1485534557.972,40.039,33.203,43.457,83.496,296.387,0
1485534557.976,44.922,31.738,46.387,85.449,81.543,0
1485534557.980,56.641,31.250,42.480,59.570,-150.879,0
1485534557.984,44.922,27.832,33.203,55.664,-100.098,0
1485534557.988,31.738,28.320,34.180,59.570,467.285,0
1485534557.992,23.438,33.203,39.062,83.008,566.406,0
1485534557.995,38.086,33.691,42.969,94.727,167.969,0
1485534557.999,65.918,44.434,45.898,70.801,-27.344,0
1485534558.003,59.082,37.109,33.203,64.453,-328.125,0
1485534558.007,39.551,26.367,28.320,70.801,-24.414,0
1485534558.011,32.715,31.738,37.598,70.801,70.312,0
1485534558.015,26.367,27.832,40.527,71.777,13.672,0
1485534558.019,48.828,26.855,39.062,43.457,-42.969,0
1485534558.023,51.270,25.879,38.574,39.062,-353.027,0
1485534558.027,43.457,25.391,42.480,70.801,15.625,0
1485534558.031,38.574,30.762,47.363,91.797,383.301,0
1485534558.035,41.504,33.691,41.992,101.074,476.562,0
1485534558.038,48.828,31.250,37.598,63.965,208.496,0
1485534558.042,35.645,28.809,41.016,36.621,-347.168,0
1485534558.046,20.020,31.250,40.039,55.664,20.508,0
1485534558.050,24.902,27.832,41.992,70.801,239.746,0
1485534558.054,34.668,28.320,48.340,83.496,42.969,0
1485534558.058,43.457,33.203,43.945,69.824,73.242,0
1485534558.062,52.734,29.785,42.480,48.828,-229.980,0
1485534558.066,45.410,28.320,41.504,61.523,-104.980,0
1485534558.070,39.551,35.645,42.480,72.266,598.633,0
1485534558.074,42.480,34.180,37.598,79.102,462.891,0
1485534558.077,45.410,44.434,40.527,90.332,354.980,0
1485534558.081,54.688,52.246,56.641,64.453,174.316,0
1485534558.085,39.551,26.367,45.410,43.945,-223.145,0
1485534558.089,20.996,22.949,38.574,63.965,484.375,0
1485534558.093,17.578,30.762,43.457,82.520,560.547,0
1485534558.097,24.414,26.367,43.945,59.082,22.461,0
1485534558.101,35.645,23.926,39.062,45.898,-202.148,0
1485534558.105,48.340,22.949,41.504,69.336,-261.230,0
1485534558.109,54.688,24.902,43.457,68.848,-71.777,0
1485534558.113,28.320,29.785,42.969,82.031,-14.160,0
1485534558.117,16.113,30.762,42.480,73.730,29.297,0
1485534558.120,44.434,33.203,44.434,32.715,-171.387,0
1485534558.124,54.688,31.738,38.086,43.945,-21.973,0
1485534558.128,25.391,28.320,36.621,76.172,575.195,0
1485534558.132,28.809,33.691,46.875,96.191,644.531,0
1485534558.136,58.594,36.133,51.270,99.609,158.203,0
1485534558.140,45.898,31.738,45.410,65.430,-173.828,0
1485534558.144,41.992,30.273,32.227,54.199,-269.531,0
1485534558.148,48.340,33.203,31.738,78.613,3.906,0
1485534558.152,48.340,32.715,44.922,100.098,5.371,0
1485534558.156,42.969,26.367,45.410,87.891,20.020,0
1485534558.159,40.039,26.367,44.434,46.875,-84.961,0
1485534558.163,40.527,28.809,37.598,46.875,-273.926,0
1485534558.167,42.969,38.574,43.945,78.613,3.906,0
1485534558.171,46.875,46.387,61.035,99.609,273.438,0
1485534558.175,29.297,28.320,46.875,94.727,477.051,0
1485534558.179,30.273,24.902,33.691,41.504,214.355,0
1485534558.183,41.992,27.344,32.715,16.602,-316.406,0
1485534558.187,25.879,28.320,27.832,43.457,91.309,0
1485534558.191,25.879,27.832,29.785,63.965,584.961,0
1485534558.195,18.555,28.320,40.527,73.242,218.262,0
1485534558.199,12.207,27.832,38.086,50.293,-40.039,0
1485534558.202,38.574,29.297,34.180,37.109,-202.637,0
1485534558.206,38.574,31.738,34.668,49.805,132.324,0
1485534558.210,20.508,32.715,34.668,66.895,182.129,0
1485534558.214,28.809,35.156,34.180,93.750,-11.719,0
1485534558.218,39.062,32.715,37.598,60.547,357.910,0
1485534558.222,48.340,31.250,35.156,39.551,233.887,0
1485534558.226,42.969,30.273,27.832,57.129,-15.137,0
1485534558.230,21.484,31.738,35.645,72.754,501.953,0
1485534558.234,23.438,34.668,40.039,94.727,424.316,0
1485534558.238,36.133,32.227,25.879,71.777,1.953,0
1485534558.242,42.480,30.762,30.273,42.480,-160.156,0
1485534558.245,49.316,33.203,42.969,66.895,-194.824,0
1485534558.249,37.109,30.273,37.598,63.965,-32.715,0
1485534558.253,26.367,36.133,41.992,67.383,-32.227,0
1485534558.257,38.086,45.410,56.641,86.914,7.812,2
1485534558.261,38.574,27.832,38.574,35.645,-155.762,0
1485534558.265,36.133,22.461,23.926,33.203,-80.566,0
1485534558.269,24.414,30.762,32.227,59.082,541.992,0
1485534558.273,10.254,31.250,36.133,58.594,539.062,0
1485534558.277,8.301,30.273,40.527,68.359,53.711,0
1485534558.281,25.391,29.785,39.551,45.898,-112.793,0
1485534558.284,40.527,27.832,37.109,39.551,-299.316,0
1485534558.288,32.715,28.320,41.504,55.176,-151.367,0
1485534558.292,18.555,26.855,43.457,79.102,20.020,0
1485534558.296,24.414,32.227,44.434,83.984,100.586,0
1485534558.300,31.738,32.227,41.504,55.176,-6.836,0
1485534558.304,37.598,24.414,36.133,62.012,-246.094,0
1485534558.308,38.086,28.320,36.133,62.988,-90.332,0
1485534558.312,28.320,34.668,40.527,85.938,326.660,0
1485534558.316,10.742,28.320,32.227,81.543,515.625,0
1485534558.320,38.574,24.414,28.809,29.297,210.449,0
1485534558.324,83.984,28.809,41.504,34.668,-164.551,0
1485534558.327,32.227,25.879,39.551,68.848,244.141,0
1485534558.331,2.930,26.367,44.434,74.219,577.637,0
1485534558.335,37.598,42.480,59.082,83.984,188.965,0
1485534558.339,45.898,30.273,45.410,54.688,26.855,0
1485534558.343,44.922,14.648,28.809,27.832,-263.672,0
1485534558.347,28.320,24.414,34.668,52.734,-103.027,0
1485534558.351,16.602,26.367,39.062,71.289,44.922,0
1485534558.355,30.273,25.391,42.969,74.219,20.508,0
1485534558.359,38.574,24.902,38.574,58.105,391.113,0
1485534558.363,40.039,27.344,29.785,29.297,125.977,0
1485534558.367,40.039,29.297,33.203,42.969,43.457,0
1485534558.370,19.531,32.715,41.504,65.918,567.871,0
1485534558.374,11.719,34.180,42.969,80.566,281.250,0
1485534558.378,37.109,28.809,39.062,66.406,30.762,0
1485534558.382,50.781,29.297,34.180,44.922,-94.238,0
1485534558.386,45.898,34.668,34.180,55.176,-98.633,0
1485534558.390,34.180,35.156,37.598,82.031,0.488,0
1485534558.394,38.574,36.133,27.832,97.168,-20.996,0
1485534558.398,40.039,34.668,30.762,55.664,106.934,0
1485534558.402,63.477,42.969,49.316,41.992,-187.988,0
1485534558.406,77.148,47.363,59.082,83.008,-79.102,0
1485534558.409,34.668,26.367,45.898,80.078,572.266,0
1485534558.413,34.668,31.738,45.410,84.473,382.812,0
1485534558.417,33.691,33.691,41.992,69.336,103.027,0
1485534558.421,30.273,30.762,39.551,42.969,-9.277,0
1485534558.425,34.180,32.715,42.480,45.410,-310.059,0
1485534558.429,26.855,31.250,41.016,53.711,-129.883,0
1485534558.433,31.738,38.574,53.711,86.914,-38.574,0
1485534558.437,41.504,38.086,54.688,79.102,89.355,0
1485534558.441,39.551,28.320,39.062,43.945,37.598,0
1485534558.445,50.781,28.320,36.621,56.152,-220.215,0
1485534558.449,46.387,30.273,44.922,87.402,-169.434,0
1485534558.452,32.227,30.762,45.898,100.586,250.488,0
1485534558.456,34.180,35.156,50.293,82.031,504.883,0
1485534558.460,45.898,35.156,41.504,41.016,68.848,0
1485534558.464,74.219,35.156,20.996,48.340,-481.445,0
1485534558.468,55.176,35.156,32.715,90.332,159.668,0
1485534558.472,37.598,35.156,50.293,97.656,603.027,0
1485534558.476,32.715,32.715,56.152,87.402,164.062,0
1485534558.480,35.645,26.367,42.480,47.852,-54.688,0
1485534558.484,77.148,43.457,47.852,68.848,-403.809,0
1485534558.488,62.500,41.016,48.828,73.730,-192.871,0
1485534558.491,19.531,20.996,34.668,69.336,-12.695,0
1485534558.495,22.461,29.785,37.109,77.148,107.910,0
1485534558.499,36.621,32.715,32.227,33.691,361.816,0
1485534558.503,52.246,32.715,40.039,34.668,139.160,0
1485534558.507,42.969,30.762,33.203,59.082,314.941,0
1485534558.511,47.363,29.297,29.297,64.941,345.215,0
1485534558.515,55.664,34.668,52.246,87.891,69.336,0
1485534558.519,38.086,35.156,62.012,87.402,131.836,0
1485534558.523,42.969,28.809,44.922,37.598,-348.633,0
1485534558.527,31.250,22.949,32.227,39.551,-73.730,0
1485534558.531,17.578,28.320,41.504,50.293,427.246,0
1485534558.534,42.480,34.180,41.504,62.012,163.574,0
1485534558.538,42.480,30.273,38.574,56.152,130.371,0
1485534558.542,46.387,28.809,43.945,31.738,-251.465,0
1485534558.546,44.434,22.949,42.480,54.688,6.348,0
1485534558.550,41.992,40.039,55.176,88.867,646.484,0
1485534558.554,48.340,46.387,59.570,89.355,344.238,0
1485534558.558,26.855,29.785,39.551,46.387,265.137,0
1485534558.562,42.969,29.297,38.574,43.457,10.742,0
1485534558.566,61.523,28.809,41.992,71.289,-267.578,0
1485534558.570,45.410,29.785,43.457,70.312,-30.762,0
1485534558.574,31.738,27.344,55.664,96.191,36.133,0
1485534558.577,48.828,29.297,49.805,91.309,170.410,0
1485534558.581,63.965,30.273,38.574,43.945,-174.316,0
1485534558.585,37.598,26.367,39.551,62.012,-296.387,0
1485534558.589,8.789,25.391,39.062,83.008,-39.551,0
1485534558.593,10.742,28.320,41.992,85.449,375.000,0
1485534558.597,39.551,28.320,46.387,87.402,497.070,0
1485534558.601,67.383,29.785,45.898,62.988,-143.066,0
1485534558.605,70.312,29.785,31.738,42.969,-485.352,0
1485534558.609,27.344,31.738,27.832,41.016,286.133,0
1485534558.613,18.066,32.715,42.480,73.730,561.523,0
1485534558.616,31.738,26.855,43.457,87.402,319.824,0
1485534558.620,36.621,36.621,62.012,60.059,162.109,0
1485534558.624,56.152,33.691,58.594,56.152,-406.738,0
1485534558.628,38.574,17.090,36.621,81.543,-159.180,0
1485534558.632,23.438,24.902,41.504,110.352,173.828,0
1485534558.636,37.109,31.738,41.504,76.660,213.379,0
1485534558.640,25.391,28.320,35.156,58.594,285.156,0
1485534558.644,46.875,27.832,42.969,63.965,-84.473,0
1485534558.648,48.340,28.809,32.227,39.551,157.715,0
1485534558.652,37.109,35.156,22.461,87.402,600.586,0
1485534558.656,67.383,36.133,38.574,145.020,216.797,0
1485534558.659,30.762,20.020,39.551,74.707,-60.059,0
1485534558.663,42.969,22.949,37.109,26.855,-413.086,0
1485534558.667,68.359,36.621,26.855,45.410,-166.016,0
1485534558.671,29.297,34.668,39.551,66.406,-5.859,0
1485534558.675,29.785,29.785,51.758,102.539,237.793,0
1485534558.679,43.457,35.645,41.992,57.129,277.832,0
1485534558.683,58.105,42.969,49.316,39.551,-410.645,0
1485534558.687,48.340,27.344,39.551,65.918,90.820,0
1485534558.691,17.090,29.785,29.297,62.012,679.688,0
1485534558.695,21.484,37.598,47.363,50.781,327.148,0
1485534558.699,28.320,33.691,47.852,46.875,45.410,0
1485534558.702,38.574,33.691,35.156,40.527,-364.258,0
1485534558.706,46.875,32.715,36.621,51.758,-181.152,0
1485534558.710,21.973,32.715,35.156,82.031,105.469,0
1485534558.714,9.766,34.180,45.410,109.863,80.566,0
1485534558.718,31.250,35.156,46.875,80.078,95.215,0
1485534558.722,55.176,32.715,48.340,50.781,-340.820,0
1485534558.726,56.641,30.762,53.711,82.520,-263.184,2
1485534558.730,30.273,33.203,37.598,82.031,83.496,0
1485534558.734,4.883,34.180,32.227,97.656,388.672,0
1485534558.738,27.832,34.668,43.457,96.191,588.379,0
1485534558.741,65.918,37.598,48.340,52.734,37.598,0
1485534558.745,62.012,31.738,44.434,54.199,-333.496,0
1485534558.749,40.527,41.992,54.688,89.844,433.105,0
1485534558.753,38.086,44.434,61.035,109.375,608.398,0
1485534558.757,37.109,21.973,43.457,69.824,89.844,0
1485534558.761,44.434,23.926,34.180,28.320,-186.523,0
1485534558.765,39.551,27.344,34.668,35.645,-324.219,0
1485534558.769,40.039,28.320,38.574,72.266,-44.922,0
1485534558.773,35.156,34.180,46.875,102.539,100.586,0
1485534558.777,29.785,32.227,45.898,88.379,105.957,0
1485534558.781,45.410,31.738,32.715,46.387,142.090,0
1485534558.784,52.734,31.738,33.691,31.738,-147.461,0
1485534558.788,27.832,27.344,34.668,46.387,192.383,0
1485534558.792,-6.836,28.320,36.133,85.938,752.441,0
1485534558.796,13.184,29.785,38.574,86.426,437.012,0
1485534558.800,39.062,30.273,35.156,27.344,-84.473,0
1485534558.804,52.734,33.203,26.367,35.645,-419.434,0
1485534558.808,47.852,30.273,25.391,60.547,-155.762,0
1485534558.812,31.250,32.227,45.898,81.055,80.078,0
1485534558.816,43.457,48.340,64.453,119.141,136.719,0
1485534558.820,32.715,33.203,48.828,79.102,-68.359,0
1485534558.823,41.016,20.020,38.086,31.250,-441.406,0
1485534558.827,57.129,26.855,36.133,45.898,201.172,0
1485534558.831,34.668,31.250,29.297,64.453,721.680,0
1485534558.835,18.066,33.691,36.133,80.078,184.082,0
1485534558.839,40.039,33.691,42.480,69.824,-71.289,0
1485534558.843,55.176,33.691,42.969,50.293,-217.773,0
1485534558.847,51.270,35.645,44.922,64.941,-113.281,0
1485534558.851,48.340,35.156,43.945,75.684,84.473,0
1485534558.855,52.246,37.598,45.410,91.797,281.738,0
1485534558.859,42.969,36.133,45.898,74.219,132.324,0
1485534558.863,54.199,35.645,40.527,44.922,-421.387,0
1485534558.866,51.270,36.133,38.574,56.152,-156.738,0
1485534558.870,14.648,30.273,32.715,68.359,148.926,0
1485534558.874,46.875,45.898,47.363,116.211,312.012,0
1485534558.878,64.453,52.734,62.012,92.773,418.457,0
1485534558.882,50.293,26.367,40.527,36.621,-276.367,0
1485534558.886,57.617,24.414,34.668,54.688,-288.086,0
1485534558.890,4.883,30.762,39.062,63.965,575.195,0
1485534558.894,3.906,34.668,50.293,83.984,424.805,0
1485534558.898,49.805,38.086,50.781,76.660,-17.578,0
1485534558.902,61.035,36.133,38.086,40.527,-285.156,0
1485534558.906,69.336,31.250,36.621,62.988,-264.648,0
1485534558.909,45.898,28.809,42.969,81.543,132.324,0
1485534558.913,39.062,31.738,43.945,83.984,235.840,0
1485534558.917,40.039,32.227,45.410,88.867,164.062,0
1485534558.921,47.852,31.738,38.086,59.570,128.906,0
1485534558.925,52.734,29.785,36.133,45.410,-54.199,0
1485534558.929,28.809,30.273,43.457,63.477,411.621,0
1485534558.933,31.738,33.203,43.945,74.219,604.004,0
1485534558.937,44.434,39.062,44.922,74.707,54.688,0
1485534558.941,35.645,36.133,38.086,53.711,-201.660,0
1485534558.945,34.180,30.762,32.715,51.270,-329.102,0
1485534558.948,46.875,35.156,38.086,62.988,-20.508,0
1485534558.952,39.551,38.574,46.875,84.473,56.641,0
1485534558.956,30.273,30.273,29.297,86.914,101.562,0
1485534558.960,51.270,37.598,39.062,61.035,-99.609,0
1485534558.964,55.664,38.574,54.199,58.105,-347.656,0
1485534558.968,31.250,20.996,37.109,55.176,129.395,0
1485534558.972,17.578,26.367,37.598,64.941,369.141,0
1485534558.976,26.367,29.785,44.434,84.473,192.871,0
1485534558.980,37.598,29.785,44.434,61.523,-17.578,0
1485534558.984,58.105,33.203,39.062,53.223,-383.301,0
1485534558.988,61.035,33.203,36.621,75.684,219.727,0
1485534558.991,35.156,35.645,48.340,79.590,705.078,0
1485534558.995,38.086,37.109,51.270,83.984,180.176,0
1485534558.999,38.574,33.691,38.086,67.871,17.578,0
1485534559.003,63.965,32.227,42.969,51.758,-253.906,0
1485534559.007,81.055,35.645,40.039,57.617,-2.441,0
1485534559.011,50.781,38.086,41.504,74.219,140.137,0
1485534559.015,31.250,37.109,50.293,92.773,341.797,0
1485534559.019,47.852,38.086,35.645,65.918,437.500,0
1485534559.023,62.500,33.691,35.156,54.688,-277.344,0
1485534559.027,58.105,29.785,39.551,62.988,-2.441,0
1485534559.031,60.059,44.922,53.711,72.266,609.863,0
1485534559.034,39.551,41.016,67.383,89.844,250.977,0
1485534559.038,30.273,24.902,42.969,54.199,29.785,0
1485534559.042,34.668,21.973,39.062,33.691,-250.488,0
1485534559.046,38.574,22.461,42.480,60.059,-65.918,0
1485534559.050,33.691,28.320,41.504,69.336,196.289,0
1485534559.054,22.949,25.879,47.363,88.867,95.703,0
1485534559.058,25.391,25.879,50.293,79.102,108.398,0
1485534559.062,50.293,29.785,47.852,56.152,33.203,0
1485534559.066,58.594,28.809,41.992,56.641,238.281,0
1485534559.070,45.410,29.785,43.945,59.570,278.809,0
1485534559.073,36.621,31.250,48.828,103.516,5.371,0
1485534559.077,28.320,28.809,49.805,97.656,41.992,0
1485534559.081,52.734,22.949,38.574,54.199,-211.426,0
1485534559.085,60.059,24.414,23.926,58.594,-296.387,0
1485534559.089,37.109,29.297,41.504,62.988,249.023,0
1485534559.093,41.504,34.668,50.781,81.055,195.312,0
1485534559.097,31.250,30.762,46.875,84.961,31.738,0
1485534559.101,30.762,25.879,44.922,47.363,-150.391,0
1485534559.105,56.641,27.832,38.574,54.688,-303.223,0
1485534559.109,57.617,31.738,44.922,73.730,209.473,0
1485534559.113,38.574,35.156,42.480,86.426,286.133,0
1485534559.116,50.293,49.805,56.152,103.516,54.688,0
1485534559.120,50.293,43.945,56.641,53.223,-108.887,0
1485534559.124,26.855,21.973,30.762,30.762,-347.656,0
1485534559.128,38.086,23.926,36.621,62.988,205.566,0
1485534559.132,27.344,23.438,47.852,91.309,337.402,0
1485534559.136,20.020,28.320,39.062,86.426,28.809,0
1485534559.140,46.875,35.156,26.855,37.109,-58.105,0
1485534559.144,54.199,33.203,35.156,40.527,-308.105,0
1485534559.148,46.875,32.227,41.016,67.871,2.441,0
1485534559.152,50.293,34.180,46.875,81.543,135.742,0
1485534559.155,45.410,36.133,50.781,98.145,304.199,0
1485534559.159,42.969,36.133,45.898,79.102,416.016,0
1485534559.163,59.570,35.156,44.434,59.570,-234.863,0
1485534559.167,56.641,37.109,39.551,70.312,52.246,0
1485534559.171,37.109,39.062,38.574,79.102,522.461,0
1485534559.175,53.711,38.574,46.387,86.914,119.629,2
1485534559.179,63.965,36.621,45.410,73.242,-41.016,0
1485534559.183,57.129,35.156,41.504,52.246,-291.504,0
1485534559.187,60.547,40.039,49.316,80.566,-51.758,0
1485534559.191,46.387,35.156,50.781,98.633,46.387,0
1485534559.195,59.082,48.828,56.641,99.609,-49.805,0
1485534559.198,67.871,52.734,46.875,77.148,115.723,0
1485534559.202,56.152,26.855,15.137,33.691,54.199,0
1485534559.206,52.734,25.879,30.273,54.688,286.621,0
1485534559.210,30.273,34.180,46.387,64.453,645.996,0
1485534559.214,30.762,37.598,46.387,70.801,289.062,0
1485534559.218,34.668,34.180,51.270,75.684,-1.465,0
1485534559.222,45.898,29.785,47.363,44.434,-223.633,0
1485534559.226,63.965,33.691,41.016,66.406,-135.254,0
1485534559.230,42.480,38.086,49.316,90.332,46.387,0
1485534559.234,29.785,36.133,51.758,95.703,-70.312,0
1485534559.238,49.805,37.109,38.574,83.984,69.336,0
1485534559.241,57.129,36.133,39.062,41.504,-155.273,0
1485534559.245,65.430,29.785,46.875,69.336,-235.352,0
1485534559.249,63.477,31.250,38.086,93.750,168.945,0
1485534559.253,44.434,39.062,48.340,91.797,237.793,0
1485534559.257,49.316,37.109,45.410,86.426,73.730,0
1485534559.261,52.734,31.250,35.156,52.246,-87.891,0
1485534559.265,46.387,33.691,46.387,58.594,22.461,0
1485534559.269,22.949,33.203,41.016,57.129,571.289,0
1485534559.273,39.062,45.898,59.570,74.707,499.512,0
1485534559.277,54.688,41.504,60.059,82.031,59.570,0
1485534559.280,48.828,23.926,36.133,37.109,-76.172,0
1485534559.284,59.082,28.320,39.062,48.828,-252.930,0
1485534559.288,48.828,29.297,40.039,68.848,-148.926,0
1485534559.292,41.504,35.645,43.945,73.242,-64.941,0
1485534559.296,37.598,35.156,44.922,83.008,258.789,0
1485534559.300,44.434,29.785,41.504,63.965,409.668,0
1485534559.304,52.246,26.855,39.551,55.664,-198.730,0
1485534559.308,48.828,29.297,32.715,67.871,113.770,0
1485534559.312,41.992,33.691,34.668,74.219,561.523,0
1485534559.316,43.457,33.203,45.410,86.426,96.191,0
1485534559.320,49.316,30.273,41.504,59.570,-54.199,0
1485534559.323,62.012,26.855,27.832,53.223,-108.398,0
1485534559.327,65.430,26.367,38.574,79.590,118.164,0
1485534559.331,50.781,33.203,56.152,70.801,-64.453,0
1485534559.335,26.855,33.691,61.035,101.562,-112.305,0
1485534559.339,14.160,27.832,46.875,87.402,48.340,0
1485534559.343,64.941,41.016,46.875,74.707,3.906,0
1485534559.347,67.871,37.109,57.617,83.984,280.273,0
1485534559.351,24.414,20.996,41.016,68.359,507.324,0
1485534559.355,33.203,27.832,44.434,82.520,143.066,0
1485534559.359,32.715,28.320,44.434,62.012,33.691,0
1485534559.363,48.828,28.809,41.992,41.016,-231.445,0
1485534559.366,60.547,26.367,40.527,56.152,-149.414,0
1485534559.370,41.016,27.344,42.480,70.801,9.277,0
1485534559.374,36.621,32.227,48.340,100.586,-87.402,0
1485534559.378,48.828,33.203,48.340,88.867,43.945,0
1485534559.382,63.477,33.691,46.387,55.176,0.000,0
1485534559.386,53.223,35.645,34.180,67.383,97.168,0
1485534559.390,38.574,34.180,23.926,82.031,212.891,0
1485534559.394,30.273,32.227,43.457,97.168,318.848,0
1485534559.398,44.922,35.156,56.152,91.797,231.934,0
1485534559.402,56.152,30.273,44.434,50.781,-165.527,0
1485534559.405,54.688,30.762,41.992,59.082,-335.449,0
1485534559.409,52.734,49.316,53.711,93.750,401.367,0
1485534559.413,36.133,40.039,57.617,97.168,448.730,0
1485534559.417,23.438,26.855,44.434,80.566,70.801,0
1485534559.421,38.086,32.227,36.133,56.152,-51.270,0
1485534559.425,58.594,31.250,37.109,68.848,-288.086,0
1485534559.429,45.898,29.785,30.762,72.266,-117.188,0
1485534559.433,25.879,32.715,41.504,79.590,-65.430,0
1485534559.437,10.742,34.668,48.340,91.797,340.820,0
1485534559.441,35.156,34.180,42.480,61.523,529.785,0
1485534559.445,63.477,32.227,40.527,52.246,-30.762,0
1485534559.448,35.645,31.738,35.645,59.570,259.277,0
1485534559.452,24.902,29.785,43.457,79.102,541.992,0
1485534559.456,31.738,28.320,34.668,87.402,93.750,0
1485534559.460,40.039,32.227,25.391,63.477,36.621,0
1485534559.464,73.730,39.551,45.410,55.176,-285.645,0
1485534559.468,77.637,50.781,59.570,67.383,-201.660,0
1485534559.472,38.574,38.574,42.480,83.008,-6.836,0
1485534559.476,23.438,30.273,28.320,95.703,207.031,0
1485534559.480,32.715,33.203,37.598,54.688,172.852,0
1485534559.484,38.574,28.809,37.109,45.410,-82.031,0
1485534559.487,32.715,30.762,34.668,73.242,345.215,0
1485534559.491,41.016,36.621,40.527,74.219,512.695,0
1485534559.495,54.688,35.645,44.922,79.590,41.504,0
1485534559.499,38.574,29.297,39.062,68.359,125.000,0
1485534559.503,44.434,24.414,43.457,50.293,-39.062,0
1485534559.507,60.547,33.691,48.340,70.312,-103.027,0
1485534559.511,51.758,38.574,45.410,84.961,-84.473,0
1485534559.515,39.551,34.180,37.109,96.191,-64.453,0
1485534559.519,51.270,37.109,40.039,87.402,171.875,0
1485534559.523,47.852,35.156,51.758,53.223,-249.023,0
1485534559.527,36.621,31.738,48.828,56.641,-150.391,0
1485534559.530,53.711,39.062,44.434,67.871,280.273,0
1485534559.534,29.785,41.016,43.457,87.891,312.500,0
1485534559.538,28.320,31.738,44.922,62.012,322.266,0
1485534559.542,58.105,27.832,46.387,39.551,-187.012,0
1485534559.546,58.105,39.551,59.570,86.426,-228.027,0
1485534559.550,46.387,37.598,47.852,83.496,499.512,0
1485534559.554,40.039,28.320,31.738,68.848,315.430,0
1485534559.558,38.574,31.738,40.039,81.543,135.254,0
1485534559.562,41.992,30.273,36.621,52.246,79.102,0
1485534559.566,60.547,30.273,37.598,53.711,-123.535,0
1485534559.570,54.688,31.738,43.457,67.871,-55.664,0
1485534559.573,34.668,32.227,44.434,84.961,-66.895,0
1485534559.577,26.367,35.156,50.293,86.426,437.500,0
1485534559.581,60.547,38.574,39.551,41.992,287.598,0
1485534559.585,72.266,32.715,34.180,54.199,-340.332,0
1485534559.589,34.668,29.785,43.945,72.754,322.266,0
1485534559.593,18.555,34.180,47.852,77.148,519.043,0
1485534559.597,34.668,34.668,50.293,85.449,129.883,0
1485534559.601,51.758,31.250,48.340,54.688,-46.387,0
1485534559.605,53.711,28.320,40.527,53.223,-391.113,0
1485534559.609,46.387,27.832,41.504,71.777,-190.918,0
1485534559.612,36.621,30.762,49.805,92.773,-83.496,0
1485534559.616,22.949,30.762,50.781,97.656,127.930,0
1485534559.620,35.645,32.227,48.340,76.172,254.395,0
1485534559.624,48.828,33.691,40.527,55.176,-31.738,0
1485534559.628,39.062,33.691,31.250,61.523,366.699,0
1485534559.632,34.668,36.621,39.551,79.590,544.922,0
1485534559.636,23.438,30.762,42.480,68.848,168.945,0
1485534559.640,39.551,39.062,38.574,59.570,25.391,0
1485534559.644,65.430,42.969,41.016,57.617,-380.371,0
1485534559.648,41.016,19.531,34.668,52.734,-193.359,0
1485534559.652,12.695,16.602,42.480,70.312,-69.336,0
1485534559.655,20.996,23.438,46.875,90.332,77.637,0
1485534559.659,27.832,26.855,41.992,51.270,159.180,0
1485534559.663,38.574,26.367,39.551,45.410,-309.570,0
1485534559.667,41.504,29.297,42.969,74.219,-91.797,0
1485534559.671,21.973,30.273,43.457,80.566,279.297,0
1485534559.675,36.133,34.180,43.457,91.797,488.281,1
1485534559.679,54.688,39.551,38.574,64.941,477.051,0
1485534559.683,73.242,34.668,31.738,55.664,-223.145,0
1485534559.687,70.312,33.203,36.133,77.148,46.875,0
1485534559.691,45.410,36.621,40.527,76.172,558.594,0
1485534559.695,48.828,34.668,42.969,95.703,236.328,0
1485534559.698,50.781,33.203,51.270,99.121,93.262,0
1485534559.702,54.199,28.320,43.945,68.848,-313.965,0
1485534559.706,65.918,39.551,23.438,71.289,-195.801,0
1485534559.710,68.848,50.781,39.551,87.402,21.484,0
1485534559.714,37.109,31.738,40.039,94.727,-17.090,0
1485534559.718,23.438,28.809,32.227,88.867,451.660,0
1485534559.722,43.457,33.203,36.621,43.945,153.320,0
1485534559.726,50.293,30.273,30.762,45.410,-230.957,0
1485534559.730,40.039,30.273,32.715,67.383,447.754,0
1485534559.734,33.203,31.738,42.969,70.801,449.707,0
1485534559.737,29.297,35.645,43.457,81.055,261.230,0
1485534559.741,46.387,34.668,40.039,51.758,53.711,0
1485534559.745,46.387,30.273,42.480,47.852,-353.027,0
1485534559.749,32.227,29.785,44.434,69.336,-118.164,0
1485534559.753,41.504,33.203,43.945,93.262,-17.090,0
1485534559.757,48.828,36.133,49.316,90.332,92.773,0
1485534559.761,38.574,32.227,41.992,58.105,-151.367,0
1485534559.765,46.875,32.715,32.715,61.035,-141.602,0
1485534559.769,58.105,39.551,38.086,59.082,507.812,0
1485534559.773,46.875,40.527,41.992,62.988,537.109,0
1485534559.777,44.434,34.668,47.852,79.102,129.883,0
1485534559.780,56.641,41.504,63.965,67.383,-104.004,0
1485534559.784,49.316,34.668,57.129,57.617,-371.094,0
1485534559.788,28.320,22.949,31.250,49.805,-160.156,0
1485534559.792,22.949,27.344,37.109,61.035,-20.508,0
1485534559.796,19.531,25.391,43.945,78.125,242.188,0
1485534559.800,28.809,26.855,41.504,51.270,127.930,0
1485534559.804,53.711,28.809,41.992,40.527,-374.512,0
1485534559.808,53.711,31.738,38.574,47.363,-151.367,0
1485534559.812,28.809,31.250,37.598,72.266,285.645,0
1485534559.816,21.973,25.879,49.805,103.027,487.305,0
1485534559.819,29.785,26.855,35.156,73.242,182.617,0
1485534559.823,48.828,26.855,18.555,41.504,-432.617,0
1485534559.827,51.758,28.809,36.133,65.918,40.039,0
1485534559.831,30.273,35.645,44.434,77.148,588.867,0
1485534559.835,39.062,35.645,48.340,82.031,172.852,0
1485534559.839,45.898,29.785,41.504,71.289,-14.160,0
1485534559.843,44.922,25.879,29.297,44.922,-323.242,0
1485534559.847,45.898,26.855,26.855,61.035,-102.051,0
1485534559.851,31.738,29.297,33.691,73.242,63.477,0
1485534559.855,29.297,30.762,47.852,92.773,145.508,0
1485534559.859,36.621,29.785,46.387,88.867,508.789,0
1485534559.862,58.594,26.855,43.457,55.176,96.191,0
1485534559.866,66.406,27.344,40.039,60.547,-9.766,0
1485534559.870,53.223,32.227,40.039,69.824,559.082,0
1485534559.874,58.105,35.645,47.363,83.496,310.059,0
1485534559.878,67.871,34.180,49.805,98.145,-1.465,0
1485534559.882,74.707,29.785,43.457,75.684,-302.246,0
1485534559.886,51.758,27.344,33.691,66.895,-237.305,0
1485534559.890,46.875,42.480,49.805,83.008,127.441,0
1485534559.894,65.430,53.711,67.871,103.516,66.406,0
1485534559.898,38.086,35.156,53.711,84.961,254.883,0
1485534559.902,47.363,23.438,37.109,44.922,-79.590,0
1485534559.905,59.570,23.438,33.203,68.848,-47.852,0
1485534559.909,42.969,27.832,38.086,74.219,601.562,0
1485534559.913,41.016,33.203,42.480,69.336,651.855,0
1485534559.917,50.781,32.715,45.898,88.867,354.492,0
1485534559.921,47.852,31.250,43.457,58.105,-94.727,0
1485534559.925,58.594,32.715,41.504,58.594,-318.848,0
1485534559.929,58.105,31.738,44.434,79.102,-24.414,0
1485534559.933,35.645,35.156,46.387,92.285,34.668,0
1485534559.937,34.180,35.645,48.828,103.516,68.359,0
1485534559.941,54.199,34.668,49.805,77.637,-17.578,0
1485534559.944,82.520,44.922,51.758,70.801,-291.992,0
1485534559.948,63.965,36.621,33.203,85.449,-83.984,0
1485534559.952,27.344,26.855,30.273,88.867,344.727,0
1485534559.956,29.297,33.203,46.875,95.703,474.121,0
1485534559.960,41.016,31.250,39.062,75.684,144.043,0
1485534559.964,48.340,28.320,38.086,59.570,-391.113,0
1485534559.968,57.129,34.668,40.527,72.266,142.090,0
1485534559.972,45.898,42.969,42.969,83.984,746.094,0
1485534559.976,38.574,43.945,51.270,92.285,369.629,0
1485534559.980,41.992,39.551,48.828,69.336,32.715,0
1485534559.984,45.410,30.273,40.039,47.852,-330.078,0
1485534559.987,39.551,29.297,37.109,69.336,-56.152,0
1485534559.991,25.391,34.180,45.410,81.055,60.059,0
1485534559.995,37.109,35.156,49.316,99.609,-15.137,0
1485534559.999,30.273,29.785,45.410,82.520,367.188,0
1485534560.003,46.875,29.785,44.434,48.828,99.121,0
1485534560.007,55.176,33.691,34.668,62.500,219.238,0
1485534560.011,41.992,34.180,37.598,68.848,589.355,0
1485534560.015,55.664,34.180,39.062,84.473,129.883,0
1485534560.019,40.527,30.762,31.738,83.496,10.254,0
1485534560.023,40.039,22.949,46.387,58.594,-286.133,0
1485534560.027,46.387,25.879,42.480,61.035,-160.156,0
1485534560.030,37.109,31.738,34.668,83.984,273.926,0
1485534560.034,24.414,32.715,44.434,95.703,223.145,0
1485534560.038,20.996,30.273,44.434,69.336,109.375,0
1485534560.042,42.480,29.785,47.852,56.641,-235.352,0
1485534560.046,71.289,43.457,55.664,81.543,57.617,0
1485534560.050,39.551,38.086,42.480,66.895,453.613,0
1485534560.054,23.438,27.832,37.598,71.289,52.734,0
1485534560.058,28.809,28.809,40.527,87.402,21.484,0
1485534560.062,30.762,28.809,35.645,46.387,-221.680,0
1485534560.066,49.805,27.344,35.156,44.922,-230.469,0
1485534560.069,41.992,30.273,39.551,65.918,198.242,0
1485534560.073,37.598,35.645,33.691,84.961,3.418,0
1485534560.077,43.945,37.109,23.438,90.820,22.461,0
1485534560.081,43.457,32.227,34.180,57.129,-137.695,0
1485534560.085,48.340,29.297,40.527,50.293,-303.711,0
1485534560.089,46.387,33.691,42.480,63.965,128.418,0
1485534560.093,33.203,36.133,48.340,85.449,405.273,0
1485534560.097,41.992,33.203,52.734,94.238,390.137,0
1485534560.101,40.039,24.902,43.945,56.152,-28.320,0
1485534560.105,59.082,37.109,45.898,65.918,-408.203,0
1485534560.109,56.152,42.969,51.758,76.172,320.312,0
1485534560.112,19.531,20.508,41.504,62.500,530.762,0
1485534560.116,18.555,21.484,41.992,79.102,18.066,0
1485534560.120,38.086,24.414,33.691,57.617,-89.355,2
1485534560.124,51.270,22.949,31.738,31.738,-306.152,0
1485534560.128,40.039,19.043,29.297,38.574,-85.449,0
1485534560.132,17.090,24.902,22.461,56.152,-113.770,0
1485534560.136,-3.906,32.715,29.785,77.637,-25.391,0
1485534560.140,-2.930,24.902,43.945,61.035,347.168,0
1485534560.144,31.250,17.578,49.805,36.621,68.848,0
1485534560.148,33.691,23.438,41.016,50.781,308.105,0
1485534560.151,16.113,29.297,39.062,54.199,538.574,0
1485534560.155,36.133,33.203,47.852,78.613,55.664,0
1485534560.159,42.969,39.062,41.504,73.242,-35.156,0
1485534560.163,53.711,36.133,33.203,46.875,-294.922,0
1485534560.167,53.223,33.203,36.133,60.059,-42.480,0
1485534560.171,49.316,35.645,43.945,62.500,2.930,0
1485534560.175,28.320,37.598,42.969,80.078,-78.125,0
1485534560.179,22.461,37.598,41.992,64.941,88.379,0
1485534560.183,44.922,30.273,38.086,29.785,-238.281,0
1485534560.187,41.016,28.809,31.250,48.828,202.148,0
1485534560.191,54.688,43.945,37.598,70.801,623.535,0
1485534560.194,25.391,30.273,46.387,79.102,137.695,0
1485534560.198,15.137,20.508,46.387,74.219,24.902,0
1485534560.202,38.574,22.461,41.016,49.805,-222.168,0
1485534560.206,49.805,19.043,40.527,63.965,-73.242,0
1485534560.210,56.641,25.879,41.016,70.801,262.207,0
1485534560.214,31.738,26.367,47.363,91.309,6.836,0
1485534560.218,10.742,30.762,50.293,91.797,61.523,0
1485534560.222,32.227,35.156,39.551,37.109,-143.066,0
1485534560.226,55.664,29.297,35.156,34.668,-89.355,0
1485534560.230,37.598,28.320,39.062,48.828,97.168,0
1485534560.234,30.273,34.180,39.551,69.824,206.543,0
1485534560.237,42.969,30.273,45.898,81.543,410.645,0
1485534560.241,42.969,24.902,47.852,35.156,-75.195,0
1485534560.245,42.969,26.367,31.250,35.645,-267.090,0
1485534560.249,38.574,30.762,25.391,65.918,457.520,0
1485534560.253,18.555,32.715,41.016,67.871,425.781,0
1485534560.257,29.297,36.133,42.969,68.848,0.000,0
1485534560.261,59.082,48.828,47.363,62.012,-74.707,0
1485534560.265,60.547,37.598,40.527,48.828,-229.980,0
1485534560.269,41.504,21.484,27.832,42.480,-7.812,0
1485534560.273,27.832,27.832,37.109,68.359,-97.656,0
1485534560.276,34.668,31.738,40.527,85.449,23.438,0
1485534560.280,56.641,31.250,38.086,57.129,327.148,0
1485534560.284,64.453,28.320,37.109,44.434,124.023,0
1485534560.288,57.617,29.785,38.574,55.176,411.621,0
1485534560.292,35.645,33.203,37.598,66.406,510.742,0
1485534560.296,31.738,32.227,41.992,81.543,52.246,0
1485534560.300,29.785,30.273,32.227,68.359,-34.180,0
1485534560.304,42.969,27.344,22.461,52.734,-248.047,0
1485534560.308,58.105,30.273,36.621,62.012,-77.637,0
1485534560.312,43.457,34.668,43.457,76.172,-155.273,0
1485534560.316,37.109,35.645,44.434,102.539,-66.895,0
1485534560.319,53.223,35.156,47.363,84.473,210.449,0
1485534560.323,62.500,30.762,38.086,52.734,-201.172,0
1485534560.327,63.965,31.738,35.645,68.848,187.500,0
1485534560.331,58.594,35.645,37.598,73.730,552.734,0
1485534560.335,42.480,33.691,42.969,85.449,196.777,0
1485534560.339,57.129,29.297,44.922,77.148,93.262,0
1485534560.343,63.965,29.297,33.691,53.223,-217.285,0
1485534560.347,53.223,44.922,41.992,78.125,93.750,0
1485534560.351,45.410,38.086,42.969,66.406,270.508,0
1485534560.355,36.621,22.949,35.645,79.590,-82.031,0
1485534560.359,28.320,26.367,39.551,79.590,119.629,0
1485534560.362,37.598,27.832,37.598,32.227,-101.074,0
1485534560.366,58.594,27.344,26.367,52.734,-48.340,0
1485534560.370,39.062,30.273,28.320,74.219,32.715,0
1485534560.374,18.555,31.250,44.922,89.844,146.973,0
1485534560.378,20.020,27.344,43.945,87.891,508.789,0
1485534560.382,27.344,24.902,44.434,53.223,38.574,0
1485534560.386,50.781,25.879,35.645,58.594,-41.504,0
1485534560.390,47.363,29.297,38.086,77.637,546.387,0
1485534560.394,30.762,32.715,47.852,89.355,297.852,0
1485534560.398,33.691,35.156,27.344,88.379,-6.348,0
1485534560.401,43.457,33.691,26.367,50.781,-48.828,0
1485534560.405,44.434,29.297,44.434,49.316,-208.984,0
1485534560.409,40.527,29.785,51.270,74.707,-86.426,0
1485534560.413,39.062,33.203,52.734,85.449,-154.297,0
1485534560.417,22.461,29.785,44.434,86.914,38.086,0
1485534560.421,36.621,26.855,43.457,56.641,366.699,0
1485534560.425,58.594,34.668,38.086,47.852,6.348,0
1485534560.429,38.574,39.551,29.297,66.895,306.152,0
1485534560.433,34.668,41.992,39.551,72.266,449.707,0
1485534560.437,38.086,37.109,50.293,88.867,-15.137,0
1485534560.441,39.062,33.203,45.410,65.430,42.480,0
1485534560.444,56.641,31.738,36.133,39.062,0.488,0
1485534560.448,49.805,43.457,60.059,78.125,-18.555,0
1485534560.452,33.691,43.457,58.105,95.703,-144.531,0
1485534560.456,22.949,31.738,37.598,89.844,8.301,0
1485534560.460,33.203,33.691,42.480,68.359,134.277,0
1485534560.464,50.293,28.809,32.227,46.875,-238.770,0
1485534560.468,44.922,33.203,28.320,62.012,242.188,0
1485534560.472,37.109,37.109,41.504,80.566,449.707,0
1485534560.476,50.781,36.133,42.969,88.867,-0.488,0
1485534560.480,54.688,39.062,34.668,76.660,152.344,0
1485534560.483,56.152,32.715,37.109,62.012,-225.586,0
1485534560.487,49.316,28.809,36.621,70.312,0.977,0
1485534560.491,36.133,33.203,45.898,85.449,191.895,0
1485534560.495,26.367,30.762,53.711,97.168,-76.660,0
1485534560.499,21.973,28.320,45.898,77.637,118.164,0
1485534560.503,33.203,28.320,36.133,56.641,-36.133,0
1485534560.507,56.152,30.273,35.156,70.801,14.160,0
1485534560.511,46.387,31.250,41.016,69.824,-33.203,0
1485534560.515,25.879,33.203,44.434,87.402,207.520,0
1485534560.519,29.297,32.227,35.645,89.355,492.188,0
1485534560.523,42.480,30.273,34.180,47.363,-191.406,0
1485534560.526,42.480,29.297,36.133,47.852,-144.043,0
1485534560.530,30.273,30.273,29.297,59.570,518.066,0
1485534560.534,33.203,36.621,31.738,79.102,160.645,0
1485534560.538,48.828,32.227,43.457,87.891,87.891,0
1485534560.542,58.105,28.809,43.457,60.059,-104.980,0
1485534560.546,53.711,30.762,38.086,59.570,-207.520,0
1485534560.550,51.758,33.203,41.504,76.172,19.531,0
1485534560.554,43.457,35.156,46.387,85.938,-113.770,0
1485534560.558,29.297,33.203,46.387,90.332,168.457,0
1485534560.562,48.828,44.434,50.781,80.078,276.855,0
1485534560.566,68.848,39.062,39.551,71.289,134.277,0
1485534560.569,38.086,21.484,27.832,62.500,529.785,0
1485534560.573,26.367,25.391,40.527,84.961,370.605,0
1485534560.577,35.156,28.809,34.180,96.191,64.453,0
1485534560.581,45.410,30.273,31.250,46.387,-17.090,0
1485534560.585,63.477,31.250,28.320,54.688,-342.773,0
1485534560.589,49.805,30.762,28.809,70.312,-165.527,0
1485534560.593,34.668,33.203,48.828,82.520,-147.949,0
1485534560.597,34.668,35.156,53.711,106.445,62.012,0
1485534560.601,68.359,33.691,49.316,66.895,29.785,0
1485534560.605,61.523,29.785,37.598,52.246,-333.984,0
1485534560.608,30.762,27.344,32.227,62.012,-20.020,0
1485534560.612,41.992,30.762,40.039,71.777,230.469,1
1485534560.616,43.945,34.180,44.922,91.309,146.484,0
1485534560.620,46.387,30.762,36.621,65.430,297.852,0
1485534560.624,72.754,27.832,33.203,54.199,-40.039,0
1485534560.628,59.082,32.715,34.180,77.637,130.371,0
1485534560.632,27.344,32.715,39.551,74.219,375.977,0
1485534560.636,20.996,27.344,44.922,88.867,30.762,0
1485534560.640,37.109,28.320,28.320,70.312,92.285,0
1485534560.644,63.965,30.273,28.809,43.457,-298.340,0
1485534560.648,55.176,32.715,42.969,64.941,-184.570,0
1485534560.651,37.109,28.809,42.480,71.777,-75.684,0
1485534560.655,38.574,39.062,48.828,93.750,275.391,0
1485534560.659,49.805,49.316,59.570,84.961,517.090,0
1485534560.663,47.363,33.203,38.086,45.410,-292.969,0
1485534560.667,47.363,23.926,29.785,60.547,-10.742,0
1485534560.671,36.133,29.785,39.062,71.289,564.453,0
1485534560.675,34.668,32.227,47.363,79.102,122.070,0
1485534560.679,42.969,30.762,40.039,74.219,291.992,0
1485534560.683,58.105,33.691,32.227,40.039,36.133,0
1485534560.687,74.707,34.180,30.762,49.805,-108.887,0
1485534560.691,70.312,34.180,28.809,75.195,18.066,0
1485534560.694,38.086,32.227,31.738,97.656,-112.305,0
1485534560.698,24.902,31.250,46.875,94.238,159.668,0
1485534560.702,43.945,30.273,45.898,56.152,103.027,0
1485534560.706,49.805,31.250,39.551,64.453,161.621,0
1485534560.710,38.574,29.785,41.992,71.777,508.301,0
1485534560.714,31.250,30.273,41.504,72.266,229.492,0
1485534560.718,37.109,32.715,42.969,82.520,85.938,0
1485534560.722,53.223,30.273,39.062,55.176,-163.086,0
1485534560.726,64.941,31.250,33.203,60.547,-309.082,0
1485534560.730,49.316,29.297,35.645,79.590,-42.480,0
1485534560.733,32.227,31.738,48.340,91.797,-123.047,0
1485534560.737,22.461,32.715,50.293,118.164,264.160,0
1485534560.741,27.832,23.438,36.621,65.918,321.289,0
1485534560.745,57.129,33.691,32.715,53.711,-185.547,0
1485534560.749,64.453,44.922,48.340,87.891,-10.254,0
1485534560.753,24.414,28.809,48.828,81.055,273.926,0
1485534560.757,19.531,30.273,44.434,83.008,253.418,0
1485534560.761,47.852,33.203,43.457,62.988,-19.043,0
1485534560.765,53.223,29.297,37.598,50.781,-436.523,0
1485534560.769,41.992,32.227,29.297,56.641,221.680,0
1485534560.773,31.738,34.180,35.645,71.289,516.602,0
1485534560.776,35.156,34.180,42.969,92.773,68.848,0
1485534560.780,36.621,32.715,37.109,72.266,-15.625,0
1485534560.784,33.203,31.250,33.691,56.641,-317.383,0
1485534560.788,35.156,28.809,40.039,61.523,-190.918,0
1485534560.792,43.945,35.156,42.969,65.918,-50.781,0
1485534560.796,21.973,34.668,36.621,85.449,312.500,0
1485534560.800,23.926,30.762,27.832,77.148,557.129,0
1485534560.804,58.594,32.715,30.762,46.387,-61.035,0
1485534560.808,59.082,30.273,37.598,62.012,123.047,0
1485534560.812,41.016,32.715,46.875,77.148,399.414,0
1485534560.815,29.785,32.715,49.316,83.008,42.480,0
1485534560.819,34.180,29.785,42.480,68.359,118.164,0
1485534560.823,60.059,31.250,43.945,60.547,-295.410,0
1485534560.827,46.875,32.227,40.527,67.871,4.883,0
1485534560.831,34.668,29.785,41.504,72.754,262.207,0
1485534560.835,54.199,30.762,47.363,92.285,-2.930,0
1485534560.839,36.133,30.762,38.086,57.617,125.977,0
1485534560.843,36.621,36.133,44.922,39.062,-9.277,0
1485534560.847,59.570,42.969,49.805,63.965,224.121,0
1485534560.851,44.434,26.855,33.691,47.852,522.949,0
1485534560.855,34.180,20.020,27.344,59.570,256.836,0
1485534560.858,32.715,25.391,26.855,70.312,270.996,0
1485534560.862,38.574,27.832,39.062,33.203,-177.246,0
1485534560.866,49.316,30.273,37.109,50.781,-218.750,0
1485534560.870,39.551,30.273,40.039,71.289,57.617,0
1485534560.874,21.973,27.344,39.551,80.078,-49.316,0
1485534560.878,26.855,27.344,37.598,84.961,125.000,0
1485534560.882,44.922,29.297,46.387,51.270,-176.758,0
1485534560.886,46.387,25.391,39.062,45.410,-243.652,0
1485534560.890,43.945,23.438,38.086,58.594,166.992,0
1485534560.894,42.480,29.297,42.480,71.289,423.340,0
1485534560.898,27.344,30.273,40.039,89.844,428.711,0
1485534560.901,33.691,22.461,43.457,54.688,-109.375,0
1485534560.905,56.152,22.461,29.785,37.109,-376.465,0
1485534560.909,22.949,23.926,24.902,61.035,393.066,0
1485534560.913,12.207,27.832,44.922,86.426,513.672,0
1485534560.917,32.715,33.691,51.270,88.867,304.199,0
1485534560.921,35.645,32.227,52.246,47.852,107.422,0
1485534560.925,44.922,23.438,46.387,39.062,-344.727,0
1485534560.929,55.176,31.738,40.039,59.082,-97.168,0
1485534560.933,54.199,45.898,47.363,83.984,-44.922,0
1485534560.937,26.367,26.367,36.133,88.867,355.469,0
1485534560.940,22.461,19.043,29.297,57.129,384.277,0
1485534560.944,40.527,20.020,34.180,53.223,-385.742,0
1485534560.948,41.504,21.973,30.762,63.965,165.527,0
1485534560.952,34.180,29.785,38.574,62.500,596.191,0
1485534560.956,26.367,31.738,43.945,85.938,62.988,0
1485534560.960,43.945,31.738,27.832,74.219,-16.113,0
1485534560.964,62.012,29.785,36.133,45.410,-291.016,0
1485534560.968,46.387,28.320,43.945,51.270,-167.969,0
1485534560.972,41.016,29.785,41.016,68.848,24.902,0
1485534560.976,19.531,31.250,45.410,83.496,209.473,0
1485534560.980,27.832,32.227,42.480,64.941,183.105,0
1485534560.983,45.410,31.250,35.645,40.527,-64.941,0
1485534560.987,41.504,32.227,35.645,58.105,369.629,0
1485534560.991,57.617,35.645,50.781,68.359,573.730,0
1485534560.995,46.387,38.086,47.852,81.055,83.984,0
1485534560.999,25.879,31.250,32.227,82.031,-20.020,0
1485534561.003,36.133,24.902,42.969,52.246,-306.152,0
1485534561.007,45.410,27.832,39.551,62.012,-160.156,0
1485534561.011,54.688,31.250,29.297,60.547,75.195,0
1485534561.015,45.898,30.273,44.434,75.684,-36.133,0
1485534561.019,30.762,36.133,48.340,82.031,102.539,0
1485534561.023,46.875,37.598,40.527,44.922,-247.070,0
1485534561.026,53.711,33.203,40.527,51.270,-125.488,0
1485534561.030,34.180,31.738,46.387,59.570,324.707,0
1485534561.034,36.621,34.668,43.457,73.730,307.129,0
1485534561.038,35.645,36.621,41.504,81.055,376.465,0
1485534561.042,53.711,45.898,60.547,63.477,-155.762,1
1485534561.046,71.289,37.109,53.711,56.152,-263.184,0
1485534561.050,17.090,20.996,22.949,46.387,559.082,0
1485534561.054,2.441,29.297,27.344,58.105,351.074,0
1485534561.058,21.484,29.785,32.715,79.590,30.273,0
1485534561.062,30.273,28.809,29.785,59.570,-114.258,0
1485534561.065,42.480,29.297,36.621,50.293,-259.277,0
1485534561.069,39.062,31.250,39.062,55.176,24.902,0
1485534561.073,34.668,34.668,42.480,64.941,-88.379,0
1485534561.077,27.832,36.621,41.992,81.543,242.188,0
1485534561.081,32.715,29.297,41.992,56.641,353.516,0
1485534561.085,55.664,25.391,33.203,70.312,-276.367,0
1485534561.089,51.270,30.762,27.344,72.754,312.500,0
1485534561.093,41.504,29.785,36.621,62.500,653.809,0
1485534561.097,19.043,26.855,44.434,89.355,82.031,0
1485534561.101,20.996,31.250,45.898,57.617,-52.246,0
1485534561.105,59.570,34.180,40.039,43.457,-301.758,0
1485534561.108,58.594,29.785,32.715,58.594,-98.633,0
1485534561.112,51.758,32.715,29.785,65.918,-74.219,0
1485534561.116,41.016,31.738,34.668,90.820,-56.641,0
1485534561.120,23.926,23.438,41.992,76.172,66.406,0
1485534561.124,38.574,18.066,40.527,52.734,-57.617,0
1485534561.128,53.223,24.414,26.367,64.941,480.469,0
1485534561.132,45.410,33.691,30.762,67.871,535.645,0
1485534561.136,45.410,32.715,44.922,78.613,-8.789,0
1485534561.140,51.758,31.250,42.480,71.777,24.414,0
1485534561.144,77.637,28.320,39.062,50.781,-278.320,0
1485534561.147,59.570,24.414,35.156,61.523,-72.266,0
1485534561.151,23.438,26.855,37.598,72.754,161.621,0
1485534561.155,29.297,28.809,47.852,87.402,-40.039,0
1485534561.159,32.715,26.367,49.805,85.938,82.031,0
1485534561.163,28.320,26.855,31.738,55.176,-96.680,0
1485534561.167,45.898,29.297,37.598,58.594,4.883,0
1485534561.171,42.969,26.855,50.293,58.594,284.180,0
1485534561.175,27.344,26.855,50.781,75.684,269.531,0
1485534561.179,44.434,30.273,56.641,92.285,337.402,0
1485534561.183,66.895,41.992,64.453,71.289,-220.703,0
1485534561.187,48.828,32.715,43.945,68.359,-33.691,0
1485534561.190,31.738,21.484,28.320,56.641,616.211,0
1485534561.194,17.090,21.484,44.922,68.359,129.395,0
1485534561.198,23.926,24.414,47.852,83.984,4.883,0
1485534561.202,45.898,26.855,36.133,50.781,-166.504,0
1485534561.206,56.152,25.391,37.598,53.223,-127.930,0
1485534561.210,69.336,28.320,39.062,67.383,198.730,0
1485534561.214,52.246,28.809,36.621,90.332,-72.266,0
1485534561.218,30.762,26.855,43.945,107.910,324.219,0
1485534561.222,43.457,27.832,35.645,55.176,189.941,0
1485534561.226,51.270,29.297,35.645,56.641,-197.266,0
1485534561.230,48.828,26.367,48.340,81.055,271.973,0
1485534561.233,50.781,30.762,46.387,74.707,59.570,0
1485534561.237,47.363,30.762,41.504,92.773,16.602,0
1485534561.241,62.988,24.902,41.504,67.871,-43.457,0
1485534561.245,74.707,28.809,39.551,50.293,-250.000,0
