timestamps,TP9,AF7,AF8,TP10,Right AUX,Marker
1486661209.770,-8.301,29.297,41.504,49.805,25.391,0
1486661209.774,39.551,20.020,25.391,49.316,56.152,0
1486661209.778,73.242,24.902,31.738,66.406,104.492,0
1486661209.782,50.293,32.715,40.527,60.547,102.539,0
1486661209.786,-1.465,33.203,45.410,46.387,60.547,0
1486661209.790,-21.484,24.902,40.527,43.945,50.781,0
1486661209.794,35.156,23.926,30.762,50.781,17.578,0
1486661209.798,80.566,35.156,40.039,62.500,51.270,0
1486661209.802,61.523,39.062,46.387,64.941,79.590,0
1486661209.806,12.695,31.250,36.133,53.223,45.410,0
1486661209.810,-3.906,29.297,39.062,51.758,24.414,0
1486661209.813,51.270,32.227,41.504,63.477,10.254,0
1486661209.817,98.633,32.227,38.086,77.148,62.988,0
1486661209.821,76.172,28.320,33.203,70.312,103.027,0
1486661209.825,16.113,25.391,34.180,50.781,47.852,0
1486661209.829,-9.277,31.738,47.852,54.688,27.832,0
1486661209.833,35.156,32.227,41.992,66.895,22.949,0
1486661209.837,73.242,23.926,31.738,69.336,65.430,0
1486661209.841,62.500,26.855,31.738,73.242,105.957,0
1486661209.845,21.484,32.715,36.621,61.523,59.570,0
1486661209.849,-9.766,32.227,48.828,54.688,3.906,0
1486661209.852,22.461,25.391,37.109,60.547,-29.785,0
1486661209.856,76.172,23.926,27.344,70.312,38.086,0
1486661209.860,73.730,25.879,33.691,66.895,72.266,0
1486661209.864,32.715,30.273,39.551,50.781,30.762,0
1486661209.868,-5.371,30.273,43.457,42.480,25.391,0
1486661209.872,17.090,26.855,41.504,50.781,-5.371,0
1486661209.876,73.242,29.785,37.109,65.430,18.555,0
1486661209.880,80.078,31.250,34.180,61.523,57.617,0
1486661209.884,43.457,28.809,40.039,48.828,38.574,0
1486661209.888,0.000,27.832,41.016,43.945,20.996,0
1486661209.892,13.184,25.879,36.133,48.828,12.207,0
1486661209.895,77.148,25.879,40.039,66.406,28.320,0
1486661209.899,94.727,31.250,36.621,74.707,73.242,0
1486661209.903,55.176,36.621,34.668,61.523,100.098,0
1486661209.907,9.277,39.062,42.969,55.176,81.543,0
1486661209.911,14.160,35.156,44.922,59.570,36.133,0
1486661209.915,69.824,30.273,39.551,67.871,19.043,0
1486661209.919,83.008,30.762,33.203,73.242,83.984,0
1486661209.923,52.734,30.762,37.109,64.453,59.082,0
1486661209.927,12.207,31.250,49.805,57.129,2.930,0
1486661209.931,10.742,28.320,51.270,59.082,-4.883,0
1486661209.935,67.383,27.832,41.504,64.453,21.973,0
1486661209.938,85.938,30.762,36.621,71.289,92.285,0
1486661209.942,54.199,37.109,37.598,62.012,79.590,0
1486661209.946,7.324,39.551,47.852,49.805,17.090,0
1486661209.950,0.000,32.227,45.410,45.410,-8.789,0
1486661209.954,54.199,29.785,33.691,50.781,0.000,0
1486661209.958,82.031,29.297,33.203,62.500,69.824,0
1486661209.962,64.941,32.715,37.598,58.594,88.379,0
1486661209.966,14.648,34.180,44.922,48.340,63.477,0
1486661209.970,-10.742,34.180,42.969,48.340,27.344,0
1486661209.974,42.480,33.691,36.621,54.688,41.016,0
1486661209.977,83.008,28.320,32.715,61.523,96.680,0
1486661209.981,66.895,34.180,33.691,59.082,76.172,0
1486661209.985,15.625,34.180,34.180,43.945,51.270,0
1486661209.989,-12.695,27.344,41.016,40.527,36.621,0
1486661209.993,29.785,25.391,40.527,44.434,-9.277,0
1486661209.997,82.520,28.320,35.645,61.035,54.688,0
1486661210.001,77.148,31.738,45.410,69.336,82.031,0
1486661210.005,24.414,33.203,44.434,53.223,47.852,0
1486661210.009,-15.625,32.715,32.227,42.480,32.227,0
1486661210.013,20.508,28.320,30.762,45.410,-11.719,0
1486661210.017,74.707,27.832,30.762,62.500,12.207,0
1486661210.020,73.730,29.297,35.156,69.336,74.219,0
1486661210.024,34.668,33.691,47.363,60.059,48.340,0
1486661210.028,-4.883,31.738,51.270,55.176,27.344,0
1486661210.032,19.531,26.855,43.457,53.711,9.277,0
1486661210.036,78.125,30.762,46.875,70.801,34.668,0
1486661210.040,79.102,31.250,40.527,70.312,66.895,0
1486661210.044,35.645,30.273,34.180,53.223,23.438,0
1486661210.048,-12.207,30.762,44.434,45.410,12.207,0
1486661210.052,7.324,29.297,44.434,45.898,-12.207,0
1486661210.056,64.453,27.344,36.133,63.965,0.977,0
1486661210.060,68.848,25.879,34.668,68.848,91.797,0
1486661210.063,36.133,27.344,37.109,52.246,83.984,0
1486661210.067,-7.324,29.785,50.293,47.852,10.742,0
1486661210.071,-0.488,24.902,51.758,48.340,-6.348,0
1486661210.075,51.758,23.438,34.668,51.270,40.527,0
1486661210.079,67.871,25.879,41.016,62.988,104.492,0
1486661210.083,38.574,26.367,41.504,57.617,89.355,0
1486661210.087,-6.836,27.832,39.062,51.758,47.363,0
1486661210.091,-8.789,26.367,39.062,47.852,51.270,0
1486661210.095,48.828,23.438,33.203,56.152,59.570,0
1486661210.099,81.055,25.879,35.156,69.824,119.629,0
1486661210.102,51.270,28.809,38.086,61.035,111.816,0
1486661210.106,-2.441,29.785,48.340,50.781,76.660,0
1486661210.110,-15.625,22.949,54.688,41.992,57.129,0
1486661210.114,38.086,16.113,39.062,43.457,16.113,0
1486661210.118,77.637,23.926,37.598,59.082,72.754,0
1486661210.122,59.082,30.273,43.457,59.570,73.242,0
1486661210.126,3.906,29.297,44.922,46.875,0.488,0
1486661210.130,-26.855,21.973,41.016,42.969,29.785,0
1486661210.134,31.250,23.438,34.668,52.246,-3.418,0
1486661210.138,81.543,25.879,31.738,63.965,23.438,0
1486661210.142,64.453,30.762,38.574,61.035,85.449,0
1486661210.145,22.461,36.133,46.387,52.734,14.160,0
1486661210.149,-4.883,29.297,48.340,54.688,-27.344,0
1486661210.153,33.691,24.902,35.645,51.270,-14.648,0
1486661210.157,81.543,30.762,34.668,63.477,35.156,0
1486661210.161,73.730,34.668,40.039,69.336,86.426,0
1486661210.165,27.344,35.645,39.062,58.594,63.965,1
1486661210.169,-8.301,30.273,43.945,51.758,37.598,0
1486661210.173,25.879,25.391,34.668,51.270,19.043,0
1486661210.177,81.055,29.785,26.855,62.988,50.781,0
1486661210.181,79.102,30.762,43.945,71.777,82.031,0
1486661210.184,27.832,26.367,39.551,53.711,23.926,0
1486661210.188,-12.695,26.855,36.133,42.969,-0.488,0
1486661210.192,23.926,26.367,41.992,54.688,-21.973,0
1486661210.196,81.543,27.344,32.715,69.824,12.695,0
1486661210.200,84.473,31.738,33.203,74.707,76.660,0
1486661210.204,52.246,39.062,49.316,71.289,24.414,0
1486661210.208,10.742,37.598,55.664,61.035,-29.297,0
1486661210.212,19.531,25.879,43.457,53.223,-20.020,0
1486661210.216,76.172,29.785,32.715,66.406,29.785,0
1486661210.220,89.355,32.227,30.273,76.172,80.078,0
1486661210.224,51.758,28.809,39.062,64.941,39.062,0
1486661210.227,2.930,25.391,46.875,50.293,-4.883,0
1486661210.231,4.395,21.484,41.016,47.852,-21.484,0
1486661210.235,65.430,24.902,34.180,59.082,-2.441,0
1486661210.239,89.355,27.832,39.062,69.336,73.242,0
1486661210.243,51.270,27.344,43.457,66.895,88.379,0
1486661210.247,2.930,27.832,42.480,58.105,36.621,0
1486661210.251,-1.953,22.461,33.691,49.805,5.371,0
1486661210.255,50.293,19.531,28.809,55.664,33.203,0
1486661210.259,82.031,25.391,26.367,72.754,99.609,0
1486661210.263,59.082,28.809,34.180,63.477,87.402,0
1486661210.267,9.277,27.832,48.340,52.246,44.922,0
1486661210.270,5.859,33.691,49.805,56.152,25.879,0
1486661210.274,52.734,29.785,41.504,56.641,4.883,0
1486661210.278,77.148,25.879,35.156,64.453,68.848,0
1486661210.282,62.012,32.715,46.387,64.453,69.824,0
1486661210.286,6.348,27.832,45.898,48.828,24.902,0
1486661210.290,-15.625,23.438,32.715,42.969,20.020,0
1486661210.294,37.109,27.832,32.715,49.316,11.230,0
1486661210.298,77.148,28.320,34.180,63.477,73.730,0
1486661210.302,59.082,29.785,31.250,62.988,111.816,0
1486661210.306,12.695,34.668,36.133,50.293,52.734,0
1486661210.309,-10.742,31.738,40.039,44.922,-4.395,0
1486661210.313,34.668,27.344,38.086,55.664,-32.715,0
1486661210.317,79.590,30.273,39.551,71.289,39.551,0
1486661210.321,61.523,31.250,38.086,62.988,98.145,0
1486661210.325,19.531,30.273,46.875,53.711,64.453,0
1486661210.329,-13.672,28.320,47.363,54.199,33.691,0
1486661210.333,18.555,28.809,31.738,51.758,-0.977,0
1486661210.337,71.777,31.250,26.367,63.477,56.641,0
1486661210.341,66.895,30.273,27.832,63.965,99.121,0
1486661210.345,26.367,29.785,38.574,49.316,56.641,0
1486661210.349,-10.254,27.832,46.387,43.457,63.965,0
1486661210.352,11.230,24.902,37.598,38.086,61.523,0
1486661210.356,73.242,29.297,33.691,55.176,41.504,0
1486661210.360,77.148,31.250,35.156,59.082,75.684,0
1486661210.364,33.691,29.785,42.969,43.945,37.598,0
1486661210.368,-4.395,32.715,41.992,44.434,19.531,0
1486661210.372,7.324,29.297,33.203,43.457,39.062,0
1486661210.376,66.406,28.809,32.715,51.758,35.645,0
1486661210.380,82.031,33.203,39.062,67.383,90.332,0
1486661210.384,41.016,27.832,39.062,55.176,81.055,0
1486661210.388,-3.418,24.414,37.598,43.945,32.227,0
1486661210.392,7.812,23.926,33.691,51.758,-1.465,0
1486661210.395,66.406,27.832,30.273,64.941,24.902,0
1486661210.399,85.938,29.297,30.762,76.172,112.793,0
1486661210.403,62.500,31.250,41.504,70.312,57.617,0
1486661210.407,15.625,34.668,48.828,57.617,11.230,0
1486661210.411,15.137,30.273,41.016,51.758,18.555,0
1486661210.415,72.754,28.809,38.086,63.965,22.461,0
1486661210.419,90.332,29.785,37.598,83.008,67.871,0
1486661210.423,56.641,29.297,36.621,73.242,44.922,0
1486661210.427,3.906,30.762,41.504,52.246,12.695,0
1486661210.431,1.465,33.691,48.828,53.223,1.465,0
1486661210.434,59.570,29.297,45.898,64.941,7.812,0
1486661210.438,85.938,25.879,27.344,68.359,63.477,0
1486661210.442,68.359,38.086,38.086,66.406,55.176,0
1486661210.446,19.043,36.133,51.758,57.129,10.254,0
1486661210.450,-4.395,25.879,44.434,55.664,-9.277,0
1486661210.454,45.410,26.367,33.203,61.523,-23.438,0
1486661210.458,83.008,27.832,26.367,68.359,23.926,0
1486661210.462,67.871,31.250,36.133,68.359,71.289,0
1486661210.466,15.137,31.738,50.781,56.641,43.457,0
1486661210.470,-16.602,26.855,53.711,51.270,-3.418,0
1486661210.474,31.250,25.879,39.062,55.664,-6.836,0
1486661210.477,80.078,33.691,35.156,68.359,46.387,0
1486661210.481,62.988,36.133,45.410,69.824,55.176,0
1486661210.485,16.113,32.227,52.734,57.617,24.902,0
1486661210.489,-16.113,28.320,50.781,52.246,-17.578,0
1486661210.493,19.043,26.367,46.875,61.035,-18.066,0
1486661210.497,74.219,31.738,40.527,74.219,63.477,0
1486661210.501,63.965,30.273,38.086,73.242,69.824,0
1486661210.505,24.414,27.344,45.898,66.895,20.020,0
1486661210.509,-10.254,27.344,50.293,59.082,24.414,0
1486661210.513,16.602,29.785,42.969,57.617,3.418,0
1486661210.517,72.754,30.762,35.156,74.219,7.812,0
1486661210.520,79.102,28.809,37.109,76.172,24.902,0
1486661210.524,41.504,28.320,44.922,65.430,22.949,0
1486661210.528,-1.953,27.832,56.152,61.523,23.438,0
1486661210.532,12.207,19.531,46.875,56.152,-32.715,0
1486661210.536,68.848,20.996,32.715,68.848,11.230,0
1486661210.540,83.984,35.156,38.574,75.684,101.562,0
1486661210.544,46.387,37.598,42.480,62.012,72.754,0
1486661210.548,-5.859,29.785,40.039,52.246,62.988,0
1486661210.552,0.977,27.344,41.504,50.781,46.875,0
1486661210.556,63.477,25.391,37.109,64.941,28.320,0
1486661210.559,86.426,26.855,37.598,81.055,66.406,0
1486661210.563,47.363,23.926,36.621,65.918,62.012,0
1486661210.567,-0.488,29.297,39.062,52.734,20.020,0
1486661210.571,2.930,26.367,41.504,49.805,-23.438,0
1486661210.575,49.316,15.625,32.715,49.316,23.926,0
1486661210.579,74.219,25.391,30.273,60.547,82.520,0
1486661210.583,46.875,29.785,36.621,52.734,68.848,0
1486661210.587,-5.371,27.832,38.574,41.504,28.809,0
1486661210.591,-16.602,25.879,32.715,42.480,11.719,0
1486661210.595,44.922,25.879,40.527,54.688,11.719,0
1486661210.599,77.637,21.973,37.598,72.266,55.664,0
1486661210.602,46.875,20.020,27.344,59.082,83.008,0
1486661210.606,0.000,21.973,35.156,42.969,57.129,0
1486661210.610,-14.648,22.949,40.527,41.504,34.668,0
1486661210.614,36.621,27.832,34.668,46.875,17.578,0
1486661210.618,83.496,30.762,33.691,69.824,54.199,0
1486661210.622,69.824,34.668,44.922,75.195,37.598,0
1486661210.626,17.578,36.133,45.410,61.035,-12.207,0
1486661210.630,1.953,32.227,48.828,53.711,5.371,0
1486661210.634,37.109,24.902,41.504,49.805,40.039,0
1486661210.638,82.031,29.297,39.551,64.941,79.102,0
1486661210.641,76.172,37.109,42.480,64.453,76.660,0
1486661210.645,13.184,28.320,33.691,45.898,34.180,0
1486661210.649,-13.184,27.344,38.574,38.574,-5.859,0
1486661210.653,33.203,27.832,38.574,42.969,-9.277,0
1486661210.657,85.449,27.344,36.621,60.547,56.152,0
1486661210.661,79.590,31.738,41.992,62.012,69.824,0
1486661210.665,31.738,29.785,48.340,49.805,34.668,0
1486661210.669,-5.371,30.273,45.898,41.504,31.250,0
1486661210.673,25.879,32.715,44.922,52.246,41.992,0
1486661210.677,81.055,30.762,41.504,64.453,63.477,0
1486661210.681,88.379,28.320,24.902,59.082,71.777,0
1486661210.684,46.875,28.809,26.367,51.270,37.598,0
1486661210.688,-6.348,27.344,36.133,44.922,17.578,0
1486661210.692,10.742,25.391,33.203,49.316,7.324,0
1486661210.696,69.336,26.855,31.738,66.406,26.367,0
1486661210.700,73.730,32.227,34.180,70.801,78.613,0
1486661210.704,35.156,30.762,41.504,56.641,73.730,0
1486661210.708,-10.254,32.227,54.199,49.805,55.176,0
1486661210.712,3.418,36.133,57.129,52.734,13.184,0
1486661210.716,58.105,25.879,42.969,60.059,18.066,0
1486661210.720,69.824,25.391,27.832,60.059,74.219,0
1486661210.724,37.598,27.832,27.832,46.875,74.219,1
1486661210.727,-6.836,25.391,40.039,40.527,58.594,0
1486661210.731,-1.953,25.879,38.086,37.598,30.273,0
1486661210.735,53.711,27.344,32.227,54.688,41.992,0
1486661210.739,79.590,29.785,34.668,71.777,97.656,0
1486661210.743,53.223,31.250,41.992,64.941,72.754,0
1486661210.747,7.812,30.273,47.852,58.594,23.926,0
1486661210.751,2.441,27.344,47.363,62.500,6.836,0
1486661210.755,53.711,26.367,47.852,65.430,7.324,0
1486661210.759,86.914,25.879,34.180,68.848,34.668,0
1486661210.763,61.523,23.926,26.855,66.406,36.133,0
1486661210.766,6.348,22.949,35.645,55.176,35.156,0
1486661210.770,-4.395,28.320,35.156,48.340,24.414,0
1486661210.774,47.363,28.809,37.109,53.711,-4.883,0
1486661210.778,77.637,24.414,38.086,67.383,45.410,0
1486661210.782,59.082,28.320,45.898,60.059,59.570,0
1486661210.786,13.184,36.621,57.129,46.387,33.203,0
1486661210.790,-17.578,27.832,53.711,39.551,4.883,0
1486661210.794,19.043,20.508,32.227,34.180,-6.348,0
1486661210.798,67.383,22.461,20.020,46.875,83.008,0
1486661210.802,57.129,21.973,32.227,54.688,112.305,0
1486661210.806,14.160,26.855,40.039,47.363,44.434,0
1486661210.809,-12.695,29.297,42.480,45.898,35.156,0
1486661210.813,29.297,24.902,43.457,56.152,26.855,0
1486661210.817,81.055,27.832,41.504,70.801,61.523,0
1486661210.821,76.660,34.668,43.457,73.242,98.633,0
1486661210.825,24.902,30.273,44.434,56.152,50.781,0
1486661210.829,-15.137,27.832,38.574,45.410,41.504,0
1486661210.833,15.625,26.367,39.551,49.805,28.320,0
1486661210.837,72.754,23.926,38.086,61.523,43.457,0
1486661210.841,77.637,26.367,27.344,61.035,99.121,0
1486661210.845,30.762,30.762,31.738,43.945,70.312,0
1486661210.849,-8.301,29.785,40.039,40.039,13.184,0
1486661210.852,14.160,28.809,41.992,48.340,-11.719,0
1486661210.856,62.012,27.832,37.109,60.547,56.152,0
1486661210.860,79.102,29.785,41.016,65.918,94.727,0
1486661210.864,51.758,32.715,48.828,55.664,54.199,0
1486661210.868,-2.441,27.344,43.457,47.363,15.625,0
1486661210.872,4.883,23.438,44.922,50.293,-27.344,0
1486661210.876,66.895,24.902,39.551,61.035,-6.348,0
1486661210.880,83.008,28.809,30.762,65.918,58.594,0
1486661210.884,52.246,27.832,35.156,55.664,25.879,0
1486661210.888,9.277,27.832,39.062,48.828,-6.836,0
1486661210.891,9.277,27.344,42.480,47.852,0.977,0
1486661210.895,64.453,27.344,45.898,62.012,35.156,0
1486661210.899,91.309,31.250,43.945,76.660,72.754,0
1486661210.903,59.570,33.203,37.598,62.500,48.828,0
1486661210.907,4.883,31.738,42.969,50.293,23.438,0
1486661210.911,-3.418,26.855,51.270,48.340,-4.883,0
1486661210.915,52.734,23.438,37.109,57.617,-8.301,0
1486661210.919,85.449,26.855,28.320,66.406,46.387,0
1486661210.923,64.453,31.738,39.551,55.664,52.734,0
1486661210.927,10.742,33.203,52.734,51.270,17.090,0
1486661210.931,-2.441,37.109,54.199,53.711,-20.508,0
1486661210.934,53.223,33.691,40.527,61.523,-44.922,0
1486661210.938,84.961,27.832,31.738,74.707,19.043,0
1486661210.942,62.500,31.738,41.016,72.754,75.195,0
1486661210.946,13.184,32.715,48.828,59.082,42.969,0
1486661210.950,-10.254,28.809,38.574,53.223,5.371,0
1486661210.954,38.086,31.738,35.645,59.082,0.000,0
1486661210.958,88.867,38.086,35.645,79.102,54.199,0
1486661210.962,80.078,36.621,41.016,81.543,112.793,0
1486661210.966,34.180,32.227,54.199,68.848,72.754,0
1486661210.970,5.859,27.832,54.199,64.453,20.020,0
1486661210.974,44.434,26.367,41.016,66.895,19.531,0
1486661210.977,90.820,27.344,30.273,83.008,45.898,0
1486661210.981,83.496,29.785,34.180,87.402,59.082,0
1486661210.985,38.574,32.227,45.898,73.242,42.480,0
1486661210.989,-0.488,33.691,50.293,62.988,39.551,0
1486661210.993,28.809,34.180,48.828,67.871,24.414,0
1486661210.997,92.285,33.203,45.410,86.426,67.871,0
1486661211.001,85.938,26.367,33.691,77.148,93.262,0
1486661211.005,40.039,22.461,35.645,59.082,40.527,0
1486661211.009,4.883,26.367,45.898,57.129,66.895,0
1486661211.013,20.996,24.414,45.898,58.105,63.965,0
1486661211.016,75.684,21.973,35.156,66.895,79.590,0
1486661211.020,82.031,29.785,35.645,71.777,126.953,0
1486661211.024,41.504,35.156,45.898,58.105,95.215,0
1486661211.028,-1.953,25.391,42.480,55.176,47.852,0
1486661211.032,8.789,20.996,44.434,58.594,5.859,0
1486661211.036,74.219,27.344,46.875,66.895,39.551,0
1486661211.040,91.797,30.762,31.250,80.566,108.398,0
1486661211.044,51.758,32.715,30.273,66.895,38.574,0
1486661211.048,3.906,28.320,45.410,57.617,-8.789,0
1486661211.052,2.441,20.020,42.480,54.688,11.230,0
1486661211.056,58.594,20.508,30.273,56.641,19.531,0
1486661211.059,84.473,26.367,35.645,68.359,66.895,0
1486661211.063,53.223,29.785,42.480,60.547,74.707,0
1486661211.067,-2.441,25.879,36.621,47.852,40.039,0
1486661211.071,-12.207,23.438,36.133,51.270,19.531,0
1486661211.075,50.781,26.367,47.852,66.406,25.391,0
1486661211.079,88.379,30.273,43.945,76.660,74.707,0
1486661211.083,52.246,27.832,27.344,59.570,85.938,0
1486661211.087,1.465,27.344,31.738,42.969,66.895,0
1486661211.091,-4.883,31.250,41.504,46.875,35.156,0
1486661211.095,47.363,28.320,43.457,55.664,-26.855,0
1486661211.099,87.402,31.738,42.480,67.383,21.973,0
1486661211.102,70.312,35.645,37.109,67.871,71.777,0
1486661211.106,20.020,31.250,38.574,57.129,43.457,0
1486661211.110,-0.488,26.367,43.945,48.340,35.645,0
1486661211.114,41.992,27.344,37.598,51.270,-6.348,0
1486661211.118,87.402,34.180,43.457,74.707,24.414,0
1486661211.122,76.660,35.645,41.504,71.777,101.074,0
1486661211.126,20.996,30.273,33.203,49.805,41.016,0
1486661211.130,-10.254,27.832,41.016,44.434,2.930,0
1486661211.134,25.879,25.391,38.086,49.805,4.883,0
1486661211.138,72.266,27.344,27.344,60.059,48.340,0
1486661211.141,73.730,31.250,36.133,65.430,58.594,0
1486661211.145,29.297,30.762,44.922,61.035,10.742,0
1486661211.149,-8.301,29.785,43.457,58.594,6.836,0
1486661211.153,27.344,32.227,48.340,62.012,6.348,0
1486661211.157,77.637,30.762,37.109,63.965,18.066,0
1486661211.161,69.824,27.344,35.156,63.477,55.664,0
1486661211.165,30.762,28.809,46.875,53.223,46.387,0
1486661211.169,-11.230,27.344,39.062,42.969,12.207,0
1486661211.173,6.836,31.738,37.109,45.898,9.277,0
1486661211.177,66.895,36.133,38.086,63.477,63.965,0
1486661211.181,74.219,31.250,31.738,63.477,103.516,0
1486661211.184,37.109,31.250,40.527,51.270,66.895,0
1486661211.188,-5.859,32.715,48.340,49.316,51.270,0
1486661211.192,-2.930,26.367,38.574,46.387,58.105,0
1486661211.196,56.641,26.855,28.320,55.664,73.242,0
1486661211.200,81.543,31.738,38.574,62.988,118.164,0
1486661211.204,45.898,31.250,45.898,50.293,91.309,0
1486661211.208,-0.488,34.180,40.039,39.551,57.617,0
1486661211.212,10.742,30.762,41.016,45.898,62.500,0
1486661211.216,68.848,27.832,35.645,57.617,46.387,0
1486661211.220,88.867,32.715,34.668,63.965,103.516,0
1486661211.223,56.641,31.738,41.504,59.082,107.422,0
1486661211.227,2.930,28.320,42.480,48.340,64.941,0
1486661211.231,0.488,30.762,37.109,46.387,31.250,0
1486661211.235,63.477,33.203,39.551,68.848,43.457,0
1486661211.239,87.891,33.203,43.945,83.496,85.449,0
1486661211.243,62.012,36.133,38.086,65.918,84.473,0
1486661211.247,14.160,34.668,42.969,58.105,41.016,0
1486661211.251,-0.488,27.344,47.363,57.129,-1.953,0
1486661211.255,51.758,26.367,32.715,58.594,-6.348,0
1486661211.259,89.844,30.762,31.250,71.777,52.734,0
1486661211.263,67.383,33.203,37.109,64.941,71.777,0
1486661211.266,13.184,31.250,36.621,49.316,13.184,0
1486661211.270,-10.742,25.879,35.156,44.922,-2.441,0
1486661211.274,34.180,25.879,37.598,53.223,26.367,0
1486661211.278,75.195,29.785,43.457,66.895,73.730,0
1486661211.282,59.082,28.320,31.250,58.594,88.379,0
1486661211.286,7.324,23.438,29.297,47.852,67.871,1
1486661211.290,-23.438,21.973,43.945,45.410,42.969,0
1486661211.294,19.531,20.996,42.969,50.781,41.504,0
1486661211.298,66.406,23.926,31.738,58.594,77.637,0
1486661211.302,61.523,27.344,34.668,61.035,83.496,0
1486661211.306,20.508,24.414,41.504,52.246,32.715,0
1486661211.309,-16.602,24.414,41.504,42.480,-7.324,0
1486661211.313,15.625,23.438,35.156,46.875,-14.648,0
1486661211.317,79.102,32.715,44.922,71.777,54.199,0
1486661211.321,80.078,35.156,48.340,75.195,84.961,0
1486661211.325,31.738,25.391,35.156,55.664,45.898,0
1486661211.329,-2.930,29.297,43.457,52.246,49.316,0
1486661211.333,20.020,25.879,41.016,58.105,19.043,0
1486661211.337,75.684,22.949,30.762,67.871,42.480,0
1486661211.341,83.984,30.273,35.645,75.684,112.793,0
1486661211.345,45.898,31.738,41.992,66.406,63.965,0
1486661211.348,1.465,30.762,49.805,58.594,-0.977,0
1486661211.352,10.742,25.391,45.410,61.035,-1.953,0
1486661211.356,67.871,22.949,35.645,69.824,16.602,0
1486661211.360,81.543,23.926,33.203,75.195,48.828,0
1486661211.364,48.340,30.762,41.016,62.988,60.547,0
1486661211.368,0.488,34.180,48.828,49.805,45.410,0
1486661211.372,-0.977,27.344,41.504,44.434,-24.414,0
1486661211.376,64.453,30.273,39.062,57.129,-36.133,0
1486661211.380,85.938,30.273,40.039,67.871,57.617,0
1486661211.384,45.898,27.344,43.457,55.664,44.434,0
1486661211.388,0.977,31.250,44.922,48.340,18.555,0
1486661211.391,-4.883,28.320,38.574,53.223,-18.555,0
1486661211.395,46.875,21.973,38.086,58.105,-18.066,0
1486661211.399,77.637,24.414,41.504,73.730,86.914,0
1486661211.403,53.711,28.809,41.992,70.312,99.121,0
1486661211.407,6.348,26.367,45.898,49.805,48.340,0
1486661211.411,-6.348,24.902,41.504,42.480,24.902,0
1486661211.415,45.898,28.320,33.203,43.457,19.043,0
1486661211.419,86.426,28.320,37.598,62.012,40.039,0
1486661211.423,66.895,27.832,39.062,64.941,74.219,0
1486661211.427,15.625,29.785,40.527,50.293,26.855,0
1486661211.431,-9.766,24.902,43.457,49.805,-3.418,0
1486661211.434,38.086,24.414,39.551,53.711,-3.906,0
1486661211.438,82.031,29.785,34.668,68.848,46.875,0
1486661211.442,68.359,30.762,34.668,65.430,86.426,0
1486661211.446,19.043,29.297,42.480,42.969,61.523,0
1486661211.450,-14.160,29.785,45.898,41.992,19.043,0
1486661211.454,26.855,29.785,39.062,51.758,17.578,0
1486661211.458,75.684,23.926,30.273,62.012,77.637,0
1486661211.462,66.406,26.367,32.715,64.941,85.938,0
1486661211.466,23.926,31.738,44.434,55.664,62.012,0
1486661211.470,-11.719,28.320,48.828,45.898,60.547,0
1486661211.473,20.020,27.832,42.969,45.898,28.809,0
1486661211.477,75.684,27.832,36.133,61.523,20.996,0
1486661211.481,69.824,24.902,32.715,70.312,51.270,0
1486661211.485,24.902,26.367,35.645,54.688,37.598,0
1486661211.489,-12.695,23.926,40.527,44.434,23.926,0
1486661211.493,20.020,20.996,38.086,49.316,-1.465,0
1486661211.497,79.102,27.832,28.809,59.570,27.832,0
1486661211.501,86.914,31.738,40.039,72.266,101.562,0
1486661211.505,47.363,32.715,48.340,62.988,90.820,0
1486661211.509,-2.930,30.762,43.945,52.246,25.391,0
1486661211.513,10.742,25.879,45.898,57.129,22.461,0
1486661211.516,69.824,26.855,37.598,66.895,94.238,0
1486661211.520,91.309,32.227,34.668,75.684,121.094,0
1486661211.524,60.547,35.156,45.410,67.383,75.195,0
1486661211.528,11.230,28.809,42.969,52.734,43.945,0
1486661211.532,16.113,25.879,35.645,53.711,18.555,0
1486661211.536,74.219,27.344,32.227,66.895,55.664,0
1486661211.540,95.215,34.180,40.527,82.031,132.812,0
1486661211.544,54.199,32.715,43.457,74.219,98.633,0
1486661211.548,1.465,29.785,40.527,54.199,54.688,0
1486661211.552,-6.836,26.855,41.992,48.340,34.180,0
1486661211.556,52.246,27.344,37.598,59.082,37.598,0
1486661211.559,85.938,32.227,43.457,76.172,83.496,0
1486661211.563,55.664,32.227,41.992,68.359,79.590,0
1486661211.567,3.906,29.297,35.645,55.664,45.898,0
1486661211.571,-7.324,22.949,43.945,54.199,18.555,0
1486661211.575,42.969,20.508,37.598,55.176,27.344,0
1486661211.579,78.613,27.344,29.785,65.430,50.293,0
1486661211.583,64.453,33.691,40.039,66.406,41.504,0
1486661211.587,5.371,24.414,42.480,49.316,70.801,0
1486661211.591,-20.020,20.996,44.434,39.062,62.500,0
1486661211.595,32.227,26.855,34.180,45.898,45.410,0
1486661211.598,75.684,27.832,27.832,67.383,100.586,0
1486661211.602,58.105,25.391,39.551,68.848,80.078,0
1486661211.606,10.254,22.949,47.363,57.129,37.109,0
1486661211.610,-13.672,23.438,46.387,53.223,71.777,0
1486661211.614,27.344,23.926,40.039,55.664,41.016,0
1486661211.618,75.684,24.414,36.621,71.777,54.688,0
1486661211.622,67.871,25.879,40.527,72.754,78.613,0
1486661211.626,20.508,28.809,41.504,56.641,21.973,0
1486661211.630,-10.742,32.227,40.527,51.270,20.020,0
1486661211.634,20.508,32.715,42.969,52.246,12.207,0
1486661211.638,74.219,30.762,40.039,64.453,61.035,0
1486661211.641,80.078,28.809,34.180,70.312,107.422,0
1486661211.645,46.387,30.762,38.574,59.570,48.828,0
1486661211.649,3.418,27.832,47.852,57.617,11.719,0
1486661211.653,17.090,22.949,38.574,57.617,5.859,0
1486661211.657,78.125,26.855,27.832,72.266,53.223,0
1486661211.661,82.520,27.832,37.598,76.660,85.938,0
1486661211.665,36.621,22.461,37.598,60.059,52.734,0
1486661211.669,-9.277,21.973,31.738,46.387,17.090,0
1486661211.673,8.789,25.879,39.062,54.199,-29.785,0
1486661211.677,67.383,25.879,41.016,67.383,10.254,0
1486661211.680,75.195,23.926,30.762,61.523,76.172,0
1486661211.684,41.016,27.344,36.621,52.734,68.848,0
1486661211.688,-6.836,27.832,43.457,44.922,44.922,0
1486661211.692,1.953,27.344,37.598,40.039,25.879,0
1486661211.696,65.918,28.809,36.621,52.246,27.832,0
1486661211.700,84.961,33.203,36.621,66.895,59.082,0
1486661211.704,56.641,33.691,38.574,57.129,53.711,0
1486661211.708,0.488,28.320,41.016,46.875,33.691,0
1486661211.712,-3.418,30.273,35.156,47.363,40.527,0
1486661211.716,63.965,32.227,32.715,54.199,19.043,0
1486661211.720,92.773,30.762,40.527,65.430,66.895,0
1486661211.723,59.082,30.273,38.086,55.176,85.449,0
1486661211.727,3.418,30.273,40.039,39.062,43.457,0
1486661211.731,-7.812,28.809,40.039,36.621,-7.324,0
1486661211.735,45.898,29.785,32.715,47.852,-8.301,0
1486661211.739,82.520,35.156,34.180,63.965,72.754,0
1486661211.743,67.383,40.039,41.504,61.523,89.355,0
1486661211.747,18.555,40.039,47.363,53.711,40.039,0
1486661211.751,0.000,35.645,43.457,51.758,4.395,0
1486661211.755,43.945,26.855,35.645,51.758,15.625,0
1486661211.759,84.961,30.273,35.645,70.801,46.875,0
1486661211.763,69.824,32.227,45.898,71.289,64.453,0
1486661211.766,17.090,26.855,47.363,54.688,59.082,0
1486661211.770,-9.277,25.879,38.574,51.270,35.645,0
1486661211.774,26.855,23.926,31.738,47.363,21.973,0
1486661211.778,79.102,33.203,33.203,63.965,65.918,0
1486661211.782,76.172,36.621,46.387,69.336,94.727,0
1486661211.786,24.902,25.879,52.246,56.152,64.453,0
1486661211.790,-10.742,25.391,47.363,48.340,18.066,0
1486661211.794,26.855,27.832,45.410,56.641,-12.207,0
1486661211.798,85.938,28.320,39.551,73.730,29.785,0
1486661211.802,85.449,33.691,34.668,68.359,85.938,0
1486661211.805,39.062,33.691,45.410,62.988,65.430,0
1486661211.809,-1.465,31.250,54.688,61.523,24.414,0
1486661211.813,24.902,34.180,40.527,55.664,8.789,0
1486661211.817,81.055,35.156,31.250,66.406,56.641,0
1486661211.821,86.426,34.668,41.992,70.801,90.332,0
1486661211.825,46.387,35.645,44.922,58.105,31.250,0
1486661211.829,-3.418,28.809,44.922,47.363,-3.906,0
1486661211.833,11.719,27.832,41.504,53.223,-6.348,0
1486661211.837,74.707,32.715,35.645,71.777,27.344,0
1486661211.841,89.355,29.297,40.039,78.613,66.406,0
1486661211.845,50.781,32.715,41.992,67.383,20.996,0
1486661211.848,-2.930,32.715,45.410,53.711,-11.230,0
1486661211.852,6.836,28.320,49.316,55.664,-1.953,0
1486661211.856,68.848,32.227,47.363,73.242,-2.930,0
1486661211.860,86.426,31.738,45.410,82.520,53.223,0
1486661211.864,53.223,32.227,44.922,69.824,84.961,0
1486661211.868,-2.441,30.762,42.480,54.688,66.895,0
1486661211.872,-7.812,26.855,39.062,49.316,45.410,0
1486661211.876,49.805,25.391,39.551,58.105,22.461,0
1486661211.880,77.148,28.809,37.598,71.289,107.422,0
1486661211.884,53.711,29.297,38.574,63.965,94.238,0
1486661211.888,10.742,27.344,44.434,50.781,4.395,0
1486661211.891,0.000,28.320,47.363,49.316,-30.273,0
1486661211.895,48.828,28.809,44.922,63.965,-9.766,0
1486661211.899,86.426,29.297,38.574,77.637,58.105,0
1486661211.903,71.777,30.273,39.551,69.824,73.242,0
1486661211.907,22.949,30.762,42.969,57.617,27.344,0
1486661211.911,-2.441,30.762,37.598,51.758,-5.859,0
1486661211.915,43.945,32.227,32.227,53.711,1.953,0
1486661211.919,91.797,37.109,42.480,74.219,62.500,0
1486661211.923,79.590,40.039,53.711,77.637,49.805,0
1486661211.927,16.602,30.273,40.527,54.688,30.762,1
1486661211.930,-15.137,28.809,40.527,48.340,57.617,0
1486661211.934,29.785,23.926,40.039,50.781,19.043,0
1486661211.938,70.801,20.508,32.227,55.176,61.035,0
1486661211.942,65.918,28.809,35.645,57.617,70.801,0
1486661211.946,16.602,30.273,36.133,43.945,43.457,0
1486661211.950,-19.531,27.344,39.551,44.434,68.359,0
1486661211.954,16.602,24.902,44.434,53.711,9.277,0
1486661211.958,64.453,23.438,34.180,54.199,62.012,0
1486661211.962,64.941,29.297,31.738,58.594,122.559,0
1486661211.966,28.809,32.227,41.016,46.875,54.199,0
1486661211.970,-6.348,30.273,44.434,47.363,23.438,0
1486661211.973,29.297,37.109,47.852,65.918,2.930,0
1486661211.977,91.309,34.180,41.016,75.195,33.203,0
1486661211.981,87.891,22.949,36.621,73.730,84.473,0
1486661211.985,40.527,26.855,43.457,61.523,68.848,0
1486661211.989,-7.812,27.832,44.922,50.781,39.062,0
1486661211.993,10.742,22.461,38.086,51.270,13.672,0
1486661211.997,64.941,20.996,34.180,63.965,40.527,0
1486661212.001,75.195,28.809,32.227,72.754,111.816,0
1486661212.005,42.480,38.086,37.598,56.641,47.852,0
1486661212.009,-5.371,33.691,42.480,42.969,-9.766,0
1486661212.013,2.930,29.785,39.062,43.457,-18.555,0
1486661212.016,59.570,31.738,35.645,51.758,-32.227,0
1486661212.020,79.102,28.320,40.039,64.941,13.184,0
1486661212.024,48.340,25.879,41.016,53.711,9.766,0
1486661212.028,-1.953,23.438,42.480,44.434,10.742,0
1486661212.032,-11.719,17.090,41.504,44.922,8.789,0
1486661212.036,47.363,15.137,36.133,58.594,-10.742,0
1486661212.040,78.613,21.973,35.156,71.289,54.199,0
1486661212.044,49.805,27.832,36.133,57.617,53.711,0
1486661212.048,4.883,29.297,43.457,50.293,26.367,0
1486661212.052,-7.812,28.320,45.410,52.734,10.254,0
1486661212.055,41.504,24.902,36.133,54.199,10.254,0
1486661212.059,79.590,25.391,38.574,66.895,74.707,0
1486661212.063,60.059,24.414,40.527,64.453,62.012,0
1486661212.067,8.301,30.762,36.621,49.805,16.113,0
1486661212.071,-6.348,35.156,48.340,55.176,-26.367,0
1486661212.075,45.410,25.879,45.410,63.477,-22.461,0
1486661212.079,80.078,28.320,32.715,65.918,20.020,0
1486661212.083,60.547,29.297,31.250,60.059,-1.953,0
1486661212.087,16.113,29.297,42.480,49.316,-32.227,0
1486661212.091,-11.719,32.715,47.363,50.293,12.207,0
1486661212.095,27.832,26.855,38.086,51.758,20.508,0
1486661212.098,77.148,27.832,37.109,60.547,26.855,0
1486661212.102,68.848,30.273,36.621,61.035,34.668,0
1486661212.106,22.949,30.273,41.016,51.758,30.273,0
1486661212.110,-15.625,24.414,44.434,48.340,20.020,0
1486661212.114,13.672,19.531,31.250,54.688,-29.785,0
1486661212.118,72.266,29.785,29.297,68.359,27.832,0
1486661212.122,71.289,31.250,36.621,64.453,94.727,0
1486661212.126,29.785,30.273,41.016,53.711,64.941,0
1486661212.130,-10.254,29.297,45.410,52.246,33.203,0
1486661212.134,18.066,29.297,45.410,58.105,35.156,0
1486661212.137,73.242,31.738,34.668,64.941,83.496,0
1486661212.141,75.195,33.691,32.227,62.500,82.031,0
1486661212.145,38.086,36.133,41.504,58.594,24.414,0
1486661212.149,-8.301,30.273,45.410,51.758,-1.465,0
1486661212.153,9.277,23.926,35.156,48.828,-5.371,0
1486661212.157,65.918,20.996,26.855,63.477,69.824,0
1486661212.161,78.125,24.902,29.297,71.777,140.137,0
1486661212.165,43.945,27.832,38.574,63.477,82.520,0
1486661212.169,0.000,26.855,48.340,59.082,41.992,0
1486661212.173,5.371,24.902,42.480,56.152,37.598,0
1486661212.177,66.406,28.320,35.156,69.336,52.246,0
1486661212.180,83.008,34.668,37.598,73.242,119.141,0
1486661212.184,50.293,32.227,44.922,61.035,107.910,0
1486661212.188,8.789,23.926,44.922,58.594,80.078,0
1486661212.192,0.000,20.020,40.527,54.688,45.410,0
1486661212.196,62.012,21.973,31.250,62.500,12.695,0
1486661212.200,93.750,28.809,25.879,77.148,82.031,0
1486661212.204,55.176,28.809,36.133,67.383,74.219,0
1486661212.208,4.395,27.832,43.457,53.711,60.547,0
1486661212.212,-3.906,27.344,43.945,50.781,40.039,0
1486661212.216,44.922,22.949,39.551,57.129,10.254,0
1486661212.220,81.543,24.414,33.203,72.266,65.918,0
1486661212.223,63.477,26.855,45.898,67.871,62.988,0
1486661212.227,17.090,30.273,62.012,55.664,24.414,0
1486661212.231,-2.930,27.832,46.387,46.387,-3.418,0
1486661212.235,41.504,21.484,23.926,39.062,-38.574,0
1486661212.239,78.125,25.879,21.484,56.152,43.945,0
1486661212.243,59.082,28.320,36.133,66.406,71.289,0
1486661212.247,8.789,28.320,45.898,55.664,25.879,0
1486661212.251,-21.484,22.461,41.504,41.016,-15.625,0
1486661212.255,25.879,23.438,35.156,45.898,-19.531,0
1486661212.259,74.707,29.785,28.320,62.012,29.785,0
1486661212.262,66.895,25.879,36.133,66.895,34.180,0
1486661212.266,22.461,26.367,50.293,59.570,4.883,0
1486661212.270,-14.160,24.414,41.992,49.805,-20.996,0
1486661212.274,22.949,21.973,29.785,54.688,2.441,0
1486661212.278,76.172,24.902,34.668,69.824,69.824,0
1486661212.282,69.824,29.297,32.715,68.848,88.867,0
1486661212.286,22.949,31.738,33.203,55.664,48.340,0
1486661212.290,-13.184,29.297,41.992,45.898,-11.719,0
1486661212.294,14.160,25.391,38.574,46.387,-49.316,0
1486661212.298,66.406,29.297,35.645,61.035,27.832,0
1486661212.302,70.312,31.250,38.086,72.754,95.703,0
1486661212.305,28.809,27.832,40.039,57.129,50.293,0
1486661212.309,-17.578,25.879,40.527,41.016,14.648,0
1486661212.313,7.324,28.809,40.527,51.758,17.090,0
1486661212.317,66.895,28.320,33.691,62.988,55.664,0
1486661212.321,73.242,28.320,28.320,58.105,99.121,0
1486661212.325,34.668,31.738,37.598,50.781,81.543,0
1486661212.329,-9.277,31.250,46.875,48.340,22.949,0
1486661212.333,0.000,25.391,39.062,39.062,-7.324,0
1486661212.337,65.430,26.855,37.598,54.688,37.109,0
1486661212.341,90.820,33.691,45.898,73.730,80.078,0
1486661212.345,51.270,30.762,37.598,53.223,36.133,0
1486661212.348,0.977,24.414,30.273,40.527,6.348,0
1486661212.352,3.418,22.461,31.250,44.922,9.766,0
1486661212.356,62.500,23.438,28.320,54.199,31.738,0
1486661212.360,92.285,29.297,33.691,68.848,89.844,0
1486661212.364,67.871,35.645,41.016,65.430,83.984,0
1486661212.368,12.695,31.738,43.945,54.688,35.645,0
1486661212.372,0.488,28.320,47.363,53.711,1.953,0
1486661212.376,56.641,29.297,42.480,64.941,17.090,0
1486661212.380,81.543,28.809,32.715,73.242,84.473,0
1486661212.384,59.570,31.738,40.527,64.941,79.102,0
1486661212.387,18.066,31.250,44.922,55.664,23.926,0
1486661212.391,-5.859,23.438,43.457,56.641,-24.902,0
1486661212.395,43.457,22.949,42.969,65.918,3.418,0
1486661212.399,101.562,31.250,40.527,92.285,63.965,0
1486661212.403,82.031,28.809,41.504,90.820,51.758,0
1486661212.407,15.137,26.367,39.551,55.176,28.320,0
1486661212.411,-10.254,29.785,41.992,48.340,9.766,0
1486661212.415,30.273,22.949,33.691,56.641,32.715,0
1486661212.419,72.266,21.484,29.785,64.453,75.684,0
1486661212.423,63.477,25.879,44.434,67.871,75.684,0
1486661212.427,19.531,30.273,45.410,55.664,69.336,0
1486661212.430,-14.648,26.855,34.668,45.898,32.227,0
1486661212.434,22.461,24.902,31.738,45.410,-15.625,0
1486661212.438,74.707,27.832,30.273,51.270,62.500,0
1486661212.442,74.219,29.785,42.480,67.871,129.395,0
1486661212.446,30.762,30.762,48.828,62.988,77.637,0
1486661212.450,-8.301,29.785,34.180,43.945,13.184,0
1486661212.454,21.973,28.809,33.203,48.340,12.207,0
1486661212.458,77.148,27.832,35.645,67.383,32.715,0
1486661212.462,78.613,29.297,36.621,73.242,64.453,0
1486661212.466,36.133,26.367,43.945,64.453,54.688,1
1486661212.470,-9.766,24.902,41.016,49.805,35.645,0
1486661212.473,4.395,21.973,32.227,44.434,6.836,0
1486661212.477,65.430,19.531,27.832,58.105,28.809,0
1486661212.481,72.266,25.391,28.320,59.570,85.449,0
1486661212.485,35.156,34.180,42.969,51.758,89.844,0
1486661212.489,-0.488,33.691,58.105,53.223,37.109,0
1486661212.493,1.953,22.461,37.598,43.945,-2.930,0
1486661212.497,55.176,20.020,24.902,51.270,10.254,0
1486661212.501,80.566,26.367,35.156,66.406,90.820,0
1486661212.505,45.410,28.809,41.992,55.664,72.754,0
1486661212.509,-1.953,27.344,47.363,48.340,42.480,0
1486661212.512,-0.977,27.344,36.621,42.480,34.180,0
1486661212.516,58.594,29.297,31.250,48.828,16.113,0
1486661212.520,88.379,32.227,38.086,67.871,114.746,0
1486661212.524,51.270,34.668,41.504,53.711,108.887,0
1486661212.528,5.859,38.086,40.527,41.504,50.781,0
1486661212.532,1.465,34.668,43.457,47.363,26.367,0
1486661212.536,51.270,26.855,42.969,51.270,52.734,0
1486661212.540,83.008,26.855,36.133,68.359,157.227,0
1486661212.544,59.082,28.809,35.645,60.059,165.039,0
1486661212.548,8.301,28.320,41.016,39.551,78.613,0
1486661212.552,-9.277,25.391,39.551,44.922,35.645,0
1486661212.555,41.016,23.438,37.109,52.734,69.336,0
1486661212.559,84.473,31.250,43.945,66.895,123.047,0
1486661212.563,67.871,34.668,40.039,65.430,101.562,0
1486661212.567,10.254,29.297,41.016,41.016,42.480,0
1486661212.571,-17.578,22.461,45.898,38.574,17.578,0
1486661212.575,31.250,20.020,39.062,49.316,4.395,0
1486661212.579,74.707,24.414,32.227,57.617,65.918,0
1486661212.583,63.477,25.879,36.133,57.129,111.328,0
1486661212.587,21.973,26.367,45.898,51.270,61.523,0
1486661212.591,-10.254,29.297,49.805,50.781,33.203,0
1486661212.594,28.320,28.320,37.598,51.270,4.395,0
1486661212.598,84.473,31.738,29.297,71.289,42.480,0
1486661212.602,79.102,38.086,38.086,79.102,86.426,0
1486661212.606,33.691,34.668,44.434,62.500,56.641,0
1486661212.610,-4.883,26.855,43.945,55.664,39.551,0
1486661212.614,21.484,26.367,41.016,57.617,-3.906,0
1486661212.618,82.031,30.273,38.574,70.312,-1.953,0
1486661212.622,79.590,28.320,41.016,76.660,66.406,0
1486661212.626,29.785,27.344,41.504,58.594,63.477,0
1486661212.630,-8.301,32.715,47.852,51.758,29.785,0
1486661212.634,7.812,28.809,44.434,54.688,-7.324,0
1486661212.637,60.059,24.902,36.133,60.059,43.945,0
1486661212.641,74.219,27.832,35.156,67.871,110.840,0
1486661212.645,39.062,30.762,35.645,59.082,83.496,0
1486661212.649,-5.859,33.691,41.016,51.758,53.711,0
1486661212.653,5.859,28.809,42.480,48.828,-15.625,0
1486661212.657,62.988,24.414,36.133,55.664,-19.043,0
1486661212.661,83.984,33.691,44.434,73.730,64.453,0
1486661212.665,52.734,39.062,50.781,69.824,87.891,0
1486661212.669,-6.348,28.809,40.527,46.387,51.758,0
1486661212.673,-9.766,22.949,39.062,43.457,37.109,0
1486661212.677,49.805,22.461,35.645,65.430,46.875,0
1486661212.680,73.242,24.902,32.715,71.777,82.031,0
1486661212.684,49.805,30.273,28.809,56.152,75.195,0
1486661212.688,2.441,30.273,37.109,49.805,39.551,0
1486661212.692,-6.836,28.809,42.969,52.246,35.156,0
1486661212.696,59.082,30.273,39.062,65.430,17.578,0
1486661212.700,91.309,29.785,37.598,76.660,76.660,0
1486661212.704,64.453,29.297,37.109,69.824,89.355,0
1486661212.708,18.555,28.809,41.992,64.941,45.898,0
1486661212.712,-2.441,23.926,45.410,59.082,25.391,0
1486661212.716,44.434,26.855,36.621,57.129,34.668,0
1486661212.719,89.355,33.691,31.250,76.172,105.957,0
1486661212.723,75.684,34.180,41.016,77.148,90.820,0
1486661212.727,22.949,33.203,45.410,62.988,51.270,0
1486661212.731,-4.395,26.855,43.457,56.641,31.250,0
1486661212.735,38.086,20.996,33.203,55.664,18.066,0
1486661212.739,88.379,26.367,33.691,70.312,75.195,0
1486661212.743,81.543,33.203,41.016,76.172,121.582,0
1486661212.747,31.738,37.598,48.340,70.801,99.609,0
1486661212.751,-4.883,31.738,49.805,62.500,50.781,0
1486661212.755,33.203,28.809,41.504,58.594,35.645,0
1486661212.759,83.984,35.156,35.645,70.801,91.797,0
1486661212.762,75.195,32.227,39.551,73.242,126.465,0
1486661212.766,26.367,26.367,40.527,58.594,82.031,0
1486661212.770,-8.301,27.344,44.922,52.734,27.344,0
1486661212.774,24.414,28.320,42.969,52.246,17.578,0
1486661212.778,81.543,31.738,30.273,62.012,75.195,0
1486661212.782,85.938,37.598,30.273,68.848,75.195,0
1486661212.786,40.527,36.621,42.969,59.082,30.273,0
1486661212.790,-1.465,32.227,49.805,53.223,52.734,0
1486661212.794,15.625,27.832,39.551,49.805,38.086,0
1486661212.798,67.383,27.832,28.809,58.594,39.551,0
1486661212.802,76.660,29.297,31.250,67.871,114.746,0
1486661212.805,38.086,32.715,41.992,59.082,44.434,0
1486661212.809,-3.418,29.297,41.504,46.387,-0.488,0
1486661212.813,9.277,25.879,37.598,48.828,26.367,0
1486661212.817,66.895,31.250,42.480,67.383,31.250,0
1486661212.821,83.008,31.250,40.527,69.336,90.332,0
1486661212.825,53.223,33.691,49.316,61.035,63.965,0
1486661212.829,9.766,35.156,56.641,54.688,39.062,0
1486661212.833,-0.488,25.391,37.598,46.387,42.480,0
1486661212.837,55.176,25.391,27.832,53.711,47.363,0
1486661212.841,82.031,29.785,25.391,65.430,113.281,0
1486661212.844,55.664,31.738,34.180,65.430,91.309,0
1486661212.848,10.742,31.738,48.828,58.105,30.273,0
1486661212.852,1.953,27.832,41.016,51.270,17.578,0
1486661212.856,58.594,28.320,39.551,57.617,21.484,0
1486661212.860,88.379,27.344,43.945,72.266,66.406,0
1486661212.864,54.199,26.855,34.180,63.477,57.617,0
1486661212.868,0.000,25.879,37.598,42.969,62.988,0
1486661212.872,-11.719,22.461,44.922,35.156,54.688,0
1486661212.876,37.598,23.438,40.039,44.434,-0.977,0
1486661212.880,73.242,26.367,31.250,60.547,62.988,0
1486661212.884,60.547,31.250,30.762,57.617,107.422,0
1486661212.887,13.184,33.691,48.340,47.852,70.801,0
1486661212.891,-13.184,29.297,41.992,40.527,4.883,0
1486661212.895,31.250,27.832,26.855,42.969,-59.082,0
1486661212.899,79.590,29.785,29.297,56.152,44.434,0
1486661212.903,76.660,33.691,39.062,58.594,102.051,0
1486661212.907,19.531,34.668,45.898,43.945,38.574,0
1486661212.911,-20.020,26.367,35.645,31.738,22.461,0
1486661212.915,22.949,22.461,31.738,39.062,15.625,0
1486661212.919,72.754,26.367,32.227,60.059,55.176,0
1486661212.923,68.359,29.297,28.809,61.035,87.891,0
1486661212.927,21.484,26.367,39.551,46.387,81.055,0
1486661212.930,-13.184,24.902,44.922,46.387,66.895,0
1486661212.934,20.996,22.949,38.574,44.434,28.809,0
1486661212.938,73.242,21.484,31.250,52.734,13.672,0
1486661212.942,77.148,26.855,34.668,68.848,54.199,0
1486661212.946,41.016,31.250,43.945,59.082,48.340,0
1486661212.950,-4.883,25.879,40.527,52.734,-2.441,0
1486661212.954,16.113,26.367,30.273,55.176,-10.254,0
1486661212.958,80.078,30.273,37.109,67.383,55.664,0
1486661212.962,83.984,33.203,45.898,72.754,94.727,0
1486661212.966,38.086,35.645,39.551,55.664,48.340,0
1486661212.969,-2.930,30.762,40.527,47.363,22.949,0
1486661212.973,4.395,27.344,36.133,47.363,-3.418,0
1486661212.977,64.453,25.879,30.762,58.594,5.371,0
1486661212.981,93.750,31.738,40.527,72.754,68.359,0
1486661212.985,44.922,31.250,39.551,55.176,64.453,0
1486661212.989,-10.742,22.461,39.062,42.480,44.922,0
1486661212.993,0.977,19.531,49.805,49.316,5.371,0
1486661212.997,61.523,25.391,43.457,55.664,8.301,0
1486661213.001,85.449,29.297,36.621,65.430,74.707,0
1486661213.005,53.711,29.297,39.551,60.059,56.152,0
1486661213.009,-0.977,26.855,39.551,48.340,30.273,0
1486661213.012,-7.812,22.461,34.668,45.898,14.648,0
1486661213.016,50.293,27.344,32.715,58.105,-15.137,0
1486661213.020,81.055,32.227,37.598,69.336,45.410,0
1486661213.024,61.035,35.645,43.457,61.523,43.945,0
1486661213.028,8.789,28.320,42.480,50.293,27.344,0
1486661213.032,-12.695,24.414,43.457,46.875,19.043,0
1486661213.036,41.504,27.832,42.480,47.363,-11.230,0
1486661213.040,78.125,28.320,29.297,58.105,54.688,0
1486661213.044,59.082,29.785,29.297,58.105,62.988,0
1486661213.048,9.277,31.738,37.109,45.410,9.277,0
1486661213.051,-11.230,29.785,41.016,45.410,-8.789,0
1486661213.055,40.039,26.855,40.039,53.223,14.160,0
1486661213.059,78.125,26.855,27.832,64.453,101.074,0
1486661213.063,63.477,31.738,27.832,62.988,96.680,0
1486661213.067,20.020,32.227,35.645,53.711,77.148,0
1486661213.071,-10.742,29.297,38.574,56.641,35.645,1
1486661213.075,29.297,30.762,41.992,58.105,-20.020,0
1486661213.079,82.520,28.809,39.551,65.918,38.086,0
1486661213.083,73.242,28.320,32.715,69.336,100.098,0
1486661213.087,20.996,27.832,34.180,56.641,67.871,0
1486661213.091,-14.648,26.855,48.828,52.246,1.953,0
1486661213.094,8.301,23.438,40.527,49.316,-40.527,0
1486661213.098,60.059,23.438,29.297,57.617,21.973,0
1486661213.102,68.848,29.297,34.668,61.523,80.566,0
1486661213.106,30.762,33.691,40.527,50.293,66.895,0
1486661213.110,-5.371,32.715,49.805,45.898,48.828,0
1486661213.114,20.508,31.250,51.270,50.293,20.996,0
1486661213.118,76.660,29.785,45.898,64.453,32.227,0
1486661213.122,82.031,29.785,40.527,73.242,78.125,0
1486661213.126,42.480,32.715,40.527,58.105,38.086,0
1486661213.130,-13.672,24.902,38.086,37.598,15.137,0
1486661213.134,-0.488,16.602,27.832,34.668,24.902,0
1486661213.137,65.918,21.484,26.367,51.270,36.621,0
1486661213.141,85.938,28.320,37.598,65.918,83.008,0
1486661213.145,58.105,30.762,46.387,57.129,65.430,0
1486661213.149,12.695,32.715,47.852,47.363,15.137,0
1486661213.153,13.184,32.715,43.945,50.293,-5.371,0
1486661213.157,72.266,31.738,37.109,66.406,41.016,0
1486661213.161,95.703,28.809,35.156,82.031,96.680,0
1486661213.165,62.012,26.855,35.156,66.406,72.754,0
1486661213.169,4.395,25.879,39.062,52.246,10.742,0
1486661213.173,-5.371,25.391,41.992,48.828,-43.457,0
1486661213.176,53.223,25.391,36.621,55.664,-20.508,0
1486661213.180,81.543,28.809,32.715,68.848,59.082,0
1486661213.184,59.082,36.621,41.016,70.801,37.598,0
1486661213.188,10.254,38.086,48.828,63.477,37.598,0
1486661213.192,-15.625,25.879,47.852,49.805,37.598,0
1486661213.196,32.227,18.066,40.039,49.805,21.484,0
1486661213.200,70.312,20.508,26.367,57.617,79.590,0
1486661213.204,55.176,23.438,26.367,52.734,62.500,0
1486661213.208,7.812,25.879,39.551,45.410,28.809,0
1486661213.212,-10.742,26.855,44.922,49.805,23.926,0
1486661213.216,36.133,23.926,35.645,50.293,15.625,0
1486661213.219,78.125,24.414,31.738,59.570,49.316,0
1486661213.223,72.266,31.250,43.945,61.523,77.148,0
1486661213.227,18.555,32.715,50.781,49.805,62.012,0
1486661213.231,-21.484,27.832,44.922,48.340,-10.254,0
1486661213.235,17.578,24.414,31.738,51.270,-39.062,0
1486661213.239,72.754,25.879,36.621,63.965,36.621,0
1486661213.243,72.754,26.855,40.039,71.777,40.039,0
1486661213.247,28.320,27.344,38.086,59.570,15.137,0
1486661213.251,-5.859,31.250,40.039,49.805,11.719,0
1486661213.255,32.715,32.715,39.551,58.594,-2.930,0
1486661213.259,85.938,31.738,43.457,79.102,48.828,0
1486661213.262,84.961,37.109,41.992,77.637,97.168,0
1486661213.266,44.434,38.574,40.039,58.594,68.848,0
1486661213.270,-1.953,24.902,37.598,49.316,46.875,0
1486661213.274,13.672,23.438,36.133,48.828,-4.395,0
1486661213.278,65.430,25.879,32.227,63.965,33.691,0
1486661213.282,70.312,24.902,29.785,67.383,107.422,0
1486661213.286,35.156,30.762,30.762,51.758,46.875,0
1486661213.290,-4.395,32.227,42.969,45.898,29.297,0
1486661213.294,5.859,24.902,44.922,47.363,19.043,0
1486661213.298,63.965,25.879,30.273,62.988,28.320,0
1486661213.301,81.055,28.809,28.320,70.312,102.539,0
1486661213.305,51.758,30.762,38.574,61.035,83.984,0
1486661213.309,5.371,30.762,38.574,53.223,54.688,0
1486661213.313,8.789,26.855,33.203,50.781,20.508,0
1486661213.317,71.777,27.832,33.203,61.035,12.207,0
1486661213.321,93.262,31.738,35.645,77.148,85.449,0
1486661213.325,59.082,31.738,37.598,70.801,75.195,0
1486661213.329,12.695,31.738,43.945,57.129,44.922,0
1486661213.333,4.883,30.762,45.410,60.547,31.738,0
1486661213.337,55.664,27.832,43.457,73.730,40.039,0
1486661213.341,90.820,32.715,34.180,87.402,86.426,0
1486661213.344,62.988,33.203,29.297,73.242,62.988,0
1486661213.348,4.395,26.855,32.227,49.805,26.855,0
1486661213.352,-6.348,23.438,42.480,46.875,18.555,0
1486661213.356,45.410,19.531,38.086,48.340,5.371,0
1486661213.360,82.520,24.414,32.227,64.453,70.801,0
1486661213.364,67.871,29.785,42.480,67.383,68.848,0
1486661213.368,15.625,32.715,45.410,55.176,31.738,0
1486661213.372,-10.254,31.250,41.016,45.410,9.277,0
1486661213.376,36.621,25.879,38.086,51.270,18.555,0
1486661213.380,81.543,28.809,35.156,67.383,69.824,0
1486661213.384,64.941,29.297,29.297,58.105,67.383,0
1486661213.387,14.160,25.879,34.668,40.039,67.871,0
1486661213.391,-11.719,26.367,41.504,40.039,70.801,0
1486661213.395,29.297,26.367,38.574,48.340,45.410,0
1486661213.399,78.125,28.809,29.785,54.688,61.523,0
1486661213.403,72.266,30.273,32.715,57.129,96.191,0
1486661213.407,28.320,35.156,47.363,54.688,68.848,0
1486661213.411,-10.254,32.715,51.758,49.316,38.086,0
1486661213.415,16.113,22.949,41.992,50.293,45.898,0
1486661213.419,71.289,24.902,30.273,64.941,41.992,0
1486661213.423,70.801,26.367,26.855,66.895,65.430,0
1486661213.426,27.832,24.902,41.016,62.012,76.172,0
1486661213.430,-7.812,26.367,46.387,54.199,16.113,0
1486661213.434,15.137,22.461,39.062,55.176,-8.789,0
1486661213.438,68.848,24.414,39.551,75.195,36.621,0
1486661213.442,73.242,28.809,41.016,78.125,47.363,0
1486661213.446,39.551,30.273,47.852,66.895,36.621,0
1486661213.450,-5.371,27.344,47.852,51.758,18.555,0
1486661213.454,6.348,19.531,34.180,46.875,3.906,0
1486661213.458,69.824,21.973,31.250,63.477,68.359,0
1486661213.462,83.008,32.227,33.691,75.195,128.418,0
1486661213.466,45.410,31.738,42.480,67.871,88.867,0
1486661213.469,2.930,28.809,50.781,56.641,71.777,0
1486661213.473,2.441,25.391,49.316,49.805,50.781,0
1486661213.477,52.734,22.461,39.062,54.688,37.109,0
1486661213.481,78.613,25.879,37.109,69.336,79.102,0
1486661213.485,53.223,32.715,47.363,71.289,110.840,0
1486661213.489,-2.441,27.832,42.480,53.711,83.496,0
1486661213.493,-11.230,20.508,34.668,41.992,8.301,0
1486661213.497,50.781,25.391,34.180,52.734,27.344,0
1486661213.501,82.031,30.762,32.715,68.848,66.406,0
1486661213.505,56.641,30.273,41.504,64.453,54.199,0
1486661213.509,10.254,28.320,46.875,52.246,62.500,0
1486661213.512,-8.789,23.926,41.504,48.340,11.719,0
1486661213.516,39.551,20.020,34.180,53.711,-11.230,0
1486661213.520,82.031,27.344,36.621,71.777,62.012,0
1486661213.524,55.176,26.855,35.645,65.918,51.270,0
1486661213.528,0.977,20.508,34.180,52.734,38.574,0
1486661213.532,-12.207,22.949,39.551,53.711,10.742,0
1486661213.536,35.645,25.391,41.992,55.176,-21.973,0
1486661213.540,79.102,26.855,34.668,72.266,14.160,0
1486661213.544,67.871,29.785,38.086,75.684,47.852,0
1486661213.548,17.090,30.273,45.410,60.059,51.270,0
1486661213.551,-7.812,29.785,50.781,58.105,0.977,0
1486661213.555,39.551,23.926,46.387,60.547,-14.160,0
1486661213.559,86.426,20.508,32.715,71.777,25.879,0
1486661213.563,79.590,25.391,35.645,76.660,81.543,0
1486661213.567,36.621,30.762,45.410,65.918,62.500,0
1486661213.571,-3.906,31.250,39.062,53.223,36.621,0
1486661213.575,19.531,30.762,29.297,44.922,18.555,0
1486661213.579,71.777,34.668,34.668,60.059,22.461,0
1486661213.583,74.219,34.180,43.945,67.383,63.965,0
1486661213.587,27.344,25.879,43.945,49.805,70.312,0
1486661213.591,-10.742,26.367,46.387,42.480,78.613,0
1486661213.594,16.113,28.320,42.969,46.387,8.789,0
1486661213.598,79.102,29.785,38.574,62.500,20.508,0
1486661213.602,86.426,37.109,36.133,71.289,88.867,0
1486661213.606,44.922,39.551,42.480,64.941,18.555,0
1486661213.610,-6.836,32.715,45.410,58.594,12.207,0
1486661213.614,5.859,26.367,35.645,50.781,30.762,0
1486661213.618,68.848,24.902,34.668,58.594,20.996,0
1486661213.622,79.590,32.227,39.551,69.824,44.434,0
1486661213.626,44.434,36.621,42.480,60.059,38.086,0
1486661213.630,2.441,31.250,48.828,51.270,36.621,0
1486661213.633,3.418,26.367,47.852,48.828,22.461,0
1486661213.637,56.641,26.855,39.551,58.594,28.809,0
1486661213.641,84.961,34.668,35.645,71.289,49.316,0
1486661213.645,57.129,38.086,40.527,62.988,46.875,0
1486661213.649,3.418,36.133,50.293,56.641,12.695,0
1486661213.653,-2.441,27.832,43.945,52.734,-0.488,0
1486661213.657,55.176,23.926,40.039,53.711,30.762,0
1486661213.661,83.496,25.879,38.086,68.848,72.266,0
1486661213.665,53.223,30.273,32.715,63.965,62.988,0
1486661213.669,3.418,31.738,41.504,57.129,44.922,0
1486661213.673,-2.930,27.832,46.387,56.641,54.688,0
1486661213.676,48.340,25.879,36.621,56.641,47.363,0
1486661213.680,78.613,25.879,29.297,69.336,92.773,1
1486661213.684,60.059,26.367,37.109,63.477,126.465,0
1486661213.688,8.301,26.855,38.086,43.945,78.613,0
1486661213.692,-16.113,23.438,34.668,38.086,26.367,0
1486661213.696,38.086,20.996,36.621,47.363,-12.207,0
1486661213.700,81.543,28.320,43.945,66.895,42.480,0
1486661213.704,64.453,32.715,43.457,69.336,64.453,0
1486661213.708,11.230,30.273,35.156,54.688,8.789,0
1486661213.712,-17.090,24.902,38.086,46.875,21.973,0
1486661213.716,33.691,20.996,39.551,57.617,11.719,0
1486661213.719,89.355,30.762,37.598,76.660,32.227,0
1486661213.723,78.125,33.203,36.133,72.754,88.379,0
1486661213.727,26.367,28.809,35.156,57.129,40.039,0
1486661213.731,-8.301,28.320,47.852,50.781,0.488,0
1486661213.735,26.367,26.855,45.898,55.176,-21.484,0
1486661213.739,81.543,27.832,35.156,72.754,41.504,0
1486661213.743,78.125,32.227,42.480,77.637,104.004,0
1486661213.747,30.273,32.227,39.062,59.570,63.477,0
1486661213.751,-12.207,28.320,41.016,50.293,17.578,0
1486661213.755,9.766,26.367,43.945,53.223,19.043,0
1486661213.758,69.336,31.250,38.086,67.871,62.500,0
1486661213.762,77.148,35.156,37.109,75.684,90.332,0
1486661213.766,35.645,34.180,38.574,58.594,64.941,0
1486661213.770,-6.348,31.250,50.293,51.270,51.270,0
1486661213.774,9.277,22.461,46.875,46.875,30.762,0
1486661213.778,69.336,21.973,31.250,57.617,44.434,0
1486661213.782,85.449,23.438,30.273,70.801,85.938,0
1486661213.786,41.992,18.555,32.227,49.316,48.340,0
1486661213.790,-5.859,20.508,37.109,40.039,29.785,0
1486661213.794,7.324,24.414,39.062,51.270,6.836,0
1486661213.798,62.988,25.391,40.527,62.500,-0.488,0
1486661213.801,79.590,25.391,37.598,68.848,62.012,0
1486661213.805,48.828,30.273,41.504,66.406,61.035,0
1486661213.809,-0.488,26.367,45.898,55.664,22.949,0
1486661213.813,-3.418,23.926,37.109,50.293,31.250,0
1486661213.817,56.641,27.344,34.180,65.918,46.875,0
1486661213.821,82.520,29.297,37.598,83.008,83.496,0
1486661213.825,52.246,30.762,47.363,74.219,65.430,0
1486661213.829,3.418,31.250,51.758,61.035,23.926,0
1486661213.833,-8.789,27.832,39.062,54.199,27.832,0
1486661213.837,37.598,21.973,31.250,57.617,16.602,0
1486661213.841,78.613,26.855,43.457,77.148,83.496,0
1486661213.844,63.477,32.715,50.781,77.637,108.398,0
1486661213.848,11.230,26.855,38.574,58.594,54.688,0
1486661213.852,-13.184,18.066,33.691,42.969,14.160,0
1486661213.856,38.086,19.531,30.273,50.781,25.391,0
1486661213.860,77.637,22.461,33.203,70.312,71.777,0
1486661213.864,62.012,28.320,38.086,66.895,58.594,0
1486661213.868,13.672,28.809,40.527,50.781,7.324,0
1486661213.872,-14.648,25.879,45.410,45.410,14.160,0
1486661213.876,31.250,24.414,42.969,51.270,-13.672,0
1486661213.880,71.777,19.531,32.715,63.477,17.090,0
1486661213.883,60.547,20.996,28.320,58.594,56.641,0
1486661213.887,21.484,30.273,39.062,48.828,7.812,0
1486661213.891,-9.277,32.715,51.758,47.852,1.953,0
1486661213.895,22.949,27.344,45.898,47.363,-23.438,0
1486661213.899,79.590,29.297,36.621,63.477,2.441,0
1486661213.903,77.637,28.320,33.203,67.871,75.195,0
1486661213.907,35.645,29.297,41.504,55.664,65.430,0
1486661213.911,5.859,34.180,57.617,55.664,40.527,0
1486661213.915,23.926,22.949,38.574,56.152,40.039,0
1486661213.919,74.219,20.996,20.996,62.988,61.523,0
1486661213.923,88.867,26.367,32.227,71.777,57.617,0
1486661213.926,50.781,28.320,42.480,62.500,30.273,0
1486661213.930,0.000,26.367,42.969,51.270,11.230,0
1486661213.934,19.531,25.879,37.598,53.711,-38.086,0
1486661213.938,85.449,26.855,40.039,69.336,-18.066,0
1486661213.942,93.262,26.367,35.156,74.219,84.961,0
1486661213.946,50.293,28.809,35.156,60.547,74.707,0
1486661213.950,2.930,27.832,45.898,54.688,24.902,0
1486661213.954,7.324,21.973,36.133,55.664,4.395,0
1486661213.958,65.430,26.367,38.574,71.777,30.273,0
1486661213.962,84.473,30.762,39.062,83.008,76.660,0
1486661213.966,48.340,26.855,34.668,63.477,44.922,0
1486661213.969,-0.977,27.832,38.574,44.922,43.945,0
1486661213.973,-0.977,24.414,36.133,44.434,24.414,0
1486661213.977,56.641,24.414,41.504,64.453,32.715,0
1486661213.981,83.008,28.809,39.551,72.266,120.117,0
1486661213.985,55.664,31.250,34.668,56.152,83.984,0
1486661213.989,13.184,34.180,45.898,51.270,46.875,0
1486661213.993,-3.418,26.855,41.504,49.316,41.992,0
1486661213.997,46.387,24.902,33.691,52.246,43.457,0
1486661214.001,83.008,29.785,31.738,64.453,92.773,0
1486661214.005,56.641,30.273,37.598,60.547,79.590,0
1486661214.008,13.184,29.785,49.316,54.199,74.707,0
1486661214.012,-6.348,27.832,47.852,45.410,40.039,0
1486661214.016,40.039,28.809,43.457,49.316,20.996,0
1486661214.020,78.613,28.320,39.551,66.406,84.473,0
1486661214.024,56.641,28.320,36.133,64.941,80.566,0
1486661214.028,14.648,31.738,40.527,51.758,80.566,0
1486661214.032,-10.254,24.414,40.039,44.922,68.359,0
1486661214.036,33.203,21.973,32.715,46.875,62.988,0
1486661214.040,83.984,27.344,31.738,62.012,89.844,0
1486661214.044,69.336,27.832,42.969,71.289,87.402,0
1486661214.048,21.484,26.367,45.898,53.223,50.781,0
1486661214.051,-13.184,27.344,42.480,44.434,24.902,0
1486661214.055,21.973,28.320,42.969,57.617,30.762,0
1486661214.059,79.590,25.879,38.574,68.848,47.363,0
1486661214.063,73.242,22.461,32.227,61.523,60.059,0
1486661214.067,36.621,29.785,38.574,51.270,40.527,0
1486661214.071,-1.465,27.344,41.016,41.992,4.883,0
1486661214.075,16.113,16.113,35.645,39.062,-38.086,0
1486661214.079,72.754,17.090,34.180,55.176,-1.465,0
1486661214.083,71.289,22.949,27.344,56.152,73.730,0
1486661214.087,33.203,27.344,29.297,41.504,46.387,0
1486661214.090,-9.277,25.879,37.109,35.645,42.969,0
1486661214.094,4.883,24.414,38.086,40.527,30.762,0
1486661214.098,62.500,24.414,37.109,53.711,15.625,0
1486661214.102,78.125,25.879,28.320,65.430,66.895,0
1486661214.106,44.434,31.738,26.855,48.828,47.363,0
1486661214.110,-4.395,28.320,38.574,38.086,13.184,0
1486661214.114,0.977,22.461,43.457,42.480,17.578,0
1486661214.118,57.617,24.902,37.109,52.734,26.855,0
1486661214.122,79.102,27.344,30.762,63.477,62.012,0
1486661214.126,43.457,28.809,31.738,47.852,47.852,0
1486661214.130,-7.324,31.250,36.621,33.691,36.621,0
1486661214.133,-2.441,29.785,43.457,39.062,-9.766,0
1486661214.137,54.688,30.762,38.086,51.758,-7.324,0
1486661214.141,85.938,32.715,33.203,66.406,86.914,0
1486661214.145,62.500,33.203,32.715,58.105,92.773,0
1486661214.149,17.578,37.109,49.316,54.688,39.551,0
1486661214.153,13.672,36.133,54.688,55.664,-11.719,0
1486661214.157,61.523,31.250,34.180,52.246,5.371,0
1486661214.161,88.379,27.832,28.809,67.871,73.242,0
1486661214.165,67.383,28.320,37.598,65.430,100.586,0
1486661214.169,14.160,28.320,41.016,45.410,82.520,0
1486661214.173,-11.230,29.297,45.410,45.898,19.043,0
1486661214.176,34.668,23.926,37.598,49.805,14.160,0
1486661214.180,81.055,24.902,33.691,62.500,65.430,0
1486661214.184,66.406,34.180,43.457,64.941,66.895,0
1486661214.188,16.602,35.156,43.457,54.199,40.527,0
1486661214.192,-6.836,33.203,41.016,54.199,17.090,0
1486661214.196,34.180,32.227,36.133,59.570,22.461,0
1486661214.200,84.961,33.691,33.691,75.684,88.379,0
1486661214.204,75.684,34.668,39.551,76.660,73.730,0
1486661214.208,24.902,31.738,45.410,59.082,30.762,0
1486661214.212,-14.160,31.250,44.922,46.387,21.973,1
1486661214.215,22.949,31.250,48.340,53.711,14.160,0
1486661214.219,77.148,31.738,45.410,72.754,57.129,0
1486661214.223,77.148,36.621,39.062,76.172,105.469,0
1486661214.227,31.250,32.715,39.062,60.059,62.988,0
1486661214.231,-13.184,23.926,38.086,48.340,0.488,0
1486661214.235,17.578,21.973,34.180,51.758,-2.930,0
1486661214.239,73.730,21.484,27.832,67.383,51.758,0
1486661214.243,81.543,27.344,25.879,71.777,92.285,0
1486661214.247,45.898,35.156,35.156,60.059,58.105,0
1486661214.251,1.465,34.180,49.316,58.105,47.363,0
1486661214.255,17.578,26.367,45.898,59.570,5.371,0
1486661214.258,71.777,25.391,36.621,71.289,17.090,0
1486661214.262,79.590,30.273,30.762,80.078,92.285,0
1486661214.266,39.551,27.344,31.250,62.500,62.500,0
1486661214.270,-6.348,21.484,41.016,50.293,51.270,0
1486661214.274,7.812,22.461,41.504,54.688,56.152,0
1486661214.278,63.477,26.855,37.109,67.871,34.180,0
1486661214.282,80.078,29.785,36.133,74.219,59.570,0
1486661214.286,48.340,32.715,38.574,60.059,42.480,0
1486661214.290,1.465,31.250,48.828,47.852,28.809,0
1486661214.294,-4.883,21.973,43.945,43.945,-18.555,0
1486661214.298,43.457,18.066,24.414,47.852,1.953,0
1486661214.301,66.406,20.996,20.508,58.594,115.723,0
1486661214.305,48.828,26.367,33.203,59.082,74.219,0
1486661214.309,2.930,28.809,41.016,48.340,14.648,0
1486661214.313,-15.137,20.996,31.738,34.668,24.902,0
1486661214.317,39.062,17.578,27.832,45.898,37.109,0
1486661214.321,78.613,22.949,32.227,62.500,83.008,0
1486661214.325,51.270,25.879,43.457,54.199,79.102,0
1486661214.329,-6.348,21.973,41.992,38.574,27.344,0
1486661214.333,-21.484,17.578,26.855,37.598,29.785,0
1486661214.337,32.227,17.090,27.832,46.875,52.734,0
1486661214.340,72.754,21.973,28.809,62.012,76.660,0
1486661214.344,58.105,28.809,31.250,63.965,97.656,0
1486661214.348,10.742,25.391,43.945,53.711,66.895,0
1486661214.352,-12.695,21.973,45.410,47.852,30.762,0
1486661214.356,36.133,24.902,33.691,50.781,-25.391,0
1486661214.360,80.566,27.344,32.227,70.801,36.621,0
1486661214.364,69.824,33.203,41.992,76.660,94.727,0
1486661214.368,26.855,34.180,46.387,62.012,20.020,0
1486661214.372,-12.695,20.996,38.086,50.293,-11.230,0
1486661214.376,21.973,17.090,28.320,54.199,-12.207,0
1486661214.380,78.125,23.926,31.250,69.824,43.945,0
1486661214.383,70.801,26.855,39.551,75.684,64.453,0
1486661214.387,20.508,24.902,38.086,57.129,24.902,0
1486661214.391,-17.578,28.809,41.992,51.270,32.715,0
1486661214.395,14.160,29.785,41.504,56.152,-13.672,0
1486661214.399,71.777,25.879,31.250,67.871,-0.488,0
1486661214.403,80.078,29.785,33.691,69.824,69.824,0
1486661214.407,36.133,27.832,41.016,50.293,45.410,0
1486661214.411,-9.766,23.926,36.621,43.945,13.184,0
1486661214.415,12.695,20.996,30.762,43.945,18.066,0
1486661214.419,63.965,22.461,24.902,54.688,62.012,0
1486661214.423,70.801,27.832,27.832,67.383,105.957,0
1486661214.426,41.504,31.250,41.504,58.105,81.543,0
1486661214.430,0.488,26.367,48.340,48.340,41.504,0
1486661214.434,4.883,21.484,38.574,43.945,-13.184,0
1486661214.438,70.801,31.738,39.062,61.523,1.465,0
1486661214.442,91.797,31.250,44.434,76.172,69.336,0
1486661214.446,52.734,27.344,37.598,63.477,52.246,0
1486661214.450,9.766,30.762,45.898,60.059,1.953,0
1486661214.454,5.859,24.414,45.898,57.129,-18.066,0
1486661214.458,56.152,22.461,28.320,60.059,-1.953,0
1486661214.462,80.078,28.320,24.902,72.266,35.156,0
1486661214.465,52.734,27.832,33.203,66.406,44.434,0
1486661214.469,4.395,23.926,43.457,58.105,-0.488,0
1486661214.473,-2.441,22.461,49.316,57.617,-31.738,0
1486661214.477,55.176,22.461,40.039,62.012,-11.230,0
1486661214.481,88.867,25.391,34.668,73.730,49.805,0
1486661214.485,63.477,27.832,39.062,65.918,39.551,0
1486661214.489,6.836,26.367,40.039,48.340,3.906,0
1486661214.493,-10.254,25.391,40.527,47.852,3.906,0
1486661214.497,43.457,22.949,30.273,55.176,1.953,0
1486661214.501,82.520,21.973,24.902,66.406,67.871,0
1486661214.505,67.383,22.949,28.320,65.918,74.219,0
1486661214.508,23.438,29.297,48.340,64.453,52.734,0
1486661214.512,-8.301,28.320,62.012,62.012,60.059,0
1486661214.516,27.344,21.973,37.598,57.617,47.363,0
1486661214.520,75.684,23.926,23.438,68.359,63.965,0
1486661214.524,68.359,27.832,33.203,66.406,88.867,0
1486661214.528,25.879,33.203,39.551,54.199,80.078,0
1486661214.532,4.883,33.691,43.457,53.711,26.855,0
1486661214.536,31.738,25.879,37.598,51.270,-31.738,0
1486661214.540,72.754,25.391,32.227,62.012,25.391,0
1486661214.544,73.730,28.320,36.621,66.895,64.941,0
1486661214.547,20.996,27.344,37.598,51.758,29.785,0
1486661214.551,-18.555,24.902,44.922,47.363,-20.020,0
1486661214.555,14.160,22.949,38.086,50.293,-25.391,0
1486661214.559,71.289,24.414,23.926,62.012,42.969,0
1486661214.563,79.590,31.250,27.344,67.871,44.434,0
1486661214.567,37.109,35.645,37.598,55.176,0.488,0
1486661214.571,-10.742,29.297,42.480,45.410,31.250,0
1486661214.575,5.859,21.484,37.109,41.992,41.504,0
1486661214.579,66.895,25.391,34.668,55.176,51.758,0
1486661214.583,78.613,25.879,29.297,64.453,79.102,0
1486661214.587,37.109,26.367,33.691,57.129,80.566,0
1486661214.590,-7.324,28.809,44.922,54.688,70.801,0
1486661214.594,0.488,22.949,37.598,53.711,41.992,0
1486661214.598,57.617,21.973,29.297,58.105,56.152,0
1486661214.602,81.543,32.227,43.457,71.289,107.910,0
1486661214.606,39.062,35.645,49.316,61.523,97.168,0
1486661214.610,-18.555,24.414,38.574,37.598,46.875,0
1486661214.614,-12.695,19.531,39.062,41.504,30.762,0
1486661214.618,48.340,23.926,41.992,54.688,51.270,0
1486661214.622,76.660,27.832,41.992,67.871,83.008,0
1486661214.626,46.875,28.320,30.273,59.570,63.965,0
1486661214.630,-7.324,27.344,31.250,46.875,24.414,0
1486661214.633,-14.648,26.367,39.062,46.875,-26.855,0
1486661214.637,47.852,29.785,40.527,53.711,-2.930,0
1486661214.641,84.961,31.250,36.133,67.383,83.496,0
1486661214.645,53.223,29.297,32.715,55.176,77.637,0
1486661214.649,1.465,27.832,41.016,46.875,37.598,0
1486661214.653,-11.719,24.414,48.828,49.805,6.836,0
1486661214.657,38.086,25.879,40.527,52.246,32.715,0
1486661214.661,80.078,29.297,27.832,70.312,96.680,0
1486661214.665,63.965,29.785,36.133,69.824,96.680,0
1486661214.669,18.555,31.250,41.992,51.270,44.434,0
1486661214.672,-5.859,29.785,45.898,49.316,-20.020,0
1486661214.676,37.109,16.602,31.250,49.316,-21.484,0
1486661214.680,84.961,14.160,18.066,56.641,43.457,0
1486661214.684,75.195,24.414,36.133,60.547,62.988,0
1486661214.688,28.809,27.832,40.527,53.711,18.066,0
1486661214.692,2.930,26.855,39.062,52.246,6.348,0
1486661214.696,38.086,22.949,42.969,51.270,32.715,0
1486661214.700,81.543,23.438,32.227,58.594,64.941,0
1486661214.704,72.754,31.250,28.320,59.570,89.844,0
1486661214.708,23.438,31.250,40.039,53.223,73.730,0
1486661214.712,-12.695,20.996,43.945,47.363,42.969,0
1486661214.715,13.184,13.672,36.133,39.062,41.504,0
1486661214.719,71.777,22.949,33.691,58.594,64.453,0
1486661214.723,80.078,30.762,41.016,70.312,91.797,0
1486661214.727,41.016,30.273,42.969,54.199,74.219,0
1486661214.731,-0.488,28.809,43.945,50.781,20.508,0
1486661214.735,12.695,26.367,45.898,52.734,2.441,0
1486661214.739,67.383,29.297,34.180,62.988,47.363,0
1486661214.743,75.684,25.879,33.203,69.824,101.562,0
1486661214.747,34.668,22.461,40.527,53.223,63.965,0
1486661214.751,-11.230,21.973,41.504,41.992,33.203,0
1486661214.755,4.883,23.438,34.668,38.574,11.230,0
1486661214.758,65.430,25.879,36.133,52.734,14.648,0
1486661214.762,83.984,28.320,42.480,68.848,66.406,0
1486661214.766,47.852,28.320,28.809,55.176,87.402,0
1486661214.770,-2.930,26.367,31.738,41.504,43.945,0
1486661214.774,-3.906,26.855,36.133,37.598,-18.066,0
1486661214.778,57.617,29.785,23.438,54.688,14.648,0
1486661214.782,88.379,30.273,21.484,73.730,84.473,0
1486661214.786,56.152,29.785,25.879,62.012,54.688,0
1486661214.790,9.766,27.344,38.086,54.688,7.812,1
1486661214.794,2.930,22.949,41.504,49.316,-14.160,0
1486661214.797,45.898,24.414,28.809,45.410,-20.996,0
1486661214.801,82.031,30.273,28.809,62.500,42.969,0
1486661214.805,60.547,32.227,38.574,60.059,59.082,0
1486661214.809,0.977,30.762,42.969,42.480,39.062,0
1486661214.813,-9.766,29.785,41.504,39.062,-1.953,0
1486661214.817,38.574,25.879,30.273,43.945,-15.625,0
1486661214.821,73.242,24.414,22.949,60.059,67.383,0
1486661214.825,57.129,25.391,27.344,61.035,59.082,0
1486661214.829,14.160,28.809,44.434,49.316,-2.441,0
1486661214.833,-6.836,28.809,47.852,44.434,-27.344,0
1486661214.837,40.527,25.391,34.180,53.711,8.789,0
1486661214.840,86.914,30.273,35.645,74.219,65.918,0
1486661214.844,68.359,31.250,32.227,66.895,78.125,0
1486661214.848,20.996,25.879,34.668,49.805,39.062,0
1486661214.852,-7.324,26.855,45.898,39.551,12.695,0
1486661214.856,29.297,26.367,31.738,42.480,14.160,0
1486661214.860,81.543,29.785,26.367,65.918,38.574,0
1486661214.864,74.707,32.227,37.109,69.336,69.824,0
1486661214.868,20.020,28.809,36.133,48.340,60.059,0
1486661214.872,-16.113,28.809,33.691,40.527,35.645,0
1486661214.876,18.555,25.879,36.133,45.410,31.250,0
1486661214.880,75.195,25.879,34.668,61.523,38.086,0
1486661214.883,81.055,35.156,40.039,70.312,60.059,0
1486661214.887,38.574,38.574,45.898,65.430,48.340,0
1486661214.891,-6.348,26.367,40.527,52.734,28.320,0
1486661214.895,13.184,24.414,38.574,51.758,-9.277,0
1486661214.899,73.242,31.250,33.691,68.359,41.504,0
1486661214.903,85.449,31.250,29.297,70.312,114.258,0
1486661214.907,42.969,28.809,32.227,55.176,75.195,0
1486661214.911,-3.418,32.227,40.039,43.457,53.711,0
1486661214.915,9.766,31.738,42.480,41.016,-24.414,0
1486661214.919,72.266,31.738,37.598,62.500,9.766,0
1486661214.922,89.355,34.180,46.387,74.219,109.375,0
1486661214.926,56.152,36.621,54.199,66.895,103.516,0
1486661214.930,9.277,38.086,44.922,59.082,56.152,0
1486661214.934,1.465,27.344,35.156,50.293,-11.230,0
1486661214.938,62.012,25.391,33.691,63.965,2.930,0
1486661214.942,87.402,34.668,38.086,78.613,64.453,0
1486661214.946,49.316,33.691,43.457,68.848,83.496,0
1486661214.950,5.371,33.203,52.734,58.105,52.246,0
1486661214.954,-0.977,29.297,50.781,53.711,-19.043,0
1486661214.958,50.781,22.949,45.898,62.500,-9.766,0
1486661214.962,83.008,29.297,44.434,81.055,68.848,0
1486661214.965,49.805,28.809,32.227,64.941,70.801,0
1486661214.969,0.977,25.879,35.645,49.805,24.414,0
1486661214.973,-9.277,24.414,44.434,43.945,21.484,0
1486661214.977,43.945,25.391,40.527,50.293,32.227,0
1486661214.981,82.520,25.391,39.551,70.312,52.734,0
1486661214.985,59.570,26.367,40.039,67.383,75.195,0
1486661214.989,15.137,28.809,43.945,62.012,42.969,0
1486661214.993,-3.906,26.367,50.293,56.641,-10.742,0
1486661214.997,39.062,28.809,40.527,56.641,-21.973,0
1486661215.001,78.125,31.250,20.996,66.406,33.691,0
1486661215.004,62.500,29.785,25.391,63.965,34.668,0
1486661215.008,16.602,25.879,39.551,56.152,16.602,0
1486661215.012,-7.812,22.949,42.480,44.922,-10.254,0
1486661215.016,32.227,23.438,38.574,48.828,-26.367,0
1486661215.020,80.566,28.809,36.133,75.195,53.223,0
1486661215.024,74.707,33.203,39.551,83.008,62.012,0
1486661215.028,31.738,40.527,51.270,75.195,14.648,0
1486661215.032,-5.859,32.715,52.734,61.523,2.930,0
1486661215.036,24.902,26.367,38.086,61.523,-12.695,0
1486661215.040,80.078,35.156,31.250,77.148,14.648,0
1486661215.044,83.496,34.180,30.762,72.266,70.312,0
1486661215.047,39.551,31.738,35.156,55.176,59.082,0
1486661215.051,-7.324,31.250,40.527,44.434,29.785,0
1486661215.055,20.508,33.203,44.922,50.781,8.789,0
1486661215.059,78.125,32.715,41.504,66.406,48.828,0
1486661215.063,83.496,32.715,39.551,69.824,117.676,0
1486661215.067,41.504,34.668,38.574,52.734,94.727,0
1486661215.071,-4.883,32.715,43.457,43.457,61.035,0
1486661215.075,4.395,32.227,41.992,48.828,37.598,0
1486661215.079,58.594,29.785,26.855,61.523,44.922,0
1486661215.083,78.613,30.762,35.645,69.824,77.637,0
1486661215.087,46.387,34.668,44.434,56.641,61.035,0
1486661215.090,-2.441,31.250,47.363,47.852,48.828,0
1486661215.094,-1.465,26.855,44.922,46.875,27.832,0
1486661215.098,54.199,24.414,28.320,57.129,61.523,0
1486661215.102,82.520,28.809,23.438,66.895,123.047,0
1486661215.106,49.316,34.180,35.645,59.570,63.965,0
1486661215.110,-5.371,31.738,43.945,48.340,37.109,0
1486661215.114,-1.465,31.738,40.039,50.781,31.738,0
1486661215.118,51.758,28.320,34.180,60.059,30.762,0
1486661215.122,79.102,23.438,35.156,72.754,87.402,0
1486661215.126,54.199,24.902,40.527,68.848,79.590,0
1486661215.129,-3.418,26.855,35.645,52.246,76.660,0
1486661215.133,-8.789,25.879,35.156,54.688,8.301,0
1486661215.137,47.363,24.902,33.203,61.523,-43.945,0
1486661215.141,86.426,31.250,32.227,74.707,25.879,0
1486661215.145,67.871,35.156,43.457,73.242,78.125,0
1486661215.149,15.137,35.156,52.734,62.012,40.039,0
1486661215.153,-13.184,26.855,50.293,56.152,12.695,0
1486661215.157,25.391,20.020,35.645,53.711,15.137,0
1486661215.161,72.266,24.414,29.785,67.383,63.477,0
1486661215.165,62.012,23.438,37.109,65.918,83.496,0
1486661215.169,14.648,22.461,41.504,55.664,25.391,0
1486661215.172,-6.836,24.902,42.969,54.199,19.531,0
1486661215.176,36.621,30.273,40.039,60.547,-7.324,0
1486661215.180,82.520,33.203,36.621,72.754,22.461,0
1486661215.184,65.918,27.832,36.133,71.289,86.914,0
1486661215.188,17.090,28.809,46.875,64.941,61.035,0
1486661215.192,-18.555,25.879,51.270,58.594,36.621,0
1486661215.196,9.766,21.484,32.227,46.387,-7.812,0
1486661215.200,67.383,23.926,24.902,62.012,60.059,0
1486661215.204,72.754,30.762,33.691,70.801,111.816,0
1486661215.208,29.297,31.738,33.203,51.758,58.105,0
1486661215.212,-10.254,28.809,37.109,47.852,39.062,0
1486661215.215,12.207,27.344,39.551,54.688,37.598,0
1486661215.219,72.754,29.297,33.203,65.918,81.543,0
1486661215.223,85.449,32.227,34.668,70.312,84.473,0
1486661215.227,45.410,31.738,36.621,56.152,38.086,0
1486661215.231,-0.977,26.855,40.527,47.852,28.809,0
1486661215.235,10.254,24.902,33.691,48.340,36.133,0
1486661215.239,67.383,27.344,25.391,60.059,47.852,0
1486661215.243,84.961,31.250,30.762,70.801,80.078,0
1486661215.247,47.363,31.250,34.180,58.105,76.172,0
1486661215.251,-6.348,25.879,38.574,50.781,42.969,0
1486661215.254,5.859,23.438,44.434,50.781,12.207,0
1486661215.258,64.453,24.902,33.691,57.129,25.391,0
1486661215.262,83.984,28.320,31.250,71.289,56.152,0
1486661215.266,53.223,31.250,32.227,68.359,41.504,0
1486661215.270,2.441,32.227,44.922,56.641,12.207,0
1486661215.274,-0.488,29.297,43.945,52.734,-2.441,0
1486661215.278,56.152,31.250,24.414,59.570,25.879,0
1486661215.282,93.262,36.621,32.715,78.613,50.293,0
1486661215.286,64.941,34.180,36.133,70.312,65.918,0
1486661215.290,-3.906,27.344,27.344,42.969,55.176,0
1486661215.294,-16.113,26.855,35.645,43.457,24.902,0
1486661215.297,41.016,26.855,30.762,55.176,39.551,0
1486661215.301,76.660,25.879,19.531,64.941,80.566,0
1486661215.305,55.176,23.438,28.320,60.547,51.758,0
1486661215.309,-1.465,21.484,40.039,49.805,16.602,0
1486661215.313,-23.438,25.879,36.621,41.504,10.742,0
1486661215.317,28.809,26.367,34.180,49.805,-6.348,0
1486661215.321,74.707,21.484,33.691,63.965,60.059,0
1486661215.325,62.988,28.320,30.762,59.082,97.656,0
1486661215.329,12.207,32.227,33.691,49.805,60.059,0
1486661215.333,-17.578,24.414,36.621,45.898,30.273,0
1486661215.337,20.508,19.043,35.645,46.875,-15.137,0
1486661215.340,76.660,26.367,36.133,67.871,14.648,0
1486661215.344,75.684,39.551,41.992,70.801,85.449,0
1486661215.348,20.020,35.156,37.598,45.410,64.941,0
1486661215.352,-16.602,25.879,40.039,36.133,3.418,0
1486661215.356,20.508,24.902,45.410,45.410,-2.930,0
1486661215.360,73.242,27.344,36.621,56.641,64.941,0
1486661215.364,63.965,30.273,30.273,50.781,100.098,0
1486661215.368,19.531,31.738,36.133,42.969,68.359,0
1486661215.372,-11.719,27.832,40.039,43.457,17.578,0
1486661215.376,13.184,21.973,34.668,43.945,-23.926,0
1486661215.379,66.895,25.391,27.344,57.129,38.574,0
1486661215.383,78.613,30.762,36.621,65.918,75.684,0
1486661215.387,37.598,33.691,45.898,52.734,20.508,0
1486661215.391,-10.742,29.785,46.387,44.434,-26.855,0
1486661215.395,0.977,25.391,41.992,41.504,-43.457,0
1486661215.399,54.688,24.902,30.762,49.316,17.090,0
1486661215.403,71.777,26.855,30.762,58.105,71.289,0
1486661215.407,32.715,24.414,33.203,45.410,18.555,0
1486661215.411,-15.625,21.484,37.109,42.480,-16.602,0
1486661215.415,-6.348,24.902,36.133,41.992,-11.719,0
1486661215.419,52.246,30.762,38.086,55.176,-1.465,0
1486661215.422,82.031,34.180,44.434,68.359,48.340,0
1486661215.426,47.852,28.320,38.086,47.363,37.109,0
1486661215.430,-3.906,29.785,38.086,35.156,40.039,0
1486661215.434,-8.789,30.273,38.574,32.227,16.113,0
1486661215.438,46.387,25.391,30.273,43.457,25.879,0
1486661215.442,83.984,33.203,29.785,67.383,112.305,0
1486661215.446,59.570,32.715,36.621,57.617,47.852,0
1486661215.450,5.371,24.414,43.945,43.945,5.859,0
1486661215.454,-5.859,21.973,42.480,42.480,19.043,0
1486661215.458,49.805,21.484,29.785,50.293,59.082,1
1486661215.461,86.914,25.391,30.762,66.895,103.027,0
1486661215.465,69.824,26.855,41.504,59.082,70.801,0
1486661215.469,16.602,25.879,40.039,48.340,62.012,0
1486661215.473,-6.836,25.879,36.621,48.828,39.551,0
1486661215.477,52.246,25.879,34.668,55.664,0.488,0
1486661215.481,94.238,25.879,34.668,71.289,55.176,0
1486661215.485,74.707,26.367,36.133,71.289,90.332,0
1486661215.489,25.879,28.320,34.668,59.570,59.082,0
1486661215.493,-8.301,26.855,45.410,56.641,6.348,0
1486661215.497,31.738,25.391,45.410,66.406,-23.438,0
1486661215.501,79.102,22.461,33.691,77.637,35.645,0
1486661215.504,65.918,20.996,36.621,74.707,59.082,0
1486661215.508,22.949,27.344,41.504,61.523,41.992,0
1486661215.512,-10.742,27.344,42.969,52.246,30.273,0
1486661215.516,22.461,19.531,40.039,56.152,23.438,0
1486661215.520,79.590,22.461,33.203,68.359,62.500,0
1486661215.524,78.125,28.809,37.109,65.918,97.656,0
1486661215.528,34.180,32.227,46.387,56.641,72.266,0
1486661215.532,-4.883,29.297,45.410,54.199,24.902,0
1486661215.536,16.602,25.391,39.551,52.246,28.320,0
1486661215.540,71.289,25.879,38.574,58.594,58.594,0
1486661215.544,73.730,25.391,36.621,62.012,96.680,0
1486661215.547,33.203,28.809,39.062,61.035,102.051,0
1486661215.551,-9.766,26.367,41.504,54.688,59.082,0
1486661215.555,7.324,20.508,44.434,53.711,3.906,0
1486661215.559,63.965,24.414,44.922,68.848,38.086,0
1486661215.563,78.125,31.250,35.156,68.848,99.609,0
1486661215.567,42.969,30.273,37.109,57.129,61.035,0
1486661215.571,-6.836,23.926,41.016,49.316,24.414,0
1486661215.575,1.953,18.555,38.574,40.039,-4.883,0
1486661215.579,65.918,21.484,26.367,48.828,47.363,0
1486661215.583,87.891,28.320,25.391,68.359,113.770,0
1486661215.586,53.223,31.738,32.227,58.594,102.539,0
1486661215.590,8.301,33.691,37.109,47.363,78.613,0
1486661215.594,3.906,29.785,36.133,51.270,67.871,0
1486661215.598,58.594,33.691,26.367,58.594,72.754,0
1486661215.602,96.191,44.434,34.668,79.102,90.332,0
1486661215.606,66.406,35.156,38.574,66.406,80.566,0
1486661215.610,5.859,25.391,39.062,42.480,48.340,0
1486661215.614,-13.184,24.902,38.086,45.898,26.367,0
1486661215.618,41.992,23.438,26.367,48.340,18.066,0
1486661215.622,84.473,28.320,31.738,70.312,63.965,0
1486661215.626,62.988,31.738,47.363,70.312,62.988,0
1486661215.629,10.254,29.785,44.434,43.945,20.508,0
1486661215.633,-4.395,33.691,36.133,45.898,4.883,0
1486661215.637,45.898,26.855,28.320,49.805,11.230,0
1486661215.641,86.914,22.949,31.250,64.941,43.945,0
1486661215.645,74.707,28.320,48.828,73.730,45.410,0
1486661215.649,24.414,28.809,49.316,57.129,23.438,0
1486661215.653,-5.371,25.879,42.969,49.805,23.438,0
1486661215.657,39.551,26.367,41.504,52.246,4.883,0
1486661215.661,92.285,32.715,38.574,71.289,52.734,0
1486661215.665,82.031,32.715,38.574,79.590,90.332,0
1486661215.669,31.250,30.273,43.945,64.453,45.898,0
1486661215.672,-2.441,31.250,45.410,56.152,30.762,0
1486661215.676,30.273,25.391,40.527,53.711,9.277,0
1486661215.680,82.031,24.902,39.062,68.848,32.227,0
1486661215.684,79.590,29.785,37.598,77.148,91.797,0
1486661215.688,37.598,38.574,43.457,67.871,50.293,0
1486661215.692,-0.488,37.598,48.828,59.570,7.324,0
1486661215.696,21.484,28.320,37.598,60.547,-1.953,0
1486661215.700,81.543,29.785,33.203,73.242,79.590,0
1486661215.704,89.844,33.691,36.621,80.566,98.633,0
1486661215.708,47.852,37.109,42.969,70.801,51.270,0
1486661215.711,3.418,34.668,42.969,60.059,38.086,0
1486661215.715,17.578,31.738,40.039,56.641,9.766,0
1486661215.719,81.055,37.109,43.945,74.219,30.273,0
1486661215.723,93.750,38.086,39.551,88.867,87.891,0
1486661215.727,44.922,32.227,23.438,59.082,92.773,0
1486661215.731,2.930,35.645,32.227,51.270,35.156,0
1486661215.735,12.695,36.133,41.504,60.059,-4.395,0
1486661215.739,66.895,35.645,31.738,68.848,22.461,0
1486661215.743,89.355,37.598,33.691,79.102,84.473,0
1486661215.747,59.082,41.504,41.504,66.406,79.102,0
1486661215.751,7.324,41.992,50.293,55.664,54.199,0
1486661215.754,-1.953,31.250,47.852,52.734,21.484,0
1486661215.758,50.293,25.391,26.855,53.711,-1.465,0
1486661215.762,72.754,29.785,20.996,62.988,53.711,0
1486661215.766,45.898,34.668,32.227,56.152,72.754,0
1486661215.770,6.348,36.133,46.387,50.293,22.461,0
1486661215.774,-8.301,30.762,50.293,47.852,-15.137,0
1486661215.778,41.992,31.250,43.945,54.199,7.324,0
1486661215.782,81.543,33.203,36.621,70.801,81.543,0
1486661215.786,58.105,30.762,42.480,66.406,58.105,0
1486661215.790,7.324,25.391,45.898,54.199,19.531,0
1486661215.794,-15.625,20.996,37.109,39.551,-4.883,0
1486661215.797,28.809,20.996,30.762,40.039,-12.695,0
1486661215.801,75.195,23.926,27.344,63.965,47.852,0
1486661215.805,60.059,28.809,36.133,66.406,72.754,0
1486661215.809,10.254,34.180,44.922,55.176,84.473,0
1486661215.813,-12.695,30.762,45.410,51.270,39.062,0
1486661215.817,31.738,25.879,41.016,57.617,23.926,0
1486661215.821,77.148,22.461,35.645,69.824,42.969,0
1486661215.825,72.754,31.250,41.504,71.777,42.480,0
1486661215.829,21.973,31.738,41.504,58.105,64.453,0
1486661215.833,-16.602,21.484,34.180,45.898,33.691,0
1486661215.836,27.832,24.902,34.180,53.711,-6.348,0
1486661215.840,83.008,32.227,30.762,71.777,36.133,0
1486661215.844,83.008,38.086,33.203,72.266,67.383,0
1486661215.848,36.133,37.109,42.969,56.152,76.660,0
1486661215.852,-2.441,29.297,53.711,52.246,49.805,0
1486661215.856,23.926,24.902,48.340,51.758,-2.930,0
1486661215.860,69.824,24.902,35.156,68.848,12.695,0
1486661215.864,82.031,29.785,39.551,80.566,61.523,0
1486661215.868,39.551,34.668,44.434,66.406,49.805,0
1486661215.872,-10.254,29.785,43.457,53.223,9.766,0
1486661215.876,13.672,29.297,34.668,54.688,-3.906,0
1486661215.879,67.871,29.297,32.227,68.848,16.602,0
1486661215.883,74.707,26.855,34.668,69.824,69.336,0
1486661215.887,46.387,29.297,43.945,62.012,60.547,0
1486661215.891,-0.488,29.297,53.711,56.152,47.363,0
1486661215.895,1.953,24.414,43.457,51.270,47.852,0
1486661215.899,65.430,25.879,33.203,66.895,53.711,0
1486661215.903,87.891,36.133,35.156,79.102,118.652,0
1486661215.907,53.711,35.156,41.016,68.359,101.074,0
1486661215.911,6.836,24.902,42.969,56.152,10.742,0
1486661215.915,2.930,27.344,40.039,46.387,-20.508,0
1486661215.919,57.129,28.809,36.133,59.570,33.203,0
1486661215.922,89.355,23.438,35.156,77.637,101.074,0
1486661215.926,69.336,29.297,38.574,72.754,69.824,0
1486661215.930,15.137,32.715,38.574,56.641,49.316,0
1486661215.934,-10.254,29.297,34.668,33.203,24.414,0
1486661215.938,45.410,31.738,42.480,47.363,10.254,0
1486661215.942,81.055,31.250,36.621,74.707,68.848,0
1486661215.946,53.223,28.320,35.156,59.082,56.152,0
1486661215.950,0.488,27.344,39.062,41.992,21.973,0
1486661215.954,-18.555,24.414,37.109,42.480,28.809,0
1486661215.958,35.645,20.508,41.504,50.293,45.410,0
1486661215.961,77.148,26.367,38.086,66.406,62.988,0
1486661215.965,62.988,33.203,27.832,62.012,59.570,0
1486661215.969,17.578,32.715,32.227,43.945,65.918,0
1486661215.973,-15.625,30.273,39.062,40.527,56.152,1
1486661215.977,32.227,25.391,33.203,51.758,22.461,0
1486661215.981,76.172,20.020,26.367,63.965,59.570,0
1486661215.985,58.105,26.855,32.227,62.500,109.375,0
1486661215.989,17.578,29.785,39.062,55.664,105.469,0
1486661215.993,-13.184,26.367,37.109,42.480,44.434,0
1486661215.997,22.461,27.344,33.691,43.945,47.852,0
1486661216.001,79.102,29.297,32.715,62.500,80.078,0
1486661216.004,75.684,31.738,30.273,63.965,46.387,0
1486661216.008,34.180,32.227,37.598,50.781,40.527,0
1486661216.012,-4.395,27.832,48.828,46.387,7.324,0
1486661216.016,12.207,21.973,31.738,41.992,-2.930,0
1486661216.020,66.895,28.320,26.855,55.664,72.754,0
1486661216.024,76.172,32.227,43.945,70.312,82.031,0
1486661216.028,32.715,28.320,44.434,57.617,58.594,0
1486661216.032,-6.836,29.297,43.457,48.828,7.324,0
1486661216.036,14.648,29.785,47.363,41.992,-6.836,0
1486661216.040,66.895,25.391,35.645,57.617,57.129,0
1486661216.043,76.660,25.391,31.738,69.824,96.191,0
1486661216.047,29.297,22.461,36.621,52.246,65.918,0
1486661216.051,-12.207,22.461,42.480,47.363,6.348,0
1486661216.055,1.465,26.855,40.527,50.293,-21.973,0
1486661216.059,57.617,27.832,37.598,61.523,1.953,0
1486661216.063,82.520,30.273,38.574,66.895,66.895,0
1486661216.067,47.363,30.762,40.039,52.734,42.969,0
1486661216.071,-2.930,32.715,50.293,48.340,27.832,0
1486661216.075,-2.930,29.297,47.852,44.434,44.434,0
1486661216.079,54.688,25.879,34.668,45.898,38.574,0
1486661216.083,81.055,27.832,31.738,61.523,64.453,0
1486661216.086,54.688,30.273,35.156,57.129,46.387,0
1486661216.090,2.930,33.691,34.180,44.434,19.531,0
1486661216.094,-6.348,30.273,33.691,43.945,-14.160,0
1486661216.098,51.270,25.391,37.598,58.105,-17.578,0
1486661216.102,87.402,31.250,41.504,72.754,56.641,0
1486661216.106,65.430,34.180,43.457,63.965,66.406,0
1486661216.110,9.766,27.832,42.969,47.852,30.762,0
1486661216.114,-14.160,20.508,41.016,46.387,8.301,0
1486661216.118,39.551,20.508,41.992,55.664,1.953,0
1486661216.122,80.566,25.879,32.715,64.453,41.016,0
1486661216.126,57.129,28.809,28.809,64.453,83.496,0
1486661216.129,10.254,28.809,41.504,57.129,78.613,0
1486661216.133,-15.625,23.438,45.898,43.945,-4.883,0
1486661216.137,19.531,19.043,35.645,39.551,-9.277,0
1486661216.141,74.219,27.344,38.086,62.500,42.969,0
1486661216.145,65.430,30.273,44.434,70.312,41.016,0
1486661216.149,12.695,27.832,43.945,52.246,76.660,0
1486661216.153,-15.137,26.855,47.363,43.945,70.801,0
1486661216.157,25.879,26.855,39.551,51.270,15.137,0
1486661216.161,80.566,30.273,28.320,70.801,53.711,0
1486661216.165,77.148,32.715,35.645,72.754,81.543,0
1486661216.168,31.250,31.738,40.527,58.105,61.523,0
1486661216.172,-8.301,30.273,42.969,49.316,47.363,0
1486661216.176,20.508,22.949,40.527,48.828,22.461,0
1486661216.180,77.637,23.926,32.227,66.406,64.453,0
1486661216.184,82.031,32.227,34.668,71.777,131.348,0
1486661216.188,42.480,32.715,48.828,61.035,111.816,0
1486661216.192,2.441,30.273,49.805,56.152,29.785,0
1486661216.196,19.531,24.902,38.574,59.082,13.672,0
1486661216.200,82.031,29.297,38.086,75.195,79.102,0
1486661216.204,101.562,39.062,42.969,87.891,78.613,0
1486661216.208,66.406,35.645,46.387,77.148,54.688,0
1486661216.211,16.602,27.832,42.969,61.523,44.922,0
1486661216.215,23.438,26.855,39.551,59.570,20.508,0
1486661216.219,81.543,29.785,36.621,72.754,11.230,0
1486661216.223,97.168,31.250,33.203,81.055,73.242,0
1486661216.227,64.941,31.738,40.039,63.477,100.586,0
1486661216.231,17.090,35.156,44.922,50.781,39.551,0
1486661216.235,13.672,29.785,41.016,50.781,24.902,0
1486661216.239,59.570,23.438,31.738,59.570,54.688,0
1486661216.243,82.520,35.645,31.250,68.359,113.281,0
1486661216.247,53.223,38.086,38.086,53.711,118.164,0
1486661216.251,-0.488,26.367,37.598,41.504,60.059,0
1486661216.254,-9.277,23.926,38.574,44.922,14.648,0
1486661216.258,46.875,25.879,29.785,50.293,19.531,0
1486661216.262,75.684,28.320,31.250,62.012,88.867,0
1486661216.266,49.316,29.785,39.551,56.641,93.262,0
1486661216.270,5.859,32.715,44.922,53.711,69.824,0
1486661216.274,-11.230,31.738,47.363,57.617,17.090,0
1486661216.278,38.086,26.855,38.574,59.082,1.465,0
1486661216.282,85.938,29.297,37.598,73.730,73.242,0
1486661216.286,66.895,30.762,33.203,65.430,124.023,0
1486661216.290,13.184,28.320,33.691,48.340,83.984,0
1486661216.293,-13.184,24.414,42.480,42.969,24.414,0
1486661216.297,30.273,27.832,34.668,47.852,19.531,0
1486661216.301,83.984,34.668,36.621,70.312,59.570,0
1486661216.305,71.289,30.762,40.039,68.359,76.660,0
1486661216.309,23.926,29.297,41.016,52.734,70.312,0
1486661216.313,-5.859,28.809,44.922,49.316,4.883,0
1486661216.317,28.809,25.391,42.969,50.781,-36.133,0
1486661216.321,70.312,25.391,34.668,64.941,50.781,0
1486661216.325,62.012,26.855,30.762,62.988,67.871,0
1486661216.329,20.020,29.297,34.668,43.945,-6.348,0
1486661216.333,-12.695,29.785,39.551,43.457,-28.320,0
1486661216.336,16.602,26.855,40.039,52.734,-44.922,0
1486661216.340,70.801,32.227,36.621,70.312,-12.207,0
1486661216.344,78.125,33.691,38.574,72.266,48.340,0
1486661216.348,37.109,32.715,44.434,53.711,19.531,0
1486661216.352,-11.719,32.715,41.504,49.316,20.020,0
1486661216.356,9.277,26.855,37.109,47.852,-11.230,0
1486661216.360,69.824,27.832,27.832,57.129,34.668,0
1486661216.364,75.195,32.715,36.621,71.777,86.426,0
1486661216.368,37.109,32.227,43.457,58.105,20.996,0
1486661216.372,-5.859,34.180,40.527,41.992,-20.996,0
1486661216.376,8.301,30.762,46.387,46.875,-13.672,0
1486661216.379,65.918,29.297,41.504,64.453,32.227,0
1486661216.383,85.938,36.621,39.062,71.777,91.797,0
1486661216.387,55.176,37.109,44.922,59.082,66.895,0
1486661216.391,4.883,35.156,40.039,46.875,28.320,0
1486661216.395,3.418,29.785,32.227,51.270,30.273,0
1486661216.399,64.453,31.250,31.250,68.848,53.223,0
1486661216.403,83.984,34.180,36.133,72.266,101.562,0
1486661216.407,43.945,29.297,34.668,57.129,63.965,0
1486661216.411,3.418,32.715,41.504,53.711,67.383,0
1486661216.415,-4.883,25.391,41.992,44.922,67.871,0
1486661216.418,47.363,25.391,28.809,50.781,23.438,0
1486661216.422,89.355,35.156,45.898,78.125,73.730,0
1486661216.426,63.477,35.156,50.781,69.336,96.191,0
1486661216.430,8.789,30.273,33.203,52.734,55.176,0
1486661216.434,-7.324,23.438,34.668,47.363,32.227,0
1486661216.438,50.293,24.902,36.133,55.664,19.531,0
1486661216.442,94.727,32.715,33.203,74.219,39.062,0
1486661216.446,73.242,35.156,35.156,71.289,34.180,0
1486661216.450,27.832,36.133,42.969,62.988,28.809,0
1486661216.454,5.859,39.551,55.176,55.664,32.227,0
1486661216.458,41.504,33.691,46.387,54.199,-0.488,0
1486661216.461,81.055,29.785,29.297,76.172,46.875,0
1486661216.465,71.289,32.715,33.691,80.566,73.242,0
1486661216.469,20.996,29.297,41.504,62.988,16.113,0
1486661216.473,-8.789,25.879,47.363,57.129,-7.812,0
1486661216.477,28.809,24.902,37.598,58.594,-13.184,0
1486661216.481,82.031,27.344,34.668,73.730,28.809,0
1486661216.485,75.195,33.691,37.109,80.566,65.430,0
1486661216.489,32.227,41.504,49.316,70.801,37.598,1
1486661216.493,2.441,36.621,60.059,63.965,-24.414,0
1486661216.497,20.020,23.438,38.086,54.688,-19.531,0
1486661216.500,71.777,24.414,27.832,69.336,59.082,0
1486661216.504,72.266,28.809,33.691,75.684,61.035,0
1486661216.508,27.344,29.297,41.992,58.105,0.488,0
1486661216.512,-15.625,29.297,55.664,52.246,-5.371,0
1486661216.516,-1.465,23.438,43.457,46.387,4.395,0
1486661216.520,55.176,25.391,30.273,54.688,41.992,0
1486661216.524,71.777,31.738,33.203,66.406,85.938,0
1486661216.528,37.598,30.762,44.434,63.965,67.383,0
1486661216.532,-8.789,25.391,51.758,59.570,33.691,0
1486661216.536,5.859,26.367,46.387,57.129,12.695,0
1486661216.540,66.895,26.855,35.645,69.336,49.316,0
1486661216.543,83.008,31.738,32.715,76.172,135.742,0
1486661216.547,46.875,35.156,37.109,59.082,91.309,0
1486661216.551,-2.930,27.344,46.387,48.340,-22.461,0
1486661216.555,-4.883,26.367,48.340,49.316,-38.574,0
1486661216.559,49.805,28.809,37.109,62.012,37.598,0
1486661216.563,81.543,29.297,39.062,76.660,78.613,0
1486661216.567,55.176,30.762,43.457,71.289,70.312,0
1486661216.571,3.906,31.250,46.387,62.988,57.617,0
1486661216.575,-3.906,28.809,40.039,57.129,38.086,0
1486661216.579,50.293,28.320,33.203,61.523,43.945,0
1486661216.583,84.473,31.250,37.109,73.730,89.355,0
1486661216.586,62.988,34.668,41.992,69.336,92.285,0
1486661216.590,13.672,37.109,52.246,62.012,33.691,0
1486661216.594,0.000,32.227,47.363,57.617,13.672,0
1486661216.598,51.758,30.762,40.527,65.918,34.668,0
1486661216.602,89.844,35.645,42.969,84.961,56.152,0
1486661216.606,64.941,34.668,38.574,73.242,47.363,0
1486661216.610,9.766,32.227,34.180,47.852,16.602,0
1486661216.614,-13.672,31.250,41.504,45.898,21.484,0
1486661216.618,30.762,29.785,37.598,53.711,13.184,0
1486661216.622,75.195,30.762,37.598,69.336,31.738,0
1486661216.625,59.570,32.227,39.551,70.801,59.082,0
1486661216.629,19.531,37.598,51.270,64.941,36.133,0
1486661216.633,-8.789,33.203,49.805,50.781,39.062,0
1486661216.637,25.879,24.414,31.250,42.480,-0.488,0
1486661216.641,81.055,27.344,33.203,66.406,20.508,0
1486661216.645,70.801,30.273,32.715,69.336,73.730,0
1486661216.649,21.973,34.180,32.227,50.293,47.363,0
1486661216.653,-7.812,32.227,46.387,49.316,43.457,0
1486661216.657,25.879,28.320,48.340,56.641,20.020,0
1486661216.661,76.172,29.785,35.156,66.406,29.785,0
1486661216.665,75.195,29.785,36.133,68.359,76.660,0
1486661216.668,34.180,29.297,40.039,55.176,71.289,0
1486661216.672,-0.488,29.297,48.340,50.781,22.461,0
1486661216.676,19.043,24.414,48.340,57.129,-10.254,0
1486661216.680,71.289,26.855,30.273,71.289,10.742,0
1486661216.684,80.078,32.715,26.855,76.660,61.035,0
1486661216.688,37.598,34.668,37.109,65.918,64.453,0
1486661216.692,-2.930,34.180,48.340,56.152,30.273,0
1486661216.696,11.719,27.832,43.457,51.758,-4.395,0
1486661216.700,66.406,25.391,28.320,62.500,14.160,0
1486661216.704,85.449,30.273,26.855,75.195,82.031,0
1486661216.708,51.270,34.668,35.156,61.035,41.016,0
1486661216.711,2.441,34.668,45.898,50.781,-10.254,0
1486661216.715,5.859,29.785,42.969,53.711,34.180,0
1486661216.719,60.547,24.414,30.762,63.477,40.039,0
1486661216.723,84.473,28.320,32.227,79.102,72.266,0
1486661216.727,51.758,30.762,38.574,73.242,111.816,0
1486661216.731,5.859,29.297,40.039,61.035,47.852,0
1486661216.735,3.418,25.391,39.551,58.594,13.184,0
1486661216.739,53.711,22.949,31.738,65.430,47.363,0
1486661216.743,91.797,33.203,41.016,90.820,82.520,0
1486661216.747,71.777,36.621,49.316,82.031,92.285,0
1486661216.750,6.348,24.414,35.645,50.781,46.875,0
1486661216.754,-14.160,18.066,33.691,44.434,20.996,0
1486661216.758,43.457,20.020,32.715,49.805,29.785,0
1486661216.762,83.008,26.367,30.273,62.988,41.504,0
1486661216.766,61.035,32.227,32.715,60.547,68.359,0
1486661216.770,11.719,33.203,40.039,52.734,65.430,0
1486661216.774,-10.742,25.391,43.945,49.805,55.664,0
1486661216.778,33.203,24.902,40.527,52.734,16.602,0
1486661216.782,75.195,31.250,41.992,72.754,35.156,0
1486661216.786,60.059,23.438,36.621,72.754,89.355,0
1486661216.790,9.766,21.973,35.156,54.199,97.656,0
1486661216.793,-20.996,21.484,36.133,41.504,61.523,0
1486661216.797,18.555,20.020,28.809,37.598,41.992,0
1486661216.801,71.777,26.367,29.297,54.688,93.750,0
1486661216.805,62.012,29.785,33.691,62.500,104.492,0
1486661216.809,17.090,29.297,39.062,52.734,58.594,0
1486661216.813,-14.648,25.391,38.086,42.480,23.438,0
1486661216.817,15.625,28.809,30.273,44.922,40.527,0
1486661216.821,73.730,33.203,33.203,67.871,65.918,0
1486661216.825,72.266,31.738,35.156,70.312,84.961,0
1486661216.829,28.320,31.250,42.480,52.734,102.051,0
1486661216.833,-12.207,22.461,41.016,44.434,25.879,0
1486661216.836,10.742,26.855,37.598,47.852,9.277,0
1486661216.840,71.289,32.227,37.109,63.965,84.961,0
1486661216.844,74.707,23.926,31.250,67.383,103.516,0
1486661216.848,40.527,28.809,41.504,60.059,82.031,0
1486661216.852,-4.883,30.273,44.434,50.781,27.832,0
1486661216.856,-0.977,24.414,35.156,43.945,8.789,0
1486661216.860,55.664,23.926,37.598,56.152,71.289,0
1486661216.864,76.172,30.762,38.574,73.242,114.746,0
1486661216.868,47.363,35.645,35.645,64.941,79.590,0
1486661216.872,-4.395,34.180,41.992,48.828,12.207,0
1486661216.875,-3.906,33.691,47.852,45.898,-18.066,0
1486661216.879,51.758,31.250,41.016,59.082,-8.789,0
1486661216.883,77.148,30.273,38.574,75.684,42.969,0
1486661216.887,48.340,29.785,42.969,64.453,63.477,0
1486661216.891,-0.488,27.344,36.133,47.363,3.418,0
1486661216.895,-3.906,25.391,28.320,42.969,-8.789,0
1486661216.899,48.340,23.438,33.203,53.711,30.762,0
1486661216.903,82.031,29.297,34.668,68.359,62.988,0
1486661216.907,62.500,40.039,31.738,63.965,68.359,0
1486661216.911,10.742,36.133,36.621,56.641,50.293,0
1486661216.915,-5.859,28.809,36.621,49.805,48.828,0
1486661216.918,45.898,30.273,32.715,54.688,39.551,0
1486661216.922,86.914,33.691,28.320,68.848,31.250,0
1486661216.926,61.035,31.738,37.598,67.871,58.105,0
1486661216.930,7.324,28.809,39.062,57.129,69.336,0
1486661216.934,-11.230,26.855,34.180,46.875,52.734,0
1486661216.938,38.086,28.809,36.621,48.340,31.738,0
1486661216.942,90.820,31.250,38.574,66.895,79.102,0
1486661216.946,75.684,30.273,39.551,65.430,108.887,0
1486661216.950,20.020,32.227,38.086,49.316,102.051,0
1486661216.954,-4.395,33.691,44.922,49.316,50.293,0
1486661216.957,34.180,25.391,43.945,57.617,34.668,0
1486661216.961,81.055,22.949,32.715,68.359,101.074,0
1486661216.965,80.078,31.250,37.598,69.336,107.910,0
1486661216.969,31.738,33.203,39.062,53.711,72.754,0
1486661216.973,-7.812,26.367,41.992,44.434,20.020,0
1486661216.977,24.414,24.902,35.645,50.781,9.766,0
1486661216.981,84.473,29.297,28.809,71.289,56.641,0
1486661216.985,85.449,32.227,34.668,79.590,86.426,0
1486661216.989,28.320,34.668,35.156,49.805,70.801,0
1486661216.993,-20.508,34.180,40.039,34.668,53.223,0
1486661216.997,-1.953,24.414,38.086,41.992,34.180,0
1486661217.000,53.711,21.484,31.738,54.688,38.574,0
1486661217.004,65.918,28.320,27.344,58.594,75.195,0
1486661217.008,30.762,30.762,30.762,52.734,71.289,0
1486661217.012,-6.836,30.273,41.992,51.758,46.875,0
1486661217.016,9.277,30.273,34.668,46.387,24.414,0
1486661217.020,70.312,33.691,24.414,61.523,51.270,0
1486661217.024,87.402,39.551,30.273,79.102,80.566,0
1486661217.028,50.781,42.480,37.109,64.941,45.898,0
1486661217.032,13.184,46.387,54.199,57.129,0.488,0
1486661217.036,12.207,38.574,45.898,51.270,-30.762,0
1486661217.040,59.082,25.391,24.902,48.828,-23.926,0
1486661217.043,78.613,24.902,30.273,61.035,58.105,0
1486661217.047,46.387,31.738,44.922,59.082,75.684,0
1486661217.051,2.441,31.250,49.316,53.711,10.254,0
1486661217.055,-3.418,26.855,37.109,44.922,-35.645,0
1486661217.059,55.664,34.180,33.691,59.082,-19.531,0
1486661217.063,85.938,35.645,39.551,71.777,47.363,0
1486661217.067,55.176,31.250,43.457,60.059,62.012,0
1486661217.071,5.859,29.785,45.410,49.805,27.832,0
1486661217.075,-7.324,26.367,46.387,43.945,-51.270,0
1486661217.079,39.062,26.367,38.086,48.340,-41.016,0
1486661217.082,71.289,28.809,30.273,63.477,49.805,0
1486661217.086,52.734,33.203,37.109,64.941,81.543,0
1486661217.090,3.418,34.180,41.992,47.363,22.461,0
1486661217.094,-12.207,28.320,41.016,44.434,-18.066,0
1486661217.098,41.016,25.879,38.574,56.152,20.020,0
1486661217.102,80.566,28.809,33.691,61.523,76.660,0
1486661217.106,66.406,30.273,38.574,61.035,97.656,0
1486661217.110,21.973,32.227,41.016,47.363,44.922,0
1486661217.114,-6.348,35.156,44.922,40.527,5.371,0
1486661217.118,33.203,30.273,42.969,49.316,1.953,0
1486661217.122,77.637,27.832,21.973,64.941,45.410,0
1486661217.125,77.148,36.621,27.344,72.754,58.105,0
1486661217.129,32.227,32.715,35.645,57.617,57.129,0
1486661217.133,-8.301,24.414,31.738,45.410,41.016,0
1486661217.137,25.879,23.926,31.738,53.711,7.812,0
1486661217.141,83.496,25.391,26.855,70.801,33.203,0
1486661217.145,90.332,30.762,38.574,80.566,77.148,0
1486661217.149,50.293,31.738,59.570,76.660,48.340,0
1486661217.153,0.488,28.809,53.711,66.895,19.043,0
1486661217.157,11.719,27.344,37.109,57.129,-9.277,0
1486661217.161,67.871,24.414,42.969,71.289,4.883,0
1486661217.165,77.637,25.879,46.875,80.078,37.109,0
1486661217.168,34.668,26.855,41.992,62.012,36.621,0
1486661217.172,-2.930,23.438,46.875,51.758,2.441,1
1486661217.176,15.137,24.902,50.293,55.176,-7.324,0
1486661217.180,68.848,27.344,40.039,63.965,24.902,0
1486661217.184,86.426,30.273,41.504,68.848,62.988,0
1486661217.188,42.969,30.762,40.039,55.176,56.641,0
1486661217.192,-4.395,32.715,36.621,45.410,25.391,0
1486661217.196,10.742,39.551,51.758,60.059,4.395,0
1486661217.200,65.430,29.785,47.852,71.289,18.066,0
1486661217.204,83.496,22.461,34.668,71.289,57.617,0
1486661217.207,52.734,28.809,34.668,60.547,52.734,0
1486661217.211,3.906,26.367,43.457,47.363,38.086,0
1486661217.215,-4.395,20.020,41.504,50.781,4.883,0
1486661217.219,54.199,21.973,31.738,64.453,30.273,0
1486661217.223,93.750,31.738,48.340,82.520,105.957,0
1486661217.227,67.383,38.086,57.617,79.102,53.223,0
1486661217.231,12.207,35.156,43.457,64.453,13.184,0
1486661217.235,-0.977,27.832,44.434,58.594,5.859,0
1486661217.239,57.617,27.344,38.086,63.477,-12.207,0
1486661217.243,93.750,34.668,34.180,83.496,90.820,0
1486661217.247,62.500,34.180,35.156,81.055,150.879,0
1486661217.250,11.719,30.273,40.527,64.941,64.941,0
1486661217.254,-12.207,28.809,44.434,55.176,30.273,0
1486661217.258,37.598,28.809,33.203,56.641,57.617,0
1486661217.262,89.355,32.227,42.969,74.219,84.473,0
1486661217.266,69.824,34.668,46.387,70.312,82.520,0
1486661217.270,21.973,33.203,38.574,54.688,42.969,0
1486661217.274,-5.859,26.855,46.387,50.293,5.371,0
1486661217.278,35.156,24.414,40.527,57.129,-12.207,0
1486661217.282,86.426,27.832,36.133,71.289,47.852,0
1486661217.286,72.754,25.879,36.621,63.477,67.383,0
1486661217.290,23.926,27.832,40.039,57.129,20.508,0
1486661217.293,-13.184,26.855,44.922,53.711,18.555,0
1486661217.297,21.973,22.461,41.016,52.734,0.488,0
1486661217.301,72.266,21.484,36.621,68.359,48.828,0
1486661217.305,68.848,26.855,46.387,74.707,121.094,0
1486661217.309,28.320,32.227,59.570,70.801,72.266,0
1486661217.313,-15.137,26.367,48.340,55.176,30.273,0
1486661217.317,6.836,23.926,35.645,44.434,17.578,0
1486661217.321,66.895,30.273,36.133,65.918,65.918,0
1486661217.325,73.730,30.273,36.133,73.242,106.445,0
1486661217.329,31.250,28.809,41.016,57.617,70.801,0
1486661217.332,-10.742,22.949,46.875,52.734,30.762,0
1486661217.336,4.883,19.043,54.688,61.035,40.527,0
1486661217.340,64.941,21.973,51.758,77.637,49.316,0
1486661217.344,83.496,21.973,41.016,81.543,59.082,0
1486661217.348,43.945,26.367,39.551,68.359,43.457,0
1486661217.352,-5.371,28.320,41.016,62.012,21.973,0
1486661217.356,3.418,25.391,42.480,57.129,27.832,0
1486661217.360,60.059,28.320,35.156,63.477,42.480,0
1486661217.364,83.984,35.156,32.227,74.707,80.078,0
1486661217.368,51.758,37.598,37.109,61.523,87.402,0
1486661217.372,8.789,40.527,53.711,56.641,20.020,0
1486661217.375,5.859,38.086,51.758,46.875,6.348,0
1486661217.379,53.711,28.809,34.180,45.410,87.402,0
1486661217.383,84.961,31.738,28.320,63.477,123.535,0
1486661217.387,58.594,34.668,35.156,55.664,84.961,0
1486661217.391,8.301,29.297,45.898,47.363,54.199,0
1486661217.395,-0.977,21.973,38.086,48.340,41.504,0
1486661217.399,52.246,24.414,28.320,52.246,42.480,0
1486661217.403,88.867,32.715,35.645,68.359,89.355,0
1486661217.407,68.359,33.203,44.434,69.824,93.262,0
1486661217.411,16.602,31.738,41.504,58.594,36.621,0
1486661217.414,-1.953,29.785,46.875,55.176,10.742,0
1486661217.418,49.316,25.879,46.387,66.895,30.762,0
1486661217.422,87.402,28.320,32.227,81.543,83.008,0
1486661217.426,66.406,32.715,33.203,74.707,65.430,0
1486661217.430,12.695,31.250,42.969,61.523,43.945,0
1486661217.434,-18.066,24.414,51.270,55.176,22.461,0
1486661217.438,25.391,23.438,45.898,52.246,-5.371,0
1486661217.442,67.871,29.785,37.598,62.988,46.875,0
1486661217.446,58.594,35.156,38.086,62.500,91.797,0
1486661217.450,19.043,37.598,46.387,46.875,62.988,0
1486661217.454,-12.207,35.156,52.246,41.992,23.438,0
1486661217.457,25.879,31.738,35.645,52.734,11.719,0
1486661217.461,83.496,31.738,25.391,67.383,34.668,0
1486661217.465,88.379,33.691,38.574,71.289,63.965,0
1486661217.469,48.828,39.551,54.688,70.801,35.645,0
1486661217.473,0.488,31.250,49.316,56.641,23.926,0
1486661217.477,16.602,18.555,34.180,45.410,27.832,0
1486661217.481,72.266,26.855,33.203,66.406,79.102,0
1486661217.485,73.242,34.180,36.133,73.730,110.840,0
1486661217.489,33.203,35.156,48.340,56.641,68.848,0
1486661217.493,-5.371,30.273,49.316,48.828,21.973,0
1486661217.497,8.789,30.762,31.738,50.781,13.184,0
1486661217.500,65.430,34.180,34.180,65.430,61.035,0
1486661217.504,80.566,34.668,39.551,69.824,97.168,0
1486661217.508,44.434,32.227,39.551,59.082,62.988,0
1486661217.512,-3.906,24.902,41.016,51.270,8.301,0
1486661217.516,-4.395,22.949,31.250,42.480,7.812,0
1486661217.520,50.781,23.438,28.809,55.664,30.273,0
1486661217.524,74.219,24.902,36.133,66.406,61.523,0
1486661217.528,47.852,28.809,41.504,54.688,35.645,0
1486661217.532,0.488,29.785,46.387,49.316,30.273,0
1486661217.536,-6.348,27.344,33.691,39.551,18.066,0
1486661217.539,56.152,34.180,27.832,49.316,20.508,0
1486661217.543,86.426,39.551,31.738,67.383,106.934,0
1486661217.547,55.176,32.715,33.691,56.152,128.906,0
1486661217.551,10.742,31.738,41.504,50.781,68.359,0
1486661217.555,1.953,31.250,36.621,52.246,49.316,0
1486661217.559,50.781,29.297,30.273,52.734,73.730,0
1486661217.563,86.426,34.668,40.527,69.336,119.141,0
1486661217.567,62.012,37.598,43.945,64.941,98.633,0
1486661217.571,9.766,34.668,33.203,46.875,20.020,0
1486661217.575,-7.324,34.180,34.180,43.945,17.578,0
1486661217.579,41.504,35.645,37.598,51.758,51.758,0
1486661217.582,82.520,33.203,37.598,62.988,74.707,0
1486661217.586,64.453,29.785,40.039,65.430,75.684,0
1486661217.590,16.602,29.297,45.898,58.594,58.105,0
1486661217.594,-13.184,25.391,37.109,44.434,7.812,0
1486661217.598,31.738,22.461,37.109,59.570,-1.953,0
1486661217.602,81.055,25.391,41.504,76.172,62.500,0
1486661217.606,63.965,34.180,30.273,63.965,103.516,0
1486661217.610,13.184,33.203,33.203,48.340,72.266,0
1486661217.614,-23.438,21.484,37.109,35.156,-3.418,0
1486661217.618,19.043,20.996,34.180,41.992,-31.738,0
1486661217.622,78.125,25.879,32.227,61.035,30.762,0
1486661217.625,73.730,29.297,35.645,62.500,57.129,0
1486661217.629,33.691,32.715,48.828,59.082,28.809,0
1486661217.633,-5.371,26.367,53.223,55.176,-14.160,0
1486661217.637,10.742,18.066,32.227,46.875,-37.598,0
1486661217.641,68.359,25.879,23.438,59.570,38.086,0
1486661217.645,77.148,37.598,34.180,68.848,60.547,0
1486661217.649,41.504,38.574,41.016,59.570,13.672,0
1486661217.653,-3.418,31.738,39.062,46.875,-38.086,0
1486661217.657,9.766,25.391,36.621,46.875,-48.340,0
1486661217.661,74.219,28.809,29.297,65.430,8.301,0
1486661217.664,89.355,35.645,36.621,72.266,77.637,0
1486661217.668,44.434,30.762,40.527,62.012,79.590,0
1486661217.672,-2.930,26.855,36.621,54.688,3.418,0
1486661217.676,5.859,27.344,41.016,54.688,-13.184,0
1486661217.680,63.477,30.273,36.133,70.312,28.320,0
1486661217.684,83.984,30.762,36.133,81.055,83.008,1
1486661217.688,47.852,31.250,36.621,68.848,87.402,0
1486661217.692,0.000,33.691,41.992,57.129,56.641,0
1486661217.696,-3.418,28.809,51.270,51.758,33.203,0
1486661217.700,54.199,31.250,44.922,56.152,48.828,0
1486661217.704,82.031,33.691,32.227,64.453,52.246,0
1486661217.707,53.711,34.668,36.133,60.059,34.668,0
1486661217.711,5.371,36.621,49.805,49.805,29.297,0
1486661217.715,-14.648,26.855,47.363,40.527,-0.488,0
1486661217.719,40.527,20.020,38.086,47.363,-17.578,0
1486661217.723,80.566,21.973,33.691,65.918,41.992,0
1486661217.727,61.523,28.809,38.086,66.895,81.055,0
1486661217.731,15.625,33.691,48.828,51.758,34.180,0
1486661217.735,-9.277,30.273,45.410,45.410,15.137,0
1486661217.739,44.434,28.809,36.133,54.199,43.945,0
1486661217.743,88.867,26.855,32.227,71.289,44.922,0
1486661217.747,69.336,28.809,34.180,70.801,81.543,0
1486661217.750,20.508,33.691,41.992,53.711,94.238,0
1486661217.754,-5.371,24.902,45.410,52.246,22.949,0
1486661217.758,39.551,21.484,47.852,63.965,8.789,0
1486661217.762,76.172,22.949,36.133,75.684,106.445,0
1486661217.766,57.129,24.414,28.320,70.801,111.328,0
1486661217.770,16.602,27.344,41.016,58.105,61.035,0
1486661217.774,-11.230,27.832,48.828,55.664,43.945,0
1486661217.778,21.484,23.438,37.109,54.688,9.277,0
1486661217.782,75.195,24.414,26.367,69.824,54.688,0
1486661217.786,73.242,33.203,32.715,68.359,89.844,0
1486661217.789,33.203,34.668,41.016,56.152,51.758,0
1486661217.793,-4.883,32.227,50.781,56.152,24.414,0
1486661217.797,11.230,22.949,35.645,49.316,31.738,0
1486661217.801,67.383,21.484,20.508,61.035,40.527,0
1486661217.805,74.219,30.762,32.227,67.871,66.406,0
1486661217.809,30.273,30.273,38.086,53.711,59.082,0
1486661217.813,-5.371,27.832,36.621,45.898,2.930,0
1486661217.817,18.555,28.320,41.504,47.363,30.762,0
1486661217.821,73.242,27.832,36.621,64.453,60.547,0
1486661217.825,78.613,29.785,31.738,76.172,71.289,0
1486661217.829,42.480,32.227,38.574,61.523,79.102,0
1486661217.832,-4.395,30.273,44.922,54.199,76.660,0
1486661217.836,5.371,29.785,49.805,60.059,52.734,0
1486661217.840,66.406,32.227,37.109,70.312,56.152,0
1486661217.844,83.008,39.062,24.414,75.195,92.285,0
1486661217.848,48.340,40.527,35.156,63.477,84.473,0
1486661217.852,-6.348,32.715,48.828,49.805,47.363,0
1486661217.856,-10.742,24.414,40.527,40.039,13.184,0
1486661217.860,48.828,22.949,22.949,45.898,19.043,0
1486661217.864,77.637,28.809,26.855,63.477,68.359,0
1486661217.868,47.852,35.156,38.574,62.012,77.637,0
1486661217.871,-1.465,32.715,48.828,49.805,25.391,0
1486661217.875,-9.766,25.879,53.711,47.852,8.301,0
1486661217.879,42.480,29.785,41.992,57.129,9.766,0
1486661217.883,80.566,34.180,35.645,71.289,48.340,0
1486661217.887,56.641,30.273,36.621,62.988,67.383,0
1486661217.891,0.977,26.855,38.086,46.387,41.992,0
1486661217.895,-16.113,24.902,37.109,43.945,13.672,0
1486661217.899,44.434,28.809,35.156,55.176,-10.254,0
1486661217.903,89.355,35.645,37.109,66.895,27.344,0
1486661217.907,69.336,37.598,40.527,61.523,88.867,0
1486661217.911,25.391,40.039,50.293,52.734,73.242,0
1486661217.914,0.488,35.156,52.246,57.129,35.645,0
1486661217.918,41.504,26.367,34.668,56.152,7.324,0
1486661217.922,86.914,29.297,28.809,68.848,30.273,0
1486661217.926,76.660,34.180,35.156,74.219,80.078,0
1486661217.930,25.391,27.832,38.574,59.082,59.082,0
1486661217.934,-5.371,28.809,44.434,54.688,3.418,0
1486661217.938,31.738,33.203,40.039,53.223,18.066,0
1486661217.942,81.543,32.227,40.039,67.871,84.961,0
1486661217.946,82.031,37.598,45.410,75.684,63.477,0
1486661217.950,28.809,33.691,39.551,55.664,50.293,0
1486661217.954,-10.742,24.902,45.898,43.945,53.223,0
1486661217.957,20.508,23.926,41.992,50.293,1.953,0
1486661217.961,76.172,29.785,33.691,64.453,25.879,0
1486661217.965,80.566,33.203,34.668,67.383,59.570,0
1486661217.969,40.039,30.762,39.062,57.129,60.547,0
1486661217.973,-5.371,27.832,48.340,49.316,52.246,0
1486661217.977,16.602,30.273,50.781,55.176,-5.859,0
1486661217.981,75.195,32.227,36.621,70.801,13.184,0
1486661217.985,86.914,32.227,34.668,76.172,81.543,0
1486661217.989,53.711,34.180,38.574,65.918,69.336,0
1486661217.993,6.348,32.715,41.992,57.617,26.855,0
1486661217.996,13.184,30.762,37.109,54.688,42.969,0
1486661218.000,69.824,32.715,27.344,64.941,86.914,0
1486661218.004,89.844,35.156,40.527,79.590,78.613,0
1486661218.008,51.758,39.551,43.945,65.918,88.867,0
1486661218.012,0.000,34.668,40.039,46.875,56.641,0
1486661218.016,-1.953,23.926,41.016,49.316,-20.508,0
1486661218.020,55.176,26.367,37.598,60.059,17.090,0
1486661218.024,81.543,31.250,36.621,70.801,91.797,0
1486661218.028,56.152,33.691,42.969,67.871,63.477,0
1486661218.032,13.184,38.086,50.293,58.594,11.719,0
1486661218.036,-3.418,32.227,40.039,46.875,-11.719,0
1486661218.039,53.223,32.227,34.668,54.688,-12.207,0
1486661218.043,90.332,35.645,39.062,75.195,47.852,0
1486661218.047,62.988,33.691,42.480,71.777,50.293,0
1486661218.051,10.254,33.691,45.410,58.594,9.277,0
1486661218.055,-10.254,29.297,44.922,53.223,-1.953,0
1486661218.059,40.039,26.367,41.504,60.547,-22.949,0
1486661218.063,83.496,31.738,35.645,75.195,31.250,0
1486661218.067,61.035,33.203,36.621,69.336,35.156,0
1486661218.071,17.578,34.180,47.852,62.500,18.555,0
1486661218.075,-3.906,35.156,51.270,58.594,-1.465,0
1486661218.079,33.203,34.180,41.016,60.059,0.977,0
1486661218.082,82.520,29.297,37.109,75.195,72.754,0
1486661218.086,73.242,27.344,38.086,69.824,74.707,0
1486661218.090,14.648,28.809,34.668,50.781,55.176,0
1486661218.094,-16.602,26.367,36.621,44.922,27.832,0
1486661218.098,21.973,25.879,42.969,49.316,13.672,0
1486661218.102,69.824,28.809,33.203,59.570,58.105,0
1486661218.106,74.219,31.738,37.109,65.430,77.148,0
1486661218.110,29.297,28.320,47.852,54.688,58.105,0
1486661218.114,-12.207,23.926,38.574,39.551,53.223,0
1486661218.118,21.484,22.949,36.621,46.875,13.672,0
1486661218.121,72.754,25.391,34.668,68.359,47.363,0
1486661218.125,66.406,29.297,32.227,69.336,107.910,0
1486661218.129,22.461,27.344,35.645,52.246,59.570,0
1486661218.133,-20.020,25.391,39.062,44.922,17.578,0
1486661218.137,3.906,26.855,42.480,45.410,-2.930,0
1486661218.141,64.453,22.461,37.598,59.082,45.898,0
1486661218.145,73.242,20.996,34.668,66.895,104.004,0
1486661218.149,36.133,26.855,41.504,54.688,52.734,0
1486661218.153,-4.883,32.227,54.199,49.805,26.367,0
1486661218.157,2.930,28.320,44.434,46.875,22.949,0
1486661218.161,59.082,25.879,28.809,55.664,33.691,0
1486661218.164,80.078,32.227,28.320,72.754,112.305,0
1486661218.168,41.992,31.738,28.809,56.641,114.258,0
1486661218.172,-4.883,26.367,37.598,40.527,69.824,0
1486661218.176,0.977,22.949,38.086,42.480,13.672,0
1486661218.180,47.852,17.090,27.344,52.246,13.672,0
1486661218.184,70.801,21.484,33.691,71.777,86.914,0
1486661218.188,50.293,27.832,49.805,67.383,63.477,0
1486661218.192,-2.930,27.344,49.805,47.363,23.438,0
1486661218.196,-12.695,28.320,45.898,45.410,-12.695,0
1486661218.200,48.340,28.320,33.691,55.176,0.977,0
1486661218.204,86.914,31.250,28.320,65.918,67.871,0
1486661218.207,60.059,28.809,38.086,62.988,61.035,0
1486661218.211,5.859,23.926,37.109,51.270,27.832,0
1486661218.215,-10.742,25.391,35.156,46.875,25.879,1
1486661218.219,41.992,25.879,36.621,55.664,56.641,0
1486661218.223,82.520,26.367,39.062,69.824,102.539,0
1486661218.227,61.523,30.762,36.621,64.941,98.145,0
1486661218.231,11.230,34.180,46.387,54.688,41.992,0
1486661218.235,-10.742,30.273,47.363,53.223,-8.789,0
1486661218.239,37.109,26.367,39.062,57.617,-1.465,0
1486661218.243,82.031,24.414,36.133,71.289,50.293,0
1486661218.246,73.242,26.367,36.133,74.219,55.664,0
1486661218.250,26.367,31.250,41.992,60.059,35.156,0
1486661218.254,-7.812,26.855,39.551,47.363,30.762,0
1486661218.258,35.645,26.367,34.668,52.246,-8.789,0
1486661218.262,77.148,28.809,31.738,63.965,23.926,0
1486661218.266,70.801,27.344,35.156,66.895,82.031,0
1486661218.270,30.762,30.273,42.969,52.734,59.082,0
1486661218.274,-7.812,33.691,42.969,46.387,32.715,0
1486661218.278,27.344,29.297,41.992,57.617,-0.488,0
1486661218.282,75.684,19.043,36.621,73.242,38.574,0
1486661218.286,67.871,19.531,28.320,71.777,106.445,0
1486661218.289,27.832,27.832,33.203,55.176,91.797,0
1486661218.293,-5.371,32.227,46.875,53.223,9.766,0
1486661218.297,13.672,25.391,40.039,51.758,-48.340,0
1486661218.301,70.801,24.902,28.320,58.105,35.156,0
1486661218.305,81.055,32.715,29.297,62.988,93.750,0
1486661218.309,43.945,33.203,46.875,52.734,53.711,0
1486661218.313,-3.418,28.320,53.223,52.246,71.289,0
1486661218.317,-5.859,20.996,33.203,48.340,72.754,0
1486661218.321,52.734,19.043,31.250,61.035,52.734,0
1486661218.325,76.660,25.391,38.574,76.660,80.078,0
1486661218.329,35.645,28.320,39.551,61.035,94.238,0
1486661218.332,-15.625,26.855,43.945,42.969,40.039,0
1486661218.336,-1.465,22.461,44.434,47.852,-0.977,0
1486661218.340,58.105,22.949,39.551,64.453,37.109,0
1486661218.344,75.684,30.762,37.598,70.312,90.332,0
1486661218.348,52.734,32.715,41.504,58.105,104.492,0
1486661218.352,7.812,31.250,50.781,51.758,40.527,0
1486661218.356,-5.371,28.809,43.457,48.828,3.906,0
1486661218.360,49.805,29.297,34.180,55.664,53.711,0
1486661218.364,85.449,28.809,31.738,73.730,94.238,0
1486661218.368,61.035,25.879,32.227,66.406,93.262,0
1486661218.371,19.531,30.273,44.922,58.105,71.289,0
1486661218.375,3.906,28.320,45.410,56.152,57.129,0
1486661218.379,40.527,26.855,34.180,50.781,59.082,0
1486661218.383,86.914,39.062,36.133,72.266,87.891,0
1486661218.387,73.730,35.645,36.133,70.312,78.125,0
1486661218.391,17.578,23.926,37.598,50.293,23.438,0
1486661218.395,-8.789,22.461,41.504,46.875,-1.953,0
1486661218.399,37.598,21.973,36.621,53.711,28.809,0
1486661218.403,80.078,23.926,33.691,71.289,84.961,0
1486661218.407,62.500,27.344,32.715,62.500,95.703,0
1486661218.411,14.648,28.809,36.621,49.805,58.105,0
1486661218.414,-14.648,32.227,41.992,49.316,19.043,0
1486661218.418,21.973,28.320,38.086,49.805,9.277,0
1486661218.422,76.172,25.391,33.691,66.406,48.340,0
1486661218.426,74.707,29.297,38.574,67.383,78.125,0
1486661218.430,25.391,31.738,49.805,54.688,13.672,0
1486661218.434,-10.254,26.855,48.828,47.852,-25.391,0
1486661218.438,20.996,24.414,27.344,46.875,-9.766,0
1486661218.442,76.172,27.832,24.902,66.895,17.578,0
1486661218.446,83.984,33.203,31.250,66.895,53.223,0
1486661218.450,43.945,35.156,37.109,51.758,41.016,0
1486661218.453,0.488,29.785,41.992,55.176,38.086,0
1486661218.457,19.531,26.855,41.016,63.965,28.809,0
1486661218.461,81.055,29.785,40.527,78.125,31.250,0
1486661218.465,83.496,27.344,31.250,75.195,63.965,0
1486661218.469,38.574,26.367,34.668,61.035,54.199,0
1486661218.473,-7.324,27.832,49.805,55.664,12.695,0
1486661218.477,-1.465,28.809,43.457,51.270,0.488,0
1486661218.481,48.340,20.996,27.344,63.477,36.133,0
1486661218.485,65.918,19.531,27.832,71.777,66.406,0
1486661218.489,35.156,26.855,35.156,66.895,52.734,0
1486661218.493,-18.066,20.508,45.898,54.688,-15.625,0
1486661218.496,-4.883,19.531,52.246,55.176,-19.531,0
1486661218.500,56.152,23.438,44.922,75.195,30.762,0
1486661218.504,73.730,22.949,30.273,75.684,43.945,0
1486661218.508,53.223,32.227,37.598,65.430,61.035,0
1486661218.512,12.207,36.133,47.363,55.664,46.387,0
1486661218.516,15.625,32.227,45.898,49.316,18.066,0
1486661218.520,72.266,31.250,32.227,56.641,3.906,0
1486661218.524,104.492,34.180,26.367,73.242,42.969,0
1486661218.528,82.031,38.086,32.715,68.359,75.684,0
1486661218.532,31.738,43.457,34.180,50.781,72.754,0
1486661218.536,15.625,40.039,38.574,41.992,34.668,0
1486661218.539,59.570,34.180,38.086,49.805,43.457,0
1486661218.543,91.797,34.180,26.367,60.547,74.707,0
1486661218.547,67.871,34.180,29.297,57.129,71.289,0
1486661218.551,12.207,32.715,41.016,46.875,61.523,0
1486661218.555,-12.695,29.297,39.062,46.875,29.785,0
1486661218.559,28.809,21.484,35.645,52.734,23.926,0
1486661218.563,69.336,21.973,37.109,62.012,69.336,0
1486661218.567,52.734,28.809,37.109,64.453,86.426,0
1486661218.571,-4.395,24.902,43.945,51.758,67.383,0
1486661218.575,-42.969,14.160,47.363,40.039,11.230,0
1486661218.578,3.418,19.043,46.387,47.363,-3.906,0
1486661218.582,57.129,20.996,45.410,67.383,67.383,0
1486661218.586,44.922,19.043,43.457,69.336,83.008,0
1486661218.590,4.883,22.949,44.434,55.664,65.430,0
1486661218.594,-22.949,20.996,40.527,45.410,49.805,0
1486661218.598,11.230,21.484,41.504,48.340,29.785,0
1486661218.602,69.336,25.879,34.668,66.895,40.527,0
1486661218.606,71.777,30.762,19.043,62.012,49.316,0
1486661218.610,27.344,35.156,23.926,42.480,32.715,0
1486661218.614,-3.906,37.109,41.504,50.293,16.602,0
1486661218.618,18.555,29.297,41.992,51.270,-8.301,0
1486661218.621,62.012,20.996,25.391,51.758,37.598,0
1486661218.625,72.266,30.762,29.297,61.523,104.980,0
1486661218.629,36.621,34.180,35.156,53.223,61.523,0
1486661218.633,-2.930,28.809,41.504,46.875,21.973,0
1486661218.637,11.230,23.926,41.992,52.246,44.434,0
1486661218.641,73.730,27.832,32.227,67.383,58.594,0
1486661218.645,82.031,35.156,26.367,66.406,90.820,0
1486661218.649,36.133,35.645,34.668,47.852,96.191,0
1486661218.653,-9.766,31.250,35.645,34.668,56.152,0
1486661218.657,-13.184,23.438,23.438,30.762,11.719,0
1486661218.661,41.016,21.484,19.531,38.574,45.410,0
1486661218.664,64.941,23.438,23.438,52.734,127.930,0
1486661218.668,31.250,23.926,28.809,42.969,104.492,0
1486661218.672,-15.625,26.855,42.480,40.527,36.133,0
1486661218.676,-14.648,21.484,44.434,42.480,-4.395,0
1486661218.680,43.945,18.066,39.551,51.758,-3.418,0
1486661218.684,78.125,24.902,33.203,73.242,69.824,0
1486661218.688,59.082,25.879,30.762,74.707,107.422,0
1486661218.692,19.043,27.832,49.805,68.848,61.035,0
1486661218.696,8.301,25.879,48.340,62.988,47.363,0
1486661218.700,51.758,28.809,23.438,62.012,87.891,0
1486661218.703,87.891,32.715,20.996,72.266,98.633,0
1486661218.707,69.336,28.809,35.156,70.801,71.289,0
1486661218.711,14.160,28.320,40.527,59.570,56.152,0
1486661218.715,-8.301,25.391,38.086,43.457,33.203,0
1486661218.719,41.504,27.832,41.016,50.293,13.184,0
1486661218.723,85.449,31.738,37.598,71.777,37.598,0
1486661218.727,71.777,33.203,39.551,64.453,68.848,0
1486661218.731,24.902,34.668,49.805,55.176,83.008,0
1486661218.735,-7.812,31.250,40.527,48.340,37.109,0
1486661218.739,32.227,32.715,30.273,53.711,13.672,0
1486661218.743,85.938,37.598,35.645,70.801,45.898,0
1486661218.746,73.730,37.109,33.691,65.918,76.660,0
1486661218.750,20.996,34.180,32.715,46.387,59.570,0
1486661218.754,-6.836,33.691,46.387,47.363,28.320,0
1486661218.758,21.973,30.273,49.316,50.781,24.414,0
1486661218.762,66.895,23.438,31.738,56.152,67.383,0
1486661218.766,77.148,25.879,32.715,68.848,79.590,0
1486661218.770,39.062,27.832,50.781,63.477,41.504,0
