timestamps,TP9,AF7,AF8,TP10,Right AUX,Marker
1486661404.593,0.488,24.902,49.316,45.410,6.348,0
1486661404.597,31.250,36.133,47.363,56.641,13.184,0
1486661404.601,84.473,30.762,37.598,78.613,93.750,0
1486661404.604,73.730,31.250,37.598,74.707,132.324,0
1486661404.608,22.949,35.156,48.828,51.758,93.262,0
1486661404.612,-10.254,32.227,51.270,44.434,3.418,0
1486661404.616,19.531,26.367,37.598,51.270,-13.672,0
1486661404.620,73.730,29.785,29.785,68.359,72.754,0
1486661404.624,77.148,36.133,38.574,74.219,83.984,0
1486661404.628,41.016,33.203,52.246,52.246,55.664,0
1486661404.632,0.000,28.809,55.176,39.062,11.230,0
1486661404.636,20.508,33.203,48.828,57.617,-16.602,0
1486661404.640,83.008,39.551,47.852,75.684,39.551,0
1486661404.644,90.820,41.016,45.410,79.102,93.750,0
1486661404.647,52.246,33.691,46.875,64.941,80.078,0
1486661404.651,3.906,28.809,51.270,47.852,28.809,0
1486661404.655,13.184,26.367,41.016,48.828,1.953,0
1486661404.659,75.195,30.762,35.645,70.801,52.734,0
1486661404.663,91.309,34.180,46.875,82.520,108.398,0
1486661404.667,57.617,31.738,48.340,65.918,94.238,0
1486661404.671,14.648,27.832,47.852,55.176,31.250,0
1486661404.675,21.973,29.785,44.434,62.012,-7.324,0
1486661404.679,71.777,32.715,36.621,74.707,67.871,0
1486661404.683,96.191,35.645,50.781,89.355,86.914,0
1486661404.687,67.871,35.156,43.945,71.289,40.039,0
1486661404.690,12.207,31.250,37.109,45.410,25.879,0
1486661404.694,3.906,28.809,44.922,50.293,-3.418,0
1486661404.698,62.500,32.227,37.598,58.105,3.906,0
1486661404.702,95.703,36.621,39.551,70.312,62.500,0
1486661404.706,66.895,37.109,49.316,70.312,65.430,0
1486661404.710,9.766,28.809,40.039,44.434,11.719,0
1486661404.714,-10.742,28.809,41.992,43.457,2.930,0
1486661404.718,37.598,24.902,42.480,66.406,42.969,0
1486661404.722,78.613,21.973,40.039,83.984,84.473,0
1486661404.726,60.547,32.227,52.246,72.266,57.129,0
1486661404.729,13.184,37.109,46.387,45.898,20.996,0
1486661404.733,-8.789,36.133,44.434,39.062,-8.301,0
1486661404.737,38.574,31.738,48.340,58.105,17.578,0
1486661404.741,87.891,36.133,34.668,80.078,100.098,0
1486661404.745,62.012,39.062,36.621,70.801,99.609,0
1486661404.749,20.508,38.574,43.457,54.199,35.156,0
1486661404.753,4.395,36.621,39.551,48.828,-23.926,0
1486661404.757,27.344,32.715,42.480,55.664,7.812,0
1486661404.761,77.148,30.273,48.828,81.055,71.777,0
1486661404.765,80.078,34.668,47.852,80.566,106.934,0
1486661404.769,38.086,38.574,52.246,59.570,51.270,0
1486661404.772,-3.418,29.785,52.246,44.434,-11.230,0
1486661404.776,19.531,29.785,40.527,56.641,-11.230,0
1486661404.780,69.824,33.203,27.344,73.242,30.273,0
1486661404.784,62.500,26.855,26.367,67.871,93.750,0
1486661404.788,33.203,29.297,40.039,52.734,62.012,0
1486661404.792,-2.441,31.738,41.992,34.668,15.625,0
1486661404.796,16.602,26.855,41.016,43.945,-2.930,0
1486661404.800,77.148,31.738,45.410,73.730,46.875,0
1486661404.804,81.543,32.715,41.992,74.219,99.121,0
1486661404.808,42.480,28.809,46.387,56.641,67.383,0
1486661404.812,-0.977,26.855,49.316,41.992,21.484,0
1486661404.815,2.930,23.438,28.320,44.434,-4.395,0
1486661404.819,59.082,25.391,27.344,62.500,51.270,0
1486661404.823,77.148,27.344,30.273,65.918,108.887,0
1486661404.827,42.969,28.809,31.250,52.246,97.656,0
1486661404.831,-9.277,23.438,44.434,43.945,68.848,0
1486661404.835,-2.930,21.973,49.316,51.270,54.199,0
1486661404.839,59.082,19.531,40.039,61.523,54.688,0
1486661404.843,81.543,25.391,40.527,67.383,59.082,0
1486661404.847,41.992,31.250,43.457,51.758,69.336,0
1486661404.851,-1.953,24.902,47.363,39.062,31.738,0
1486661404.854,-9.277,21.484,40.527,38.574,-9.766,0
1486661404.858,38.574,20.020,22.461,51.270,31.738,0
1486661404.862,76.172,28.809,20.020,63.477,75.684,0
1486661404.866,60.059,35.156,32.715,57.129,71.777,0
1486661404.870,11.230,31.738,49.316,49.805,-14.648,0
1486661404.874,-10.254,23.438,47.363,45.898,-56.641,0
1486661404.878,41.992,20.508,32.227,61.035,11.230,0
1486661404.882,87.891,30.273,42.969,85.938,75.195,0
1486661404.886,60.547,30.762,45.898,73.730,64.941,0
1486661404.890,4.883,24.902,38.574,49.316,35.645,0
1486661404.894,-5.859,23.438,47.852,51.758,-0.488,0
1486661404.897,44.922,25.879,42.480,64.453,35.645,0
1486661404.901,85.938,29.297,33.203,77.637,108.398,0
1486661404.905,73.242,33.203,40.527,79.102,101.074,0
1486661404.909,31.738,32.715,49.316,61.523,75.195,0
1486661404.913,-2.930,26.855,44.434,46.875,18.066,0
1486661404.917,30.273,24.902,31.250,53.711,-0.488,0
1486661404.921,82.520,27.832,34.180,75.195,75.195,0
1486661404.925,73.242,30.273,54.688,76.660,117.188,0
1486661404.929,28.809,33.203,53.223,55.176,34.668,0
1486661404.933,-2.441,31.250,41.016,46.387,-40.039,0
1486661404.936,23.926,22.461,32.715,51.758,-6.836,0
1486661404.940,78.125,22.461,31.250,74.707,47.363,0
1486661404.944,77.148,27.344,35.645,80.078,80.566,0
1486661404.948,35.156,26.855,41.504,59.082,64.453,0
1486661404.952,-4.395,23.926,39.551,41.504,-15.137,0
1486661404.956,22.949,30.762,44.434,57.129,-43.457,0
1486661404.960,83.984,38.086,51.758,86.914,41.016,0
1486661404.964,83.984,35.645,41.504,82.520,78.125,0
1486661404.968,43.945,31.250,35.645,61.035,62.500,0
1486661404.972,-3.418,29.297,30.762,41.992,39.062,0
1486661404.976,12.695,25.391,31.250,51.270,31.250,0
1486661404.979,66.406,22.949,41.992,71.777,55.176,0
1486661404.983,79.102,29.297,39.062,67.383,75.195,0
1486661404.987,50.293,29.785,36.621,51.270,55.176,0
1486661404.991,2.441,25.391,39.062,38.086,21.973,0
1486661404.995,-0.488,27.344,41.992,43.457,13.672,0
1486661404.999,60.059,34.668,45.898,64.941,59.082,0
1486661405.003,89.844,33.691,40.039,79.590,90.332,0
1486661405.007,49.316,29.297,32.715,67.383,43.457,0
1486661405.011,5.859,30.762,35.156,44.434,-7.324,0
1486661405.015,2.441,23.438,42.480,50.293,-57.617,0
1486661405.019,41.992,17.090,33.203,66.895,-12.695,0
1486661405.022,76.660,26.367,29.297,76.172,68.848,0
1486661405.026,61.035,34.668,49.805,75.195,54.199,0
1486661405.030,9.766,33.203,58.594,62.988,-21.484,0
1486661405.034,-12.207,33.203,47.852,48.340,-48.340,0
1486661405.038,41.504,33.203,35.156,58.105,46.387,0
1486661405.042,80.566,32.227,29.297,67.871,108.887,0
1486661405.046,60.547,29.785,35.156,58.594,93.750,0
1486661405.050,9.766,26.855,44.922,38.086,63.965,0
1486661405.054,-13.672,25.879,37.598,33.691,24.902,0
1486661405.058,35.645,25.879,33.203,57.129,19.043,0
1486661405.061,77.637,25.391,34.668,71.777,49.805,0
1486661405.065,69.824,27.832,46.387,69.336,81.055,0
1486661405.069,26.367,35.645,57.617,52.246,16.602,0
1486661405.073,-12.695,35.645,41.504,33.691,-19.531,0
1486661405.077,22.949,32.715,28.809,48.340,5.371,0
1486661405.081,79.102,28.809,28.320,73.730,71.777,0
1486661405.085,76.172,33.691,31.738,73.242,99.609,1
1486661405.089,29.297,34.668,35.156,51.758,80.078,0
1486661405.093,-8.789,24.414,45.898,39.551,62.988,0
1486661405.097,14.648,27.344,41.992,52.246,19.531,0
1486661405.101,67.871,28.809,24.902,65.918,61.523,0
1486661405.104,80.566,32.715,41.504,75.684,123.535,0
1486661405.108,34.668,34.668,57.129,56.641,94.238,0
1486661405.112,-15.137,23.926,43.457,31.738,-13.184,0
1486661405.116,5.371,20.508,27.344,42.480,-30.762,0
1486661405.120,66.895,21.973,29.297,69.336,50.293,0
1486661405.124,83.496,32.715,33.203,75.195,72.266,0
1486661405.128,47.363,33.203,35.645,58.105,59.082,0
1486661405.132,-0.488,25.879,46.875,42.480,18.066,0
1486661405.136,16.602,36.621,51.758,55.176,6.348,0
1486661405.140,64.941,34.668,40.039,71.777,66.895,0
1486661405.144,71.777,26.367,33.691,64.453,103.027,0
1486661405.147,41.504,31.250,43.457,47.363,42.969,0
1486661405.151,-9.766,27.344,41.992,34.668,-17.578,0
1486661405.155,-0.488,23.926,37.109,44.434,11.230,0
1486661405.159,56.641,25.391,31.738,60.547,25.391,0
1486661405.163,75.684,24.902,34.668,67.383,53.223,0
1486661405.167,50.293,27.832,33.691,62.012,61.035,0
1486661405.171,9.766,34.668,44.434,50.781,3.906,0
1486661405.175,7.812,34.180,56.152,45.898,-39.551,0
1486661405.179,49.805,26.855,37.109,54.199,-2.930,0
1486661405.183,71.289,30.273,30.273,68.359,84.961,0
1486661405.186,48.340,31.738,35.156,60.059,100.586,0
1486661405.190,0.977,26.367,38.086,39.551,22.461,0
1486661405.194,-14.648,22.461,37.598,34.180,-9.277,0
1486661405.198,39.551,20.020,33.691,56.152,29.297,0
1486661405.202,85.449,29.785,40.527,77.148,64.453,0
1486661405.206,64.941,32.715,48.340,62.500,63.477,0
1486661405.210,11.719,31.738,48.828,43.457,24.902,0
1486661405.214,-12.695,31.738,50.781,39.551,18.066,0
1486661405.218,25.879,29.785,33.691,40.039,31.250,0
1486661405.222,72.266,33.691,21.973,61.035,24.902,0
1486661405.226,62.012,28.320,28.320,62.500,36.133,0
1486661405.229,18.555,28.809,42.969,48.828,28.809,0
1486661405.233,-15.137,25.879,42.480,41.016,-2.441,0
1486661405.237,29.297,24.902,38.086,54.688,-2.930,0
1486661405.241,80.566,31.250,43.457,79.102,70.312,0
1486661405.245,64.941,26.367,43.457,74.707,104.004,0
1486661405.249,19.043,28.809,43.945,50.781,32.227,0
1486661405.253,-15.137,34.668,48.828,40.527,-2.930,0
1486661405.257,13.672,31.250,32.715,45.410,8.789,0
1486661405.261,71.777,33.203,24.902,63.965,39.551,0
1486661405.265,82.520,40.039,37.109,65.430,80.078,0
1486661405.268,41.504,35.645,36.133,44.434,59.082,0
1486661405.272,1.465,27.344,47.852,35.645,15.625,0
1486661405.276,20.508,26.855,55.664,45.410,14.160,0
1486661405.280,69.336,24.902,40.527,66.406,69.336,0
1486661405.284,74.219,27.832,32.227,67.871,109.375,0
1486661405.288,41.016,40.527,49.316,55.176,40.527,0
1486661405.292,-5.859,35.645,45.410,46.875,-8.301,0
1486661405.296,-4.883,24.414,29.785,47.852,-21.484,0
1486661405.300,63.477,29.785,30.273,68.359,51.270,0
1486661405.304,83.496,30.273,30.762,72.754,86.914,0
1486661405.308,44.434,29.297,34.180,61.035,44.922,0
1486661405.311,9.766,34.668,56.641,61.523,11.230,0
1486661405.315,20.020,33.203,64.941,61.523,-35.156,0
1486661405.319,71.289,36.621,39.551,67.383,30.273,0
1486661405.323,90.332,38.574,25.391,76.660,108.398,0
1486661405.327,58.105,31.738,37.598,64.453,85.938,0
1486661405.331,7.812,27.832,41.016,55.664,44.922,0
1486661405.335,4.395,23.926,38.086,53.711,20.996,0
1486661405.339,61.523,25.879,35.156,67.871,62.988,0
1486661405.343,92.285,31.250,34.180,89.844,120.605,0
1486661405.347,64.453,30.762,51.270,84.473,86.914,0
1486661405.351,10.254,30.273,59.082,57.129,10.254,0
1486661405.354,3.418,35.156,45.410,54.199,5.859,0
1486661405.358,58.105,33.203,30.273,72.754,35.645,0
1486661405.362,84.961,24.414,26.367,76.660,78.613,0
1486661405.366,61.523,26.855,37.109,62.500,76.660,0
1486661405.370,5.371,24.902,43.945,44.434,55.176,0
1486661405.374,-6.836,25.391,49.316,46.387,33.691,0
1486661405.378,52.246,28.809,53.711,65.918,6.836,0
1486661405.382,92.285,31.738,40.039,80.078,45.898,0
1486661405.386,78.125,31.738,30.762,79.102,81.543,0
1486661405.390,27.344,27.832,43.945,64.453,38.574,0
1486661405.393,-8.301,26.367,53.711,56.641,-6.836,0
1486661405.397,37.598,24.902,41.992,67.871,0.488,0
1486661405.401,85.449,30.273,35.645,82.520,82.520,0
1486661405.405,78.613,31.738,40.039,78.613,117.676,0
1486661405.409,36.133,31.738,50.293,58.105,23.438,0
1486661405.413,-4.395,27.344,51.270,41.992,-9.277,0
1486661405.417,26.855,30.762,36.621,55.176,25.879,0
1486661405.421,79.590,33.203,37.109,75.684,75.195,0
1486661405.425,72.754,26.855,34.668,64.453,49.316,0
1486661405.429,32.227,24.902,34.668,46.387,5.371,0
1486661405.433,-7.812,26.367,38.574,36.133,-0.488,0
1486661405.436,2.930,25.391,31.738,46.387,-21.484,0
1486661405.440,60.547,22.461,31.738,69.336,20.020,0
1486661405.444,77.148,29.297,41.992,73.730,50.781,0
1486661405.448,38.574,32.227,52.246,57.617,-1.953,0
1486661405.452,4.395,34.180,57.129,48.340,-54.688,0
1486661405.456,22.461,38.086,45.410,60.547,-50.293,0
1486661405.460,74.707,34.180,39.551,79.102,24.414,0
1486661405.464,87.402,32.227,37.109,78.613,65.430,0
1486661405.468,48.340,31.250,37.598,61.035,12.695,0
1486661405.472,-1.953,26.855,41.504,43.457,10.254,0
1486661405.476,-0.488,21.484,41.504,44.922,29.297,0
1486661405.479,68.359,29.785,41.016,65.918,41.504,0
1486661405.483,101.074,38.086,43.945,79.102,58.594,0
1486661405.487,57.129,28.320,39.551,61.523,18.555,0
1486661405.491,2.930,29.297,42.480,41.992,-8.789,0
1486661405.495,2.441,32.227,47.363,45.410,-22.949,0
1486661405.499,58.105,29.297,38.086,68.848,-2.930,0
1486661405.503,90.332,33.691,32.227,76.660,43.945,0
1486661405.507,67.383,29.785,36.621,65.430,32.227,0
1486661405.511,15.625,31.250,48.828,46.387,10.742,0
1486661405.515,-4.883,36.621,46.875,41.992,-55.176,0
1486661405.518,38.574,30.762,40.039,62.988,-49.316,0
1486661405.522,76.172,34.180,43.945,72.266,26.855,0
1486661405.526,62.500,39.062,43.457,60.547,22.461,0
1486661405.530,11.719,38.086,43.457,42.480,-21.973,0
1486661405.534,-11.230,31.738,41.992,40.039,-33.203,0
1486661405.538,41.504,29.297,48.828,68.848,14.648,0
1486661405.542,83.496,34.180,47.363,79.102,56.641,0
1486661405.546,67.383,34.668,35.645,72.754,72.266,0
1486661405.550,26.367,36.133,44.922,62.012,24.902,0
1486661405.554,-5.371,32.227,45.410,51.758,-15.625,0
1486661405.558,35.645,33.203,40.527,69.824,26.367,0
1486661405.561,78.613,33.203,33.691,83.008,82.520,0
1486661405.565,61.523,23.926,28.320,65.918,79.590,0
1486661405.569,20.996,27.832,41.992,46.387,42.480,0
1486661405.573,-13.184,30.762,44.434,42.480,7.324,0
1486661405.577,30.762,36.621,43.457,64.941,29.297,0
1486661405.581,86.914,29.297,35.645,81.543,78.125,0
1486661405.585,82.031,20.508,36.621,77.637,111.816,0
1486661405.589,33.691,28.809,47.363,64.453,75.684,0
1486661405.593,-13.184,22.461,39.551,46.387,-4.395,0
1486661405.597,14.648,19.043,27.832,55.664,-1.953,0
1486661405.600,78.613,26.855,36.621,82.520,93.750,0
1486661405.604,83.984,30.762,41.016,82.031,125.000,0
1486661405.608,45.410,33.203,41.016,59.570,60.059,0
1486661405.612,6.836,32.227,52.734,52.734,21.484,0
1486661405.616,25.391,30.273,54.199,61.035,28.809,0
1486661405.620,80.078,24.414,45.898,76.172,51.758,0
1486661405.624,80.078,21.973,32.715,75.684,110.352,0
1486661405.628,46.875,34.180,32.715,59.082,110.840,0
1486661405.632,0.488,36.621,46.387,45.410,21.484,0
1486661405.636,-2.441,24.902,38.574,35.645,-2.930,0
1486661405.640,59.082,22.949,32.227,54.199,45.898,0
1486661405.643,78.125,24.902,30.762,69.824,74.219,0
1486661405.647,46.387,30.273,43.457,62.988,65.918,0
1486661405.651,8.789,30.762,63.477,54.688,9.277,0
1486661405.655,5.859,24.902,51.270,54.688,-14.160,0
1486661405.659,58.594,27.344,33.203,74.219,47.363,1
1486661405.663,84.961,35.645,35.156,75.195,92.285,0
1486661405.667,51.758,32.715,38.574,57.129,70.801,0
1486661405.671,0.977,25.391,33.691,45.410,38.086,0
1486661405.675,-9.766,25.391,39.062,42.969,20.508,0
1486661405.679,44.922,27.832,40.039,57.617,19.043,0
1486661405.683,84.961,35.645,41.504,76.172,64.453,0
1486661405.686,59.082,35.645,46.387,65.918,71.777,0
1486661405.690,3.418,29.785,40.527,36.621,19.043,0
1486661405.694,-14.648,30.273,42.969,35.156,-23.926,0
1486661405.698,37.598,29.785,37.109,54.688,4.883,0
1486661405.702,80.078,29.785,35.156,68.359,60.059,0
1486661405.706,63.965,27.344,37.109,56.641,84.473,0
1486661405.710,13.672,24.902,37.109,37.109,47.852,0
1486661405.714,-10.254,31.250,43.457,39.062,-3.906,0
1486661405.718,37.598,29.785,44.434,60.547,5.371,0
1486661405.722,75.684,24.414,49.805,80.078,65.430,0
1486661405.725,62.988,28.809,41.016,68.848,68.848,0
1486661405.729,23.926,26.855,34.668,44.434,11.230,0
1486661405.733,-1.953,29.785,49.805,41.992,-19.531,0
1486661405.737,30.273,29.785,52.246,62.012,12.695,0
1486661405.741,69.336,19.043,37.109,76.660,73.730,0
1486661405.745,80.566,26.367,32.715,71.777,97.656,0
1486661405.749,45.410,39.551,35.645,55.664,30.762,0
1486661405.753,0.977,35.645,46.387,50.293,-52.246,0
1486661405.757,22.949,24.902,45.898,59.082,-45.898,0
1486661405.761,76.172,20.996,39.062,81.543,43.457,0
1486661405.765,78.125,25.879,40.527,88.867,96.191,0
1486661405.768,34.668,29.785,46.875,65.918,60.547,0
1486661405.772,-8.301,24.414,49.805,47.363,-4.395,0
1486661405.776,5.371,21.973,47.852,52.734,2.441,0
1486661405.780,62.988,24.414,36.621,70.312,43.457,0
1486661405.784,77.148,34.668,34.180,73.730,96.680,0
1486661405.788,42.969,37.598,40.039,57.129,96.191,0
1486661405.792,1.953,27.344,29.785,36.621,26.855,0
1486661405.796,5.371,24.902,28.809,33.203,1.953,0
1486661405.800,55.664,24.902,31.250,58.105,33.691,0
1486661405.804,78.125,26.855,32.715,67.871,104.004,0
1486661405.808,56.641,35.156,39.551,48.828,92.773,0
1486661405.811,9.766,34.668,42.969,34.668,19.531,0
1486661405.815,-1.953,26.367,41.992,40.039,-16.113,0
1486661405.819,51.758,28.320,37.109,64.453,30.762,0
1486661405.823,81.055,33.691,29.785,68.359,80.078,0
1486661405.827,61.523,34.668,34.668,59.570,55.664,0
1486661405.831,4.883,24.902,38.574,46.387,29.297,0
1486661405.835,-7.324,20.508,42.480,46.875,8.789,0
1486661405.839,46.875,26.367,37.598,60.547,0.488,0
1486661405.843,83.008,30.762,34.668,75.195,66.406,0
1486661405.847,64.941,30.273,39.551,75.195,81.543,0
1486661405.850,14.648,28.809,47.363,54.688,19.043,0
1486661405.854,-1.953,28.320,48.340,49.316,-9.277,0
1486661405.858,42.969,21.973,27.832,61.523,41.504,0
1486661405.862,84.961,20.996,26.367,77.148,83.984,0
1486661405.866,71.289,27.832,34.180,74.219,76.172,0
1486661405.870,34.180,40.039,47.363,64.453,43.945,0
1486661405.874,5.371,39.062,47.852,52.246,-2.930,0
1486661405.878,32.227,23.926,33.203,57.129,6.836,0
1486661405.882,79.102,23.438,40.039,78.125,61.035,0
1486661405.886,73.730,31.738,38.086,74.707,62.012,0
1486661405.890,30.762,36.621,33.691,57.617,22.949,0
1486661405.893,-2.930,26.855,38.574,54.199,-8.789,0
1486661405.897,24.902,22.461,34.180,54.199,19.531,0
1486661405.901,75.195,27.832,28.809,67.871,56.641,0
1486661405.905,73.730,29.297,36.133,71.777,69.824,0
1486661405.909,29.297,27.832,48.340,50.293,49.805,0
1486661405.913,-7.812,28.320,58.105,45.898,-7.324,0
1486661405.917,12.695,26.367,42.969,50.781,-6.836,0
1486661405.921,65.918,25.391,25.391,62.012,37.598,0
1486661405.925,69.824,28.320,40.527,67.383,59.082,0
1486661405.929,30.273,32.227,46.387,50.293,23.438,0
1486661405.932,-10.254,27.832,38.574,40.039,-21.973,0
1486661405.936,7.324,19.043,36.621,50.781,-36.133,0
1486661405.940,66.895,26.367,34.668,70.312,29.785,0
1486661405.944,76.660,31.250,42.969,73.242,66.406,0
1486661405.948,48.340,34.180,48.340,62.012,53.223,0
1486661405.952,-2.441,29.785,42.969,47.363,9.277,0
1486661405.956,-2.930,20.020,40.039,50.293,-20.020,0
1486661405.960,63.965,23.438,38.574,70.312,21.973,0
1486661405.964,82.031,30.273,36.133,74.707,65.430,0
1486661405.968,49.316,27.832,43.457,64.941,47.363,0
1486661405.972,0.977,21.484,44.434,53.223,4.883,0
1486661405.975,-1.465,20.508,35.156,52.246,-25.391,0
1486661405.979,67.871,22.461,38.086,75.684,10.742,0
1486661405.983,95.215,26.367,43.945,90.820,77.637,0
1486661405.987,59.082,28.809,40.039,67.383,50.781,0
1486661405.991,14.648,28.320,43.457,51.270,-31.738,0
1486661405.995,-0.488,22.949,40.527,50.293,-84.961,0
1486661405.999,43.945,26.855,38.574,63.477,-55.176,0
1486661406.003,79.102,33.691,39.062,77.637,65.918,0
1486661406.007,59.570,32.715,35.156,68.848,90.820,0
1486661406.011,18.066,26.855,48.340,52.246,5.371,0
1486661406.015,-8.301,22.949,47.852,51.270,-27.344,0
1486661406.018,22.949,18.066,24.414,64.453,1.953,0
1486661406.022,70.801,26.855,29.297,74.219,68.359,0
1486661406.026,64.453,36.133,43.457,64.453,76.172,0
1486661406.030,20.508,28.809,39.062,48.340,7.812,0
1486661406.034,-11.719,19.531,33.203,39.551,-12.695,0
1486661406.038,26.367,20.508,39.551,52.734,-3.418,0
1486661406.042,80.078,23.438,39.062,79.102,68.359,0
1486661406.046,71.777,21.973,39.062,73.730,141.602,0
1486661406.050,26.855,22.461,45.410,58.105,78.613,0
1486661406.054,-2.930,31.250,40.039,51.270,21.484,0
1486661406.057,29.785,31.738,40.039,63.477,52.246,0
1486661406.061,75.195,24.902,39.551,76.172,78.613,0
1486661406.065,64.941,29.297,36.621,67.871,104.492,0
1486661406.069,26.367,30.273,36.133,49.316,63.965,0
1486661406.073,-2.441,27.832,41.016,38.574,15.625,0
1486661406.077,20.996,28.320,39.551,50.781,2.441,0
1486661406.081,80.078,33.203,40.039,80.566,47.363,0
1486661406.085,88.379,31.738,48.828,84.473,108.398,0
1486661406.089,42.969,26.855,41.504,60.547,57.129,0
1486661406.093,-4.395,27.344,40.039,42.480,26.367,0
1486661406.097,5.859,22.949,41.992,43.945,21.484,0
1486661406.100,63.477,25.391,32.715,58.594,52.246,0
1486661406.104,80.078,28.809,31.250,67.383,132.324,0
1486661406.108,47.852,32.227,34.668,46.875,88.379,0
1486661406.112,0.000,33.691,42.969,29.297,46.387,0
1486661406.116,17.578,31.738,52.734,44.922,55.176,0
1486661406.120,77.148,26.367,41.992,63.965,59.570,0
1486661406.124,92.285,27.344,29.297,64.941,78.125,0
1486661406.128,52.734,29.785,36.621,50.293,76.172,0
1486661406.132,-9.766,28.809,40.527,36.133,40.039,0
1486661406.136,-4.395,27.832,48.340,46.875,-11.719,0
1486661406.140,54.688,30.273,46.387,63.477,29.785,0
1486661406.143,76.172,36.621,31.738,62.012,113.281,0
1486661406.147,54.688,42.969,42.969,63.965,101.562,0
1486661406.151,8.789,38.086,51.270,43.457,57.129,0
1486661406.155,-8.301,26.855,38.086,24.902,53.223,0
1486661406.159,38.086,21.973,40.527,48.828,104.492,0
1486661406.163,72.754,26.855,35.645,64.453,112.793,0
1486661406.167,56.152,35.156,27.344,53.223,75.684,0
1486661406.171,2.930,30.762,41.504,43.945,48.340,0
1486661406.175,-12.695,24.414,48.340,41.992,8.789,0
1486661406.179,48.340,28.809,36.133,60.547,18.066,0
1486661406.182,81.543,28.809,28.809,77.637,89.844,0
1486661406.186,66.406,27.832,35.645,64.941,101.074,0
1486661406.190,26.855,32.715,41.016,49.316,49.805,0
1486661406.194,2.441,30.762,44.922,49.316,-1.953,0
1486661406.198,35.645,22.461,42.480,52.246,-3.906,0
1486661406.202,73.730,27.344,36.133,66.406,65.918,0
1486661406.206,64.453,30.273,39.062,67.383,74.707,0
1486661406.210,22.949,30.273,41.016,47.363,22.949,0
1486661406.214,-8.789,29.297,46.875,41.504,12.207,0
1486661406.218,19.531,22.461,40.039,44.434,40.039,0
1486661406.222,76.660,24.414,27.832,62.988,55.664,0
1486661406.225,80.566,34.180,27.832,68.848,64.453,0
1486661406.229,37.109,34.668,52.734,52.246,19.043,0
1486661406.233,-7.324,35.156,62.988,45.410,-42.969,0
1486661406.237,14.160,32.715,41.016,50.781,-10.742,0
1486661406.241,66.895,26.367,37.598,68.359,68.359,0
1486661406.245,67.871,25.391,36.133,73.730,126.465,0
1486661406.249,34.180,26.855,36.621,61.523,48.828,0
1486661406.253,-3.418,24.902,41.016,48.340,-10.742,0
1486661406.257,8.301,22.461,39.551,48.340,8.789,0
1486661406.261,68.359,29.297,35.156,74.707,33.203,0
1486661406.264,81.055,31.738,44.434,81.543,21.973,0
1486661406.268,42.480,30.273,62.012,61.523,6.348,0
1486661406.272,-4.883,31.738,51.270,44.434,8.301,0
1486661406.276,-10.742,23.438,31.250,37.598,-0.977,0
1486661406.280,53.223,20.020,30.762,60.547,29.785,0
1486661406.284,79.590,24.414,38.574,69.824,67.383,0
1486661406.288,45.410,31.738,46.875,53.223,58.105,0
1486661406.292,2.441,35.156,41.992,38.574,25.879,0
1486661406.296,-0.977,34.180,42.969,37.598,2.441,0
1486661406.300,55.176,36.621,43.457,66.406,34.668,0
1486661406.304,83.496,32.227,44.434,70.312,79.102,0
1486661406.307,56.152,27.832,45.898,53.223,50.781,0
1486661406.311,5.859,34.668,38.574,46.875,19.531,0
1486661406.315,1.465,33.203,43.457,46.387,-6.836,1
1486661406.319,66.406,32.715,50.293,70.801,14.160,0
1486661406.323,97.168,39.062,47.363,90.332,72.266,0
1486661406.327,63.965,33.691,35.156,71.777,88.379,0
1486661406.331,19.043,37.109,49.805,55.176,51.270,0
1486661406.335,4.883,37.598,56.152,53.223,28.320,0
1486661406.339,55.176,28.320,35.156,66.895,41.016,0
1486661406.343,87.891,27.832,29.785,79.102,118.652,0
1486661406.347,67.383,33.203,34.668,68.848,112.793,0
1486661406.350,19.531,31.738,43.945,50.781,35.156,0
1486661406.354,-8.301,26.855,46.387,45.898,0.977,0
1486661406.358,33.203,28.809,32.715,57.129,39.062,0
1486661406.362,83.984,34.180,39.062,77.637,95.215,0
1486661406.366,76.660,36.133,51.758,75.195,86.426,0
1486661406.370,22.461,31.250,41.504,50.293,55.176,0
1486661406.374,-8.789,29.297,38.086,41.016,-2.441,0
1486661406.378,25.391,29.785,40.527,51.758,-39.062,0
1486661406.382,74.219,31.738,34.180,71.777,37.598,0
1486661406.386,79.102,44.922,40.039,72.754,102.051,0
1486661406.389,32.715,42.480,38.086,48.828,48.340,0
1486661406.393,-8.301,30.762,43.457,40.039,-12.695,0
1486661406.397,19.531,33.691,50.293,54.688,-11.230,0
1486661406.401,81.055,33.203,31.250,71.777,14.160,0
1486661406.405,88.379,30.273,30.273,75.195,62.988,0
1486661406.409,48.340,32.715,44.922,64.941,44.922,0
1486661406.413,4.883,30.762,48.828,51.758,21.484,0
1486661406.417,18.066,23.926,39.551,58.594,21.973,0
1486661406.421,72.754,23.438,35.156,79.590,48.828,0
1486661406.425,84.473,32.227,46.875,86.914,88.379,0
1486661406.429,50.781,35.645,49.805,67.871,74.219,0
1486661406.432,3.418,25.391,50.781,45.898,-5.371,0
1486661406.436,2.930,19.043,46.387,53.711,-13.184,0
1486661406.440,63.477,22.949,32.227,78.125,54.688,0
1486661406.444,86.914,30.762,38.086,81.055,104.004,0
1486661406.448,49.316,34.180,46.875,59.570,69.824,0
1486661406.452,8.789,38.086,56.641,51.758,4.395,0
1486661406.456,1.953,32.715,41.992,46.387,4.395,0
1486661406.460,55.176,31.250,42.969,58.594,55.176,0
1486661406.464,81.543,35.156,60.547,75.195,96.191,0
1486661406.468,45.410,27.832,36.133,58.105,70.801,0
1486661406.472,-4.883,21.973,29.785,41.504,10.742,0
1486661406.475,-15.137,18.555,34.668,41.992,4.883,0
1486661406.479,50.781,24.414,33.203,66.895,35.645,0
1486661406.483,80.078,26.855,40.527,84.473,72.754,0
1486661406.487,55.176,34.668,43.945,76.172,68.359,0
1486661406.491,17.578,41.992,50.781,60.059,12.207,0
1486661406.495,6.836,35.645,59.082,59.082,-13.672,0
1486661406.499,54.688,27.832,38.086,66.895,-11.230,0
1486661406.503,83.496,25.391,24.414,75.195,63.477,0
1486661406.507,61.523,28.809,31.738,68.848,79.102,0
1486661406.511,11.719,27.344,34.180,44.434,31.738,0
1486661406.514,-2.441,32.715,40.527,49.316,-2.930,0
1486661406.518,40.039,32.227,43.945,64.453,-2.441,0
1486661406.522,79.102,26.855,36.621,74.219,68.359,0
1486661406.526,78.125,30.273,49.316,77.637,75.684,0
1486661406.530,34.180,33.203,53.711,60.059,15.625,0
1486661406.534,-5.859,30.273,38.086,48.340,-51.758,0
1486661406.538,25.391,24.902,30.273,58.105,-5.859,0
1486661406.542,79.102,25.391,29.785,76.660,66.895,0
1486661406.546,79.102,33.203,32.227,68.848,98.633,0
1486661406.550,38.574,35.156,38.574,51.758,79.590,0
1486661406.554,-0.977,28.320,46.875,43.945,-20.996,0
1486661406.557,34.180,31.250,49.805,61.035,-62.500,0
1486661406.561,93.262,38.574,45.898,88.867,9.766,0
1486661406.565,83.008,31.738,34.180,82.031,85.449,0
1486661406.569,48.340,33.203,36.621,69.336,45.898,0
1486661406.573,4.395,32.227,42.480,62.012,-12.207,0
1486661406.577,21.484,24.902,39.062,68.359,13.184,0
1486661406.581,86.914,31.738,36.621,91.797,79.102,0
1486661406.585,87.891,32.227,32.715,82.031,74.219,0
1486661406.589,51.270,33.203,51.758,65.918,42.969,0
1486661406.593,5.859,35.645,62.012,60.547,7.812,0
1486661406.597,16.602,30.762,37.109,61.035,-53.711,0
1486661406.600,74.707,31.250,30.273,81.055,35.156,0
1486661406.604,94.727,28.809,34.668,88.867,125.977,0
1486661406.608,65.430,29.785,36.133,68.848,65.918,0
1486661406.612,12.207,38.574,37.109,49.805,10.742,0
1486661406.616,8.789,32.715,38.086,52.734,0.488,0
1486661406.620,65.918,27.344,40.039,77.637,25.391,0
1486661406.624,90.332,30.762,44.922,88.379,88.379,0
1486661406.628,57.617,30.273,54.199,72.266,67.871,0
1486661406.632,2.441,23.926,45.898,48.828,3.418,0
1486661406.636,-0.977,25.879,35.645,49.805,-12.207,0
1486661406.639,59.570,28.809,33.203,70.312,0.488,0
1486661406.643,84.473,28.320,34.668,79.102,20.508,0
1486661406.647,67.871,36.621,49.316,68.848,36.133,0
1486661406.651,22.461,33.203,51.758,55.664,22.949,0
1486661406.655,-6.836,20.996,40.039,50.293,-17.578,0
1486661406.659,39.062,15.625,38.086,67.383,-2.441,0
1486661406.663,79.590,20.508,45.410,82.520,63.477,0
1486661406.667,62.988,27.832,42.969,69.824,83.984,0
1486661406.671,13.672,27.344,36.621,48.828,2.441,0
1486661406.675,-5.371,28.809,45.898,43.945,-50.781,0
1486661406.679,38.086,28.320,42.969,62.012,-22.461,0
1486661406.682,77.148,25.391,29.785,74.219,49.316,0
1486661406.686,68.359,26.855,41.504,66.895,69.824,0
1486661406.690,29.297,33.203,55.176,63.477,30.273,0
1486661406.694,-4.395,34.180,43.457,53.223,-24.902,0
1486661406.698,29.785,27.344,25.391,50.293,-22.461,0
1486661406.702,81.055,30.273,29.297,69.336,50.293,0
1486661406.706,66.406,31.250,32.715,65.918,93.262,0
1486661406.710,17.578,30.273,31.250,42.969,51.758,0
1486661406.714,-11.230,30.762,39.551,37.598,-35.645,0
1486661406.718,20.996,28.320,39.551,52.734,-37.598,0
1486661406.721,62.988,24.902,28.809,67.383,48.828,0
1486661406.725,66.895,26.855,29.785,63.477,72.754,0
1486661406.729,32.715,27.344,38.574,48.340,75.195,0
1486661406.733,-2.930,24.414,45.898,40.039,39.551,0
1486661406.737,8.789,21.484,41.992,45.410,13.184,0
1486661406.741,58.594,20.996,30.273,61.523,56.152,0
1486661406.745,72.266,21.484,26.855,68.359,100.586,0
1486661406.749,31.738,20.508,32.227,52.734,84.473,0
1486661406.753,-16.113,19.043,37.598,36.133,10.254,0
1486661406.757,-7.812,22.949,37.598,39.551,-15.137,0
1486661406.761,51.270,24.902,33.691,71.777,50.781,0
1486661406.764,71.289,21.973,35.645,80.078,111.816,0
1486661406.768,32.715,22.949,35.156,45.410,121.582,0
1486661406.772,-0.977,25.879,47.363,45.898,63.965,0
1486661406.776,10.254,22.949,66.895,64.941,28.809,0
1486661406.780,46.387,17.578,38.086,59.082,88.867,0
1486661406.784,66.406,20.020,15.137,53.711,130.859,0
1486661406.788,42.480,26.855,36.133,46.875,96.680,0
1486661406.792,-7.812,32.715,43.945,31.250,26.855,0
1486661406.796,-17.578,24.902,33.691,25.391,-16.602,0
1486661406.800,39.062,24.902,28.809,49.805,14.648,0
1486661406.804,73.242,32.227,29.785,69.336,53.223,0
1486661406.807,52.246,32.227,31.738,58.105,54.199,0
1486661406.811,11.719,33.203,41.504,44.922,15.625,0
1486661406.815,-1.465,29.297,52.734,44.922,-8.301,0
1486661406.819,43.457,23.926,34.668,60.547,30.762,0
1486661406.823,84.473,29.785,24.414,79.590,79.102,0
1486661406.827,79.102,38.086,34.180,68.359,78.613,0
1486661406.831,24.902,40.039,36.621,46.875,50.781,0
1486661406.835,-7.324,30.762,37.109,40.039,16.113,0
1486661406.839,39.062,20.996,32.715,55.176,16.113,0
1486661406.843,83.008,27.832,26.367,71.777,67.383,0
1486661406.846,72.266,31.738,33.691,60.059,89.355,0
1486661406.850,39.551,35.645,54.199,44.922,19.531,0
1486661406.854,9.277,29.785,51.270,46.387,-30.273,0
1486661406.858,35.645,20.996,36.621,54.688,-8.301,0
1486661406.862,81.055,30.273,34.180,65.918,31.250,0
1486661406.866,78.613,33.691,39.062,59.082,70.801,0
1486661406.870,36.133,30.762,48.340,48.340,38.574,0
1486661406.874,-6.836,26.855,44.922,41.016,-25.879,0
1486661406.878,21.973,27.344,38.574,48.828,-32.227,0
1486661406.882,72.754,26.367,34.180,75.195,53.223,0
1486661406.886,74.707,23.926,38.574,77.637,87.891,0
1486661406.889,33.691,32.227,48.828,60.547,33.203,0
1486661406.893,-3.906,30.762,49.316,54.199,-23.438,0
1486661406.897,12.695,18.555,39.062,62.988,-21.973,0
1486661406.901,70.801,21.973,32.715,76.172,45.898,0
1486661406.905,84.473,26.367,41.016,74.219,85.938,0
1486661406.909,39.062,28.320,43.945,59.570,42.480,0
1486661406.913,-0.488,33.203,38.574,50.781,-18.066,0
1486661406.917,9.766,29.785,29.297,44.434,0.000,0
1486661406.921,61.523,35.156,34.180,65.918,56.641,0
1486661406.925,79.590,41.992,46.387,71.289,71.289,0
1486661406.929,49.805,36.621,41.992,55.664,44.922,0
1486661406.932,3.906,30.762,32.227,49.316,-9.766,1
1486661406.936,1.465,24.902,37.598,51.270,-6.348,0
1486661406.940,61.035,25.879,37.598,77.148,47.363,0
1486661406.944,89.844,29.297,35.645,86.426,62.988,0
1486661406.948,53.711,30.273,39.062,63.477,59.570,0
1486661406.952,4.395,30.762,47.852,46.875,19.043,0
1486661406.956,5.371,28.809,48.340,46.875,1.465,0
1486661406.960,64.941,29.785,38.086,64.941,53.711,0
1486661406.964,91.309,32.227,33.691,70.312,90.820,0
1486661406.968,72.266,37.598,28.809,55.664,66.406,0
1486661406.971,24.414,35.156,34.668,41.504,14.648,0
1486661406.975,3.418,30.273,44.434,42.969,-19.531,0
1486661406.979,51.270,27.344,44.922,64.941,-8.789,0
1486661406.983,85.449,27.344,36.133,72.754,53.711,0
1486661406.987,69.824,31.738,36.133,65.430,72.266,0
1486661406.991,23.438,30.273,49.316,58.594,13.672,0
1486661406.995,-3.418,30.273,49.316,52.734,-41.504,0
1486661406.999,45.898,31.738,31.250,64.941,-25.879,0
1486661407.003,88.379,31.738,39.062,80.566,48.340,0
1486661407.007,66.406,30.273,44.922,68.848,61.035,0
1486661407.011,16.602,31.250,34.180,48.340,28.320,0
1486661407.014,-9.277,29.297,42.969,40.527,29.785,0
1486661407.018,29.785,25.391,44.434,56.152,30.762,0
1486661407.022,67.871,25.879,36.621,67.871,89.355,0
1486661407.026,58.594,29.785,34.180,54.199,134.766,0
1486661407.030,28.320,35.156,45.410,45.410,81.543,0
1486661407.034,-12.695,30.762,47.852,36.133,34.668,0
1486661407.038,11.719,25.879,29.297,39.551,15.625,0
1486661407.042,68.848,32.715,31.738,64.941,68.359,0
1486661407.046,68.359,35.645,41.504,67.383,83.008,0
1486661407.050,19.531,30.762,37.109,45.410,20.996,0
1486661407.053,-23.438,26.367,29.297,30.273,-13.184,0
1486661407.057,7.812,24.414,35.156,44.434,-30.762,0
1486661407.061,63.965,27.344,40.039,69.336,13.184,0
1486661407.065,75.684,30.762,36.133,70.801,55.664,0
1486661407.069,42.480,33.691,42.480,55.664,57.617,0
1486661407.073,-7.324,34.180,41.992,44.434,21.484,0
1486661407.077,9.277,33.203,39.062,50.781,-10.742,0
1486661407.081,64.453,36.133,38.086,62.988,36.621,0
1486661407.085,68.359,33.691,33.203,69.336,79.102,0
1486661407.089,38.574,27.832,41.504,61.035,63.477,0
1486661407.093,-7.324,26.855,45.410,41.992,17.090,0
1486661407.096,-5.859,19.531,27.832,42.480,-17.090,0
1486661407.100,56.641,24.414,38.086,75.195,18.555,0
1486661407.104,76.660,32.227,50.293,83.008,60.547,0
1486661407.108,48.340,29.785,34.668,56.152,7.324,0
1486661407.112,7.812,34.180,40.039,41.992,-10.742,0
1486661407.116,-9.277,27.832,39.551,40.527,-8.789,0
1486661407.120,38.574,21.484,35.645,58.105,5.371,0
1486661407.124,70.801,25.879,40.527,64.941,85.938,0
1486661407.128,44.922,29.785,40.527,47.852,86.914,0
1486661407.132,0.488,30.273,43.457,37.109,29.297,0
1486661407.136,-10.742,26.855,46.387,37.598,-3.906,0
1486661407.139,39.551,22.949,41.016,52.246,32.715,0
1486661407.143,70.312,22.461,36.133,69.336,113.770,0
1486661407.147,49.805,29.785,31.250,62.988,119.141,0
1486661407.151,5.371,30.762,37.598,40.039,42.969,0
1486661407.155,-18.066,22.461,38.574,30.762,-20.996,0
1486661407.159,34.180,24.414,37.598,51.270,28.320,0
1486661407.163,82.031,28.809,39.062,70.801,97.168,0
1486661407.167,68.848,31.250,43.457,67.871,88.867,0
1486661407.171,20.996,29.785,38.574,46.875,26.855,0
1486661407.175,-7.324,28.809,35.156,38.574,-36.133,0
1486661407.178,40.039,29.785,43.945,59.570,1.953,0
1486661407.182,90.332,28.320,31.738,73.730,59.082,0
1486661407.186,75.195,24.902,24.902,66.406,97.168,0
1486661407.190,20.508,25.879,31.250,53.223,46.387,0
1486661407.194,-10.254,26.855,37.598,44.434,-20.020,0
1486661407.198,27.344,25.879,41.504,50.781,-1.953,0
1486661407.202,76.172,26.367,38.086,71.777,59.082,0
1486661407.206,77.637,33.203,41.504,74.707,96.191,0
1486661407.210,41.992,37.598,52.734,60.547,52.246,0
1486661407.214,2.930,26.855,50.293,45.898,21.973,0
1486661407.218,20.996,20.996,37.109,54.199,21.973,0
1486661407.221,71.777,26.367,29.785,80.078,93.750,0
1486661407.225,79.590,34.180,31.250,81.055,143.555,0
1486661407.229,40.039,35.156,40.039,68.848,84.473,0
1486661407.233,-2.930,28.320,51.270,59.570,56.641,0
1486661407.237,15.625,25.391,51.270,62.988,35.156,0
1486661407.241,73.730,27.344,42.969,83.984,68.359,0
1486661407.245,87.402,31.250,40.527,84.961,105.957,0
1486661407.249,62.500,37.598,45.410,72.266,47.852,0
1486661407.253,17.578,38.574,56.641,59.570,8.789,0
1486661407.257,12.207,25.391,45.410,53.711,11.719,0
1486661407.261,63.477,23.926,27.832,70.312,48.340,0
1486661407.264,82.031,29.297,25.391,75.684,105.957,0
1486661407.268,53.711,28.320,37.598,64.453,89.844,0
1486661407.272,-1.465,27.832,47.363,51.758,28.320,0
1486661407.276,-3.418,30.762,41.016,53.711,26.367,0
1486661407.280,57.617,28.809,33.203,73.730,32.715,0
1486661407.284,82.031,27.832,40.527,77.637,83.008,0
1486661407.288,55.176,30.762,45.410,57.617,82.031,0
1486661407.292,5.371,28.809,38.574,41.992,9.766,0
1486661407.296,-11.719,26.855,35.156,37.598,4.395,0
1486661407.300,45.410,26.367,27.344,58.105,35.645,0
1486661407.303,89.844,29.297,36.133,78.125,35.156,0
1486661407.307,66.406,38.574,45.898,62.988,27.344,0
1486661407.311,15.625,36.621,39.551,45.898,-9.766,0
1486661407.315,-2.930,28.809,32.227,44.922,-46.387,0
1486661407.319,43.457,26.855,45.410,60.547,-10.254,0
1486661407.323,86.426,36.133,52.734,83.008,87.402,0
1486661407.327,71.289,40.527,35.645,72.754,118.652,0
1486661407.331,14.160,27.344,30.273,43.457,51.270,0
1486661407.335,-14.160,24.902,42.480,44.922,23.438,0
1486661407.339,30.762,28.320,39.062,59.082,44.434,0
1486661407.343,75.684,29.785,39.551,77.148,73.242,0
1486661407.346,65.430,30.273,43.457,73.242,76.172,0
1486661407.350,24.902,28.809,39.062,57.617,35.645,0
1486661407.354,-0.977,26.855,46.387,56.152,14.160,0
1486661407.358,25.391,20.996,50.781,71.777,31.738,0
1486661407.362,69.824,20.996,44.434,85.938,62.012,0
1486661407.366,77.637,28.809,44.922,79.590,113.281,0
1486661407.370,37.109,35.156,45.898,69.824,68.359,0
1486661407.374,-6.836,32.227,36.133,55.176,12.207,0
1486661407.378,18.555,34.180,43.457,58.594,34.668,0
1486661407.382,76.660,37.598,47.852,88.867,82.520,0
1486661407.385,82.031,29.297,33.203,82.520,103.027,0
1486661407.389,40.039,29.785,35.645,58.594,58.105,0
1486661407.393,-6.836,30.273,42.480,46.875,10.254,0
1486661407.397,13.184,25.879,42.969,50.781,37.598,0
1486661407.401,82.031,29.785,41.016,80.566,58.105,0
1486661407.405,97.168,35.645,32.715,86.914,81.055,0
1486661407.409,48.340,30.273,38.574,58.105,62.500,0
1486661407.413,-2.930,25.879,46.875,40.527,5.859,0
1486661407.417,5.859,29.297,39.551,50.781,20.020,0
1486661407.421,58.105,31.250,35.645,65.918,87.402,0
1486661407.425,75.684,35.645,29.785,71.777,129.395,0
1486661407.428,49.316,38.574,28.809,54.199,93.750,0
1486661407.432,5.371,34.668,43.457,37.109,48.340,0
1486661407.436,5.859,30.762,53.223,45.410,-20.508,0
1486661407.440,54.688,22.949,39.062,60.547,14.648,0
1486661407.444,78.613,23.926,29.297,73.242,89.355,0
1486661407.448,52.734,28.809,40.527,67.871,92.773,0
1486661407.452,7.324,27.832,42.969,51.758,31.738,0
1486661407.456,1.465,27.344,35.645,56.152,-8.789,0
1486661407.460,55.176,29.297,29.297,72.754,18.555,0
1486661407.464,90.332,26.855,27.832,77.637,71.777,0
1486661407.468,62.012,25.879,35.156,69.336,46.387,0
1486661407.471,9.766,30.762,54.199,59.570,7.812,0
1486661407.475,-7.812,25.879,56.641,52.734,22.949,0
1486661407.479,45.410,17.578,33.691,62.012,12.207,0
1486661407.483,83.008,22.461,32.227,76.660,51.270,0
1486661407.487,62.012,33.691,42.969,65.430,91.797,0
1486661407.491,20.996,41.504,43.945,50.293,70.801,0
1486661407.495,-6.348,37.598,41.504,36.133,12.695,0
1486661407.499,22.461,25.391,29.785,41.504,37.109,0
1486661407.503,70.312,27.344,32.227,64.453,83.984,0
1486661407.507,62.500,26.367,40.527,52.734,94.238,0
1486661407.510,18.066,25.391,45.410,39.551,54.688,0
1486661407.514,-17.090,21.484,43.945,36.133,12.207,0
1486661407.518,10.742,17.578,34.180,46.387,25.391,0
1486661407.522,70.801,29.297,39.062,78.125,85.449,0
1486661407.526,72.754,36.133,45.898,74.219,85.938,0
1486661407.530,27.832,32.227,42.969,50.293,53.711,0
1486661407.534,-14.648,28.320,41.992,44.922,12.207,0
1486661407.538,3.418,25.391,40.039,53.223,-2.930,0
1486661407.542,67.383,30.762,45.410,73.242,73.242,0
1486661407.546,76.660,31.250,45.410,77.637,107.422,0
1486661407.550,28.320,24.902,26.367,49.316,78.125,0
1486661407.553,-5.371,26.367,26.855,34.668,30.762,0
1486661407.557,9.766,29.297,36.133,43.457,6.348,0
1486661407.561,59.082,30.762,34.180,61.523,51.270,0
1486661407.565,78.613,30.762,34.180,76.172,102.051,0
1486661407.569,38.574,34.180,35.645,60.059,71.777,1
1486661407.573,-9.766,33.691,39.062,39.062,-27.344,0
1486661407.577,1.953,31.738,41.992,44.434,-31.250,0
1486661407.581,62.012,31.250,47.363,63.965,52.734,0
1486661407.585,80.566,28.809,47.363,73.730,88.379,0
1486661407.589,46.875,28.809,35.156,60.547,83.008,0
1486661407.593,-0.488,27.832,35.156,38.086,49.316,0
1486661407.596,-5.371,26.855,39.551,41.016,12.695,0
1486661407.600,52.246,29.297,31.250,65.918,40.527,0
1486661407.604,88.867,27.832,27.832,83.984,95.215,0
1486661407.608,62.012,29.297,43.945,77.637,85.449,0
1486661407.612,3.906,22.461,51.758,50.781,30.762,0
1486661407.616,-7.324,23.438,42.969,44.434,5.859,0
1486661407.620,51.270,26.367,41.992,66.895,20.996,0
1486661407.624,92.285,23.926,53.711,80.566,65.918,0
1486661407.628,63.965,30.762,36.621,64.941,104.004,0
1486661407.632,1.953,29.297,30.762,48.340,99.121,0
1486661407.635,-19.531,26.367,46.387,42.969,23.926,0
1486661407.639,34.180,29.297,40.527,55.176,14.648,0
1486661407.643,80.078,31.738,32.715,74.707,119.141,0
1486661407.647,62.012,35.645,39.062,68.848,92.285,0
1486661407.651,7.324,38.086,41.504,47.363,-1.953,0
1486661407.655,-13.184,32.715,43.945,39.551,-33.691,0
1486661407.659,30.273,26.367,45.410,58.594,10.254,0
1486661407.663,81.055,27.344,37.109,73.730,57.129,0
1486661407.667,74.707,33.203,32.227,64.941,74.707,0
1486661407.671,23.438,32.227,38.086,51.270,62.500,0
1486661407.675,-12.695,24.902,45.898,45.410,5.859,0
1486661407.678,19.043,20.996,32.227,54.199,13.184,0
1486661407.682,70.312,22.949,19.531,69.336,49.316,0
1486661407.686,68.848,29.297,28.320,71.289,83.984,0
1486661407.690,31.738,35.156,40.039,59.570,27.344,0
1486661407.694,4.883,35.645,49.316,53.223,-5.859,0
1486661407.698,30.273,28.809,43.945,61.035,-10.742,0
1486661407.702,78.125,23.438,30.273,74.707,33.691,0
1486661407.706,86.914,26.855,33.203,84.473,87.891,0
1486661407.710,43.945,33.203,45.410,69.824,44.922,0
1486661407.714,0.977,35.156,49.316,49.805,-9.766,0
1486661407.717,18.555,32.715,42.969,55.176,-29.297,0
1486661407.721,68.359,32.227,35.645,72.754,34.180,0
1486661407.725,83.984,40.527,38.574,79.590,90.332,0
1486661407.729,52.246,42.969,45.410,72.266,94.238,0
1486661407.733,-3.418,22.461,39.062,52.246,16.113,0
1486661407.737,0.000,18.066,36.133,53.223,-22.461,0
1486661407.741,63.477,26.855,31.250,75.195,14.160,0
1486661407.745,86.914,32.715,31.738,82.031,61.035,0
1486661407.749,58.594,35.156,44.922,68.848,56.641,0
1486661407.753,9.766,29.297,42.480,50.293,-16.602,0
1486661407.757,8.301,31.250,36.621,57.617,-7.324,0
1486661407.760,65.430,32.227,30.273,73.242,34.180,0
1486661407.764,84.473,25.391,26.367,74.219,28.809,0
1486661407.768,53.223,24.902,39.062,59.570,34.668,0
1486661407.772,6.348,29.785,42.969,44.434,-26.855,0
1486661407.776,-1.465,29.785,40.039,44.434,-51.270,0
1486661407.780,57.129,29.785,42.480,60.547,-9.766,0
1486661407.784,96.191,36.621,36.133,82.031,47.852,0
1486661407.788,75.195,38.574,25.879,65.430,78.613,0
1486661407.792,31.738,40.527,42.480,52.246,17.090,0
1486661407.796,13.672,33.203,44.434,52.246,-20.508,0
1486661407.800,57.129,26.855,21.484,53.711,0.488,0
1486661407.803,95.703,30.273,24.902,69.336,79.102,0
1486661407.807,82.520,33.691,39.062,72.266,90.332,0
1486661407.811,35.156,38.574,43.945,56.641,43.457,0
1486661407.815,1.465,31.250,38.086,47.363,-26.367,0
1486661407.819,45.410,26.855,35.645,68.359,-43.457,0
1486661407.823,90.820,25.879,36.621,82.031,54.688,0
1486661407.827,83.008,33.691,41.504,74.219,112.793,0
1486661407.831,35.645,34.668,51.758,61.523,36.621,0
1486661407.835,-3.418,26.367,45.898,47.363,8.301,0
1486661407.839,20.996,25.391,29.785,56.152,45.410,0
1486661407.842,70.312,24.414,33.203,75.684,103.516,0
1486661407.846,73.242,25.879,44.434,76.172,96.680,0
1486661407.850,26.855,25.391,37.598,57.617,53.223,0
1486661407.854,-4.395,25.391,40.527,44.922,31.250,0
1486661407.858,23.438,26.855,37.598,56.641,24.902,0
1486661407.862,75.195,25.879,35.156,79.102,61.035,0
1486661407.866,82.031,29.785,43.457,75.195,66.895,0
1486661407.870,38.086,34.668,39.551,52.734,58.105,0
1486661407.874,-5.859,32.227,38.574,38.574,16.602,0
1486661407.878,10.254,26.367,38.574,45.410,-19.043,0
1486661407.882,62.988,22.949,30.273,67.383,9.766,0
1486661407.885,77.637,28.320,27.344,74.707,74.707,0
1486661407.889,42.969,27.344,37.598,56.641,81.055,0
1486661407.893,-1.465,24.414,48.340,45.410,19.531,0
1486661407.897,5.371,26.855,46.387,52.246,7.812,0
1486661407.901,63.965,29.297,35.156,71.777,74.219,0
1486661407.905,83.984,29.297,33.203,77.148,124.512,0
1486661407.909,46.875,29.297,36.621,58.594,93.750,0
1486661407.913,-2.930,27.344,44.434,41.992,5.859,0
1486661407.917,0.977,26.855,49.805,48.828,-26.367,0
1486661407.921,67.871,31.250,47.852,75.684,35.645,0
1486661407.925,90.820,28.320,34.180,78.125,95.703,0
1486661407.928,49.316,31.250,28.320,59.082,105.957,0
1486661407.932,2.441,32.227,41.016,48.340,34.668,0
1486661407.936,-5.371,23.438,43.457,39.551,-19.043,0
1486661407.940,47.852,25.391,32.715,51.758,22.949,0
1486661407.944,74.707,21.484,30.762,61.035,95.703,0
1486661407.948,52.246,20.996,41.992,55.664,77.148,0
1486661407.952,3.418,28.320,47.363,45.898,33.691,0
1486661407.956,-15.137,26.367,53.711,35.156,7.812,0
1486661407.960,32.227,23.926,48.340,49.805,16.602,0
1486661407.964,65.918,25.391,35.645,67.871,72.266,0
1486661407.967,57.129,29.785,41.504,57.129,64.941,0
1486661407.971,12.695,30.273,42.480,33.691,11.719,0
1486661407.975,-20.020,24.414,39.551,28.809,-5.859,0
1486661407.979,25.879,22.461,31.738,45.410,-9.766,0
1486661407.983,68.359,26.367,35.645,64.941,63.965,0
1486661407.987,57.617,28.809,48.340,59.082,97.168,0
1486661407.991,13.184,26.367,49.316,40.039,13.672,0
1486661407.995,-18.066,28.809,47.852,28.320,-23.438,0
1486661407.999,17.090,23.926,37.109,37.109,6.348,0
1486661408.003,67.383,19.043,25.391,59.570,40.527,0
1486661408.007,73.730,31.738,37.598,63.477,65.430,0
1486661408.010,26.367,24.414,41.016,41.504,61.035,0
1486661408.014,-18.066,15.625,33.691,27.344,6.348,0
1486661408.018,4.883,21.484,31.250,38.574,-7.812,0
1486661408.022,59.570,24.902,36.133,60.059,71.289,0
1486661408.026,77.148,29.785,47.363,68.848,124.023,0
1486661408.030,31.738,28.320,51.270,50.781,61.523,0
1486661408.034,-9.277,28.809,42.480,34.668,-6.836,0
1486661408.038,18.066,29.785,29.785,41.504,-2.441,0
1486661408.042,70.801,27.344,34.180,63.965,40.527,0
1486661408.046,79.102,30.762,38.574,70.801,95.703,0
1486661408.049,39.062,32.227,36.621,54.199,97.656,0
1486661408.053,-5.371,30.762,43.457,43.457,23.926,0
1486661408.057,2.441,32.227,46.387,55.664,15.137,0
1486661408.061,58.594,28.809,41.016,75.684,56.641,0
1486661408.065,84.961,31.738,43.945,86.914,78.125,0
1486661408.069,47.363,31.738,40.527,66.895,89.355,0
1486661408.073,-4.395,26.367,36.133,46.387,33.203,0
1486661408.077,0.488,27.344,41.016,53.711,-11.230,0
1486661408.081,54.688,29.297,27.344,65.430,28.320,0
1486661408.085,81.543,31.738,28.809,72.266,92.773,0
1486661408.089,59.570,29.785,38.574,65.918,86.426,1
1486661408.092,13.184,30.273,44.434,55.176,27.344,0
1486661408.096,3.906,26.855,49.316,58.594,21.484,0
1486661408.100,60.059,26.367,44.434,77.148,37.598,0
1486661408.104,94.727,33.691,40.039,83.496,67.383,0
1486661408.108,70.312,33.691,34.668,74.219,82.520,0
1486661408.112,26.855,32.715,38.574,60.059,10.254,0
1486661408.116,8.789,31.250,43.945,52.734,-22.949,0
1486661408.120,50.781,31.250,32.715,66.406,6.348,0
1486661408.124,91.797,35.645,36.133,85.449,63.477,0
1486661408.128,73.730,36.133,50.293,80.566,84.961,0
1486661408.132,29.297,28.809,51.270,57.129,42.480,0
1486661408.135,0.977,25.391,41.992,44.922,13.184,0
1486661408.139,40.527,24.414,34.180,61.035,22.949,0
1486661408.143,89.355,21.973,37.109,79.102,58.594,0
1486661408.147,77.148,28.809,44.434,75.684,73.730,0
1486661408.151,28.809,37.598,47.852,64.941,55.664,0
1486661408.155,-9.277,32.227,46.875,53.711,1.465,0
1486661408.159,29.785,25.391,40.527,66.895,-6.348,0
1486661408.163,83.984,22.949,34.668,86.426,66.895,0
1486661408.167,81.055,24.902,42.969,79.102,86.426,0
1486661408.171,31.250,28.809,44.434,56.641,20.508,0
1486661408.174,-11.230,25.391,40.039,44.434,-1.953,0
1486661408.178,21.484,26.367,44.434,57.617,38.574,0
1486661408.182,76.172,31.250,37.598,77.637,89.355,0
1486661408.186,77.637,32.715,33.203,72.266,98.145,0
1486661408.190,35.645,31.738,33.691,51.270,56.152,0
1486661408.194,-4.883,28.320,37.598,40.527,-0.488,0
1486661408.198,8.301,22.949,41.504,49.316,-27.832,0
1486661408.202,66.406,25.391,33.691,69.824,23.926,0
1486661408.206,81.543,26.855,32.227,73.242,66.406,0
1486661408.210,45.410,28.320,41.016,61.523,41.504,0
1486661408.214,2.930,34.180,50.293,51.270,6.836,0
1486661408.217,7.324,28.320,49.316,56.152,-18.555,0
1486661408.221,60.547,21.484,29.297,64.941,26.855,0
1486661408.225,80.078,28.320,25.879,62.500,85.938,0
1486661408.229,48.340,29.297,34.668,53.223,56.152,0
1486661408.233,-3.418,26.855,38.574,32.227,20.508,0
1486661408.237,4.395,32.227,40.527,38.574,12.207,0
1486661408.241,59.082,27.832,39.062,61.523,11.230,0
1486661408.245,77.637,23.438,31.738,65.430,77.148,0
1486661408.249,51.758,29.297,32.715,57.617,83.008,0
1486661408.253,5.859,28.320,32.715,44.922,20.996,0
1486661408.257,0.977,31.738,30.273,37.109,-10.254,0
1486661408.260,57.617,28.320,27.344,53.223,45.898,0
1486661408.264,83.496,25.391,28.809,72.754,104.980,0
1486661408.268,55.176,31.250,39.062,64.941,74.707,0
1486661408.272,10.742,31.250,39.062,41.016,10.254,0
1486661408.276,-11.230,28.320,32.715,32.227,-32.715,0
1486661408.280,40.039,24.902,40.039,57.617,11.230,0
1486661408.284,86.426,23.438,37.109,74.707,71.289,0
1486661408.288,59.082,29.785,29.297,66.895,74.707,0
1486661408.292,9.766,31.250,41.016,48.340,31.738,0
1486661408.296,-11.230,24.414,45.898,41.016,-1.465,0
1486661408.299,31.250,19.043,39.062,57.129,12.207,0
1486661408.303,83.984,24.902,31.738,74.707,73.730,0
1486661408.307,66.895,31.738,29.785,71.777,96.680,0
1486661408.311,21.484,29.785,40.039,53.223,22.461,0
1486661408.315,-3.418,33.691,53.711,51.270,-1.953,0
1486661408.319,29.297,33.691,38.086,61.035,19.043,0
1486661408.323,85.449,31.738,27.344,81.055,63.965,0
1486661408.327,73.730,25.879,39.551,72.754,83.008,0
1486661408.331,27.832,26.367,44.434,51.270,46.875,0
1486661408.335,-2.441,28.809,40.039,52.246,1.953,0
1486661408.339,18.066,27.344,33.691,60.059,2.441,0
1486661408.342,69.824,26.855,23.438,70.801,44.922,0
1486661408.346,80.566,34.180,31.738,76.172,95.703,0
1486661408.350,40.527,38.086,44.922,57.617,68.359,0
1486661408.354,-9.277,31.738,35.156,37.598,13.672,0
1486661408.358,15.625,28.320,30.273,49.805,17.090,0
1486661408.362,65.918,20.996,37.109,75.684,64.453,0
1486661408.366,70.312,24.902,42.480,77.148,64.941,0
1486661408.370,40.039,32.715,41.504,61.035,34.180,0
1486661408.374,-6.836,24.902,34.668,52.734,17.578,0
1486661408.378,11.719,31.250,34.180,60.059,8.789,0
1486661408.381,72.266,34.668,43.457,74.219,12.207,0
1486661408.385,78.125,26.855,46.875,77.637,57.129,0
1486661408.389,48.340,30.273,46.875,63.477,48.340,0
1486661408.393,-1.465,26.855,45.410,48.340,-16.113,0
1486661408.397,2.930,27.344,44.434,47.852,-15.625,0
1486661408.401,58.105,28.320,33.691,64.453,44.922,0
1486661408.405,81.543,28.809,41.992,79.590,101.074,0
1486661408.409,59.082,33.691,48.340,67.383,61.035,0
1486661408.413,2.930,32.715,38.574,44.922,-10.254,0
1486661408.417,-8.301,30.273,45.898,40.039,-6.836,0
1486661408.421,48.340,26.855,41.504,62.988,46.387,0
1486661408.424,75.684,25.391,29.785,77.637,105.469,0
1486661408.428,54.199,30.273,40.039,61.523,100.098,0
1486661408.432,5.859,38.086,43.945,50.293,30.273,0
1486661408.436,-15.625,30.762,40.039,43.457,-18.555,0
1486661408.440,38.086,25.391,37.109,50.781,-6.836,0
1486661408.444,87.891,32.715,33.691,71.777,60.547,0
1486661408.448,65.918,33.203,37.598,65.918,98.145,0
1486661408.452,13.672,28.320,45.410,44.922,12.695,0
1486661408.456,-5.371,22.461,44.922,36.133,-26.367,0
1486661408.460,38.086,25.879,31.250,45.410,6.348,0
1486661408.464,79.102,30.762,28.809,64.941,-1.953,0
1486661408.467,69.824,31.738,34.668,61.523,16.113,0
1486661408.471,29.297,35.645,40.039,51.270,-2.930,0
1486661408.475,-7.324,37.109,46.875,48.828,-40.527,0
1486661408.479,24.414,25.391,43.457,53.711,-41.016,0
1486661408.483,73.242,22.949,36.133,71.777,3.418,0
1486661408.487,66.895,27.832,28.809,70.801,59.570,0
1486661408.491,24.902,27.832,37.109,49.316,26.367,0
1486661408.495,-9.766,27.832,46.875,44.922,-24.414,0
1486661408.499,24.414,29.785,37.109,60.547,8.789,0
1486661408.503,78.613,28.320,36.133,73.730,40.527,0
1486661408.506,72.754,26.855,41.992,73.242,91.797,0
1486661408.510,37.598,33.203,43.457,58.594,91.797,0
1486661408.514,2.930,31.250,44.434,50.781,-4.395,0
1486661408.518,19.043,25.879,51.270,58.105,7.812,0
1486661408.522,73.730,27.832,37.598,73.242,68.359,0
1486661408.526,76.172,27.832,28.809,72.266,80.566,0
1486661408.530,33.203,27.832,33.691,49.316,34.180,0
1486661408.534,-6.348,26.367,33.691,34.668,-31.738,0
1486661408.538,6.836,26.367,39.551,46.387,-37.109,0
1486661408.542,62.988,26.855,44.922,66.406,39.551,0
1486661408.546,78.613,28.320,44.434,71.777,76.660,0
1486661408.549,37.598,31.738,34.668,51.758,62.988,0
1486661408.553,-6.836,28.809,41.992,37.598,17.090,0
1486661408.557,-0.488,25.879,58.594,45.898,-39.062,0
1486661408.561,54.199,25.391,43.945,59.082,-5.371,0
1486661408.565,78.125,26.367,26.855,63.965,64.453,0
1486661408.569,47.852,31.250,34.180,57.129,71.289,0
1486661408.573,-3.418,31.250,42.969,39.062,41.992,0
1486661408.577,-6.348,27.344,42.969,40.527,3.418,0
1486661408.581,49.805,25.879,38.574,59.082,-9.277,0
1486661408.585,79.590,30.762,31.738,68.359,63.477,0
1486661408.589,54.688,32.715,41.016,54.199,67.383,0
1486661408.592,2.441,29.785,50.781,37.598,18.555,0
1486661408.596,-10.254,24.414,42.480,41.992,7.812,0
1486661408.600,43.945,19.531,28.809,53.223,14.160,0
1486661408.604,79.590,22.461,26.367,66.406,67.383,0
1486661408.608,64.941,35.645,37.109,65.918,97.656,0
1486661408.612,15.625,32.715,37.109,42.480,48.340,0
1486661408.616,-6.348,21.973,39.062,35.156,14.648,0
1486661408.620,52.246,22.949,43.457,52.734,36.133,0
1486661408.624,91.309,27.832,34.668,68.359,98.633,0
1486661408.628,67.871,32.715,45.898,66.895,91.309,0
1486661408.631,18.555,29.297,48.828,46.875,45.410,0
1486661408.635,-15.625,24.414,31.738,30.273,-0.977,0
1486661408.639,23.926,25.391,30.762,48.340,17.578,0
1486661408.643,68.359,22.461,37.109,64.453,108.398,0
1486661408.647,53.223,27.344,37.109,56.152,113.281,0
1486661408.651,9.766,33.203,32.715,41.504,48.828,0
1486661408.655,-15.625,29.297,41.504,34.668,1.953,0
1486661408.659,17.578,25.879,40.527,50.293,31.250,0
1486661408.663,68.359,33.691,33.203,66.406,58.105,0
1486661408.667,68.359,31.738,33.691,62.988,53.711,0
1486661408.671,31.250,32.227,44.434,55.176,34.180,0
1486661408.674,-10.742,33.203,43.945,42.480,-17.090,0
1486661408.678,2.930,20.508,34.180,42.969,-1.953,0
1486661408.682,59.570,21.973,32.227,65.430,36.133,0
1486661408.686,77.148,29.297,36.133,68.359,60.059,0
1486661408.690,36.621,27.832,41.992,56.152,37.598,0
1486661408.694,-13.672,24.414,41.016,41.016,1.465,0
1486661408.698,9.766,25.879,49.316,51.270,-13.672,0
1486661408.702,66.895,27.344,39.551,69.336,26.855,0
1486661408.706,76.172,25.879,28.809,68.359,79.102,0
1486661408.710,44.434,28.320,34.668,56.152,59.570,0
1486661408.713,3.418,31.250,36.621,44.434,25.391,0
1486661408.717,10.254,26.367,41.504,48.828,28.809,0
1486661408.721,60.059,28.320,42.480,70.312,28.809,0
1486661408.725,80.566,25.879,32.715,78.613,61.523,0
1486661408.729,50.293,26.855,38.086,66.406,90.820,0
1486661408.733,-1.953,29.785,49.805,55.664,9.766,0
1486661408.737,-12.207,22.949,32.227,43.945,5.371,0
1486661408.741,45.410,23.926,22.949,53.711,48.828,1
1486661408.745,83.008,29.785,36.621,72.266,94.238,0
1486661408.749,53.223,31.738,44.434,63.477,96.680,0
1486661408.753,5.371,34.180,44.922,42.969,5.859,0
1486661408.756,-3.418,30.273,55.176,43.945,-38.574,0
1486661408.760,43.457,20.996,48.828,64.453,-6.836,0
1486661408.764,75.195,20.020,26.855,70.801,63.477,0
1486661408.768,60.547,24.902,29.785,63.477,64.941,0
1486661408.772,18.066,29.297,41.992,54.688,-13.672,0
1486661408.776,-7.812,28.320,43.945,49.805,-36.133,0
1486661408.780,43.945,27.344,35.645,67.383,0.488,0
1486661408.784,88.379,32.227,46.387,88.379,44.922,0
1486661408.788,69.336,32.227,48.340,81.055,73.242,0
1486661408.792,17.578,30.762,32.715,55.176,17.090,0
1486661408.796,-6.348,26.367,36.133,43.945,-12.695,0
1486661408.799,32.715,21.973,36.621,55.176,-2.930,0
1486661408.803,83.984,32.715,41.992,76.172,34.668,0
1486661408.807,76.172,35.156,42.480,72.266,117.188,0
1486661408.811,22.949,29.297,41.504,50.293,58.105,0
1486661408.815,-1.953,26.855,53.711,41.992,-7.812,0
1486661408.819,27.832,23.438,41.992,52.246,26.367,0
1486661408.823,74.219,24.902,33.203,68.848,62.988,0
1486661408.827,78.125,28.320,36.133,65.430,112.793,0
1486661408.831,32.227,31.738,39.551,49.316,75.684,0
1486661408.835,-8.789,28.809,50.781,40.527,1.465,0
1486661408.838,16.113,21.973,39.551,50.781,17.090,0
1486661408.842,70.312,25.879,24.414,69.824,66.406,0
1486661408.846,80.566,34.180,34.180,78.125,92.773,0
1486661408.850,46.387,32.227,45.410,67.871,90.820,0
1486661408.854,5.371,28.320,41.992,51.758,22.461,0
1486661408.858,15.137,26.855,32.227,51.758,34.180,0
1486661408.862,80.566,38.086,35.156,75.195,84.473,0
1486661408.866,100.586,46.387,41.504,83.008,75.195,0
1486661408.870,61.523,33.691,35.156,60.547,70.312,0
1486661408.874,13.672,32.715,39.062,45.410,6.836,0
1486661408.878,15.625,33.691,48.828,53.223,-4.395,0
1486661408.881,64.453,30.762,34.668,66.895,58.594,0
1486661408.885,81.055,30.273,31.250,68.848,91.309,0
1486661408.889,52.246,29.785,34.668,62.012,61.035,0
1486661408.893,4.395,30.762,36.621,50.293,-8.301,0
1486661408.897,2.441,31.250,37.109,52.734,-25.879,0
1486661408.901,54.199,31.250,37.109,74.219,18.066,0
1486661408.905,76.660,32.715,37.598,86.426,85.449,0
1486661408.909,60.059,32.227,37.109,76.660,69.824,0
1486661408.913,10.742,33.203,45.410,55.664,13.672,0
1486661408.917,-2.441,33.691,47.363,53.223,0.977,0
1486661408.921,50.293,32.227,40.039,75.195,35.645,0
1486661408.924,80.566,30.273,25.879,85.449,98.633,0
1486661408.928,61.035,30.762,26.367,72.754,105.957,0
1486661408.932,15.625,32.715,43.945,53.711,24.414,0
1486661408.936,-2.930,29.785,44.434,51.758,-9.766,0
1486661408.940,45.898,26.367,38.574,67.871,31.738,0
1486661408.944,85.449,24.414,33.691,78.613,82.520,0
1486661408.948,65.918,31.250,25.879,71.777,112.305,0
1486661408.952,17.578,30.273,36.621,52.246,53.223,0
1486661408.956,-2.441,28.320,33.691,41.504,-0.488,0
1486661408.960,47.363,33.691,20.508,59.082,24.414,0
1486661408.963,93.750,34.180,25.391,78.125,91.797,0
1486661408.967,80.566,31.738,36.621,72.266,112.305,0
1486661408.971,37.598,31.738,41.016,57.129,46.387,0
1486661408.975,-2.441,30.762,38.086,50.293,-6.836,0
1486661408.979,33.203,30.273,35.645,65.918,8.301,0
1486661408.983,88.867,30.762,41.992,82.031,97.168,0
1486661408.987,80.078,32.227,38.574,73.730,105.957,0
1486661408.991,36.621,34.180,30.273,60.059,31.738,0
1486661408.995,-0.488,29.297,35.645,52.246,-12.695,0
1486661408.999,26.855,25.391,36.621,64.941,-1.465,0
1486661409.003,77.148,28.320,29.785,84.473,65.918,0
1486661409.006,78.125,28.809,33.203,75.684,110.840,0
1486661409.010,41.992,29.297,44.434,60.547,58.594,0
1486661409.014,0.000,30.762,44.434,52.734,-13.184,0
1486661409.018,10.254,19.043,37.109,51.270,-3.418,0
1486661409.022,59.570,17.578,30.273,63.477,65.430,0
1486661409.026,74.707,23.926,29.785,64.941,86.914,0
1486661409.030,43.457,30.762,38.086,57.129,63.477,0
1486661409.034,-7.324,27.832,39.551,45.410,44.922,0
1486661409.038,3.418,20.020,45.898,50.293,21.484,0
1486661409.042,58.105,24.902,34.180,70.801,42.480,0
1486661409.045,75.684,26.367,22.949,72.266,112.793,0
1486661409.049,50.293,27.344,35.156,61.035,89.355,0
1486661409.053,-2.930,25.879,36.621,46.875,30.273,0
1486661409.057,-9.766,21.484,34.668,41.016,-1.953,0
1486661409.061,50.781,25.879,35.645,60.547,34.180,0
1486661409.065,83.008,27.832,31.738,78.613,113.281,0
1486661409.069,58.594,31.250,38.086,68.848,118.652,0
1486661409.073,16.602,40.039,53.711,53.711,90.332,0
1486661409.077,-2.441,29.297,38.574,46.875,8.789,0
1486661409.081,38.086,20.508,24.902,60.547,-19.043,0
1486661409.085,76.172,23.926,30.762,72.266,45.898,0
1486661409.088,60.059,25.879,36.133,60.059,68.359,0
1486661409.092,12.695,26.855,43.457,52.734,22.461,0
1486661409.096,-12.695,23.926,41.016,42.480,-19.531,0
1486661409.100,36.621,24.414,39.551,56.641,-14.648,0
1486661409.104,83.008,24.414,38.574,79.102,91.309,0
1486661409.108,62.012,24.902,34.180,67.871,153.809,0
1486661409.112,20.020,31.738,38.574,50.781,37.109,0
1486661409.116,-6.836,33.203,41.992,47.852,-33.203,0
1486661409.120,24.902,25.391,35.156,61.035,-3.906,0
1486661409.124,78.125,25.879,29.297,74.707,55.664,0
1486661409.128,69.824,23.926,36.133,68.848,63.477,0
1486661409.131,14.160,18.555,41.016,47.852,19.043,0
1486661409.135,-12.695,23.926,39.062,41.504,-31.250,0
1486661409.139,22.461,22.461,27.832,46.875,-13.184,0
1486661409.143,66.406,20.508,28.809,62.500,73.242,0
1486661409.147,67.871,26.855,35.156,66.895,101.074,0
1486661409.151,21.973,27.344,37.598,48.340,45.898,0
1486661409.155,-20.508,25.391,39.551,39.062,-12.207,0
1486661409.159,4.883,23.438,36.133,48.340,16.113,0
1486661409.163,65.918,24.902,37.598,66.406,62.988,0
1486661409.167,80.078,31.738,39.062,72.754,78.613,0
1486661409.170,38.086,32.227,37.109,56.152,64.941,0
1486661409.174,-9.766,29.297,40.527,34.180,-3.906,0
1486661409.178,0.977,23.438,39.062,35.156,0.488,0
1486661409.182,63.965,26.855,41.016,65.918,50.293,0
1486661409.186,72.754,29.297,41.992,75.684,76.172,0
1486661409.190,28.809,25.879,38.086,50.293,68.848,0
1486661409.194,-8.301,28.809,40.527,35.156,1.465,0
1486661409.198,2.930,26.367,46.387,49.316,-30.762,0
1486661409.202,60.059,20.996,35.645,68.848,40.039,0
1486661409.206,79.102,28.320,24.414,68.848,90.820,0
1486661409.210,44.434,31.250,30.273,56.641,39.062,0
1486661409.213,-0.977,28.320,39.551,42.969,4.883,0
1486661409.217,-4.883,26.855,41.992,41.992,-7.324,0
1486661409.221,51.758,29.297,38.574,65.918,-17.090,0
1486661409.225,83.984,31.738,39.551,80.566,19.531,0
1486661409.229,47.363,31.250,41.016,61.523,29.297,0
1486661409.233,-3.906,30.273,38.086,41.504,11.719,0
1486661409.237,-4.395,28.809,42.969,36.133,-12.207,0
1486661409.241,48.340,24.902,34.668,49.805,20.508,0
1486661409.245,83.008,24.902,25.391,68.848,84.473,0
1486661409.249,51.758,22.461,33.203,59.570,82.520,0
1486661409.253,0.488,20.508,39.062,34.180,24.414,0
1486661409.256,-9.766,25.391,43.457,34.180,-24.414,0
1486661409.260,36.133,21.484,36.133,58.594,-8.301,0
1486661409.264,78.613,23.926,25.879,71.777,33.691,0
1486661409.268,66.406,31.250,29.785,63.965,45.410,0
1486661409.272,16.113,31.250,47.363,51.758,41.504,0
1486661409.276,-8.789,26.855,47.852,41.504,4.395,0
1486661409.280,31.738,20.508,25.879,49.805,-9.277,0
1486661409.284,71.777,24.414,22.949,63.477,74.707,0
1486661409.288,65.918,25.879,30.762,57.129,117.676,0
1486661409.292,24.902,21.484,41.016,38.574,53.711,2
1486661409.295,-11.230,23.438,43.945,31.738,-3.418,0
1486661409.299,20.020,21.484,33.691,44.922,-15.625,0
1486661409.303,70.312,18.066,21.973,60.547,46.387,0
1486661409.307,71.289,28.320,25.391,60.059,66.895,0
1486661409.311,33.203,34.668,43.457,48.828,55.664,0
1486661409.315,-9.766,25.879,40.527,32.715,18.066,0
1486661409.319,10.742,20.508,35.156,49.805,-14.160,0
1486661409.323,72.266,26.367,35.156,77.148,54.688,0
1486661409.327,81.543,29.297,29.785,74.707,119.629,0
1486661409.331,34.668,23.926,41.016,62.012,58.594,0
1486661409.335,-7.812,24.414,48.828,48.340,-1.465,0
1486661409.338,5.859,25.879,43.457,50.781,-5.859,0
1486661409.342,59.082,20.996,32.227,75.195,62.988,0
1486661409.346,72.754,28.809,34.668,85.938,108.398,0
1486661409.350,38.086,36.133,44.434,63.477,78.613,0
1486661409.354,-6.348,22.949,46.875,44.922,68.848,0
1486661409.358,-4.883,15.625,36.133,44.922,33.691,0
1486661409.362,55.176,25.391,30.273,61.523,23.438,0
1486661409.366,72.754,27.344,32.715,66.406,86.426,0
1486661409.370,32.227,23.926,29.785,45.410,79.102,0
1486661409.374,-9.277,26.367,38.086,32.227,19.043,0
1486661409.377,-2.441,26.855,36.133,39.062,-19.043,0
1486661409.381,54.199,26.855,26.367,61.035,-8.789,0
1486661409.385,84.961,30.273,32.227,77.637,83.496,0
1486661409.389,52.246,28.809,41.016,62.012,56.641,0
1486661409.393,-6.836,23.438,39.062,39.062,1.953,0
1486661409.397,-12.695,22.461,34.180,38.574,2.930,0
1486661409.401,42.480,22.949,33.203,57.617,21.973,0
1486661409.405,77.637,28.320,39.551,73.242,51.758,0
1486661409.409,56.152,33.203,35.645,64.941,77.148,0
1486661409.413,10.254,33.203,43.945,52.246,52.246,0
1486661409.417,-4.395,24.902,48.828,41.016,8.789,0
1486661409.420,37.598,17.578,23.926,46.875,7.324,0
1486661409.424,83.008,25.879,24.902,67.871,54.688,0
1486661409.428,66.895,29.297,31.250,61.523,90.820,0
1486661409.432,17.090,31.250,33.691,40.527,31.250,0
1486661409.436,2.930,31.250,38.574,37.598,-47.852,0
1486661409.440,50.781,27.344,31.738,58.594,-20.020,0
1486661409.444,86.914,26.367,30.762,73.242,63.965,0
1486661409.448,75.684,28.320,35.645,64.941,58.594,0
1486661409.452,35.156,33.203,39.551,48.828,7.812,0
1486661409.456,0.977,27.344,40.039,41.992,-11.230,0
1486661409.460,29.785,20.508,34.668,56.152,31.738,0
1486661409.463,69.824,26.367,28.320,74.219,83.984,0
1486661409.467,71.777,31.738,34.180,78.613,113.281,0
1486661409.471,33.691,35.156,43.945,66.406,81.055,0
1486661409.475,-7.812,27.344,48.828,54.688,25.391,0
1486661409.479,19.043,19.043,39.062,62.988,11.719,0
1486661409.483,79.590,30.762,32.715,89.355,35.645,0
1486661409.487,88.867,38.086,46.387,92.285,89.844,0
1486661409.491,38.086,28.809,44.922,64.453,74.707,0
1486661409.495,-8.301,24.902,46.875,48.828,0.977,0
1486661409.499,18.066,23.438,41.992,51.270,-4.395,0
1486661409.502,79.590,25.391,33.203,70.801,78.125,0
1486661409.506,86.914,26.855,42.969,78.125,133.789,0
1486661409.510,45.410,23.438,43.457,64.453,87.891,0
1486661409.514,-5.371,21.484,43.457,38.086,31.250,0
1486661409.518,2.930,27.344,38.086,37.598,28.320,0
1486661409.522,68.359,32.715,42.969,66.406,54.688,0
1486661409.526,84.473,29.297,40.527,66.895,73.242,0
1486661409.530,42.969,23.926,32.715,53.711,93.262,0
1486661409.534,-4.395,23.438,40.527,43.945,56.152,0
1486661409.538,-9.277,21.484,40.039,40.039,31.738,0
1486661409.542,46.387,23.926,34.180,60.547,40.039,0
1486661409.545,84.961,30.273,35.156,77.148,79.590,0
1486661409.549,56.152,35.645,45.410,66.406,85.449,0
1486661409.553,2.930,28.809,46.875,44.922,31.738,0
1486661409.557,-2.441,23.926,37.109,46.387,24.902,0
1486661409.561,53.711,29.297,35.156,67.383,61.523,0
1486661409.565,80.078,26.855,35.645,76.172,110.352,0
1486661409.569,55.176,28.809,33.691,67.383,92.773,0
1486661409.573,6.348,28.320,41.992,52.246,27.344,0
1486661409.577,-6.348,25.391,38.574,44.922,24.414,0
1486661409.581,44.922,29.297,37.109,63.965,47.852,0
1486661409.585,88.867,29.785,42.480,83.984,48.828,0
1486661409.588,80.078,31.738,37.109,73.242,80.566,0
1486661409.592,30.273,34.180,42.969,56.152,48.828,0
1486661409.596,1.953,29.297,47.852,51.270,-5.859,0
1486661409.600,35.645,25.391,38.086,61.035,18.555,0
1486661409.604,82.031,25.879,33.691,74.219,109.863,0
1486661409.608,76.660,27.832,35.645,72.266,160.156,0
1486661409.612,27.344,32.227,35.156,50.781,79.102,0
1486661409.616,0.000,32.715,44.434,38.086,3.906,0
1486661409.620,31.250,23.926,40.039,51.758,20.508,0
1486661409.624,79.102,19.531,22.949,66.406,97.656,0
1486661409.627,85.449,33.691,35.156,71.289,98.145,0
1486661409.631,41.992,35.645,45.410,53.223,52.246,0
1486661409.635,-6.836,21.484,36.133,32.715,21.973,0
1486661409.639,4.883,22.949,33.203,42.480,-9.277,0
1486661409.643,61.523,29.297,37.109,59.570,8.301,0
1486661409.647,70.312,25.879,38.574,58.105,96.680,0
1486661409.651,21.484,25.391,34.668,37.109,86.426,0
1486661409.655,-15.625,26.855,37.598,22.461,-23.926,0
1486661409.659,9.277,21.484,33.203,30.762,-20.996,0
1486661409.663,58.105,20.996,30.762,55.664,62.012,0
1486661409.667,66.406,24.414,37.598,65.918,100.586,0
1486661409.670,34.668,23.926,47.363,57.129,73.730,0
1486661409.674,-13.672,25.391,46.387,39.062,24.414,0
1486661409.678,-6.836,25.391,35.156,39.062,31.738,0
1486661409.682,56.641,24.902,44.434,67.383,84.473,0
1486661409.686,75.195,32.715,42.969,76.660,115.234,0
1486661409.690,44.922,34.668,37.109,57.129,98.145,0
1486661409.694,3.906,35.156,44.434,39.551,24.902,0
1486661409.698,-6.348,28.320,34.668,35.645,-4.395,0
1486661409.702,54.199,25.391,32.227,62.012,53.223,0
1486661409.706,90.820,34.180,37.109,77.148,119.141,0
1486661409.709,55.176,34.668,35.156,56.152,98.145,0
1486661409.713,10.742,30.273,44.434,40.527,36.621,0
1486661409.717,-1.953,23.926,43.457,41.504,-4.883,0
1486661409.721,43.457,21.973,35.156,59.082,15.625,0
1486661409.725,80.078,21.484,43.945,75.195,78.125,0
1486661409.729,61.035,29.785,52.734,74.707,83.008,0
1486661409.733,13.672,35.156,52.734,58.594,34.668,0
1486661409.737,-7.324,23.438,37.598,48.828,23.438,0
1486661409.741,40.527,18.066,24.414,62.500,0.977,0
1486661409.745,74.707,26.367,23.438,77.637,25.879,0
1486661409.749,60.059,29.297,32.715,73.730,64.941,0
1486661409.752,14.160,26.855,43.945,56.152,-5.859,0
1486661409.756,-12.207,22.461,43.457,50.293,-31.738,0
1486661409.760,36.133,22.461,41.504,67.871,-22.461,0
1486661409.764,83.984,26.367,37.109,86.426,26.855,0
1486661409.768,70.312,27.344,38.574,81.543,69.824,0
1486661409.772,26.855,29.297,47.852,56.641,14.160,0
1486661409.776,-7.812,23.438,38.574,41.992,-30.273,0
1486661409.780,25.879,22.461,29.297,59.570,0.000,0
1486661409.784,76.172,26.855,31.250,78.613,53.223,0
1486661409.788,70.801,25.879,35.645,73.242,109.375,0
1486661409.792,27.344,24.414,34.668,52.246,55.176,0
1486661409.795,-11.719,24.414,37.109,40.039,-33.203,0
1486661409.799,10.742,21.484,45.898,51.758,-33.691,0
1486661409.803,61.523,25.391,46.387,67.383,52.734,0
1486661409.807,71.289,31.250,38.574,70.801,130.859,0
1486661409.811,34.180,28.809,43.945,56.152,108.887,0
1486661409.815,-7.324,27.832,47.852,41.016,8.789,0
1486661409.819,8.301,26.855,31.250,49.316,-15.625,0
1486661409.823,66.895,29.297,32.715,67.871,56.641,0
1486661409.827,83.496,28.320,36.621,75.684,88.379,0
1486661409.831,44.922,24.414,34.668,61.523,85.938,0
1486661409.834,-5.371,20.508,42.969,49.316,9.277,0
1486661409.838,3.418,19.043,43.457,61.523,-30.762,0
1486661409.842,60.547,18.555,31.738,73.730,15.625,0
1486661409.846,72.754,19.043,31.738,78.613,99.609,0
1486661409.850,45.410,29.785,46.875,70.801,95.215,0
1486661409.854,0.977,25.391,43.457,51.758,22.949,0
1486661409.858,-0.488,13.672,26.855,49.316,-14.648,0
1486661409.862,62.012,20.508,27.832,65.918,0.977,0
1486661409.866,86.426,24.414,31.738,78.125,59.570,0
1486661409.870,51.758,30.273,33.203,68.848,51.270,0
1486661409.874,11.230,36.133,41.016,51.758,10.254,0
1486661409.877,12.695,28.809,52.246,59.082,-6.836,0
1486661409.881,59.082,19.043,38.574,71.777,14.160,0
1486661409.885,78.613,20.996,24.414,78.125,56.641,0
1486661409.889,50.293,29.297,38.086,75.684,88.867,0
1486661409.893,10.254,35.156,47.363,56.641,67.383,0
1486661409.897,-5.371,32.227,44.922,47.852,13.672,0
1486661409.901,43.457,29.785,36.133,64.941,4.883,0
1486661409.905,83.496,33.691,36.621,74.707,79.102,0
1486661409.909,59.082,32.227,37.598,62.012,123.047,0
1486661409.913,5.371,22.949,35.645,47.363,57.129,0
1486661409.917,-8.789,24.414,46.387,45.898,-3.418,0
1486661409.920,38.086,29.785,42.969,47.363,-6.348,0
1486661409.924,64.941,25.879,24.414,55.664,71.777,0
1486661409.928,54.199,31.250,37.109,60.547,83.008,0
1486661409.932,14.648,35.156,48.828,43.945,24.414,0
1486661409.936,-14.648,29.785,37.598,29.785,-1.953,0
1486661409.940,23.926,23.926,24.414,41.504,9.277,1
1486661409.944,71.289,21.484,22.461,60.059,63.965,0
1486661409.948,65.918,25.391,24.414,56.152,84.961,0
1486661409.952,27.832,34.180,32.227,40.039,35.645,0
1486661409.956,-9.766,27.344,42.480,34.180,-10.742,0
1486661409.959,11.719,19.531,27.344,42.969,-3.906,0
1486661409.963,61.035,26.855,31.250,56.152,73.730,0
1486661409.967,64.453,27.832,42.969,57.129,82.031,0
1486661409.971,26.855,25.879,30.762,39.062,5.859,0
1486661409.975,-20.020,27.344,33.691,22.461,-18.066,0
1486661409.979,1.953,23.438,36.621,36.133,2.930,0
1486661409.983,61.035,23.926,34.180,59.570,37.109,0
1486661409.987,61.035,30.273,33.691,57.617,68.848,0
1486661409.991,35.645,32.715,37.109,54.688,51.758,0
1486661409.995,-5.859,24.902,47.363,47.363,8.789,0
1486661409.999,5.371,22.461,44.434,45.410,-19.043,0
1486661410.002,73.730,32.715,35.645,72.754,-17.090,0
1486661410.006,81.543,34.180,39.551,83.496,62.988,0
1486661410.010,36.621,27.832,37.598,57.129,70.801,0
1486661410.014,-12.207,21.973,36.621,42.969,-4.883,0
1486661410.018,-12.207,20.020,35.156,42.480,-30.762,0
1486661410.022,49.316,22.461,39.551,62.500,19.531,0
1486661410.026,74.707,29.785,37.598,74.219,71.777,0
1486661410.030,42.969,30.762,28.809,56.641,89.355,0
1486661410.034,-3.906,24.414,39.062,46.875,51.270,0
1486661410.038,-7.324,26.855,41.992,49.805,4.395,0
1486661410.041,49.805,29.785,37.598,68.848,10.742,0
1486661410.045,88.379,34.180,41.016,80.566,73.242,0
1486661410.049,64.941,32.715,42.480,65.430,66.895,0
1486661410.053,17.090,29.785,44.434,47.852,-4.883,0
1486661410.057,-0.488,29.297,34.668,45.410,-31.250,0
1486661410.061,49.805,25.391,30.273,66.406,26.367,0
1486661410.065,87.891,27.344,33.203,78.125,114.258,0
1486661410.069,69.336,36.133,31.738,69.824,90.332,0
1486661410.073,26.367,34.668,40.039,56.152,36.621,0
1486661410.077,-0.488,27.832,35.645,43.945,1.465,0
1486661410.081,41.992,28.320,30.762,59.570,-10.254,0
1486661410.084,89.355,33.691,36.621,80.566,84.473,0
1486661410.088,67.383,31.738,34.668,73.242,91.797,0
1486661410.092,9.766,25.391,28.809,51.270,26.855,0
1486661410.096,-17.090,28.320,33.203,40.039,-8.301,0
1486661410.100,22.461,27.344,26.367,56.152,25.391,0
1486661410.104,68.848,19.043,21.973,78.125,75.195,0
1486661410.108,72.754,28.320,33.203,71.289,79.102,0
1486661410.112,32.715,35.156,40.039,51.758,65.918,0
1486661410.116,-7.324,26.855,45.898,43.457,15.137,0
1486661410.120,20.508,22.949,48.340,49.316,9.766,0
1486661410.124,68.359,27.344,31.738,62.500,55.176,0
1486661410.127,73.730,33.203,27.344,70.801,83.984,0
1486661410.131,36.133,33.691,39.062,57.129,43.457,0
1486661410.135,-4.395,34.668,42.969,41.992,3.906,0
1486661410.139,12.207,32.227,37.598,54.199,-0.977,0
1486661410.143,76.660,33.203,35.156,77.637,40.039,0
1486661410.147,90.820,25.879,41.016,76.660,111.328,0
1486661410.151,41.016,23.438,40.039,52.246,78.613,0
1486661410.155,-0.977,32.227,40.039,41.016,35.156,0
1486661410.159,17.090,29.297,35.156,51.270,28.320,0
1486661410.163,70.312,29.297,32.227,66.895,49.805,0
1486661410.166,84.473,35.156,30.762,74.219,97.656,0
1486661410.170,50.293,33.691,34.668,62.012,99.609,0
1486661410.174,10.254,25.879,45.898,46.387,32.715,0
1486661410.178,14.648,30.762,43.457,52.734,-49.316,0
1486661410.182,69.336,32.227,38.086,71.777,-6.836,0
1486661410.186,96.680,32.227,47.363,80.566,87.402,0
1486661410.190,62.988,35.156,48.340,67.871,75.684,0
1486661410.194,6.348,33.203,42.480,52.734,42.480,0
1486661410.198,6.836,34.668,42.480,56.152,16.602,0
1486661410.202,60.547,31.250,36.133,70.801,24.902,0
1486661410.206,77.148,23.926,27.344,70.801,69.336,0
1486661410.209,52.246,22.461,30.762,61.035,70.801,0
1486661410.213,9.277,27.344,49.805,56.152,14.160,0
1486661410.217,-4.883,29.297,61.523,50.293,-18.555,0
1486661410.221,43.945,23.438,37.109,58.594,21.484,0
1486661410.225,85.449,31.738,29.297,83.008,80.566,0
1486661410.229,72.754,40.527,40.039,79.102,79.590,0
1486661410.233,27.344,36.621,42.969,61.035,28.809,0
1486661410.237,-4.883,28.320,37.598,50.781,-1.953,0
1486661410.241,33.203,27.344,35.156,64.941,-0.977,0
1486661410.245,83.496,32.227,38.086,82.520,55.664,0
1486661410.249,71.777,36.133,34.180,71.289,80.566,0
1486661410.252,23.438,35.156,46.875,54.688,20.996,0
1486661410.256,-7.324,27.832,50.293,44.922,-21.484,0
1486661410.260,30.273,26.855,26.855,56.152,-24.414,0
1486661410.264,78.613,25.879,22.949,74.219,43.945,0
1486661410.268,75.195,26.367,35.156,72.266,92.285,0
1486661410.272,40.039,34.180,54.199,61.523,30.273,0
1486661410.276,1.953,27.344,43.457,42.480,-22.949,0
1486661410.280,24.902,24.902,26.367,41.504,-43.457,0
1486661410.284,83.496,35.156,38.086,73.242,18.066,0
1486661410.288,81.055,34.180,36.133,74.707,86.914,0
1486661410.291,24.414,33.691,36.133,51.758,39.551,0
1486661410.295,-18.555,26.855,36.133,36.621,-36.133,0
1486661410.299,11.719,23.438,35.156,44.434,-31.250,0
1486661410.303,68.359,26.855,36.133,66.895,32.227,0
1486661410.307,70.312,27.832,31.250,70.312,70.801,0
1486661410.311,34.180,32.227,36.621,56.152,36.133,0
1486661410.315,-8.301,29.785,41.016,44.434,-1.953,0
1486661410.319,5.371,28.320,36.621,53.711,-3.418,0
1486661410.323,66.406,33.691,36.133,71.777,34.180,0
1486661410.327,86.914,30.273,35.156,78.125,102.051,0
1486661410.331,44.434,25.879,34.180,63.965,58.105,0
1486661410.334,-5.371,25.391,33.203,44.434,18.555,0
1486661410.338,-0.488,19.531,36.621,47.852,9.277,0
1486661410.342,57.617,23.926,36.621,64.941,40.527,0
1486661410.346,75.684,28.809,36.621,73.730,85.938,0
1486661410.350,38.574,25.879,34.668,61.523,78.125,0
1486661410.354,-1.953,26.855,44.434,43.457,12.207,0
1486661410.358,-7.812,25.391,49.805,37.598,-12.207,0
1486661410.362,47.363,20.508,32.715,60.059,35.156,0
1486661410.366,75.195,20.020,22.949,74.707,126.465,0
1486661410.370,53.711,25.879,37.598,65.918,102.051,0
1486661410.373,6.348,25.391,46.875,52.246,19.531,0
1486661410.377,-13.672,23.438,33.203,45.898,43.945,0
1486661410.381,42.480,25.391,31.250,61.035,103.516,0
1486661410.385,81.055,27.832,40.039,75.684,140.137,0
1486661410.389,62.988,31.250,41.992,67.871,113.281,0
1486661410.393,15.625,30.273,47.363,51.270,53.223,0
1486661410.397,-13.672,24.414,46.875,43.457,52.246,0
1486661410.401,34.668,22.461,33.691,57.617,53.223,0
1486661410.405,84.473,28.809,29.297,77.148,81.543,0
1486661410.409,67.383,31.738,37.598,73.242,113.281,0
1486661410.413,24.902,34.180,50.293,55.664,89.355,0
1486661410.416,-0.488,33.203,44.922,47.852,31.250,0
1486661410.420,27.832,25.879,37.109,52.734,-3.906,0
1486661410.424,77.148,26.367,40.039,68.359,58.594,0
1486661410.428,80.078,27.832,44.434,75.684,108.887,0
1486661410.432,33.203,26.367,50.781,60.059,32.227,0
1486661410.436,-9.277,22.461,37.598,37.598,-13.184,0
1486661410.440,24.902,23.926,35.645,43.945,5.371,0
1486661410.444,76.660,27.832,35.645,65.918,55.664,0
1486661410.448,77.148,33.691,35.156,70.312,133.789,0
1486661410.452,35.645,32.227,36.621,49.805,102.051,0
1486661410.456,0.000,31.250,38.574,37.598,12.207,0
1486661410.459,24.414,34.180,41.992,46.387,34.668,0
1486661410.463,71.289,26.367,40.527,62.500,79.102,0
1486661410.467,78.125,26.367,40.527,68.359,100.586,0
1486661410.471,34.180,28.320,42.969,47.363,95.703,0
1486661410.475,-5.371,33.691,47.363,36.621,10.254,0
1486661410.479,8.789,32.715,44.434,43.457,-38.574,0
1486661410.483,64.453,26.367,34.180,58.594,56.152,0
1486661410.487,89.844,29.785,36.133,66.895,134.766,0
1486661410.491,50.293,32.715,43.457,52.734,53.223,0
1486661410.495,0.000,31.250,52.734,44.922,-16.602,0
1486661410.498,10.742,27.344,48.340,47.363,-28.809,0
1486661410.502,68.359,33.203,35.156,65.430,-10.254,0
1486661410.506,86.426,36.621,32.715,73.730,71.777,0
1486661410.510,60.547,36.621,50.293,62.988,44.434,0
1486661410.514,10.254,35.156,59.570,53.711,-20.508,0
1486661410.518,-2.441,29.297,43.457,52.246,-11.230,0
1486661410.522,56.152,24.414,36.133,68.848,-25.391,0
1486661410.526,82.031,26.367,35.645,76.660,53.223,0
1486661410.530,58.105,34.180,52.246,64.941,90.332,1
1486661410.534,13.184,36.133,59.570,55.176,31.738,0
1486661410.538,-5.859,30.273,32.227,41.992,27.344,0
1486661410.541,43.457,31.250,25.391,49.805,26.855,0
1486661410.545,81.543,34.668,39.551,74.219,36.621,0
1486661410.549,60.059,32.715,47.852,69.336,27.832,0
1486661410.553,12.695,34.668,48.340,48.828,-25.879,0
1486661410.557,-9.766,32.227,42.969,42.969,-23.438,0
1486661410.561,32.227,25.391,40.527,54.688,1.953,0
1486661410.565,72.266,23.438,31.250,69.336,61.035,0
1486661410.569,58.594,23.926,30.273,69.824,82.520,0
1486661410.573,17.090,27.832,33.203,45.898,9.766,0
1486661410.577,-10.742,26.855,40.039,35.645,-20.020,0
1486661410.581,29.297,23.438,46.387,56.641,30.762,0
1486661410.584,81.055,32.715,41.016,72.266,65.918,0
1486661410.588,74.707,36.133,41.504,72.266,91.797,0
1486661410.592,24.414,30.273,52.246,54.199,67.871,0
1486661410.596,-11.230,28.320,54.199,43.945,11.719,0
1486661410.600,30.273,30.762,44.922,62.012,-19.043,0
1486661410.604,73.730,23.926,32.227,71.777,45.898,0
1486661410.608,65.430,25.391,27.344,64.941,85.938,0
1486661410.612,27.832,35.156,34.668,53.711,52.734,0
1486661410.616,-9.277,36.621,44.434,43.945,51.758,0
1486661410.620,14.160,41.016,47.852,50.781,36.133,0
1486661410.623,75.195,38.086,45.410,71.289,46.387,0
1486661410.627,83.984,23.438,46.387,77.148,90.820,0
1486661410.631,38.086,26.367,37.109,56.152,62.012,0
1486661410.635,-0.977,30.762,36.621,38.574,-12.207,0
1486661410.639,18.555,26.855,42.969,51.270,-5.859,0
1486661410.643,71.777,28.320,30.273,70.312,54.199,0
1486661410.647,76.172,31.250,24.902,72.266,63.965,0
1486661410.651,39.551,32.227,33.203,60.547,43.457,0
1486661410.655,-0.488,30.762,42.969,47.363,12.695,0
1486661410.659,-5.859,24.902,39.551,48.340,-7.324,0
1486661410.663,53.223,20.996,41.016,67.383,35.645,0
1486661410.666,81.543,29.785,50.293,79.102,100.586,0
1486661410.670,51.270,41.016,45.410,64.453,56.152,0
1486661410.674,-3.418,30.273,38.574,37.109,-12.695,0
1486661410.678,-10.254,19.531,32.715,34.180,-3.906,0
1486661410.682,51.758,23.438,25.879,59.082,22.461,0
1486661410.686,80.078,26.367,30.273,74.219,119.141,0
1486661410.690,55.176,33.203,47.363,62.988,133.301,0
1486661410.694,9.277,27.832,48.828,42.480,30.762,0
1486661410.698,-10.254,17.090,39.062,37.598,-23.926,0
1486661410.702,38.574,20.996,40.527,55.176,24.414,0
1486661410.705,76.660,26.855,41.504,80.078,87.402,0
1486661410.709,62.012,27.344,37.598,70.801,66.406,0
1486661410.713,15.625,26.367,35.645,46.387,52.734,0
1486661410.717,-2.441,26.855,43.945,47.852,28.809,0
1486661410.721,46.387,26.367,42.969,64.453,21.484,0
1486661410.725,81.543,27.344,36.621,75.684,78.125,0
1486661410.729,60.547,27.344,32.227,65.430,93.750,0
1486661410.733,15.625,27.832,41.992,51.758,64.453,0
1486661410.737,-6.836,25.879,46.875,46.387,35.645,0
1486661410.741,39.551,24.902,35.645,56.641,4.883,0
1486661410.745,91.797,33.203,34.668,80.078,66.406,0
1486661410.748,75.195,34.180,37.109,79.102,119.141,0
1486661410.752,39.551,36.621,44.922,64.941,83.008,0
1486661410.756,8.301,37.109,40.527,43.945,54.688,0
1486661410.760,24.902,25.879,36.133,45.898,45.898,0
1486661410.764,82.031,28.320,34.180,71.777,87.891,0
1486661410.768,79.590,31.738,30.273,73.730,112.793,0
1486661410.772,31.738,30.273,39.062,56.152,80.566,0
1486661410.776,-2.930,29.297,43.945,45.410,48.340,0
1486661410.780,20.508,23.438,46.875,62.500,32.227,0
1486661410.784,72.266,22.461,35.645,75.195,65.918,0
1486661410.788,81.055,28.320,29.785,73.730,135.742,0
1486661410.791,46.387,34.668,42.480,64.941,80.078,0
1486661410.795,-0.977,29.785,39.551,48.828,2.930,0
1486661410.799,9.766,23.926,30.762,50.781,18.066,0
1486661410.803,72.266,27.344,34.180,74.219,60.059,0
1486661410.807,89.355,30.762,34.668,79.590,83.008,0
1486661410.811,50.781,29.785,40.527,66.406,68.359,0
1486661410.815,0.488,25.391,51.758,49.805,18.066,0
1486661410.819,4.883,22.461,42.969,51.758,-28.320,0
1486661410.823,62.012,22.461,33.691,72.754,-9.766,0
1486661410.827,86.914,28.320,40.527,82.031,68.359,0
1486661410.830,54.688,27.832,36.133,66.406,78.125,0
1486661410.834,1.465,26.855,34.180,51.270,-6.348,0
1486661410.838,-3.418,24.902,39.551,57.129,-10.254,0
1486661410.842,48.828,23.438,40.527,74.219,40.039,0
1486661410.846,81.055,27.832,34.668,84.961,90.820,0
1486661410.850,61.523,31.738,40.039,73.730,77.637,0
1486661410.854,8.789,28.809,58.594,57.129,-12.207,0
1486661410.858,-10.742,21.973,39.551,46.387,-29.785,0
1486661410.862,40.527,20.020,23.438,56.641,-15.137,0
1486661410.866,83.496,25.391,33.691,76.172,41.016,0
1486661410.870,62.012,33.203,37.109,70.801,96.191,0
1486661410.873,13.672,39.062,48.340,54.688,25.391,0
1486661410.877,-3.418,32.715,43.945,47.852,3.906,0
1486661410.881,44.434,25.391,27.344,62.012,20.508,0
1486661410.885,82.520,28.320,38.086,77.148,60.059,0
1486661410.889,62.012,31.250,41.504,69.336,74.219,0
1486661410.893,18.066,31.250,46.875,49.805,13.672,0
1486661410.897,-7.812,24.902,39.062,33.691,2.930,0
1486661410.901,29.785,26.367,25.391,44.434,59.082,0
1486661410.905,78.613,34.180,32.715,69.824,73.242,0
1486661410.909,62.500,36.621,37.598,70.801,76.172,0
1486661410.913,14.648,36.621,41.992,51.270,78.613,0
1486661410.916,-11.719,30.762,45.898,45.898,34.668,0
1486661410.920,24.902,25.391,53.223,60.059,26.855,0
1486661410.924,73.730,25.879,42.480,72.754,59.570,0
1486661410.928,63.965,29.785,30.273,64.453,109.375,0
1486661410.932,20.996,33.203,43.457,48.340,62.012,0
1486661410.936,-16.113,27.832,49.316,36.621,-20.508,0
1486661410.940,15.625,23.926,34.668,46.387,-9.766,0
1486661410.944,67.383,22.461,25.391,62.500,58.105,0
1486661410.948,64.941,27.344,31.738,60.547,78.125,0
1486661410.952,38.086,35.156,48.828,55.176,53.711,0
1486661410.955,0.000,29.297,54.199,42.480,17.578,0
1486661410.959,8.789,20.508,31.250,40.039,0.000,0
1486661410.963,69.336,23.438,31.250,62.988,51.758,0
1486661410.967,83.496,32.715,43.945,80.078,95.215,0
1486661410.971,47.852,33.203,33.691,60.059,50.293,0
1486661410.975,-4.883,25.391,33.691,35.645,-7.812,0
1486661410.979,8.301,25.391,41.504,49.316,-39.062,0
1486661410.983,71.289,26.855,36.621,73.730,-7.324,0
1486661410.987,79.102,24.414,33.691,73.242,85.449,0
1486661410.991,46.875,25.879,43.945,55.176,99.121,0
1486661410.995,4.395,28.809,61.523,42.969,8.301,0
1486661410.998,4.395,22.949,57.617,45.898,-24.414,0
1486661411.002,54.199,18.066,33.691,60.547,-5.859,0
1486661411.006,73.242,25.391,35.645,72.754,17.090,0
1486661411.010,43.945,30.762,42.480,59.570,43.457,0
1486661411.014,-1.953,31.250,36.133,41.992,34.668,0
1486661411.018,-3.906,28.809,33.203,46.875,-6.836,0
1486661411.022,50.781,26.367,32.227,64.941,-2.441,0
1486661411.026,76.660,26.855,34.668,80.566,103.516,0
1486661411.030,59.570,32.227,43.457,67.871,110.352,0
1486661411.034,10.254,31.250,49.805,45.898,67.383,1
1486661411.037,-11.719,24.414,44.434,47.852,49.316,0
1486661411.041,44.434,24.414,33.691,59.570,28.320,0
1486661411.045,82.031,27.344,36.133,67.871,62.988,0
1486661411.049,66.895,33.691,41.016,65.918,113.281,0
1486661411.053,19.531,31.738,41.504,50.293,65.918,0
1486661411.057,-22.949,16.113,36.133,33.691,3.906,0
1486661411.061,23.438,15.625,32.715,51.270,2.930,0
1486661411.065,81.543,26.367,40.039,82.031,57.617,0
1486661411.069,68.359,36.621,38.086,68.848,95.703,0
1486661411.073,28.320,36.621,39.551,46.387,17.578,0
1486661411.077,-1.953,26.855,51.758,46.387,-17.578,0
1486661411.080,27.344,20.996,40.039,51.758,11.230,0
1486661411.084,80.566,25.391,37.109,71.289,49.316,0
1486661411.088,72.266,27.832,31.250,67.871,83.496,0
1486661411.092,32.715,28.809,31.738,47.363,29.785,0
1486661411.096,7.324,34.180,54.199,45.898,-4.883,0
1486661411.100,28.320,26.367,53.223,57.129,7.324,0
1486661411.104,81.543,19.043,31.250,73.242,65.430,0
1486661411.108,87.891,28.320,33.203,71.289,103.027,0
1486661411.112,41.992,30.762,46.875,53.223,47.363,0
1486661411.116,-3.906,26.367,47.363,39.551,7.324,0
1486661411.120,4.395,22.461,42.969,45.898,-14.648,0
1486661411.123,65.430,30.273,42.969,77.637,50.781,0
1486661411.127,73.242,33.203,36.133,79.590,101.074,0
1486661411.131,23.926,27.344,35.156,50.781,40.039,0
1486661411.135,-15.137,30.762,54.688,44.434,11.230,0
1486661411.139,-1.465,32.715,58.105,46.387,-3.418,0
1486661411.143,52.734,31.250,39.551,59.570,-27.832,0
1486661411.147,78.613,31.250,36.621,70.312,55.664,0
1486661411.151,43.945,28.320,41.016,62.500,85.449,0
1486661411.155,-8.301,26.367,35.156,45.410,31.738,0
1486661411.159,-6.348,23.926,28.809,41.992,-24.902,0
1486661411.162,55.176,22.461,34.180,70.312,-11.719,0
1486661411.166,81.055,29.297,36.133,80.078,67.871,0
1486661411.170,50.781,32.715,36.133,62.988,36.133,0
1486661411.174,4.883,28.809,44.922,50.293,-8.301,0
1486661411.178,-7.324,29.297,41.016,48.340,-15.137,0
1486661411.182,42.480,28.320,38.574,67.871,-7.812,0
1486661411.186,81.055,25.879,40.039,79.102,66.406,0
1486661411.190,55.664,24.414,31.250,60.547,51.758,0
1486661411.194,10.742,32.715,33.691,51.270,-3.418,0
1486661411.198,-2.930,31.250,37.109,48.340,-2.930,0
1486661411.202,45.410,21.973,36.621,59.082,14.648,0
1486661411.205,83.496,24.414,40.527,74.219,80.566,0
1486661411.209,59.082,25.391,38.574,65.918,100.098,0
1486661411.213,8.301,28.320,33.203,44.922,41.992,0
1486661411.217,-7.324,28.320,31.738,37.109,-14.648,0
1486661411.221,36.621,22.461,35.645,57.617,-7.812,0
1486661411.225,71.289,23.438,26.855,64.941,53.223,0
1486661411.229,73.242,32.715,28.320,60.547,73.730,0
1486661411.233,30.762,33.691,44.922,49.316,30.762,0
1486661411.237,-9.766,26.855,42.969,40.527,-6.836,0
1486661411.241,27.832,22.461,38.086,55.664,-0.488,0
1486661411.245,83.984,29.297,33.691,74.707,58.105,0
1486661411.248,78.125,32.715,28.320,70.801,65.918,0
1486661411.252,31.250,29.297,37.598,56.152,0.000,0
1486661411.256,-5.859,24.414,44.922,44.922,-7.812,0
1486661411.260,23.438,19.043,38.574,52.246,13.672,0
1486661411.264,77.148,21.484,37.598,73.242,78.125,0
1486661411.268,78.613,25.879,34.668,79.590,89.355,0
1486661411.272,44.922,29.785,30.273,64.453,26.855,0
1486661411.276,8.301,36.133,41.992,51.758,23.438,0
1486661411.280,26.367,34.180,48.340,61.523,32.715,0
1486661411.284,73.730,25.879,29.785,71.777,36.621,0
1486661411.287,83.008,28.320,18.555,73.242,82.520,0
1486661411.291,51.758,29.297,33.691,61.523,79.102,0
1486661411.295,4.883,27.344,48.340,41.016,-1.465,0
1486661411.299,8.301,25.391,43.457,46.387,-39.062,0
1486661411.303,66.895,33.691,40.527,70.801,-1.465,0
1486661411.307,87.891,35.156,39.062,75.684,47.852,0
1486661411.311,58.105,31.250,43.945,59.082,46.875,0
1486661411.315,9.766,30.762,52.734,49.316,0.000,0
1486661411.319,9.766,27.344,39.062,52.246,0.977,0
1486661411.323,65.918,28.809,31.738,68.359,39.551,0
1486661411.327,88.379,32.227,32.227,77.637,117.676,0
1486661411.330,60.547,35.645,44.434,68.359,129.395,0
1486661411.334,17.090,40.527,63.965,58.594,43.457,0
1486661411.338,1.465,32.715,46.387,52.734,4.883,0
1486661411.342,51.270,22.949,26.367,61.523,50.781,0
1486661411.346,83.496,22.949,41.504,79.590,94.727,0
1486661411.350,59.082,26.855,48.828,75.684,78.125,0
1486661411.354,10.254,29.785,37.598,47.363,6.836,0
1486661411.358,-11.719,27.832,28.320,40.527,-4.883,0
1486661411.362,37.598,24.902,28.809,61.035,48.340,0
1486661411.366,83.496,31.250,35.645,71.777,91.797,0
1486661411.369,71.289,38.574,44.922,68.359,92.285,0
1486661411.373,21.973,31.250,43.457,51.270,50.293,0
1486661411.377,-9.277,19.531,40.039,41.016,9.277,0
1486661411.381,32.227,23.438,38.086,63.965,-1.465,0
1486661411.385,75.684,28.809,34.668,78.613,89.355,0
1486661411.389,70.312,30.273,43.457,72.754,112.305,0
1486661411.393,20.508,31.250,41.992,54.199,23.438,0
1486661411.397,-12.695,32.715,39.551,34.668,10.742,0
1486661411.401,28.809,35.156,40.527,55.664,62.012,0
1486661411.405,83.008,31.250,44.434,80.078,73.730,0
1486661411.409,72.266,33.203,44.922,72.754,69.824,0
1486661411.412,21.484,35.645,36.621,55.664,58.105,0
1486661411.416,-11.719,28.809,41.992,43.945,-3.906,0
1486661411.420,18.066,25.879,44.434,52.734,-19.043,0
1486661411.424,75.684,28.320,44.434,68.848,40.039,0
1486661411.428,79.590,34.668,43.457,73.730,125.488,0
1486661411.432,39.062,34.180,40.039,58.105,118.164,0
1486661411.436,0.000,29.785,42.969,41.016,27.344,0
1486661411.440,8.789,29.297,46.875,55.664,14.160,0
1486661411.444,67.383,29.297,39.062,78.613,41.992,0
1486661411.448,84.961,32.227,30.273,78.125,88.867,0
1486661411.452,38.574,31.250,43.945,62.988,66.895,0
1486661411.455,-8.301,25.391,51.270,44.922,1.465,0
1486661411.459,2.930,24.414,41.016,46.387,-2.441,0
1486661411.463,61.523,29.297,36.621,67.871,23.926,0
1486661411.467,78.613,33.691,34.180,68.848,83.008,0
1486661411.471,45.898,31.250,35.645,56.641,70.312,0
1486661411.475,9.277,33.691,52.734,51.758,2.441,0
1486661411.479,4.395,28.809,55.176,56.152,11.719,0
1486661411.483,55.176,14.160,33.203,66.406,29.297,0
1486661411.487,80.566,19.043,23.926,77.148,69.824,0
1486661411.491,45.898,27.832,32.227,63.477,72.266,0
1486661411.494,0.977,26.367,40.039,42.969,8.301,0
1486661411.498,-10.254,21.484,40.527,42.969,4.395,0
1486661411.502,43.945,24.902,32.715,60.547,16.113,0
1486661411.506,83.496,27.344,28.320,73.242,48.828,0
1486661411.510,60.547,28.809,36.621,64.453,76.172,0
1486661411.514,9.277,27.344,46.875,46.387,32.227,0
1486661411.518,-9.766,18.555,46.875,46.387,1.953,0
1486661411.522,42.969,14.160,37.109,71.289,-5.859,0
1486661411.526,80.078,19.531,29.297,79.102,55.176,0
1486661411.530,60.059,22.949,38.086,70.801,79.102,0
1486661411.534,15.137,26.367,48.340,57.129,10.254,0
1486661411.537,-9.766,24.902,44.922,46.387,1.953,0
1486661411.541,38.574,31.250,46.875,63.477,-26.855,0
1486661411.545,84.961,34.180,38.574,77.148,45.898,0
1486661411.549,64.941,25.879,28.809,61.035,103.516,0
1486661411.553,22.949,25.391,41.992,50.781,42.480,0
1486661411.557,-5.859,20.996,49.316,48.828,9.766,0
1486661411.561,26.855,21.484,40.527,56.641,-11.230,0
1486661411.565,85.938,32.227,32.227,74.219,8.789,0
1486661411.569,79.590,34.180,41.016,77.148,69.824,0
1486661411.573,29.297,32.715,55.176,58.594,47.363,0
1486661411.577,-3.418,28.320,48.340,47.852,-1.953,0
1486661411.580,24.414,26.367,40.039,54.199,25.391,0
1486661411.584,72.266,28.320,35.156,73.242,91.309,0
1486661411.588,70.312,27.344,32.715,70.312,134.277,0
1486661411.592,27.344,28.320,40.527,46.875,73.242,0
1486661411.596,-10.254,25.391,45.898,37.109,5.859,0
1486661411.600,10.742,23.926,45.898,44.922,24.902,0
1486661411.604,61.523,25.391,30.273,65.430,67.383,0
1486661411.608,74.707,25.391,39.551,75.195,79.102,0
1486661411.612,41.016,29.785,57.129,58.105,35.156,0
1486661411.616,-7.812,31.250,46.875,40.039,-33.691,0
1486661411.619,0.000,17.090,43.457,44.434,-36.133,0
1486661411.623,64.941,18.555,35.645,66.406,18.066,0
1486661411.627,81.543,31.738,33.203,73.242,85.449,0
1486661411.631,38.086,27.344,41.992,54.199,59.570,0
1486661411.635,-5.859,25.391,39.551,39.062,2.930,0
1486661411.639,0.000,26.367,34.180,44.922,-29.297,0
1486661411.643,56.641,32.227,40.527,65.430,-5.859,0
1486661411.647,83.496,39.062,41.016,72.266,95.703,0
1486661411.651,51.758,31.738,31.250,56.641,84.473,0
1486661411.655,5.859,28.809,41.016,41.992,27.832,0
1486661411.659,-5.371,24.414,46.875,42.480,24.902,0
1486661411.662,42.480,20.020,35.156,59.082,11.230,0
1486661411.666,80.566,18.066,37.109,77.148,55.664,2
1486661411.670,59.570,23.438,39.062,67.383,62.012,0
1486661411.674,12.695,29.297,46.387,56.641,13.672,0
1486661411.678,-7.812,23.438,46.875,47.852,-39.551,0
1486661411.682,43.945,20.996,37.598,55.664,-7.812,0
1486661411.686,85.938,25.391,31.250,72.754,84.961,0
1486661411.690,66.406,32.227,33.203,62.988,58.594,0
1486661411.694,13.672,31.738,45.410,50.293,24.414,0
1486661411.698,-20.020,18.066,44.434,39.551,30.273,0
1486661411.701,28.809,13.672,31.738,50.293,12.695,0
1486661411.705,70.801,17.578,22.949,64.941,21.973,0
1486661411.709,64.453,27.344,34.180,63.965,46.875,0
1486661411.713,27.344,34.180,51.758,51.270,-20.996,0
1486661411.717,-6.836,22.949,46.875,36.133,-47.363,0
1486661411.721,26.855,20.020,29.785,46.387,-0.977,0
1486661411.725,80.566,26.855,35.156,76.660,65.918,0
1486661411.729,71.777,30.273,38.086,74.707,93.262,0
1486661411.733,22.461,29.785,35.645,49.316,40.527,0
1486661411.737,-9.766,23.438,48.340,42.480,27.344,0
1486661411.741,22.949,26.855,44.434,55.664,39.062,0
1486661411.744,65.918,28.809,32.227,65.918,54.199,0
1486661411.748,69.336,28.320,40.039,65.430,84.961,0
1486661411.752,40.039,29.785,38.086,53.711,48.828,0
1486661411.756,-4.395,26.367,29.297,36.133,-5.859,0
1486661411.760,20.508,31.250,38.574,52.734,-9.277,0
1486661411.764,76.172,30.762,43.945,76.660,53.711,0
1486661411.768,75.195,22.461,29.785,72.266,117.188,0
1486661411.772,43.457,28.320,39.062,61.523,58.594,0
1486661411.776,0.488,31.738,51.270,46.875,-24.902,0
1486661411.780,8.789,27.832,46.387,50.781,-14.160,0
1486661411.784,65.918,27.344,35.645,71.289,49.316,0
1486661411.787,77.148,28.320,20.996,73.242,76.172,0
1486661411.791,41.504,27.344,28.809,55.664,54.688,0
1486661411.795,-5.859,22.461,44.922,32.715,-6.836,0
1486661411.799,-4.883,21.973,42.480,36.133,-34.180,0
1486661411.803,59.082,24.902,33.203,62.012,5.371,0
1486661411.807,81.543,26.367,31.738,71.289,62.500,0
1486661411.811,47.852,24.902,39.062,58.594,64.453,0
1486661411.815,1.953,25.391,57.129,43.945,29.297,0
1486661411.819,-4.883,20.996,52.734,47.363,-5.859,0
1486661411.823,45.898,21.484,26.855,66.895,2.441,0
1486661411.826,75.684,27.344,25.391,79.590,78.125,0
1486661411.830,56.641,27.832,31.250,66.406,120.117,0
1486661411.834,7.812,25.879,43.457,46.875,68.359,0
1486661411.838,-6.836,24.414,41.992,50.781,34.180,0
1486661411.842,52.246,24.902,30.273,67.871,50.293,0
1486661411.846,82.031,20.508,33.203,71.777,91.797,0
1486661411.850,53.223,25.879,34.180,64.941,107.910,0
1486661411.854,16.602,29.785,45.410,51.758,68.848,0
1486661411.858,-3.418,22.949,49.805,51.758,35.156,0
1486661411.862,32.715,19.043,32.227,61.523,36.133,0
1486661411.866,73.242,21.973,28.809,72.266,42.969,0
1486661411.869,57.129,20.508,37.598,71.289,66.406,0
1486661411.873,15.137,25.391,45.410,55.664,47.852,0
1486661411.877,-13.184,26.367,40.527,43.457,-32.715,0
1486661411.881,29.297,22.461,38.574,53.711,-14.160,0
1486661411.885,82.520,24.414,41.992,76.172,80.078,0
1486661411.889,74.707,27.832,40.527,78.613,104.492,0
1486661411.893,33.691,30.273,50.293,61.523,54.199,0
1486661411.897,2.441,22.461,49.316,48.340,31.738,0
1486661411.901,26.855,20.020,30.273,54.688,24.414,0
1486661411.905,77.148,25.391,35.156,79.590,75.195,0
1486661411.909,83.496,30.273,39.551,80.566,125.488,0
1486661411.912,48.340,32.715,38.574,61.035,79.590,0
1486661411.916,7.812,29.785,44.434,48.340,4.395,0
1486661411.920,34.668,31.250,46.875,60.059,15.625,0
1486661411.924,94.727,36.133,45.898,80.078,70.312,0
1486661411.928,93.750,33.691,43.457,83.496,125.000,0
1486661411.932,47.852,25.879,42.969,66.406,91.797,0
1486661411.936,-0.488,23.438,38.574,45.410,17.578,0
1486661411.940,13.672,26.367,37.598,56.152,10.742,0
1486661411.944,68.359,31.250,43.945,78.613,43.457,0
1486661411.948,83.008,32.715,45.898,82.031,59.570,0
1486661411.951,48.828,34.668,39.551,66.406,41.504,0
1486661411.955,-3.418,37.109,41.504,43.457,0.488,0
1486661411.959,4.395,30.762,50.781,53.223,16.602,0
1486661411.963,63.477,26.855,41.016,68.848,94.238,0
1486661411.967,78.613,28.320,29.785,62.500,129.395,0
1486661411.971,45.898,31.738,38.086,52.734,100.098,0
1486661411.975,-4.883,31.250,42.969,35.156,39.062,0
1486661411.979,-6.348,24.414,45.898,33.203,18.555,0
1486661411.983,50.781,20.996,42.969,62.988,46.387,0
1486661411.987,67.871,25.391,34.180,72.266,97.168,0
1486661411.991,37.598,31.738,37.598,54.688,111.328,0
1486661411.994,-3.418,30.762,46.875,40.527,30.273,0
1486661411.998,-14.648,28.809,48.828,41.016,-3.906,0
1486661412.002,29.297,25.879,37.109,51.270,33.691,0
1486661412.006,64.941,29.297,33.691,65.430,99.609,0
1486661412.010,50.293,35.156,42.969,60.547,83.984,0
1486661412.014,-2.441,26.367,37.109,35.645,1.465,0
1486661412.018,-16.113,22.461,48.340,34.668,1.465,0
1486661412.022,36.621,22.461,53.711,53.223,25.391,0
1486661412.026,74.707,25.391,31.738,69.336,74.219,0
1486661412.030,66.406,31.738,28.320,63.477,118.164,0
1486661412.034,19.043,29.297,39.062,41.504,49.805,0
1486661412.037,-18.555,25.879,38.574,32.715,-27.832,0
1486661412.041,22.461,29.785,28.809,46.875,11.719,0
1486661412.045,71.777,32.227,29.297,66.406,104.492,0
1486661412.049,69.336,28.809,37.109,65.918,131.836,0
1486661412.053,21.484,26.855,41.504,42.969,57.129,0
1486661412.057,-19.531,26.367,42.480,32.227,-0.977,0
1486661412.061,17.090,28.320,37.598,45.410,19.531,0
1486661412.065,74.707,32.715,31.250,67.871,68.848,0
1486661412.069,79.102,37.598,32.715,71.777,124.023,0
1486661412.073,41.016,40.039,47.363,55.176,70.312,0
1486661412.076,-9.766,33.203,50.781,40.527,11.719,0
1486661412.080,12.207,29.297,41.992,49.316,25.391,0
1486661412.084,78.613,32.227,33.691,70.801,32.227,0
1486661412.088,81.543,31.250,37.109,66.406,69.336,0
1486661412.092,37.598,24.414,49.805,51.758,67.871,0
1486661412.096,-3.906,21.973,43.945,39.551,-14.160,0
1486661412.100,5.371,25.879,28.320,38.086,21.973,0
1486661412.104,64.941,29.297,23.926,54.199,91.797,0
1486661412.108,78.613,31.738,33.691,57.617,66.406,0
1486661412.112,40.039,29.785,39.062,45.410,9.766,0
1486661412.116,-6.348,20.996,38.086,36.621,-5.371,0
1486661412.119,-3.418,20.996,39.551,44.922,-1.953,0
1486661412.123,54.688,19.531,30.762,66.406,27.832,0
1486661412.127,84.473,20.996,31.738,79.102,62.012,0
1486661412.131,58.594,29.785,50.293,63.965,32.715,0
1486661412.135,6.348,29.785,55.664,47.363,-18.066,0
1486661412.139,5.371,26.855,46.387,55.176,-22.949,0
1486661412.143,61.523,27.344,40.527,72.266,-8.301,0
1486661412.147,95.703,31.738,39.551,84.473,64.941,0
1486661412.151,61.523,28.320,37.109,70.312,56.641,0
1486661412.155,10.742,25.879,41.016,48.340,22.949,0
1486661412.158,5.859,23.926,47.363,55.664,4.883,0
1486661412.162,54.199,22.461,42.969,68.359,-16.602,0
1486661412.166,92.285,30.273,39.551,74.219,55.176,0
1486661412.170,71.777,35.645,42.969,68.848,91.309,0
1486661412.174,28.809,33.691,48.340,59.570,29.785,0
1486661412.178,4.395,31.738,38.574,50.293,-30.762,0
1486661412.182,49.805,32.715,36.621,63.477,-32.227,0
1486661412.186,95.703,33.691,33.691,85.938,21.484,0
1486661412.190,76.660,33.203,34.180,76.172,55.664,0
1486661412.194,24.902,31.250,48.340,53.223,20.996,0
1486661412.198,-11.230,26.367,46.875,41.504,-34.180,0
1486661412.201,25.391,27.344,45.410,54.199,-40.527,0
1486661412.205,68.359,26.855,44.434,73.242,20.020,0
1486661412.209,62.500,25.879,43.945,73.242,64.941,0
1486661412.213,17.578,25.879,44.434,51.270,37.109,0
1486661412.217,-20.020,23.438,40.039,38.086,-36.621,0
1486661412.221,14.160,22.461,37.109,55.176,-35.645,0
1486661412.225,67.871,21.973,37.109,75.684,55.176,0
1486661412.229,67.383,26.367,41.016,68.848,94.238,0
1486661412.233,25.879,24.902,45.410,48.828,70.801,0
1486661412.237,-16.602,18.555,35.156,32.715,29.785,0
1486661412.241,7.812,23.926,31.250,42.969,4.395,0
1486661412.244,62.500,28.320,32.715,70.312,38.574,0
1486661412.248,65.918,21.973,41.504,75.195,89.844,0
1486661412.252,35.156,28.320,50.781,62.500,61.523,0
1486661412.256,-0.977,31.250,44.922,52.734,-1.953,0
1486661412.260,16.113,27.344,44.434,58.105,-16.602,0
1486661412.264,77.637,34.668,43.457,68.848,28.809,0
1486661412.268,83.984,29.785,26.367,64.941,82.520,0
1486661412.272,48.828,28.809,33.203,59.082,70.801,0
1486661412.276,6.836,31.738,45.898,45.410,15.625,0
1486661412.280,4.883,29.297,37.598,43.945,11.230,0
1486661412.283,55.664,30.273,33.203,64.453,36.133,0
1486661412.287,70.312,29.785,37.598,72.266,99.609,0
1486661412.291,40.039,33.203,46.387,58.594,74.219,0
1486661412.295,-2.441,33.203,54.688,50.293,-46.875,0
1486661412.299,2.441,28.320,60.547,60.059,-65.918,0
1486661412.303,56.641,24.902,43.457,77.148,-7.812,0
1486661412.307,77.148,28.809,35.645,80.566,64.941,0
1486661412.311,52.734,33.203,43.457,67.383,71.289,0
1486661412.315,8.301,34.180,43.945,50.293,28.320,0
1486661412.319,-8.301,27.344,40.527,43.945,1.953,0
1486661412.323,41.504,21.484,32.715,58.105,29.785,0
1486661412.326,78.125,28.809,40.527,70.312,110.840,0
1486661412.330,55.176,27.832,42.969,62.012,76.172,0
1486661412.334,11.719,25.879,41.504,48.828,12.695,1
1486661412.338,-2.930,23.926,42.969,43.457,-2.930,0
1486661412.342,47.363,21.484,29.297,60.059,5.859,0
1486661412.346,80.078,21.484,20.508,69.824,66.895,0
1486661412.350,57.617,24.902,20.996,56.152,71.289,0
1486661412.354,14.160,30.273,33.691,39.551,2.930,0
1486661412.358,-20.996,24.902,41.992,29.297,-32.227,0
1486661412.362,13.672,16.113,33.691,42.969,4.883,0
1486661412.366,66.406,18.066,32.715,58.594,68.848,0
1486661412.369,61.035,24.414,45.410,62.988,64.941,0
1486661412.373,20.020,25.391,48.340,59.082,16.113,0
1486661412.377,-11.230,24.902,53.711,47.363,-2.441,0
1486661412.381,21.484,21.973,44.922,65.918,1.953,0
1486661412.385,78.613,25.391,31.250,89.844,66.406,0
1486661412.389,75.684,32.227,36.621,82.520,109.375,0
1486661412.393,31.250,32.227,45.898,65.918,67.871,0
1486661412.397,0.977,34.180,53.223,60.059,15.137,0
1486661412.401,17.090,34.668,45.410,62.012,-31.738,0
1486661412.405,60.547,25.879,35.156,61.523,16.113,0
1486661412.408,67.871,20.508,36.621,60.547,93.262,0
1486661412.412,28.809,26.855,41.504,49.805,49.316,0
1486661412.416,-15.625,24.902,43.945,36.133,-22.461,0
1486661412.420,6.348,20.508,41.992,44.922,-26.367,0
1486661412.424,57.617,25.391,41.016,64.453,37.598,0
1486661412.428,65.430,31.738,42.969,63.477,82.520,0
1486661412.432,35.645,26.855,49.805,45.898,48.340,0
1486661412.436,-7.812,19.531,44.434,29.297,-5.859,0
1486661412.440,0.488,26.855,38.086,38.086,7.324,0
1486661412.444,62.012,31.250,40.039,58.105,38.574,0
1486661412.448,86.426,30.273,39.062,70.312,47.363,0
1486661412.451,52.734,32.715,41.992,65.918,58.105,0
1486661412.455,9.277,35.645,51.270,50.293,17.090,0
1486661412.459,12.695,29.297,41.992,50.293,-30.273,0
1486661412.463,60.059,20.020,29.297,64.941,-3.906,0
1486661412.467,86.914,25.391,35.156,79.102,77.637,0
1486661412.471,66.406,31.738,42.480,69.824,84.961,0
1486661412.475,16.602,24.414,40.527,45.410,9.277,0
1486661412.479,4.395,18.066,38.574,43.457,-24.414,0
1486661412.483,62.012,25.391,34.668,67.383,-7.324,0
1486661412.487,94.238,36.621,35.156,79.590,39.551,0
1486661412.490,66.895,32.227,39.551,64.941,70.312,0
1486661412.494,10.742,26.367,39.062,49.316,43.457,0
1486661412.498,-4.883,26.855,39.062,42.480,5.859,0
1486661412.502,43.457,22.949,32.227,59.082,9.277,0
1486661412.506,71.289,24.414,30.762,72.266,34.180,0
1486661412.510,63.965,31.250,36.133,66.895,118.164,0
1486661412.514,23.926,34.180,39.551,44.922,73.242,0
1486661412.518,-4.883,31.738,47.852,35.645,0.000,0
1486661412.522,36.621,29.297,39.551,51.758,41.016,0
1486661412.526,84.473,30.273,32.715,71.777,98.145,0
1486661412.530,77.148,32.715,40.527,73.730,132.324,0
1486661412.533,31.738,32.715,36.621,53.711,76.660,0
1486661412.537,-7.324,26.855,40.039,47.852,47.852,0
1486661412.541,24.414,22.461,36.133,60.059,41.992,0
1486661412.545,78.613,25.391,33.691,82.031,68.359,0
1486661412.549,70.801,25.879,39.551,76.660,113.281,0
1486661412.553,24.902,25.879,40.039,47.852,64.941,0
1486661412.557,-4.883,26.855,39.062,43.945,8.789,0
1486661412.561,14.160,27.344,39.551,53.711,26.367,0
1486661412.565,64.453,24.414,37.598,73.242,39.551,0
1486661412.569,73.730,24.414,29.297,77.148,92.773,0
1486661412.573,39.062,32.227,33.691,60.059,86.426,0
1486661412.576,8.301,27.832,49.805,56.641,25.391,0
1486661412.580,13.184,17.578,41.504,64.453,11.719,0
1486661412.584,64.941,15.625,27.832,74.219,40.527,0
1486661412.588,79.590,20.996,28.809,75.684,99.609,0
1486661412.592,44.922,28.320,42.480,70.801,93.750,0
1486661412.596,1.465,27.344,47.363,59.570,38.086,0
1486661412.600,5.371,26.367,43.457,52.734,-15.625,0
1486661412.604,57.617,25.879,41.504,64.453,31.738,0
1486661412.608,72.266,23.438,33.691,75.195,100.098,0
1486661412.612,43.457,25.391,32.227,57.617,47.852,0
1486661412.615,1.953,25.391,42.969,41.992,1.465,0
1486661412.619,-4.883,19.531,43.457,46.387,-22.949,0
1486661412.623,54.688,20.020,30.762,63.477,32.227,0
1486661412.627,83.496,25.391,34.668,73.730,118.652,0
1486661412.631,51.758,32.715,41.016,59.570,102.539,0
1486661412.635,6.836,34.668,40.527,43.945,13.672,0
1486661412.639,-1.953,23.926,41.016,45.410,-39.551,0
1486661412.643,45.410,20.996,33.691,61.523,13.184,0
1486661412.647,84.473,30.762,33.203,82.031,66.895,0
1486661412.651,65.918,33.691,38.574,75.684,66.406,0
1486661412.655,7.324,26.367,38.574,50.781,11.230,0
1486661412.658,-5.371,26.855,37.109,47.363,-15.625,0
1486661412.662,43.945,30.273,38.086,71.289,13.672,0
1486661412.666,82.031,28.320,44.922,85.449,56.641,0
1486661412.670,63.477,25.391,38.086,71.777,73.730,0
1486661412.674,18.555,27.344,34.668,50.293,62.500,0
1486661412.678,-7.324,25.879,42.480,39.551,27.832,0
1486661412.682,27.344,21.973,41.504,53.711,22.949,0
1486661412.686,75.195,24.902,39.062,74.707,63.965,0
1486661412.690,65.430,27.832,37.109,67.871,103.516,0
1486661412.694,20.996,34.180,41.016,48.340,69.824,0
1486661412.698,-11.719,34.180,46.387,41.992,14.160,0
1486661412.701,18.555,19.531,41.504,51.758,10.742,0
1486661412.705,70.312,18.555,38.086,66.895,87.402,0
1486661412.709,68.359,30.273,41.016,67.383,114.258,0
1486661412.713,24.902,30.273,41.504,47.852,46.387,0
1486661412.717,-9.277,26.367,42.480,33.203,15.625,0
1486661412.721,28.809,25.391,43.457,51.758,-2.930,0
1486661412.725,79.590,26.855,43.457,74.707,52.246,0
1486661412.729,68.359,28.320,35.645,70.801,115.723,0
1486661412.733,32.227,31.738,39.062,53.711,42.969,0
1486661412.737,0.000,29.785,52.734,44.922,-14.160,0
1486661412.740,4.395,18.555,48.340,46.387,-2.441,0
1486661412.744,50.293,21.484,32.715,62.012,50.781,0
1486661412.748,66.895,24.902,34.180,69.824,110.352,0
1486661412.752,37.598,26.367,50.293,61.523,62.988,0
1486661412.756,-13.184,27.832,48.340,45.898,2.441,0
1486661412.760,-6.348,24.414,30.762,46.875,-30.273,0
1486661412.764,58.594,28.320,28.809,66.895,19.531,0
1486661412.768,81.055,33.203,32.715,71.777,85.449,0
1486661412.772,49.316,37.109,41.992,64.941,75.195,0
1486661412.776,-0.977,34.668,51.758,51.758,24.902,0
1486661412.780,-6.348,23.438,50.781,46.387,0.000,0
1486661412.783,51.270,22.461,42.480,63.477,10.254,0
1486661412.787,79.590,34.668,41.992,75.684,76.172,0
1486661412.791,52.734,31.738,46.387,69.824,71.289,0
1486661412.795,1.465,20.996,32.227,43.945,31.738,0
1486661412.799,-16.602,22.461,25.391,32.227,34.180,0
1486661412.803,43.945,27.832,26.367,57.617,64.941,0
1486661412.807,94.727,37.109,33.691,74.707,105.957,0
1486661412.811,72.754,39.062,46.875,67.383,72.754,0
1486661412.815,15.137,29.297,43.945,43.457,22.461,0
1486661412.819,-4.883,21.484,38.574,32.715,-13.672,0
1486661412.822,42.480,26.855,38.086,54.199,5.859,0
1486661412.826,79.590,34.180,39.062,75.195,94.238,0
1486661412.830,64.453,27.832,39.551,67.383,76.172,0
1486661412.834,14.160,25.879,33.203,47.363,4.395,0
1486661412.838,-15.625,23.438,32.715,44.922,-40.527,0
1486661412.842,35.156,20.020,36.621,61.035,-58.105,0
1486661412.846,83.008,23.926,35.156,75.684,61.035,0
1486661412.850,69.824,26.855,38.086,72.266,143.066,0
1486661412.854,25.391,26.855,43.457,50.293,98.633,0
1486661412.858,-3.906,28.809,43.945,45.898,20.996,0
1486661412.862,30.273,29.297,42.480,58.594,-4.883,0
1486661412.865,83.496,27.344,40.039,75.684,21.484,0
1486661412.869,83.008,29.785,36.621,76.172,54.688,0
1486661412.873,34.180,30.273,32.227,55.176,52.734,0
1486661412.877,-0.977,25.879,37.109,48.340,-3.906,0
1486661412.881,25.879,29.785,38.574,55.664,-6.348,0
1486661412.885,74.707,32.227,30.762,75.195,61.523,0
1486661412.889,79.590,26.367,34.668,83.496,108.398,0
1486661412.893,45.410,29.297,44.434,70.801,63.965,0
1486661412.897,5.859,28.320,49.316,56.641,1.465,0
1486661412.901,28.320,29.785,49.316,62.988,7.812,0
1486661412.905,82.031,31.738,40.039,80.566,63.965,0
1486661412.908,90.332,28.809,31.250,80.566,65.918,0
1486661412.912,47.852,31.250,33.691,61.523,15.137,0
1486661412.916,-0.488,27.832,39.551,41.992,-14.160,0
1486661412.920,16.113,27.344,43.945,48.828,-27.344,0
1486661412.924,69.824,30.762,37.598,72.754,11.230,0
1486661412.928,85.938,31.738,29.785,77.148,99.609,0
1486661412.932,58.594,30.762,37.109,62.988,61.035,0
1486661412.936,10.254,28.809,46.387,43.945,14.648,0
1486661412.940,5.371,27.832,39.062,45.410,33.203,1
1486661412.944,62.500,28.809,31.250,64.453,20.996,0
1486661412.947,89.844,31.250,28.320,73.730,62.988,0
1486661412.951,58.594,35.156,39.062,62.988,86.426,0
1486661412.955,10.254,36.133,43.457,46.387,18.066,0
1486661412.959,9.766,33.203,32.715,46.875,8.789,0
1486661412.963,56.152,21.973,32.227,61.523,18.066,0
1486661412.967,83.496,23.926,37.109,75.195,54.688,0
1486661412.971,69.824,37.109,41.016,70.312,67.383,0
1486661412.975,21.484,35.645,41.992,54.688,12.695,0
1486661412.979,-3.906,28.320,43.945,47.852,-7.812,0
1486661412.983,41.016,24.902,44.434,60.547,9.766,0
1486661412.987,83.008,29.785,37.109,77.637,71.777,0
1486661412.990,62.988,35.156,38.086,70.312,108.398,0
1486661412.994,12.207,28.809,41.504,45.410,60.547,0
1486661412.998,-8.301,29.297,46.875,49.805,8.789,0
1486661413.002,31.250,27.344,43.457,61.035,12.207,0
1486661413.006,65.918,23.926,28.809,53.223,67.383,0
1486661413.010,54.199,28.320,31.250,52.246,79.102,0
1486661413.014,5.371,28.320,40.527,41.504,30.273,0
1486661413.018,-23.926,25.391,57.129,37.109,-21.484,0
1486661413.022,23.926,21.973,43.945,53.711,-14.648,0
1486661413.026,73.730,26.855,38.086,72.266,39.551,0
1486661413.030,62.012,28.809,44.922,74.219,80.078,0
1486661413.033,22.461,30.762,36.621,59.570,54.688,0
1486661413.037,-12.207,30.762,42.480,46.387,13.672,0
1486661413.041,20.020,27.344,44.434,54.199,14.648,0
1486661413.045,77.637,30.762,31.738,71.777,70.801,0
1486661413.049,71.777,36.621,32.715,69.824,131.836,0
1486661413.053,28.320,38.574,44.922,54.688,110.840,0
1486661413.057,1.953,37.598,49.805,47.363,66.406,0
1486661413.061,18.555,28.809,41.504,55.664,32.715,0
1486661413.065,59.570,22.949,31.250,69.824,87.891,0
1486661413.069,76.660,24.902,31.738,73.242,152.344,0
1486661413.072,53.223,29.785,36.621,63.477,85.938,0
1486661413.076,3.906,28.809,39.062,47.363,35.645,0
1486661413.080,10.742,25.879,38.574,52.246,-7.324,0
1486661413.084,66.895,25.391,34.180,67.383,45.898,0
1486661413.088,76.172,27.832,31.738,68.848,130.371,0
1486661413.092,45.898,34.180,41.992,60.059,105.469,0
1486661413.096,1.953,32.715,53.223,51.270,53.223,0
1486661413.100,-0.977,22.949,42.480,53.711,0.488,0
1486661413.104,59.082,22.949,37.109,63.965,-14.648,0
1486661413.108,78.613,26.367,35.156,67.871,67.383,0
1486661413.112,39.551,26.367,32.227,58.594,75.195,0
1486661413.115,-5.371,24.414,42.480,42.480,-8.301,0
1486661413.119,-7.324,23.438,40.527,42.969,-33.203,0
1486661413.123,47.852,22.461,33.691,60.059,20.508,0
1486661413.127,81.055,25.391,38.086,75.684,63.965,0
1486661413.131,60.547,31.738,43.945,64.941,58.594,0
1486661413.135,12.207,32.227,44.922,43.945,44.434,0
1486661413.139,-5.371,24.902,43.457,41.016,-32.715,0
1486661413.143,39.062,20.020,29.297,54.688,-41.504,0
1486661413.147,79.102,21.973,30.273,69.336,51.758,0
1486661413.151,62.500,26.855,34.180,64.453,44.434,0
1486661413.154,5.371,26.855,38.574,50.781,4.395,0
1486661413.158,-21.484,20.020,43.457,40.039,-15.137,0
1486661413.162,23.926,21.973,35.156,48.828,6.348,0
1486661413.166,73.730,28.320,36.621,63.477,69.336,0
1486661413.170,69.824,30.762,42.480,62.988,81.543,0
1486661413.174,23.438,29.785,38.574,48.340,32.227,0
1486661413.178,1.465,35.645,44.922,56.641,-29.785,0
1486661413.182,40.527,31.250,39.062,71.289,-49.805,0
1486661413.186,84.961,22.949,25.879,79.102,24.414,0
1486661413.190,80.078,23.926,35.645,78.125,85.938,0
1486661413.194,28.809,23.926,33.691,51.270,20.508,0
1486661413.197,-4.883,26.367,35.156,46.875,-4.395,0
1486661413.201,27.832,26.367,41.992,64.453,3.906,0
1486661413.205,79.590,29.785,41.992,79.590,33.203,0
1486661413.209,76.172,36.621,34.180,79.590,115.234,0
1486661413.213,41.504,37.598,44.434,66.895,67.871,0
1486661413.217,2.441,28.809,56.641,56.641,-0.977,0
1486661413.221,18.555,23.926,40.039,61.523,-7.812,0
1486661413.225,82.520,28.320,27.344,83.984,27.832,0
1486661413.229,86.426,30.762,41.504,87.891,94.727,0
1486661413.233,44.434,26.367,48.340,65.918,55.664,0
1486661413.237,2.441,26.855,44.922,53.223,-26.367,0
1486661413.240,3.906,27.344,39.062,49.805,-8.789,0
1486661413.244,59.570,25.879,39.551,69.336,33.203,0
1486661413.248,83.496,27.344,38.574,73.730,87.402,0
1486661413.252,52.246,30.762,40.039,59.570,49.805,0
1486661413.256,1.953,29.785,36.133,43.457,-6.348,0
1486661413.260,-1.953,23.926,35.156,41.016,-6.348,0
1486661413.264,62.012,23.438,40.527,67.383,19.043,0
1486661413.268,87.891,25.391,26.855,76.660,93.262,0
1486661413.272,50.293,28.320,29.785,60.059,58.105,0
1486661413.276,3.418,23.926,40.527,43.457,-0.488,0
1486661413.279,0.977,21.973,39.551,46.875,5.859,0
1486661413.283,51.270,24.902,39.551,69.824,18.066,0
1486661413.287,75.195,23.438,33.203,76.660,73.730,0
1486661413.291,53.711,24.414,29.297,58.594,73.730,0
1486661413.295,12.207,29.297,39.551,49.805,10.254,0
1486661413.299,-13.184,25.879,43.945,42.480,-9.277,0
1486661413.303,33.691,20.020,31.250,52.246,25.391,0
1486661413.307,77.637,20.996,30.273,73.242,105.469,0
1486661413.311,57.617,26.367,37.598,65.430,127.930,0
1486661413.315,10.742,28.320,39.062,47.852,79.590,0
1486661413.319,-14.160,26.855,34.668,44.922,5.371,0
1486661413.322,33.203,25.391,37.598,56.641,-32.227,0
1486661413.326,87.402,25.879,33.691,72.266,41.016,0
1486661413.330,73.242,30.762,33.203,68.848,56.152,0
1486661413.334,27.832,30.762,42.969,52.246,1.953,0
1486661413.338,0.000,27.344,51.270,45.898,-27.832,0
1486661413.342,39.551,30.762,54.688,64.941,-12.695,0
1486661413.346,81.055,30.273,35.645,69.336,58.105,0
1486661413.350,73.730,29.297,20.020,59.082,89.355,0
1486661413.354,39.062,35.156,36.133,49.805,42.480,0
1486661413.358,-2.930,32.715,41.992,38.574,37.109,0
1486661413.362,22.461,26.367,36.621,53.223,27.344,0
1486661413.365,79.102,29.785,32.715,71.777,94.727,0
1486661413.369,76.660,36.621,26.367,63.477,163.086,0
1486661413.373,36.133,31.738,37.109,51.758,106.934,0
1486661413.377,0.000,27.832,46.875,47.852,24.414,0
1486661413.381,19.531,28.809,44.922,58.594,32.227,0
1486661413.385,71.777,29.297,52.246,69.336,45.410,0
1486661413.389,73.730,27.344,41.504,62.988,61.523,0
1486661413.393,39.062,28.809,37.598,55.176,58.105,0
1486661413.397,-4.883,27.344,47.363,42.480,5.859,0
1486661413.401,9.277,25.879,44.922,49.805,-10.254,0
1486661413.404,71.289,25.879,33.691,71.289,44.922,0
1486661413.408,82.031,28.809,29.785,73.242,97.168,0
1486661413.412,42.969,27.832,37.598,57.617,34.180,0
1486661413.416,-4.883,23.926,46.387,42.969,-23.438,0
1486661413.420,0.000,20.996,43.945,46.387,3.906,0
1486661413.424,59.570,26.855,40.527,66.406,43.457,0
1486661413.428,76.660,31.250,43.945,74.707,74.707,0
1486661413.432,41.992,27.832,43.945,63.965,73.242,0
1486661413.436,6.348,29.785,45.898,51.270,40.039,0
1486661413.440,-6.836,21.973,41.016,42.480,22.949,0
1486661413.444,44.922,22.949,33.203,57.617,43.945,0
1486661413.447,75.195,28.809,36.133,74.219,87.891,0
1486661413.451,44.922,23.926,39.551,68.848,81.055,0
1486661413.455,-1.465,22.461,42.969,47.852,21.973,0
1486661413.459,-14.648,21.973,39.062,46.387,8.301,0
1486661413.463,40.039,24.414,39.551,67.383,27.832,0
1486661413.467,71.777,27.344,46.875,78.613,65.430,0
1486661413.471,52.734,25.391,39.551,62.012,76.660,0
1486661413.475,8.301,28.320,40.527,41.992,63.965,0
1486661413.479,-19.531,26.855,43.457,39.551,32.227,0
1486661413.483,27.832,23.438,32.227,52.734,18.066,0
1486661413.486,74.219,24.414,37.598,67.871,96.680,0
1486661413.490,64.453,30.273,46.875,68.848,109.863,0
1486661413.494,31.250,32.227,43.945,55.664,26.855,0
1486661413.498,5.371,26.367,47.363,48.828,14.648,0
1486661413.502,37.109,26.855,40.039,52.734,27.832,0
1486661413.506,86.914,31.250,28.320,61.523,52.734,0
1486661413.510,81.055,32.227,35.156,67.871,92.773,0
1486661413.514,38.086,35.645,48.828,58.594,46.387,0
1486661413.518,-2.930,31.738,53.223,43.945,-6.836,0
1486661413.522,22.949,22.949,38.574,45.898,-2.441,0
1486661413.526,77.148,25.391,22.949,59.082,44.434,0
1486661413.529,72.266,31.250,28.320,62.988,103.027,0
1486661413.533,29.297,33.691,36.621,48.340,73.242,0
1486661413.537,-10.254,28.320,42.969,38.086,13.184,0
1486661413.541,11.230,21.973,38.086,47.363,-18.066,0
1486661413.545,65.430,22.949,30.762,72.266,50.781,0
1486661413.549,71.289,29.785,36.133,76.660,107.910,0
1486661413.553,37.598,31.250,43.457,51.758,59.570,0
1486661413.557,-8.789,25.391,42.969,32.227,10.742,0
1486661413.561,-2.930,23.926,35.156,41.504,6.348,0
1486661413.565,56.641,26.367,27.832,60.059,55.176,0
1486661413.569,76.172,33.691,35.156,65.430,96.680,0
1486661413.572,44.922,36.133,42.480,51.270,68.848,0
1486661413.576,-1.953,32.227,42.480,36.133,-10.254,0
1486661413.580,-4.883,22.949,36.621,37.109,-23.926,0
1486661413.584,50.293,25.879,33.203,51.270,54.199,0
1486661413.588,69.824,25.391,30.762,63.477,130.371,0
