timestamps,TP9,AF7,AF8,TP10,Right AUX,Marker
1486660668.418,-15.137,40.039,47.363,45.898,-2.441,0
1486660668.422,28.809,40.039,44.922,60.059,-5.371,0
1486660668.426,103.516,37.598,32.715,79.590,54.688,0
1486660668.430,94.727,36.133,29.785,78.613,95.703,0
1486660668.434,47.363,35.156,38.574,63.477,36.133,0
1486660668.438,-16.602,34.180,48.828,47.852,-5.371,0
1486660668.442,3.418,39.062,55.176,52.246,-15.625,0
1486660668.446,88.379,38.574,53.223,84.473,-0.977,0
1486660668.450,99.609,38.574,45.410,85.938,27.832,0
1486660668.454,44.434,44.434,47.363,60.059,20.996,0
1486660668.457,-17.578,38.574,55.664,48.340,23.438,0
1486660668.461,-8.789,32.227,48.340,47.852,16.602,0
1486660668.465,68.848,33.691,33.203,71.289,27.344,0
1486660668.469,95.215,34.180,34.180,78.613,50.293,0
1486660668.473,47.852,36.133,42.480,56.641,42.969,0
1486660668.477,-17.090,37.109,52.246,41.504,31.738,0
1486660668.481,-17.090,32.227,56.641,39.551,31.738,0
1486660668.485,58.105,32.227,45.898,65.918,41.992,0
1486660668.489,94.727,35.645,37.109,81.543,108.398,0
1486660668.493,62.500,40.527,41.016,63.477,99.609,0
1486660668.496,-1.953,40.039,51.758,43.945,38.574,0
1486660668.500,-18.066,27.344,45.898,34.668,37.598,0
1486660668.504,58.594,29.297,34.180,57.617,21.973,0
1486660668.508,98.633,36.133,33.203,85.449,77.637,0
1486660668.512,64.941,34.180,37.109,60.059,88.379,0
1486660668.516,1.465,34.180,50.293,30.273,14.160,0
1486660668.520,-24.414,34.180,59.570,41.992,24.902,0
1486660668.524,37.598,32.715,46.387,62.500,16.602,0
1486660668.528,96.680,35.156,39.551,80.078,43.457,0
1486660668.532,77.637,38.574,42.480,72.754,66.895,0
1486660668.536,7.324,37.109,45.410,47.852,31.250,0
1486660668.539,-32.227,34.180,49.316,35.156,39.062,0
1486660668.543,25.391,34.668,36.133,45.898,17.090,0
1486660668.547,93.750,38.574,34.180,70.312,18.066,0
1486660668.551,78.613,39.551,41.016,64.941,40.527,0
1486660668.555,14.648,36.621,45.898,44.434,13.672,0
1486660668.559,-21.973,35.645,56.641,40.527,6.348,0
1486660668.563,26.855,33.691,53.711,59.082,21.484,0
1486660668.567,92.773,26.855,36.133,78.613,36.133,0
1486660668.571,90.820,30.762,33.691,75.195,79.590,0
1486660668.575,31.738,38.086,46.387,50.781,93.262,0
1486660668.578,-13.672,37.598,52.734,41.992,50.293,0
1486660668.582,23.438,34.180,41.992,54.199,30.273,0
1486660668.586,95.703,35.156,35.645,76.172,51.758,0
1486660668.590,105.469,41.504,40.527,78.613,83.496,0
1486660668.594,54.199,41.992,48.340,55.176,75.684,0
1486660668.598,-7.812,35.645,52.734,41.504,42.480,0
1486660668.602,5.859,32.227,49.316,53.223,19.043,0
1486660668.606,85.938,32.715,39.551,73.730,50.293,0
1486660668.610,104.004,36.133,35.156,75.684,94.727,0
1486660668.614,45.898,38.086,44.434,54.688,69.336,0
1486660668.618,-12.695,36.133,53.223,35.156,6.836,0
1486660668.621,2.930,37.109,58.594,53.711,11.719,0
1486660668.625,73.730,32.227,48.340,76.172,62.012,0
1486660668.629,98.633,29.297,42.969,82.520,84.961,0
1486660668.633,55.664,34.180,51.758,68.359,44.434,0
1486660668.637,-15.625,30.273,54.688,42.969,6.348,0
1486660668.641,-14.160,25.879,48.828,44.434,57.617,0
1486660668.645,69.824,30.762,37.598,62.988,58.594,0
1486660668.649,106.934,38.574,33.203,74.219,72.266,0
1486660668.653,68.359,38.574,38.574,63.477,83.496,0
1486660668.657,3.906,37.109,50.293,42.969,43.945,0
1486660668.661,-5.859,37.598,47.363,36.133,46.387,0
1486660668.664,63.477,31.738,36.621,57.129,87.891,0
1486660668.668,112.793,35.156,46.875,82.031,129.395,0
1486660668.672,80.566,40.039,48.828,68.359,118.652,0
1486660668.676,3.906,37.598,47.852,39.551,55.664,0
1486660668.680,-14.648,35.645,53.223,41.504,3.906,0
1486660668.684,54.688,29.785,45.898,61.035,0.977,0
1486660668.688,101.074,33.691,38.086,75.195,64.453,0
1486660668.692,73.730,38.086,35.645,70.801,99.121,0
1486660668.696,9.766,34.668,43.457,48.340,31.250,0
1486660668.700,-24.414,30.762,50.781,39.551,6.836,0
1486660668.703,35.156,30.273,44.434,62.988,20.020,0
1486660668.707,100.586,32.715,44.434,80.566,46.875,0
1486660668.711,80.566,32.715,50.293,70.801,62.500,0
1486660668.715,12.695,32.227,49.805,45.410,41.016,0
1486660668.719,-24.902,30.762,50.781,38.574,0.977,0
1486660668.723,24.902,27.832,46.387,55.176,27.832,0
1486660668.727,90.820,25.879,38.574,70.312,44.434,0
1486660668.731,87.891,29.297,39.062,68.848,25.879,0
1486660668.735,28.320,33.203,44.434,41.992,1.465,0
1486660668.739,-26.367,31.250,47.363,25.879,8.789,0
1486660668.743,13.184,26.367,40.039,43.457,13.672,0
1486660668.746,94.727,30.762,40.039,74.219,14.648,0
1486660668.750,97.168,35.156,40.527,77.148,48.340,0
1486660668.754,31.738,31.250,32.715,49.316,43.945,0
1486660668.758,-21.973,32.227,45.410,36.621,19.531,0
1486660668.762,14.648,29.785,46.387,45.898,0.000,0
1486660668.766,92.285,29.785,31.738,67.871,39.062,0
1486660668.770,111.328,33.691,34.180,77.148,63.965,0
1486660668.774,54.688,36.133,44.922,60.059,39.551,0
1486660668.778,-18.555,30.273,51.758,37.109,21.484,0
1486660668.782,-4.883,27.344,47.852,46.875,15.625,0
1486660668.786,81.055,32.715,38.574,75.195,59.570,0
1486660668.789,110.840,36.621,38.574,79.102,99.609,0
1486660668.793,57.129,40.039,47.852,56.641,68.359,0
1486660668.797,-6.836,38.574,51.270,41.016,62.500,0
1486660668.801,-0.977,31.250,45.410,40.527,44.922,0
1486660668.805,72.266,30.273,40.527,68.359,50.781,0
1486660668.809,108.887,36.621,47.852,95.215,91.309,0
1486660668.813,62.500,34.180,47.363,66.406,53.711,0
1486660668.817,-12.695,27.832,46.875,36.133,16.113,0
1486660668.821,-15.625,26.367,41.992,39.062,18.066,0
1486660668.825,60.059,24.414,34.180,56.641,30.273,0
1486660668.828,98.145,29.785,38.086,72.266,62.500,0
1486660668.832,63.477,40.527,41.992,59.570,44.434,0
1486660668.836,-2.930,37.598,48.828,28.809,7.812,0
1486660668.840,-16.602,35.156,48.340,25.879,29.297,0
1486660668.844,58.105,37.598,40.039,49.805,38.086,0
1486660668.848,102.539,35.645,37.598,64.453,98.633,0
1486660668.852,74.219,36.621,41.504,55.176,98.633,0
1486660668.856,14.648,38.086,48.828,38.574,30.762,0
1486660668.860,-11.230,36.621,53.711,36.621,44.922,1
1486660668.864,49.316,36.133,44.922,51.758,53.223,0
1486660668.868,104.004,30.762,37.109,74.707,50.781,0
1486660668.871,93.262,35.645,46.875,78.125,55.176,0
1486660668.875,25.391,39.551,55.176,54.199,34.668,0
1486660668.879,-24.414,32.715,52.734,39.062,44.922,0
1486660668.883,34.668,30.273,42.480,48.828,50.293,0
1486660668.887,105.957,32.227,33.203,75.684,47.852,0
1486660668.891,93.262,34.180,37.109,77.637,76.172,0
1486660668.895,26.855,32.715,42.969,47.363,66.895,0
1486660668.899,-23.438,33.691,44.922,35.156,-0.977,0
1486660668.903,18.555,32.227,41.504,43.457,-17.578,0
1486660668.907,98.145,30.273,39.551,72.754,51.270,0
1486660668.911,100.098,32.227,39.551,74.707,88.867,0
1486660668.914,38.086,34.668,45.410,45.898,48.828,0
1486660668.918,-17.578,30.762,57.129,39.551,35.156,0
1486660668.922,9.277,23.926,48.340,38.086,35.645,0
1486660668.926,84.961,27.344,32.715,56.152,56.641,0
1486660668.930,104.492,41.992,39.062,81.055,103.027,0
1486660668.934,45.898,37.598,42.480,55.664,80.078,0
1486660668.938,-20.020,25.879,43.945,31.250,51.758,0
1486660668.942,4.883,29.297,42.480,39.551,54.688,0
1486660668.946,83.984,29.785,31.250,60.547,72.754,0
1486660668.950,107.422,36.621,40.527,77.637,89.844,0
1486660668.953,56.641,41.016,51.270,57.617,50.781,0
1486660668.957,-11.719,34.180,48.828,40.039,55.176,0
1486660668.961,0.000,29.785,45.898,42.969,62.988,0
1486660668.965,78.125,29.297,39.062,64.941,36.621,0
1486660668.969,105.957,28.320,32.227,78.125,81.543,0
1486660668.973,61.035,28.809,33.691,53.223,77.148,0
1486660668.977,-7.812,29.297,42.969,33.691,46.875,0
1486660668.981,-14.160,27.344,43.945,36.133,44.922,0
1486660668.985,64.453,29.297,43.945,61.035,36.621,0
1486660668.989,101.074,30.762,41.504,79.590,83.008,0
1486660668.993,61.035,30.273,38.574,54.688,31.738,0
1486660668.996,-3.906,30.762,50.781,36.133,-34.668,0
1486660669.000,-16.602,29.785,54.199,38.086,14.160,0
1486660669.004,48.340,22.949,37.109,54.199,26.855,0
1486660669.008,92.773,23.438,29.297,76.660,60.059,0
1486660669.012,66.406,28.320,34.668,66.406,93.262,0
1486660669.016,1.465,31.738,50.781,48.828,43.945,0
1486660669.020,-31.250,31.250,48.340,34.180,11.230,0
1486660669.024,32.227,28.320,40.527,44.434,22.949,0
1486660669.028,95.703,31.250,37.109,69.336,90.820,0
1486660669.032,79.102,35.156,34.668,58.594,83.008,0
1486660669.035,13.672,31.738,46.387,41.016,10.742,0
1486660669.039,-20.996,28.809,48.340,39.551,-10.742,0
1486660669.043,43.457,30.273,39.551,57.617,2.930,0
1486660669.047,110.352,32.715,33.691,83.984,67.871,0
1486660669.051,93.750,38.574,40.039,84.961,125.488,0
1486660669.055,26.367,36.133,46.875,53.711,86.426,0
1486660669.059,-16.602,33.691,53.223,41.016,50.781,0
1486660669.063,30.273,35.156,50.781,56.152,59.082,0
1486660669.067,102.539,34.668,39.551,66.895,74.219,0
1486660669.071,107.422,37.598,38.086,68.359,87.402,0
1486660669.075,42.969,35.645,45.898,55.664,49.805,0
1486660669.078,-19.531,29.785,46.387,33.691,20.508,0
1486660669.082,18.066,26.855,41.504,42.969,19.043,0
1486660669.086,101.562,30.273,37.598,79.102,42.480,0
1486660669.090,107.422,31.738,37.598,89.355,69.824,0
1486660669.094,52.734,33.691,48.340,65.918,14.648,0
1486660669.098,-4.395,34.180,55.664,43.945,23.926,0
1486660669.102,16.113,28.809,44.434,49.805,42.969,0
1486660669.106,93.750,27.832,36.133,76.172,22.461,0
1486660669.110,112.305,36.133,37.598,79.590,63.965,0
1486660669.114,64.453,36.621,37.109,58.105,82.031,0
1486660669.118,6.836,35.645,49.805,43.457,63.965,0
1486660669.121,14.160,33.691,46.875,46.875,55.176,0
1486660669.125,89.355,26.855,33.203,70.312,57.617,0
1486660669.129,120.117,27.344,37.109,86.426,83.496,0
1486660669.133,73.730,33.203,43.945,69.336,76.172,0
1486660669.137,3.418,31.250,46.875,47.363,92.285,0
1486660669.141,-7.324,24.414,45.898,47.852,99.609,0
1486660669.145,69.824,25.879,43.945,68.848,72.754,0
1486660669.149,107.422,25.879,34.668,80.566,117.188,0
1486660669.153,66.895,30.273,36.133,61.035,124.023,0
1486660669.157,2.930,34.180,47.363,36.621,72.754,0
1486660669.160,-17.578,28.320,43.945,31.738,49.805,0
1486660669.164,56.641,26.367,34.668,60.059,55.664,0
1486660669.168,105.469,33.691,38.574,83.496,103.516,0
1486660669.172,74.219,31.738,43.457,70.312,76.172,0
1486660669.176,11.230,32.715,46.387,53.223,48.340,0
1486660669.180,-9.766,42.480,53.711,51.758,67.871,0
1486660669.184,53.223,32.715,42.969,63.965,41.016,0
1486660669.188,103.027,24.902,30.273,75.684,62.012,0
1486660669.192,83.008,31.738,32.715,64.453,88.867,0
1486660669.196,20.996,32.715,45.898,41.992,72.266,0
1486660669.200,-16.602,26.855,49.805,34.668,49.316,0
1486660669.203,33.691,26.367,37.598,51.270,72.266,0
1486660669.207,99.121,35.156,40.527,72.754,87.891,0
1486660669.211,81.055,35.156,45.898,67.871,84.961,0
1486660669.215,18.066,31.738,47.363,41.504,74.707,0
1486660669.219,-27.832,28.809,47.363,24.414,31.738,0
1486660669.223,18.066,28.320,42.969,43.945,22.461,0
1486660669.227,96.680,36.133,43.457,73.242,74.707,0
1486660669.231,102.051,43.945,49.805,75.195,84.961,0
1486660669.235,42.969,40.527,53.711,48.340,32.227,0
1486660669.239,-12.207,35.156,48.828,29.785,33.203,0
1486660669.243,25.879,30.762,41.992,44.922,24.902,0
1486660669.246,101.074,24.414,39.062,70.801,39.062,0
1486660669.250,103.516,27.344,40.527,74.219,104.980,0
1486660669.254,45.898,35.156,41.992,47.363,106.934,0
1486660669.258,-15.137,36.621,47.852,29.785,48.828,0
1486660669.262,1.953,32.227,48.828,38.574,32.227,0
1486660669.266,76.660,27.344,40.039,64.941,36.133,0
1486660669.270,97.168,31.738,36.133,75.195,82.520,0
1486660669.274,50.293,35.156,47.363,52.246,65.430,0
1486660669.278,-18.066,29.785,54.688,32.227,42.480,0
1486660669.282,-6.836,27.344,47.852,41.992,6.348,0
1486660669.285,81.543,32.715,44.922,72.266,-18.066,0
1486660669.289,103.516,32.715,41.016,76.660,41.992,0
1486660669.293,54.199,31.250,37.598,56.641,42.480,0
1486660669.297,-7.324,25.879,46.387,40.527,24.902,0
1486660669.301,-8.789,25.879,46.875,46.875,20.508,0
1486660669.305,70.801,31.738,38.086,70.312,54.688,0
1486660669.309,111.816,33.203,38.086,81.055,104.492,0
1486660669.313,72.266,33.203,42.480,65.430,62.988,0
1486660669.317,6.836,31.738,49.316,42.969,13.672,0
1486660669.321,-4.883,25.391,51.758,39.551,17.090,0
1486660669.325,69.824,24.902,38.574,64.941,15.625,0
1486660669.328,119.141,32.715,37.109,88.379,52.734,0
1486660669.332,83.496,35.156,44.922,64.453,75.684,0
1486660669.336,12.695,36.621,49.805,44.434,55.176,0
1486660669.340,-11.230,29.297,49.805,44.434,28.320,0
1486660669.344,53.711,22.949,39.551,54.199,13.184,0
1486660669.348,108.398,29.297,33.203,69.824,74.707,0
1486660669.352,81.055,33.203,39.551,62.988,121.582,0
1486660669.356,14.648,34.668,55.664,45.410,73.730,0
1486660669.360,-20.020,32.227,52.734,39.551,45.898,0
1486660669.364,33.203,29.297,40.039,55.664,30.762,0
1486660669.368,101.562,30.273,38.086,81.543,45.898,0
1486660669.371,88.867,33.203,38.086,74.707,79.102,0
1486660669.375,17.090,33.203,42.480,47.363,49.316,0
1486660669.379,-29.297,28.809,41.992,34.668,36.621,0
1486660669.383,23.926,28.320,39.551,51.758,38.086,0
1486660669.387,103.027,32.715,46.387,79.102,38.574,0
1486660669.391,96.191,35.156,44.434,69.824,79.590,0
1486660669.395,21.484,36.621,47.852,40.527,50.781,0
1486660669.399,-26.367,39.551,61.035,34.668,4.395,0
1486660669.403,7.812,29.297,47.363,41.992,39.551,0
1486660669.407,79.102,27.832,36.133,64.453,68.359,0
1486660669.410,88.867,36.133,40.527,71.289,84.961,0
1486660669.414,27.344,34.180,44.434,43.945,85.449,0
1486660669.418,-29.785,30.762,48.828,24.902,64.941,0
1486660669.422,-0.977,26.855,45.410,37.598,64.453,0
1486660669.426,74.219,25.879,32.715,64.941,103.027,0
1486660669.430,94.727,32.715,41.504,71.289,133.789,0
1486660669.434,45.898,40.039,54.199,56.641,86.426,0
1486660669.438,-17.578,39.062,53.711,43.945,46.387,0
1486660669.442,-2.930,33.203,52.246,45.410,25.391,0
1486660669.446,75.195,31.250,41.504,66.895,12.695,0
1486660669.450,101.074,33.691,39.551,79.102,57.129,0
1486660669.453,60.059,41.992,49.805,60.547,25.391,0
1486660669.457,-11.230,39.551,54.199,31.738,-21.484,0
1486660669.461,-29.785,27.344,47.363,24.414,0.000,0
1486660669.465,47.852,24.414,41.016,43.945,11.230,0
1486660669.469,90.332,28.809,38.574,62.012,22.461,0
1486660669.473,46.387,30.762,43.457,49.805,34.180,0
1486660669.477,-20.508,32.227,52.734,33.203,35.156,0
1486660669.481,-24.902,40.039,50.293,35.156,5.371,0
1486660669.485,55.664,39.551,38.086,62.012,6.836,0
1486660669.489,107.910,41.504,41.504,89.844,27.832,0
1486660669.492,71.289,44.434,48.828,72.754,49.316,0
1486660669.496,4.395,39.062,53.223,47.852,50.781,0
1486660669.500,-15.625,37.109,50.781,47.852,40.039,0
1486660669.504,47.852,37.598,41.992,60.547,39.062,0
1486660669.508,96.680,34.668,45.410,81.055,103.516,0
1486660669.512,76.172,38.574,47.852,71.777,85.938,1
1486660669.516,9.277,38.574,50.293,48.340,37.109,0
1486660669.520,-34.180,32.227,53.223,35.156,59.570,0
1486660669.524,25.391,31.250,43.945,42.969,39.551,0
1486660669.528,88.867,32.715,34.180,66.406,56.152,0
1486660669.532,75.684,37.109,42.969,61.523,93.750,0
1486660669.535,10.742,35.645,53.223,41.016,63.965,0
1486660669.539,-36.621,26.855,48.340,29.785,36.133,0
1486660669.543,15.625,25.879,40.527,41.992,48.340,0
1486660669.547,86.426,29.785,41.504,75.195,68.848,0
1486660669.551,75.684,30.273,41.504,72.754,64.453,0
1486660669.555,14.648,32.715,43.945,42.969,62.012,0
1486660669.559,-29.785,35.645,51.758,34.668,22.461,0
1486660669.563,10.742,35.645,53.711,47.363,0.488,0
1486660669.567,85.938,34.668,46.875,71.777,25.879,0
1486660669.571,91.797,38.086,39.551,72.266,52.246,0
1486660669.575,23.438,32.227,38.086,43.945,50.781,0
1486660669.578,-42.480,26.367,40.527,30.762,29.785,0
1486660669.582,-8.789,24.414,40.527,38.574,26.855,0
1486660669.586,78.613,27.344,38.574,71.289,45.898,0
1486660669.590,91.797,31.250,41.504,74.219,67.383,0
1486660669.594,32.227,32.227,48.828,39.062,27.832,0
1486660669.598,-34.180,28.809,50.781,27.832,-4.395,0
1486660669.602,-14.648,25.879,47.363,41.504,15.625,0
1486660669.606,67.383,28.809,43.457,70.312,52.246,0
1486660669.610,92.285,32.715,40.039,76.660,105.957,0
1486660669.614,49.805,34.668,42.969,57.617,90.820,0
1486660669.617,-18.066,32.715,49.805,41.992,57.617,0
1486660669.621,-17.090,27.344,44.434,43.945,55.176,0
1486660669.625,65.430,32.715,38.574,69.824,26.367,0
1486660669.629,104.004,37.598,43.945,80.566,54.199,0
1486660669.633,53.711,29.297,41.016,52.734,58.594,0
1486660669.637,-20.508,27.344,40.527,32.715,45.898,0
1486660669.641,-26.855,30.762,44.922,40.039,25.879,0
1486660669.645,49.316,30.762,43.457,66.895,17.090,0
1486660669.649,99.121,37.109,46.875,81.543,50.293,0
1486660669.653,65.430,38.574,46.875,63.965,31.738,0
1486660669.657,-9.277,31.250,49.316,41.016,12.695,0
1486660669.660,-34.180,29.297,52.734,34.668,20.996,0
1486660669.664,40.527,28.809,40.527,57.617,17.090,0
1486660669.668,103.516,33.691,36.621,78.613,51.758,0
1486660669.672,81.543,38.574,44.434,67.871,63.477,0
1486660669.676,11.719,37.109,48.340,51.270,25.391,0
1486660669.680,-27.344,30.273,48.828,46.387,20.020,0
1486660669.684,37.598,26.367,43.945,62.500,20.020,0
1486660669.688,103.027,28.809,37.598,82.031,61.035,0
1486660669.692,79.590,30.762,37.598,69.824,67.871,0
1486660669.696,15.625,31.738,49.316,44.434,32.715,0
1486660669.700,-25.879,31.738,50.293,41.992,27.344,0
1486660669.703,27.832,30.762,39.551,62.012,62.988,0
1486660669.707,92.285,25.879,33.203,74.707,73.730,0
1486660669.711,80.078,26.367,31.738,65.430,78.613,0
1486660669.715,18.066,31.250,40.527,49.316,85.938,0
1486660669.719,-26.855,30.762,48.340,38.086,73.242,0
1486660669.723,20.996,30.273,42.969,51.758,29.297,0
1486660669.727,94.238,31.738,34.180,79.590,45.898,0
1486660669.731,97.168,35.645,33.691,76.172,78.613,0
1486660669.735,39.062,34.180,41.504,56.641,47.363,0
1486660669.739,-19.531,30.762,53.223,44.434,20.020,0
1486660669.742,6.836,29.297,46.387,51.758,20.020,0
1486660669.746,85.938,30.762,38.574,77.637,72.266,0
1486660669.750,98.145,33.691,41.504,85.938,96.680,0
1486660669.754,41.504,35.156,37.598,62.988,69.336,0
1486660669.758,-11.719,39.062,49.316,44.434,42.480,0
1486660669.762,5.371,27.344,49.316,45.410,35.156,0
1486660669.766,75.195,20.508,36.133,63.965,34.668,0
1486660669.770,98.145,32.227,41.504,78.125,100.098,0
1486660669.774,53.223,33.691,49.805,64.453,125.000,0
1486660669.778,-12.207,31.250,56.641,45.898,66.895,0
1486660669.782,-10.742,27.832,51.270,49.805,52.246,0
1486660669.785,64.941,24.902,34.180,68.848,79.590,0
1486660669.789,100.098,27.344,33.203,79.590,87.891,0
1486660669.793,59.082,32.715,42.480,71.777,47.363,0
1486660669.797,-4.883,30.273,48.828,47.363,31.250,0
1486660669.801,-5.859,29.297,47.363,40.527,38.574,0
1486660669.805,72.754,35.156,42.969,66.895,-8.301,0
1486660669.809,111.816,30.762,44.434,84.961,4.883,0
1486660669.813,72.754,31.250,52.734,66.406,66.895,0
1486660669.817,3.418,33.203,51.758,40.039,58.594,0
1486660669.821,-22.949,24.414,45.898,35.156,31.250,0
1486660669.825,55.176,33.203,43.457,62.012,41.504,0
1486660669.828,108.887,37.598,39.551,92.285,71.289,0
1486660669.832,70.312,29.297,34.180,62.012,61.035,0
1486660669.836,7.324,30.273,41.992,35.156,13.672,0
1486660669.840,-22.949,24.414,48.340,39.062,22.461,0
1486660669.844,39.551,23.926,43.945,52.246,36.133,0
1486660669.848,104.004,32.227,41.992,75.684,53.711,0
1486660669.852,82.520,31.250,45.410,70.312,81.543,0
1486660669.856,17.090,28.809,43.945,45.898,30.762,0
1486660669.860,-23.438,27.344,44.434,37.109,-6.348,0
1486660669.864,24.902,22.461,42.969,52.246,-30.762,0
1486660669.867,104.492,31.250,36.133,77.148,9.766,0
1486660669.871,95.215,34.668,38.574,77.637,79.102,0
1486660669.875,28.320,32.227,47.852,57.129,27.832,0
1486660669.879,-21.484,32.227,54.688,45.410,-8.789,0
1486660669.883,26.367,32.227,51.758,61.523,-4.883,0
1486660669.887,105.957,35.156,47.363,91.797,27.832,0
1486660669.891,93.750,31.250,41.016,83.496,67.383,0
1486660669.895,34.668,32.715,40.527,55.664,77.148,0
1486660669.899,-22.949,26.855,43.945,38.574,45.410,0
1486660669.903,7.324,23.438,42.969,46.875,38.574,0
1486660669.907,89.844,30.762,42.969,74.219,83.984,0
1486660669.910,96.680,33.691,40.039,78.125,117.188,0
1486660669.914,41.992,31.738,43.945,55.664,91.797,0
1486660669.918,-13.672,29.297,55.664,41.504,53.223,0
1486660669.922,3.906,29.297,51.758,48.828,41.992,0
1486660669.926,80.566,28.320,38.086,70.312,59.082,0
1486660669.930,104.004,30.273,36.133,82.520,109.863,0
1486660669.934,54.688,32.715,42.969,62.500,114.746,0
1486660669.938,-13.184,26.855,52.246,39.062,76.172,0
1486660669.942,-7.812,23.926,53.711,43.945,50.781,0
1486660669.946,65.430,23.926,36.621,62.988,56.641,0
1486660669.949,97.168,23.926,32.227,73.242,60.547,0
1486660669.953,57.129,23.438,41.992,56.641,59.570,0
1486660669.957,-6.348,26.367,48.340,37.109,35.645,0
1486660669.961,-8.789,29.785,51.270,41.504,18.066,0
1486660669.965,70.312,23.926,42.969,68.359,21.973,0
1486660669.969,110.352,27.832,41.016,90.332,47.852,0
1486660669.973,68.848,33.203,45.410,67.383,74.219,0
1486660669.977,-1.465,25.391,47.852,39.062,40.527,0
1486660669.981,-20.020,25.391,47.363,38.574,-2.441,0
1486660669.985,53.711,28.809,40.039,57.617,-8.789,0
1486660669.989,104.980,30.273,38.086,87.891,30.762,0
1486660669.992,76.172,28.809,41.016,81.055,47.852,0
1486660669.996,10.742,32.227,43.457,47.363,29.785,0
1486660670.000,-19.531,33.691,48.828,34.668,16.602,0
1486660670.004,44.922,27.344,43.945,44.922,15.137,0
1486660670.008,107.910,29.785,41.504,70.312,44.922,0
1486660670.012,79.590,33.691,43.945,62.988,45.898,0
1486660670.016,11.719,29.785,47.363,37.109,3.906,0
1486660670.020,-19.043,32.227,51.270,34.668,-12.207,0
1486660670.024,36.133,34.668,45.898,54.199,6.348,0
1486660670.028,104.492,29.785,37.109,73.242,43.945,0
1486660670.032,93.262,34.668,39.062,65.430,66.895,0
1486660670.035,24.414,35.156,45.898,39.551,60.059,0
1486660670.039,-27.344,30.273,45.898,26.855,33.691,0
1486660670.043,21.973,27.832,42.480,43.457,-7.324,0
1486660670.047,100.098,34.180,41.992,64.941,11.719,0
1486660670.051,90.820,38.574,41.504,65.918,66.406,0
1486660670.055,27.832,34.668,47.363,41.504,58.594,0
1486660670.059,-27.832,27.344,50.293,24.414,44.922,0
1486660670.063,15.137,27.832,44.922,43.945,24.414,0
1486660670.067,92.285,31.250,40.527,69.336,67.383,0
1486660670.071,93.262,31.738,31.738,60.547,78.613,0
1486660670.074,42.480,32.227,37.109,39.551,22.461,0
1486660670.078,-8.789,31.250,52.246,30.762,40.527,0
1486660670.082,13.672,33.203,45.410,35.645,37.109,0
1486660670.086,90.332,32.227,32.715,63.477,23.926,0
1486660670.090,108.887,31.738,37.598,71.777,44.434,0
1486660670.094,46.875,31.738,45.410,51.270,34.668,0
1486660670.098,-20.508,29.785,54.199,35.645,16.113,0
1486660670.102,-8.789,26.855,44.922,35.156,18.066,0
1486660670.106,67.871,28.320,35.645,64.941,38.086,0
1486660670.110,101.562,28.809,37.598,85.938,74.707,0
1486660670.114,62.500,27.832,43.457,62.500,53.711,0
1486660670.117,-0.488,31.250,57.617,42.480,20.020,0
1486660670.121,-3.418,29.785,52.734,44.922,14.160,0
1486660670.125,71.777,26.855,39.551,71.289,20.996,0
1486660670.129,116.211,36.621,40.039,89.355,80.078,0
1486660670.133,67.383,37.598,41.504,63.477,61.035,0
1486660670.137,-9.766,25.391,41.992,32.227,29.785,0
1486660670.141,-18.555,24.902,42.480,32.227,23.438,0
1486660670.145,60.547,25.391,39.551,62.988,28.809,0
1486660670.149,106.445,26.855,40.527,79.590,76.660,0
1486660670.153,69.824,28.320,48.340,58.594,64.453,0
1486660670.157,0.488,29.785,54.688,36.133,55.664,0
1486660670.160,-26.367,23.438,53.711,28.809,29.297,0
1486660670.164,45.410,20.020,39.551,48.340,-0.977,0
1486660670.168,109.375,29.297,35.645,77.148,49.805,0
1486660670.172,82.031,32.227,36.621,59.082,48.828,0
1486660670.176,18.066,36.621,47.852,36.621,23.926,0
1486660670.180,-13.184,34.668,50.781,33.203,33.691,0
1486660670.184,41.992,23.926,39.551,53.711,30.762,0
1486660670.188,104.980,23.438,35.156,77.148,59.082,1
1486660670.192,91.309,27.832,35.645,68.848,85.449,0
1486660670.196,26.855,27.832,43.945,47.363,20.996,0
1486660670.199,-19.531,24.902,44.434,34.180,24.414,0
1486660670.203,25.879,23.926,38.086,50.781,18.066,0
1486660670.207,95.703,26.855,40.039,82.031,32.715,0
1486660670.211,95.703,32.227,39.551,72.754,71.289,0
1486660670.215,35.645,36.621,41.016,44.922,36.133,0
1486660670.219,-17.090,35.645,50.293,40.527,33.203,0
1486660670.223,19.043,32.715,45.898,46.875,26.367,0
1486660670.227,95.215,35.156,38.574,64.453,29.297,0
1486660670.231,100.586,34.180,40.039,65.918,60.059,0
1486660670.235,44.922,33.203,45.898,43.457,64.453,0
1486660670.239,-6.836,31.250,51.758,28.320,57.617,0
1486660670.242,16.602,26.855,47.363,34.180,51.758,0
1486660670.246,92.773,31.250,38.574,62.988,54.688,0
1486660670.250,107.910,35.156,39.062,71.289,72.754,0
1486660670.254,52.734,35.156,50.293,54.199,63.965,0
1486660670.258,-8.301,30.762,54.688,38.574,-5.859,0
1486660670.262,7.812,27.832,46.387,46.387,-17.578,0
1486660670.266,83.984,30.273,39.062,76.172,32.715,0
1486660670.270,109.375,31.250,38.574,86.426,101.562,0
1486660670.274,63.965,32.227,43.945,66.406,88.379,0
1486660670.278,-1.465,37.598,51.270,41.992,38.574,0
1486660670.282,-1.465,34.668,52.734,43.945,40.527,0
1486660670.285,68.359,27.344,45.898,68.848,55.664,0
1486660670.289,105.469,37.109,41.992,79.102,94.238,0
1486660670.293,70.801,41.504,42.969,57.129,115.234,0
1486660670.297,-11.719,29.297,41.504,20.996,81.543,0
1486660670.301,-28.320,25.391,41.504,20.508,50.781,0
1486660670.305,55.664,28.809,40.527,50.293,47.363,0
1486660670.309,103.516,35.645,44.434,69.336,95.215,0
1486660670.313,72.266,36.621,44.434,57.129,81.055,0
1486660670.317,2.441,34.180,48.828,34.668,36.133,0
1486660670.321,-21.973,34.180,55.176,34.180,28.809,0
1486660670.324,50.293,31.738,43.945,54.688,11.719,0
1486660670.328,104.492,29.785,36.133,78.125,46.387,0
1486660670.332,81.055,33.691,39.551,71.777,61.523,0
1486660670.336,10.254,35.156,45.410,40.527,37.598,0
1486660670.340,-24.414,32.227,53.223,32.227,0.488,0
1486660670.344,35.645,32.227,55.176,54.199,-19.043,0
1486660670.348,94.727,28.809,45.410,73.730,43.457,0
1486660670.352,80.078,29.297,41.992,65.430,40.527,0
1486660670.356,14.160,34.668,47.852,40.039,0.488,0
1486660670.360,-29.297,33.203,46.387,34.180,11.230,0
1486660670.364,24.414,28.809,40.527,51.758,3.418,0
1486660670.367,91.797,30.762,36.621,74.219,11.230,0
1486660670.371,87.402,35.156,41.504,77.148,51.270,0
1486660670.375,40.527,38.574,53.223,59.082,33.691,0
1486660670.379,-20.020,31.250,53.711,41.016,31.250,0
1486660670.383,9.277,22.461,43.945,51.758,25.391,0
1486660670.387,89.844,26.855,35.645,77.148,44.434,0
1486660670.391,92.773,31.738,38.086,77.148,76.172,0
1486660670.395,38.086,33.691,47.852,51.270,73.242,0
1486660670.399,-19.043,31.738,49.805,29.297,35.645,0
1486660670.403,5.859,28.809,48.828,40.039,-13.184,0
1486660670.406,85.938,27.832,41.016,70.312,50.293,0
1486660670.410,105.469,29.297,40.039,83.008,84.473,0
1486660670.414,49.316,34.668,46.875,55.664,73.242,0
1486660670.418,-14.648,29.785,51.270,38.574,58.105,0
1486660670.422,2.441,23.438,51.758,51.270,20.020,0
1486660670.426,86.426,27.344,41.992,75.684,36.133,0
1486660670.430,111.328,37.598,40.527,83.984,66.406,0
1486660670.434,59.082,37.598,45.410,61.523,43.945,0
1486660670.438,-2.930,34.668,50.781,41.504,28.320,0
1486660670.442,-4.395,30.273,45.898,42.480,14.648,0
1486660670.446,79.590,30.762,43.945,71.777,-15.625,0
1486660670.449,117.188,36.621,48.340,90.332,48.340,0
1486660670.453,70.312,34.180,36.621,62.012,80.566,0
1486660670.457,6.836,31.738,45.898,43.945,41.504,0
1486660670.461,-7.812,23.926,54.199,51.758,24.902,0
1486660670.465,63.477,23.438,39.551,68.848,40.527,0
1486660670.469,111.816,29.297,36.133,83.984,72.266,0
1486660670.473,74.707,28.809,41.992,62.988,41.016,0
1486660670.477,8.789,30.762,49.805,41.992,27.832,0
1486660670.481,-8.301,30.273,46.875,44.434,49.316,0
1486660670.485,53.711,29.785,35.156,57.129,47.852,0
1486660670.489,104.980,31.250,37.109,82.031,80.566,0
1486660670.492,80.078,30.273,40.039,70.801,103.516,0
1486660670.496,12.207,30.762,45.898,44.434,80.078,0
1486660670.500,-20.508,27.832,54.688,43.457,65.430,0
1486660670.504,36.621,21.973,41.992,57.617,39.062,0
1486660670.508,97.656,26.855,35.645,78.613,71.289,0
1486660670.512,83.008,33.691,41.504,69.336,106.934,0
1486660670.516,13.672,31.738,47.363,39.062,55.176,0
1486660670.520,-28.809,24.414,49.316,33.203,28.809,0
1486660670.524,16.113,17.578,35.645,40.039,20.020,0
1486660670.528,84.961,22.949,31.738,63.965,33.203,0
1486660670.531,86.426,27.832,38.574,69.824,84.961,0
1486660670.535,20.508,28.809,48.828,41.016,65.430,0
1486660670.539,-33.691,25.391,49.805,28.809,33.203,0
1486660670.543,14.160,23.926,39.062,46.387,5.859,0
1486660670.547,89.355,29.297,34.668,75.684,44.922,0
1486660670.551,92.285,32.715,43.457,76.660,86.426,0
1486660670.555,36.133,32.227,49.805,49.316,43.457,0
1486660670.559,-18.555,27.344,45.410,31.738,12.695,0
1486660670.563,3.418,18.066,40.527,40.527,11.719,0
1486660670.567,73.242,20.020,33.203,66.895,48.340,0
1486660670.571,91.797,27.344,29.785,70.801,65.918,0
1486660670.574,45.410,32.227,41.504,59.082,30.273,0
1486660670.578,-14.648,30.762,53.223,49.805,53.711,0
1486660670.582,-7.324,20.996,41.992,43.457,23.926,0
1486660670.586,71.777,24.902,31.738,68.359,19.043,0
1486660670.590,94.727,30.273,29.785,77.148,73.242,0
1486660670.594,42.480,29.297,39.551,47.852,73.730,0
1486660670.598,-25.879,24.902,50.781,30.273,64.453,0
1486660670.602,-21.484,18.555,43.457,37.598,43.945,0
1486660670.606,55.176,18.066,36.621,62.012,33.203,0
1486660670.610,89.844,24.414,31.250,70.801,70.312,0
1486660670.614,49.805,31.738,39.551,50.293,53.711,0
1486660670.617,-20.508,31.250,55.176,30.273,16.602,0
1486660670.621,-27.344,25.391,50.293,30.762,17.578,0
1486660670.625,48.340,25.879,43.945,56.152,11.719,0
1486660670.629,85.938,26.855,38.086,71.777,46.875,0
1486660670.633,54.688,29.785,40.527,58.594,54.688,0
1486660670.637,-1.953,38.574,53.223,45.898,30.273,0
1486660670.641,-26.367,32.715,46.875,37.598,15.137,0
1486660670.645,33.691,22.949,35.645,44.434,24.414,0
1486660670.649,91.797,26.855,30.273,62.500,67.871,0
1486660670.653,69.824,32.715,32.715,57.129,70.801,0
1486660670.656,4.395,34.668,50.293,35.645,41.992,0
1486660670.660,-25.879,30.762,50.293,31.738,32.715,0
1486660670.664,30.273,30.273,47.363,49.316,6.348,0
1486660670.668,89.355,35.645,42.480,64.453,21.973,0
1486660670.672,77.637,39.551,38.574,64.941,52.734,0
1486660670.676,16.602,39.062,45.898,43.457,29.785,0
1486660670.680,-27.344,33.691,44.434,27.344,24.414,0
1486660670.684,32.715,36.133,42.480,53.223,33.203,0
1486660670.688,103.027,41.992,41.016,79.590,37.598,0
1486660670.692,81.543,37.598,35.156,64.453,52.734,0
1486660670.696,19.043,37.109,42.480,41.504,57.617,0
1486660670.699,-26.367,35.156,51.270,30.273,19.531,0
1486660670.703,10.742,33.203,44.922,44.922,19.043,0
1486660670.707,85.449,30.762,37.109,73.730,58.594,0
1486660670.711,91.797,33.203,43.457,73.242,76.660,0
1486660670.715,29.297,36.621,46.387,43.945,66.895,0
1486660670.719,-30.273,35.645,48.828,30.762,50.781,0
1486660670.723,0.977,32.227,45.410,43.945,55.176,0
1486660670.727,77.148,31.738,35.156,68.848,88.867,0
1486660670.731,90.332,38.086,34.668,77.637,88.867,0
1486660670.735,40.527,39.551,42.969,57.617,46.387,0
1486660670.739,-25.879,32.715,46.875,32.227,23.438,0
1486660670.742,-1.465,33.203,46.875,39.551,38.086,0
1486660670.746,77.637,34.668,37.598,65.918,49.805,0
1486660670.750,90.820,32.227,34.668,64.453,49.316,0
1486660670.754,45.410,32.715,42.969,46.875,49.316,0
1486660670.758,-14.648,29.785,51.270,36.621,45.898,0
1486660670.762,-10.742,25.879,47.363,43.945,36.621,0
1486660670.766,65.918,29.297,31.738,69.336,53.223,0
1486660670.770,97.656,34.180,33.203,83.496,91.797,0
1486660670.774,54.688,33.203,41.016,59.082,69.336,0
1486660670.778,-13.184,31.738,43.945,31.250,47.852,0
1486660670.781,-16.602,30.762,43.457,37.109,73.242,0
1486660670.785,61.035,28.320,39.062,61.523,72.754,0
1486660670.789,98.633,30.762,37.109,74.707,94.727,0
1486660670.793,62.012,38.086,41.016,61.035,67.871,0
1486660670.797,-3.906,39.062,53.223,46.387,15.625,0
1486660670.801,-20.996,24.902,47.363,41.504,42.969,0
1486660670.805,44.434,21.973,35.156,51.758,35.156,0
1486660670.809,88.379,26.367,32.715,75.195,82.520,0
1486660670.813,62.500,28.809,37.598,66.406,99.609,0
1486660670.817,0.000,31.738,45.898,41.504,62.500,0
1486660670.821,-26.855,29.297,50.781,36.133,54.199,0
1486660670.824,36.621,28.809,50.293,62.012,47.363,0
1486660670.828,99.121,34.180,43.457,91.309,55.176,0
1486660670.832,82.520,34.180,39.551,84.961,91.309,0
1486660670.836,14.648,29.785,41.016,58.594,78.613,0
1486660670.840,-27.344,27.344,44.922,43.457,39.551,0
1486660670.844,31.738,27.344,38.086,50.781,31.738,0
1486660670.848,99.121,29.297,35.645,74.707,66.406,0
1486660670.852,85.938,36.133,46.387,78.125,103.027,0
1486660670.856,19.043,37.109,50.293,50.293,76.172,0
1486660670.860,-36.621,26.855,46.875,28.809,36.133,1
1486660670.863,9.766,24.902,42.969,44.922,7.812,0
1486660670.867,82.520,27.832,35.156,61.035,35.156,0
1486660670.871,82.520,32.715,35.645,62.988,78.613,0
1486660670.875,21.973,32.715,44.922,51.270,105.957,0
1486660670.879,-35.156,32.227,49.805,32.227,56.641,0
1486660670.883,1.465,30.273,51.270,42.969,35.156,0
1486660670.887,74.707,20.996,43.457,70.312,54.199,0
1486660670.891,77.637,23.926,38.086,74.707,59.570,0
1486660670.895,22.949,30.273,41.992,52.246,75.684,0
1486660670.899,-32.715,26.855,50.781,37.598,44.434,0
1486660670.903,-11.719,22.461,47.363,41.016,-6.348,0
1486660670.906,62.988,26.855,35.156,64.941,38.574,0
1486660670.910,85.938,34.668,37.598,82.520,83.496,0
1486660670.914,39.551,29.297,43.945,58.594,23.926,0
1486660670.918,-23.926,26.367,51.270,37.598,10.254,0
1486660670.922,-9.277,23.926,50.781,47.363,37.109,0
1486660670.926,64.453,21.484,36.621,64.453,51.270,0
1486660670.930,99.609,26.855,32.715,73.730,63.477,0
1486660670.934,64.453,31.738,43.457,65.430,41.992,0
1486660670.938,-7.324,32.227,58.105,47.852,14.648,0
1486660670.942,-11.719,29.785,56.152,50.293,12.695,0
1486660670.946,61.035,25.879,38.086,72.754,36.133,0
1486660670.949,91.309,26.367,32.227,83.008,73.730,0
1486660670.953,52.734,29.297,41.016,68.848,61.523,0
1486660670.957,-15.137,30.762,51.270,49.316,19.043,0
1486660670.961,-33.203,30.273,44.922,42.480,6.836,0
1486660670.965,40.039,25.879,35.156,58.105,29.785,0
1486660670.969,96.680,33.691,35.645,83.496,67.383,0
1486660670.973,68.359,39.551,46.387,74.219,62.012,0
1486660670.977,-3.906,32.227,51.270,43.945,6.348,0
1486660670.981,-27.832,27.344,45.410,40.527,-16.602,0
1486660670.985,41.016,20.508,36.133,53.711,4.883,0
1486660670.988,96.680,22.949,29.297,68.359,46.875,0
1486660670.992,74.219,32.227,38.574,62.988,47.852,0
1486660670.996,8.789,35.156,52.246,44.922,-11.230,0
1486660671.000,-32.715,33.691,48.828,37.109,-24.414,0
1486660671.004,21.973,31.250,37.109,47.852,-1.465,0
1486660671.008,88.379,30.762,31.250,70.312,42.480,0
1486660671.012,70.312,30.762,34.668,63.477,77.637,0
1486660671.016,4.395,29.297,49.805,38.086,45.410,0
1486660671.020,-37.598,25.391,50.781,34.668,19.531,0
1486660671.024,12.207,26.855,37.598,49.805,14.160,0
1486660671.028,83.496,32.227,32.227,66.895,29.297,0
1486660671.031,75.195,36.133,34.180,65.918,50.781,0
1486660671.035,23.926,39.062,42.480,50.293,30.762,0
1486660671.039,-33.691,31.738,39.062,40.039,26.855,0
1486660671.043,-8.789,22.949,33.691,41.992,37.598,0
1486660671.047,73.730,28.320,33.203,64.453,84.961,0
1486660671.051,81.055,35.156,30.762,71.289,125.977,0
1486660671.055,23.926,34.668,39.062,43.457,89.355,0
1486660671.059,-30.762,34.180,39.551,28.320,40.039,0
1486660671.063,-3.906,31.250,32.715,39.062,6.836,0
1486660671.067,75.195,29.785,33.203,62.500,30.273,0
1486660671.071,96.680,36.133,29.785,76.660,58.594,0
1486660671.074,46.875,37.109,35.645,59.082,33.691,0
1486660671.078,-14.648,32.715,43.945,38.086,23.438,0
1486660671.082,0.000,31.738,44.922,43.457,1.953,0
1486660671.086,77.148,32.227,42.969,70.801,1.953,0
1486660671.090,102.539,37.109,42.969,91.797,54.199,0
1486660671.094,57.617,38.574,47.363,70.801,58.594,0
1486660671.098,-14.648,32.227,44.434,46.387,45.898,0
1486660671.102,-9.766,34.180,50.293,52.246,47.852,0
1486660671.106,68.359,37.109,47.363,71.289,41.992,0
1486660671.110,97.656,30.273,38.574,83.008,68.359,0
1486660671.113,62.012,32.715,48.828,65.430,73.730,0
1486660671.117,-5.371,35.645,61.523,40.527,56.641,0
1486660671.121,-19.531,33.203,56.152,39.551,19.043,0
1486660671.125,53.711,26.367,40.527,56.152,-21.484,0
1486660671.129,95.215,30.273,38.574,76.172,7.324,0
1486660671.133,57.617,37.109,42.480,63.477,25.879,0
1486660671.137,-7.324,34.180,50.781,38.574,11.230,0
1486660671.141,-26.855,32.227,53.711,32.227,17.578,0
1486660671.145,40.039,34.180,43.457,48.828,39.062,0
1486660671.149,91.797,37.109,36.133,73.730,85.938,0
1486660671.153,75.195,38.574,42.969,65.430,88.379,0
1486660671.156,9.766,34.668,47.363,37.109,51.758,0
1486660671.160,-32.715,30.762,41.992,26.367,57.129,0
1486660671.164,24.902,29.297,35.645,44.922,41.016,0
1486660671.168,83.496,29.297,31.250,65.430,70.801,0
1486660671.172,68.848,31.250,33.203,53.711,105.957,0
1486660671.176,9.766,36.621,46.875,37.598,88.867,0
1486660671.180,-39.062,30.273,51.270,25.391,61.523,0
1486660671.184,3.418,23.438,33.203,31.738,21.484,0
1486660671.188,80.078,25.391,29.297,65.918,50.781,0
1486660671.192,65.918,24.902,33.691,58.105,79.590,0
1486660671.196,2.930,30.762,38.574,30.762,27.344,0
1486660671.199,-39.062,30.273,42.969,23.926,-7.812,0
1486660671.203,-8.789,24.414,35.156,33.691,11.230,0
1486660671.207,68.359,25.879,31.738,61.035,31.250,0
1486660671.211,82.520,30.273,39.551,66.406,59.082,0
1486660671.215,25.879,31.250,46.875,48.340,67.383,0
1486660671.219,-31.738,27.832,48.828,34.668,47.363,0
1486660671.223,-4.395,24.902,47.363,39.551,37.109,0
1486660671.227,76.172,29.297,45.898,71.777,8.301,0
1486660671.231,85.449,30.762,38.574,71.777,49.805,0
1486660671.235,29.297,31.738,44.434,48.340,34.180,0
1486660671.238,-29.785,30.762,54.199,34.668,-24.414,0
1486660671.242,-21.484,23.438,44.922,31.250,-7.324,0
1486660671.246,58.594,23.926,41.504,66.895,16.113,0
1486660671.250,86.914,27.832,41.016,85.449,79.590,0
1486660671.254,43.457,31.738,41.016,61.035,79.102,0
1486660671.258,-24.414,29.297,44.434,34.180,41.016,0
1486660671.262,-21.973,26.855,42.480,40.039,54.688,0
1486660671.266,61.523,30.273,38.574,66.895,86.426,0
1486660671.270,91.797,28.809,34.180,69.336,93.262,0
1486660671.274,48.340,29.297,36.133,47.852,54.199,0
1486660671.278,-13.672,32.227,43.457,29.785,54.199,0
1486660671.281,-28.320,26.855,43.457,30.273,33.203,0
1486660671.285,42.969,21.484,35.645,53.711,13.672,0
1486660671.289,87.891,24.902,33.203,70.312,65.430,0
1486660671.293,61.035,35.156,42.480,59.570,73.730,0
1486660671.297,-5.859,36.133,47.852,37.598,79.102,0
1486660671.301,-37.109,28.809,43.457,33.691,77.637,0
1486660671.305,33.203,28.320,37.598,55.664,19.043,0
1486660671.309,87.891,26.367,28.809,72.754,50.781,0
1486660671.313,61.523,27.832,28.809,65.918,99.609,0
1486660671.317,-0.488,27.832,42.480,43.457,74.707,0
1486660671.320,-31.738,27.832,46.387,28.320,48.340,0
1486660671.324,34.180,27.344,42.969,51.270,31.250,0
1486660671.328,104.492,27.832,39.551,83.496,38.574,0
1486660671.332,84.473,32.227,40.527,74.219,51.758,0
1486660671.336,21.484,35.645,52.246,52.246,53.223,0
1486660671.340,-20.996,33.203,48.340,46.387,27.344,0
1486660671.344,31.738,31.250,37.109,58.105,3.906,0
1486660671.348,102.539,35.156,31.738,74.219,41.504,0
1486660671.352,87.891,39.062,29.297,68.359,85.938,0
1486660671.356,28.809,40.527,36.133,43.457,60.547,0
1486660671.360,-11.230,41.504,49.805,41.992,15.625,0
1486660671.363,21.973,32.715,45.410,55.664,-4.395,0
1486660671.367,88.379,25.879,34.668,70.312,23.438,0
1486660671.371,90.332,30.273,38.086,69.824,55.664,0
1486660671.375,34.180,33.203,38.086,46.875,38.086,0
1486660671.379,-25.391,28.320,39.551,33.691,28.809,0
1486660671.383,4.395,25.879,39.551,46.387,1.953,0
1486660671.387,81.543,30.273,34.668,73.730,-4.395,0
1486660671.391,84.961,30.762,31.250,82.031,39.551,0
1486660671.395,36.621,30.762,37.109,59.570,31.250,0
1486660671.399,-23.438,30.762,45.410,36.133,-22.949,0
1486660671.403,-11.719,26.855,42.969,46.387,-29.297,0
1486660671.406,69.336,23.926,34.668,74.219,0.000,0
1486660671.410,97.656,30.273,37.598,80.078,17.090,0
1486660671.414,48.340,33.691,42.480,54.688,18.555,0
1486660671.418,-22.949,32.715,48.828,36.621,-7.324,0
1486660671.422,-21.973,25.879,46.387,40.039,-6.836,0
1486660671.426,69.336,28.809,45.410,68.848,24.414,0
1486660671.430,105.957,38.086,51.758,92.285,34.180,0
1486660671.434,52.246,31.738,44.922,63.965,59.082,0
1486660671.438,-8.789,28.809,48.340,43.945,45.898,0
1486660671.442,-15.625,24.902,44.922,46.387,-0.488,0
1486660671.445,60.059,24.414,36.133,65.918,3.418,0
1486660671.449,105.469,31.738,37.598,86.914,55.176,0
1486660671.453,65.918,35.156,41.504,72.266,60.059,0
1486660671.457,-6.836,30.762,46.387,43.457,22.949,0
1486660671.461,-24.414,24.414,44.434,42.480,-11.719,0
1486660671.465,42.480,18.555,35.156,54.199,-15.625,0
1486660671.469,98.633,25.391,36.133,72.266,57.617,0
1486660671.473,71.777,34.668,43.945,66.406,77.637,0
1486660671.477,-6.836,29.785,44.434,33.203,39.551,0
1486660671.481,-41.504,23.438,45.898,25.391,44.922,0
1486660671.485,24.414,21.973,38.086,39.062,49.316,0
1486660671.488,83.496,29.785,29.297,62.012,106.934,0
1486660671.492,66.895,34.180,39.551,60.547,133.301,0
1486660671.496,3.906,28.320,49.316,35.645,71.777,0
1486660671.500,-40.039,24.902,45.898,34.668,40.527,0
1486660671.504,16.113,23.926,38.086,49.316,27.832,0
1486660671.508,88.379,26.855,31.250,69.824,45.898,0
1486660671.512,82.520,31.738,36.621,66.895,93.262,0
1486660671.516,18.555,27.344,45.898,43.945,23.926,0
1486660671.520,-30.762,28.809,50.293,35.156,-11.719,0
1486660671.524,13.184,30.273,47.852,41.504,-8.301,0
1486660671.528,84.473,31.738,41.992,64.941,-17.578,0
1486660671.531,84.961,38.086,35.156,67.383,18.555,0
1486660671.535,22.949,31.738,39.551,46.387,17.090,0
1486660671.539,-27.832,23.926,42.969,33.691,7.812,0
1486660671.543,3.906,22.949,38.574,42.969,-0.977,0
1486660671.547,77.148,25.879,32.227,71.289,24.414,1
1486660671.551,91.797,32.715,37.598,75.684,53.223,0
1486660671.555,41.016,36.621,45.898,48.340,16.113,0
1486660671.559,-28.320,27.832,48.340,27.832,4.395,0
1486660671.563,-11.719,24.414,50.781,40.527,38.086,0
1486660671.567,74.707,26.855,39.551,66.895,53.711,0
1486660671.570,97.168,28.809,30.762,76.660,71.289,0
1486660671.574,47.852,34.180,38.086,58.594,88.867,0
1486660671.578,-17.090,33.203,49.805,42.480,49.316,0
1486660671.582,-13.672,28.809,43.945,43.457,11.719,0
1486660671.586,63.965,29.297,32.227,64.453,11.719,0
1486660671.590,98.633,36.621,33.203,81.055,54.199,0
1486660671.594,61.523,42.480,51.758,63.965,68.848,0
1486660671.598,-11.230,34.668,61.523,46.875,14.648,0
1486660671.602,-20.020,27.344,55.664,49.805,9.277,0
1486660671.606,56.641,25.879,41.992,66.895,38.086,0
1486660671.610,91.309,28.320,35.645,80.566,84.961,0
1486660671.613,51.270,32.227,41.504,60.547,80.566,0
1486660671.617,-11.719,33.203,54.688,40.527,35.156,0
1486660671.621,-29.785,24.902,51.758,34.180,22.949,0
1486660671.625,43.457,25.391,41.016,49.805,23.926,0
1486660671.629,102.051,37.109,39.062,75.684,59.082,0
1486660671.633,75.684,42.969,41.992,62.012,81.055,0
1486660671.637,8.301,37.598,45.410,36.621,62.988,0
1486660671.641,-24.902,26.855,40.527,32.227,43.457,0
1486660671.645,40.527,25.391,38.086,51.758,0.977,0
1486660671.649,100.098,27.344,33.691,77.148,8.301,0
1486660671.653,82.031,36.621,36.621,72.266,79.102,0
1486660671.656,14.160,36.133,47.363,41.992,65.918,0
1486660671.660,-34.668,25.391,46.387,29.785,24.414,0
1486660671.664,19.531,27.344,39.062,48.828,26.367,0
1486660671.668,85.938,29.785,34.180,73.730,62.500,0
1486660671.672,78.125,29.785,40.039,62.012,109.375,0
1486660671.676,13.184,27.832,42.480,34.180,62.988,0
1486660671.680,-38.574,25.391,41.504,29.297,20.508,0
1486660671.684,11.230,23.438,41.016,47.852,23.438,0
1486660671.688,90.332,24.414,36.133,73.730,55.664,0
1486660671.692,88.867,25.879,37.598,73.242,114.746,0
1486660671.695,33.203,27.832,49.805,55.664,62.500,0
1486660671.699,-22.461,29.785,53.711,46.387,8.301,0
1486660671.703,0.977,26.367,43.945,54.199,9.766,0
1486660671.707,76.172,26.855,36.621,78.125,58.105,0
1486660671.711,91.309,39.062,45.898,83.008,78.613,0
1486660671.715,31.250,33.691,49.316,54.688,55.176,0
1486660671.719,-38.574,21.484,45.898,27.832,43.945,0
1486660671.723,-14.648,21.484,42.480,31.250,30.762,0
1486660671.727,65.918,25.879,39.062,66.406,50.781,0
1486660671.731,86.426,32.715,38.574,75.684,91.797,0
1486660671.735,41.504,31.738,38.574,55.176,52.246,0
1486660671.738,-20.508,24.902,39.551,42.480,20.508,0
1486660671.742,-10.742,26.367,37.598,43.945,41.016,0
1486660671.746,74.219,34.180,28.320,65.430,65.430,0
1486660671.750,101.562,36.133,26.855,72.266,73.242,0
1486660671.754,58.105,39.062,40.039,55.176,62.012,0
1486660671.758,1.465,36.621,46.387,42.480,34.668,0
1486660671.762,2.930,29.785,41.504,45.410,19.043,0
1486660671.766,82.031,31.738,34.668,61.523,0.488,0
1486660671.770,112.793,32.227,28.320,68.359,42.480,0
1486660671.774,74.707,32.715,34.668,57.129,79.102,0
1486660671.777,6.348,37.109,49.316,45.898,26.855,0
1486660671.781,-13.672,27.832,47.852,48.340,-17.090,0
1486660671.785,58.105,25.391,36.621,71.777,-28.320,0
1486660671.789,105.469,35.156,37.109,94.238,68.848,0
1486660671.793,76.172,37.109,39.551,77.637,88.867,0
1486660671.797,10.742,37.109,52.246,54.688,6.836,0
1486660671.801,-17.090,32.227,50.781,44.434,-24.902,0
1486660671.805,49.805,29.297,37.109,62.012,-39.551,0
1486660671.809,109.375,32.715,35.156,85.449,35.156,0
1486660671.813,82.031,32.227,39.062,78.613,96.680,0
1486660671.817,19.531,34.668,49.805,62.500,43.945,0
1486660671.820,-15.137,31.738,47.852,48.340,2.930,0
1486660671.824,37.598,24.902,36.133,60.059,-3.418,0
1486660671.828,102.051,28.809,33.203,87.891,28.320,0
1486660671.832,88.379,34.180,37.109,80.566,51.758,0
1486660671.836,17.090,29.785,43.945,52.734,25.879,0
1486660671.840,-30.273,28.320,49.805,38.574,17.090,0
1486660671.844,16.113,25.879,39.062,50.293,10.742,0
1486660671.848,87.402,26.855,28.809,73.730,78.613,0
1486660671.852,85.938,32.227,33.203,71.777,116.699,0
1486660671.856,20.996,30.762,39.062,50.781,66.406,0
1486660671.860,-33.203,26.855,43.457,35.645,20.996,0
1486660671.863,-0.977,23.438,38.574,42.969,5.859,0
1486660671.867,72.266,26.367,32.715,59.082,43.945,0
1486660671.871,80.566,31.738,33.203,62.012,64.941,0
1486660671.875,27.344,29.785,44.922,51.758,41.504,0
1486660671.879,-27.832,29.297,57.129,31.738,21.973,0
1486660671.883,-7.812,25.879,46.875,33.203,0.488,0
1486660671.887,67.871,28.320,31.738,57.617,25.879,0
1486660671.891,89.355,34.180,30.762,64.941,63.965,0
1486660671.895,44.922,31.738,41.504,48.340,21.484,0
1486660671.899,-15.137,30.762,49.805,36.133,-0.977,0
1486660671.902,-7.812,24.902,40.527,41.504,20.020,0
1486660671.906,68.359,25.391,28.320,60.059,33.691,0
1486660671.910,102.051,33.203,32.227,69.336,87.891,0
1486660671.914,61.523,37.598,40.527,54.199,84.473,0
1486660671.918,-11.230,34.180,44.434,32.227,16.602,0
1486660671.922,-18.066,24.902,41.504,33.691,2.930,0
1486660671.926,58.105,21.973,28.809,56.152,45.410,0
1486660671.930,93.262,28.809,24.902,72.754,92.285,0
1486660671.934,54.688,32.715,33.691,58.594,77.148,0
1486660671.938,-11.719,32.227,45.898,37.598,40.527,0
1486660671.942,-25.391,33.203,46.387,35.645,34.180,0
1486660671.945,50.293,32.715,40.039,53.711,68.359,0
1486660671.949,97.168,34.668,36.621,69.824,74.707,0
1486660671.953,60.547,37.598,42.969,52.734,47.852,0
1486660671.957,-3.906,37.109,49.805,23.926,38.086,0
1486660671.961,-29.785,27.832,41.992,21.484,36.621,0
1486660671.965,38.086,26.855,36.133,44.434,42.480,0
1486660671.969,98.145,31.250,37.598,62.500,80.566,0
1486660671.973,65.918,27.344,41.992,48.828,93.262,0
1486660671.977,3.906,30.273,54.199,34.668,62.988,0
1486660671.981,-27.344,29.785,53.223,32.227,5.859,0
1486660671.985,27.832,27.344,47.363,50.781,15.137,0
1486660671.988,93.262,30.762,44.922,74.707,48.340,0
1486660671.992,80.566,36.133,43.457,66.406,40.039,0
1486660671.996,18.555,36.133,53.711,46.875,22.461,0
1486660672.000,-23.926,24.414,51.270,38.086,-17.578,0
1486660672.004,23.438,22.461,38.574,42.969,-30.273,0
1486660672.008,94.238,30.273,38.574,68.848,20.020,0
1486660672.012,87.891,32.227,40.527,71.289,45.898,0
1486660672.016,22.949,31.250,40.527,45.898,21.973,0
1486660672.020,-28.809,29.297,43.457,32.227,0.488,0
1486660672.024,7.812,25.391,40.039,39.551,-11.230,0
1486660672.027,86.914,30.273,38.574,63.477,28.320,0
1486660672.031,95.703,37.598,47.852,76.660,88.379,0
1486660672.035,32.227,33.203,51.270,51.270,53.711,0
1486660672.039,-28.809,29.297,53.223,29.785,0.977,0
1486660672.043,-6.348,28.320,41.992,39.062,-14.648,0
1486660672.047,68.848,28.809,28.809,64.941,5.859,0
1486660672.051,87.402,33.203,33.203,75.195,69.336,0
1486660672.055,34.668,34.180,41.992,53.223,74.707,0
1486660672.059,-23.926,33.691,46.875,39.062,33.203,0
1486660672.063,-10.742,30.273,45.898,44.434,16.602,0
1486660672.067,60.547,29.785,35.645,72.266,63.477,0
1486660672.070,97.168,39.551,35.645,88.379,106.445,0
1486660672.074,56.641,43.457,45.898,64.941,43.457,0
1486660672.078,-23.926,34.668,52.246,44.434,29.297,0
1486660672.082,-22.949,26.855,46.875,43.457,54.199,0
1486660672.086,57.617,24.902,38.086,63.477,17.090,0
1486660672.090,92.285,30.762,36.621,80.566,53.711,0
1486660672.094,61.523,32.227,41.016,64.453,71.777,0
1486660672.098,-4.883,26.367,48.828,43.945,66.406,0
1486660672.102,-21.484,23.926,48.340,44.922,75.195,0
1486660672.106,59.082,28.320,41.992,67.383,24.902,0
1486660672.110,108.398,37.109,37.598,90.820,69.336,0
1486660672.113,75.195,33.691,35.156,70.312,114.746,0
1486660672.117,7.812,30.273,40.527,45.898,75.195,0
1486660672.121,-19.531,30.273,43.945,44.434,52.246,0
1486660672.125,52.734,24.414,36.621,62.500,58.105,0
1486660672.129,104.492,28.809,34.668,84.473,123.535,0
1486660672.133,78.125,37.109,44.434,76.660,122.070,0
1486660672.137,13.672,35.156,51.758,58.594,40.527,0
1486660672.141,-27.344,28.320,50.781,45.898,31.250,0
1486660672.145,30.762,19.043,40.039,56.152,51.758,0
1486660672.149,91.797,22.461,33.203,80.078,77.637,0
1486660672.152,70.801,28.809,38.574,68.848,93.262,0
1486660672.156,6.836,29.785,45.410,38.574,46.387,1
1486660672.160,-34.180,29.297,44.434,28.809,40.039,0
1486660672.164,19.043,31.738,45.410,45.410,25.879,0
1486660672.168,83.496,28.809,36.621,60.547,46.387,0
1486660672.172,70.801,27.344,26.855,50.781,72.266,0
1486660672.176,10.742,33.203,39.062,31.250,24.414,0
1486660672.180,-34.180,29.297,47.363,23.438,-12.695,0
1486660672.184,5.371,22.949,37.109,29.785,5.371,0
1486660672.188,77.148,26.855,27.832,60.547,61.523,0
1486660672.192,87.402,35.156,33.203,72.266,77.148,0
1486660672.195,36.133,34.180,39.062,53.223,59.570,0
1486660672.199,-14.160,36.133,46.387,50.293,30.762,0
1486660672.203,20.508,37.598,45.410,62.500,15.625,0
1486660672.207,94.727,33.691,30.762,83.008,52.734,0
1486660672.211,104.004,36.621,28.809,86.426,103.027,0
1486660672.215,51.758,37.598,37.598,63.965,62.500,0
1486660672.219,-8.301,35.156,46.387,49.316,30.762,0
1486660672.223,13.672,35.645,44.922,57.617,49.316,0
1486660672.227,93.262,33.203,34.668,73.730,66.895,0
1486660672.231,111.328,29.785,37.109,78.125,67.871,0
1486660672.234,60.547,29.297,46.387,64.941,44.922,0
1486660672.238,-8.301,28.320,48.828,44.922,26.855,0
1486660672.242,-3.906,26.367,41.992,39.551,-8.789,0
1486660672.246,76.660,22.461,30.762,65.430,-13.672,0
1486660672.250,107.422,26.855,32.227,84.473,56.641,0
1486660672.254,62.500,35.645,44.922,62.988,88.867,0
1486660672.258,-11.719,28.809,44.922,32.715,39.551,0
1486660672.262,-26.367,20.996,39.062,29.785,-2.930,0
1486660672.266,55.176,24.414,35.645,54.688,10.254,0
1486660672.270,100.098,26.367,32.227,77.637,65.918,0
1486660672.274,65.430,28.320,35.156,62.988,61.035,0
1486660672.277,-1.465,30.273,40.527,41.016,23.926,0
1486660672.281,-14.160,35.156,43.945,41.504,41.016,0
1486660672.285,61.523,35.156,41.016,59.570,47.363,0
1486660672.289,102.051,31.250,32.715,79.590,65.430,0
1486660672.293,71.777,32.715,39.551,73.730,80.566,0
1486660672.297,5.371,26.855,47.363,42.969,83.008,0
1486660672.301,-29.785,21.973,43.945,29.297,66.406,0
1486660672.305,36.621,21.484,40.527,56.152,72.266,0
1486660672.309,100.586,26.367,35.156,82.031,114.746,0
1486660672.313,80.566,33.203,33.691,72.754,102.051,0
1486660672.317,18.066,34.180,41.504,54.199,59.082,0
1486660672.320,-15.625,31.738,47.852,43.945,65.430,0
1486660672.324,44.434,27.344,47.363,60.059,39.062,0
1486660672.328,109.375,27.832,37.598,88.867,39.062,0
1486660672.332,95.215,33.203,39.551,79.102,60.547,0
1486660672.336,35.156,34.668,54.199,55.664,22.461,0
1486660672.340,-22.461,26.855,48.828,38.086,33.691,0
1486660672.344,21.973,25.879,36.621,43.945,33.691,0
1486660672.348,102.539,31.738,35.645,76.172,35.645,0
1486660672.352,94.727,32.227,38.574,77.148,75.684,0
1486660672.356,36.133,29.785,41.504,48.340,71.777,0
1486660672.359,-16.602,36.621,54.199,34.180,47.363,0
1486660672.363,12.207,36.133,55.176,45.410,24.902,0
1486660672.367,82.520,21.973,34.668,65.430,41.992,0
1486660672.371,94.727,28.320,32.227,70.312,82.031,0
1486660672.375,42.969,32.227,42.969,44.922,57.129,0
1486660672.379,-23.438,27.344,46.387,25.391,20.996,0
1486660672.383,-6.836,26.855,37.598,27.832,8.301,0
1486660672.387,75.195,30.273,32.715,55.176,6.836,0
1486660672.391,92.773,33.691,36.621,72.266,59.082,0
1486660672.395,45.410,33.691,44.434,54.688,68.848,0
1486660672.399,-15.625,32.227,55.664,38.574,31.250,0
1486660672.402,-12.207,27.344,47.363,43.457,14.160,0
1486660672.406,62.500,26.367,32.227,63.965,58.594,0
1486660672.410,89.844,25.879,32.227,72.266,88.867,0
1486660672.414,51.270,24.902,36.133,57.617,41.504,0
1486660672.418,-10.254,26.367,41.992,36.621,38.574,0
1486660672.422,-17.090,23.438,42.969,33.203,16.602,0
1486660672.426,59.082,26.367,37.598,64.453,-13.184,0
1486660672.430,105.469,35.645,40.527,86.426,47.363,0
1486660672.434,65.430,31.250,45.410,62.500,76.172,0
1486660672.438,-8.301,24.902,45.410,36.621,61.523,0
1486660672.442,-23.926,25.879,38.574,30.762,24.414,0
1486660672.445,44.922,25.391,31.738,53.711,10.254,0
1486660672.449,94.727,27.344,30.762,76.172,79.590,0
1486660672.453,66.895,30.762,34.668,60.547,114.258,0
1486660672.457,0.488,31.738,44.434,37.109,79.102,0
1486660672.461,-27.832,25.391,46.875,32.227,28.320,0
1486660672.465,37.598,21.973,42.969,55.664,11.230,0
1486660672.469,95.703,22.949,35.645,74.707,20.508,0
1486660672.473,72.754,33.203,35.156,66.895,52.734,0
1486660672.477,4.395,37.598,49.316,44.922,39.062,0
1486660672.481,-33.691,26.855,49.316,35.156,-17.578,0
1486660672.484,19.043,23.438,41.504,55.664,3.906,0
1486660672.488,83.496,21.484,41.504,77.148,24.414,0
1486660672.492,72.754,20.996,40.039,68.359,52.734,0
1486660672.496,12.207,23.438,47.363,47.852,47.852,0
1486660672.500,-31.738,20.996,50.293,38.086,7.324,0
1486660672.504,3.418,16.602,35.645,46.387,18.555,0
1486660672.508,74.707,22.461,29.785,75.195,68.848,0
1486660672.512,80.566,28.809,36.133,77.148,44.434,0
1486660672.516,20.508,30.762,44.922,48.340,22.949,0
1486660672.520,-36.133,24.902,48.828,33.691,24.414,0
1486660672.524,-2.441,21.973,47.852,44.434,6.836,0
1486660672.527,76.172,25.879,43.945,64.941,22.461,0
1486660672.531,82.520,31.250,35.156,65.918,38.574,0
1486660672.535,30.762,32.715,35.645,41.992,26.367,0
1486660672.539,-29.297,25.879,41.016,27.832,24.414,0
1486660672.543,-13.184,22.949,36.133,41.016,6.836,0
1486660672.547,67.871,28.809,33.203,66.406,-1.465,0
1486660672.551,92.285,31.250,36.621,79.590,80.566,0
1486660672.555,46.387,33.203,46.387,57.129,81.543,0
1486660672.559,-16.113,32.227,52.246,36.133,27.832,0
1486660672.563,-10.254,26.367,45.898,35.645,36.133,0
1486660672.567,71.289,25.879,32.715,54.199,26.855,0
1486660672.570,110.840,34.180,32.227,77.148,58.105,0
1486660672.574,69.824,32.715,38.574,55.664,63.965,0
1486660672.578,-6.348,25.879,38.574,24.414,40.039,0
1486660672.582,-8.301,28.809,37.598,32.715,39.551,0
1486660672.586,67.871,30.762,32.227,56.641,26.855,0
1486660672.590,104.004,36.133,35.156,70.312,64.453,0
1486660672.594,75.195,36.621,41.992,55.176,62.012,0
1486660672.598,-2.930,31.250,45.410,32.227,49.316,0
1486660672.602,-27.344,24.902,44.922,35.156,55.664,0
1486660672.606,55.176,26.367,34.180,57.129,58.594,0
1486660672.609,106.445,34.180,32.715,77.148,114.258,0
1486660672.613,72.266,30.762,39.062,65.430,132.812,0
1486660672.617,0.488,32.227,48.828,42.480,85.938,0
1486660672.621,-27.832,29.297,53.223,39.062,46.875,0
1486660672.625,36.133,20.996,39.551,52.246,25.879,0
1486660672.629,99.609,32.715,41.016,80.566,53.711,0
1486660672.633,78.125,35.645,45.898,70.312,75.684,0
1486660672.637,7.324,29.785,49.805,40.527,41.992,0
1486660672.641,-25.879,31.250,52.734,39.551,9.277,0
1486660672.645,37.598,28.809,40.039,48.828,25.879,0
1486660672.649,105.957,30.762,34.668,75.684,59.082,0
1486660672.652,86.914,33.691,39.551,74.707,91.309,0
1486660672.656,20.020,32.227,45.410,45.898,73.730,0
1486660672.660,-27.344,25.391,46.875,34.668,39.062,0
1486660672.664,21.484,21.484,41.992,43.457,42.969,0
1486660672.668,94.727,27.832,34.180,65.918,85.449,0
1486660672.672,91.309,32.715,34.668,68.848,121.582,0
1486660672.676,35.645,33.203,43.945,48.828,72.754,0
1486660672.680,-18.555,27.832,54.199,37.109,32.715,0
1486660672.684,19.043,22.461,46.387,47.852,33.203,0
1486660672.688,98.633,28.320,30.273,68.359,71.777,0
1486660672.691,104.492,39.062,28.809,71.777,95.703,0
1486660672.695,48.828,41.992,41.016,50.293,62.988,0
1486660672.699,-20.996,29.297,44.434,20.020,40.527,0
1486660672.703,0.000,24.902,34.668,29.785,41.016,0
1486660672.707,82.520,31.250,31.250,61.523,48.340,0
1486660672.711,100.098,32.227,37.109,65.918,67.871,0
1486660672.715,53.223,32.715,46.387,49.316,27.344,0
1486660672.719,-12.695,32.715,44.434,33.203,-9.277,0
1486660672.723,-1.953,28.809,34.180,39.062,5.859,0
1486660672.727,77.637,29.297,34.180,68.359,36.133,0
1486660672.731,108.398,35.156,39.062,81.543,79.102,0
1486660672.734,66.406,40.527,42.480,62.988,42.969,0
1486660672.738,-7.324,35.645,47.363,43.457,14.648,0
1486660672.742,-8.789,27.344,43.945,43.945,1.465,1
1486660672.746,68.848,29.297,43.457,68.359,10.742,0
1486660672.750,99.609,31.250,48.828,81.055,57.617,0
1486660672.754,60.059,30.273,44.434,62.012,65.430,0
1486660672.758,-2.930,32.715,47.363,37.598,37.109,0
1486660672.762,-14.160,31.738,48.828,35.645,13.184,0
1486660672.766,56.152,24.414,40.039,52.734,15.625,0
1486660672.770,101.074,30.273,30.762,62.988,30.762,0
1486660672.774,67.383,34.668,27.832,48.340,89.355,0
1486660672.777,1.953,29.297,41.992,31.250,86.914,0
1486660672.781,-24.902,27.344,49.805,27.344,40.527,0
1486660672.785,46.875,27.344,39.551,41.504,33.203,0
1486660672.789,103.027,26.855,29.785,63.965,78.125,0
1486660672.793,76.660,31.738,35.156,60.059,83.984,0
1486660672.797,10.742,32.715,48.340,41.504,48.828,0
1486660672.801,-25.391,25.879,47.363,35.156,55.176,0
1486660672.805,30.762,21.973,36.133,48.340,46.387,0
1486660672.809,90.332,27.344,31.250,66.895,49.316,0
1486660672.813,78.125,33.691,33.203,59.082,50.781,0
1486660672.816,19.531,33.203,40.039,36.133,-7.812,0
1486660672.820,-13.672,39.551,50.781,33.691,-9.277,0
1486660672.824,31.738,34.180,45.898,50.293,-4.395,0
1486660672.828,92.285,28.809,32.227,66.406,24.414,0
1486660672.832,93.262,37.598,36.133,66.406,64.453,0
1486660672.836,31.738,38.574,43.945,44.922,52.734,0
1486660672.840,-26.367,33.691,47.852,31.738,1.465,0
1486660672.844,13.672,31.738,44.434,48.828,-29.297,0
1486660672.848,86.914,35.156,37.109,71.289,28.320,0
1486660672.852,89.844,38.086,32.715,76.172,85.938,0
1486660672.856,39.551,37.109,38.086,53.711,57.129,0
1486660672.859,-18.555,32.715,43.457,32.227,-0.488,0
1486660672.863,5.371,30.273,42.969,45.898,14.648,0
1486660672.867,78.125,31.250,36.133,67.871,55.664,0
1486660672.871,100.098,36.133,38.086,69.824,62.500,0
1486660672.875,44.434,34.668,43.457,48.340,40.527,0
1486660672.879,-29.785,27.344,40.527,24.902,52.734,0
1486660672.883,-10.742,23.438,34.668,31.738,20.508,0
1486660672.887,82.520,33.691,36.621,70.801,-10.254,0
1486660672.891,112.305,38.086,35.645,81.055,33.203,0
1486660672.895,55.664,28.320,32.715,52.246,54.199,0
1486660672.899,-9.766,32.715,49.316,39.551,43.945,0
1486660672.902,-2.441,31.250,50.293,43.945,-2.441,0
1486660672.906,78.125,29.297,34.180,69.824,13.672,0
1486660672.910,105.957,33.203,31.250,83.008,87.891,0
1486660672.914,61.523,32.715,41.504,62.988,28.809,0
1486660672.918,-6.836,34.668,44.922,42.480,-9.277,0
1486660672.922,-18.066,33.203,39.062,40.039,-1.465,0
1486660672.926,58.105,27.344,38.574,60.059,-32.227,0
1486660672.930,95.703,29.785,40.039,79.102,33.203,0
1486660672.934,62.988,32.715,45.898,68.359,54.688,0
1486660672.938,-1.465,29.297,48.828,47.852,-6.836,0
1486660672.941,-29.785,26.367,41.504,41.504,7.324,0
1486660672.945,39.062,25.391,36.133,54.199,12.695,0
1486660672.949,94.727,29.297,35.645,75.684,13.672,0
1486660672.953,69.336,31.738,38.574,68.848,44.922,0
1486660672.957,-0.977,30.273,47.852,45.898,23.926,0
1486660672.961,-35.156,22.949,49.805,39.062,13.184,0
1486660672.965,37.598,21.973,43.457,60.547,30.273,0
1486660672.969,97.656,25.391,39.062,81.543,71.289,0
1486660672.973,65.430,18.555,37.598,70.312,87.891,0
1486660672.977,2.441,18.066,44.922,51.270,78.613,0
1486660672.981,-37.598,19.043,50.781,41.504,39.062,0
1486660672.984,16.113,19.043,43.457,56.641,34.180,0
1486660672.988,90.820,23.926,34.668,80.078,88.379,0
1486660672.992,86.914,32.715,39.551,80.566,102.539,0
1486660672.996,27.344,31.738,48.340,58.594,62.500,0
1486660673.000,-15.625,28.320,54.199,46.875,36.133,0
1486660673.004,19.531,27.832,41.992,52.246,24.414,0
1486660673.008,86.914,25.391,29.785,69.336,69.336,0
1486660673.012,90.332,30.273,37.598,75.684,110.352,0
1486660673.016,31.738,31.250,44.922,56.641,59.082,0
1486660673.020,-21.484,28.320,43.457,45.410,48.828,0
1486660673.024,4.395,26.855,40.527,49.805,62.012,0
1486660673.027,79.590,28.809,38.574,64.941,47.363,0
1486660673.031,96.680,33.203,36.133,78.613,80.078,0
1486660673.035,38.086,28.320,33.203,56.152,89.844,0
1486660673.039,-31.250,22.461,37.598,31.250,61.035,0
1486660673.043,-15.137,22.461,43.457,39.551,30.273,0
1486660673.047,65.430,24.414,37.109,64.941,41.992,0
1486660673.051,88.867,29.297,29.785,73.730,123.535,0
1486660673.055,39.551,31.738,33.691,55.664,90.820,0
1486660673.059,-23.438,28.809,40.527,40.039,21.973,0
1486660673.063,-12.207,32.715,41.016,46.387,20.020,0
1486660673.066,63.477,33.203,42.969,67.871,52.246,0
1486660673.070,91.309,31.250,37.598,79.590,119.629,0
1486660673.074,58.594,32.227,36.133,68.359,104.492,0
1486660673.078,-11.230,28.320,46.387,51.270,41.504,0
1486660673.082,-24.902,25.879,45.898,45.410,42.480,0
1486660673.086,52.734,25.879,40.527,62.012,16.113,0
1486660673.090,100.586,35.156,44.434,86.914,53.711,0
1486660673.094,69.336,39.062,48.340,82.520,83.496,0
1486660673.098,-7.324,29.785,46.875,52.734,33.203,0
1486660673.102,-28.809,28.320,47.363,39.062,3.906,0
1486660673.106,42.480,28.320,41.992,55.176,36.621,0
1486660673.109,89.844,33.691,33.203,70.312,74.707,0
1486660673.113,57.129,33.691,35.156,64.453,62.012,0
1486660673.117,-6.348,28.320,44.922,49.316,52.734,0
1486660673.121,-36.621,27.344,46.875,35.645,8.301,0
1486660673.125,25.879,22.461,42.969,49.316,-10.254,0
1486660673.129,92.285,20.020,44.922,80.566,24.414,0
1486660673.133,79.102,25.879,41.504,80.078,52.734,0
1486660673.137,-0.977,25.391,38.086,36.133,31.738,0
1486660673.141,-55.664,18.555,45.410,10.742,12.695,0
1486660673.145,0.000,13.672,41.504,29.297,40.039,0
1486660673.148,70.312,18.066,32.715,52.246,74.707,0
1486660673.152,61.035,24.414,38.086,53.223,86.426,0
1486660673.156,0.977,21.484,42.969,33.691,59.570,0
1486660673.160,-42.969,20.508,42.480,23.926,17.578,0
1486660673.164,-0.977,25.391,41.992,36.621,41.992,0
1486660673.168,74.707,28.809,37.109,67.383,75.195,0
1486660673.172,82.520,32.227,36.133,74.219,62.012,0
1486660673.176,21.973,29.297,41.992,40.527,66.406,0
1486660673.180,-38.574,24.902,42.480,25.391,45.898,0
1486660673.184,-5.859,25.879,37.598,38.574,-3.418,0
1486660673.188,75.195,23.926,31.738,63.477,24.902,0
1486660673.191,89.844,28.320,32.227,73.242,83.496,0
1486660673.195,35.156,34.180,36.133,48.340,57.129,0
1486660673.199,-23.926,32.227,43.457,35.645,64.941,0
1486660673.203,-5.371,24.902,46.875,48.340,44.434,0
1486660673.207,68.359,24.414,38.086,72.754,49.316,0
1486660673.211,85.449,29.297,32.227,79.590,84.473,0
1486660673.215,43.457,33.691,42.969,59.082,1.953,0
1486660673.219,-21.484,29.785,53.223,39.551,-15.625,0
1486660673.223,-12.695,23.926,46.875,35.645,49.805,0
1486660673.227,70.312,27.832,37.598,62.500,38.086,0
1486660673.231,91.797,31.250,34.668,83.496,66.895,0
1486660673.234,50.293,31.250,41.992,66.895,92.285,0
1486660673.238,-18.555,26.855,48.340,44.434,40.039,0
1486660673.242,-28.809,20.996,41.504,43.457,21.973,0
1486660673.246,45.410,23.438,32.715,57.129,9.766,0
1486660673.250,86.426,27.344,33.203,70.312,51.270,0
1486660673.254,56.641,26.855,39.551,57.617,99.121,0
1486660673.258,-9.766,29.297,42.480,37.109,52.734,0
1486660673.262,-26.855,25.391,38.574,33.203,9.277,0
1486660673.266,43.945,20.996,34.668,52.734,18.066,0
1486660673.270,89.355,25.879,35.645,78.125,74.707,0
1486660673.273,60.547,29.785,36.621,63.477,106.445,0
1486660673.277,-9.277,27.832,41.504,36.621,47.363,0
1486660673.281,-41.016,23.926,43.457,26.855,-12.695,0
1486660673.285,27.832,24.414,37.109,41.992,12.207,0
1486660673.289,83.008,25.391,29.297,65.918,69.824,0
1486660673.293,62.500,34.668,32.715,60.547,49.316,0
1486660673.297,7.324,41.504,43.945,46.875,15.625,0
1486660673.301,-37.109,30.273,43.457,35.156,12.207,0
1486660673.305,7.812,23.438,30.762,42.480,17.578,0
1486660673.309,83.008,25.879,22.461,69.336,65.918,0
1486660673.313,77.637,31.250,25.879,64.941,74.219,0
1486660673.316,17.090,35.645,37.598,42.480,32.227,0
1486660673.320,-28.809,31.738,41.992,33.691,27.344,0
1486660673.324,11.719,25.879,40.039,48.828,28.320,0
1486660673.328,83.008,27.832,36.133,73.242,46.875,0
1486660673.332,83.496,32.227,31.250,73.730,67.871,0
1486660673.336,27.832,35.645,41.016,52.246,35.645,0
1486660673.340,-29.297,33.691,52.734,39.062,44.922,0
1486660673.344,9.766,26.855,45.898,54.199,51.758,0
1486660673.348,85.938,26.855,33.203,77.637,54.199,0
1486660673.352,89.844,32.227,30.762,78.613,77.637,0
1486660673.356,40.527,31.738,40.039,57.617,75.195,0
1486660673.359,-22.461,24.414,42.480,34.668,53.223,0
1486660673.363,1.465,21.484,36.133,38.574,46.387,0
1486660673.367,89.355,31.250,39.062,72.266,35.645,0
1486660673.371,97.656,29.297,32.715,74.707,80.566,0
1486660673.375,41.504,26.855,32.715,48.340,55.664,0
1486660673.379,-21.973,31.738,48.828,31.738,-6.836,0
1486660673.383,-12.695,29.785,48.340,37.109,4.395,0
1486660673.387,62.012,27.832,31.738,62.500,27.344,0
1486660673.391,83.008,27.832,31.738,78.125,75.684,0
1486660673.395,41.504,29.785,40.527,59.570,53.223,0
1486660673.398,-26.855,30.762,43.945,37.109,46.387,1
1486660673.402,-29.297,24.902,45.898,40.039,62.988,0
1486660673.406,48.828,20.020,37.109,62.012,58.105,0
1486660673.410,87.891,25.391,32.227,76.172,88.867,0
1486660673.414,52.246,25.879,39.062,56.152,74.219,0
1486660673.418,-19.043,24.902,50.781,31.738,30.273,0
1486660673.422,-37.109,24.902,47.363,36.133,31.250,0
1486660673.426,34.668,22.949,33.203,53.711,56.641,0
1486660673.430,85.449,29.785,33.203,66.406,77.637,0
1486660673.434,58.594,34.180,41.992,61.035,77.637,0
1486660673.438,-8.301,32.715,49.316,44.434,60.059,0
1486660673.441,-29.297,32.715,51.270,45.410,36.621,0
1486660673.445,36.621,29.785,44.434,61.035,31.250,0
1486660673.449,95.703,32.715,40.039,80.078,106.934,0
1486660673.453,78.125,37.109,42.480,71.777,114.258,0
1486660673.457,2.930,32.227,42.969,44.434,42.480,0
1486660673.461,-34.668,29.785,46.387,38.574,31.250,0
1486660673.465,24.902,25.879,37.598,46.875,11.719,0
1486660673.469,81.055,26.367,35.156,63.477,43.457,0
1486660673.473,67.383,31.250,42.969,62.500,84.473,0
1486660673.477,10.254,34.180,51.758,42.969,76.172,0
1486660673.480,-40.527,27.344,52.246,30.762,39.551,0
1486660673.484,9.766,26.367,40.039,44.434,29.297,0
1486660673.488,85.938,29.785,32.227,72.754,65.430,0
1486660673.492,81.055,31.250,36.133,73.242,72.754,0
1486660673.496,22.461,32.227,44.434,50.781,103.027,0
1486660673.500,-30.273,30.762,46.875,41.016,48.828,0
1486660673.504,1.465,26.855,38.086,44.922,-29.297,0
1486660673.508,73.242,25.879,32.227,63.477,31.250,0
1486660673.512,87.402,34.668,40.527,82.520,94.238,0
1486660673.516,35.645,41.016,47.363,60.547,38.086,0
1486660673.520,-32.227,32.227,48.340,25.879,3.418,0
1486660673.523,-6.348,24.902,38.574,35.156,10.254,0
1486660673.527,76.660,29.297,31.250,68.359,22.949,0
1486660673.531,98.633,38.574,41.504,82.520,59.570,0
1486660673.535,52.246,38.574,49.805,57.617,30.762,0
1486660673.539,-20.508,27.832,41.504,27.832,4.395,0
1486660673.543,-11.719,27.344,41.504,35.645,-8.789,0
1486660673.547,73.242,26.855,34.180,62.500,14.160,0
1486660673.551,105.469,30.273,25.879,77.148,67.871,0
1486660673.555,60.059,32.227,33.691,57.129,64.941,0
1486660673.559,-6.836,34.180,43.457,41.504,60.547,0
1486660673.563,-10.254,32.715,43.457,46.875,10.742,0
1486660673.566,62.012,31.738,40.527,71.289,-13.184,0
1486660673.570,90.332,32.715,39.551,80.078,62.500,0
1486660673.574,49.805,31.738,39.062,53.711,51.758,0
1486660673.578,-18.066,28.809,48.340,33.203,1.953,0
1486660673.582,-30.762,28.320,45.898,37.109,-8.789,0
1486660673.586,47.363,27.344,32.227,54.199,-0.488,0
1486660673.590,89.844,23.438,31.738,67.871,66.895,0
1486660673.594,59.570,26.367,35.645,54.688,87.402,0
1486660673.598,-7.812,29.297,42.480,30.273,54.688,0
1486660673.602,-30.273,24.902,44.922,32.227,25.391,0
1486660673.605,43.945,25.879,37.109,53.711,-6.348,0
1486660673.609,100.098,30.273,36.133,78.125,42.480,0
1486660673.613,72.266,31.738,36.621,70.801,103.027,0
1486660673.617,3.418,31.250,43.945,41.016,33.691,0
1486660673.621,-32.715,28.320,45.898,35.645,-29.785,0
1486660673.625,35.645,33.203,41.992,62.500,11.230,0
1486660673.629,100.586,31.738,34.180,80.566,56.152,0
1486660673.633,79.590,27.344,32.715,70.801,64.453,0
1486660673.637,19.043,30.273,45.410,51.270,13.672,0
1486660673.641,-23.438,28.809,45.410,36.133,1.465,0
1486660673.645,27.832,29.297,45.410,60.547,-2.930,0
1486660673.648,93.262,30.762,43.457,84.961,37.598,0
1486660673.652,84.473,31.738,40.527,77.637,84.473,0
1486660673.656,27.832,32.715,46.387,56.152,45.898,0
1486660673.660,-26.855,27.832,46.875,41.504,37.598,0
1486660673.664,7.324,20.508,38.086,43.945,17.090,0
1486660673.668,77.148,21.484,31.738,59.570,24.414,0
1486660673.672,76.660,30.273,39.062,68.848,47.363,0
1486660673.676,22.949,35.645,43.945,45.410,27.832,0
1486660673.680,-32.227,34.180,45.410,32.715,12.695,0
1486660673.684,-11.230,25.879,42.480,41.992,-18.066,0
1486660673.688,74.219,27.832,39.551,67.383,-29.785,0
1486660673.691,86.426,30.273,36.621,73.242,47.363,0
1486660673.695,19.531,25.879,35.156,41.504,36.621,0
1486660673.699,-41.016,25.391,45.410,20.508,-20.508,0
1486660673.703,-25.879,23.926,41.992,28.320,2.441,0
1486660673.707,50.293,24.414,35.645,49.805,20.508,0
1486660673.711,77.637,29.297,32.227,56.641,62.012,0
1486660673.715,31.738,30.273,39.551,43.457,60.059,0
1486660673.719,-36.133,24.902,47.363,29.785,34.180,0
1486660673.723,-31.250,22.949,42.969,33.203,30.762,0
1486660673.727,51.270,25.879,35.645,55.664,34.668,0
1486660673.730,90.332,27.832,34.180,71.289,78.613,0
1486660673.734,57.617,27.344,41.992,60.547,62.500,0
1486660673.738,-9.766,28.809,47.363,42.969,43.457,0
1486660673.742,-20.996,24.414,41.504,40.039,27.344,0
1486660673.746,59.570,25.879,34.180,66.895,14.160,0
1486660673.750,107.422,33.203,34.668,93.262,69.824,0
1486660673.754,71.777,35.645,41.504,72.754,51.758,0
1486660673.758,-2.441,33.691,44.922,40.527,46.875,0
1486660673.762,-25.879,28.809,46.875,41.992,32.227,0
1486660673.766,41.016,25.879,41.016,54.199,-8.789,0
1486660673.770,101.074,35.645,40.527,81.055,56.152,0
1486660673.773,78.125,36.621,43.457,67.871,103.516,0
1486660673.777,3.906,28.320,39.062,34.180,31.738,0
1486660673.781,-28.320,25.391,41.016,33.691,-5.859,0
1486660673.785,36.133,24.414,37.109,46.387,12.695,0
1486660673.789,92.773,28.320,34.180,73.242,49.805,0
1486660673.793,75.684,32.715,39.062,68.359,79.590,0
1486660673.797,9.277,31.738,43.945,41.504,54.199,0
1486660673.801,-34.180,30.273,44.922,35.645,49.316,0
1486660673.805,17.578,25.391,41.016,44.434,26.855,0
1486660673.809,79.590,25.391,30.273,61.523,56.152,0
1486660673.813,73.242,29.785,32.715,60.547,78.613,0
1486660673.816,17.578,28.809,42.969,39.062,21.484,0
1486660673.820,-35.645,24.414,41.016,30.273,10.254,0
1486660673.824,3.906,22.949,35.645,44.434,54.199,0
1486660673.828,81.543,22.949,32.715,70.801,91.309,0
1486660673.832,86.426,29.785,36.133,69.336,94.727,0
1486660673.836,34.668,40.039,45.898,54.199,61.035,0
1486660673.840,-26.855,32.227,46.875,43.945,27.832,0
1486660673.844,-6.348,26.855,43.457,38.574,6.348,0
1486660673.848,73.730,31.250,38.086,61.523,67.383,0
1486660673.852,89.844,33.691,34.668,66.406,93.262,0
1486660673.855,39.551,34.668,46.875,41.504,58.594,0
1486660673.859,-20.020,34.180,53.711,30.762,55.176,0
1486660673.863,-7.812,31.738,43.457,35.156,57.617,0
1486660673.867,72.266,31.250,31.250,58.105,73.730,0
1486660673.871,99.121,32.715,33.691,70.312,104.492,0
1486660673.875,51.270,33.203,43.945,54.688,73.730,0
1486660673.879,-19.043,30.273,47.852,36.621,64.453,0
1486660673.883,-13.672,27.344,46.875,39.062,72.266,0
1486660673.887,70.312,27.344,37.598,59.082,55.176,0
1486660673.891,96.680,30.273,29.297,68.848,83.008,0
1486660673.895,58.594,39.062,41.016,59.082,40.527,0
1486660673.898,-8.301,39.551,47.852,35.156,11.719,0
1486660673.902,-26.855,28.320,38.574,23.926,-4.883,0
1486660673.906,52.734,23.438,31.738,53.711,4.395,0
1486660673.910,93.262,27.832,35.156,69.824,105.469,0
1486660673.914,54.688,33.203,38.574,51.758,92.285,0
1486660673.918,-10.742,32.715,38.574,38.086,11.719,0
1486660673.922,-29.785,26.855,37.109,31.250,-21.973,0
1486660673.926,47.852,24.902,31.250,49.316,5.859,0
1486660673.930,103.516,31.250,30.273,74.219,100.586,0
1486660673.934,76.172,34.668,34.668,59.082,108.887,0
1486660673.937,10.742,34.668,41.992,41.992,18.555,0
1486660673.941,-15.625,33.691,48.828,41.016,5.371,0
1486660673.945,46.875,32.227,40.527,56.641,38.086,0
1486660673.949,99.609,31.250,29.785,67.871,71.777,0
1486660673.953,87.402,38.086,37.109,68.359,102.051,0
1486660673.957,22.461,39.551,38.574,51.758,104.980,0
1486660673.961,-23.926,27.344,33.203,26.367,79.590,0
1486660673.965,28.320,25.879,31.250,42.480,52.246,0
1486660673.969,92.285,32.227,29.297,70.312,83.984,0
1486660673.973,81.543,35.645,36.621,69.336,91.797,0
1486660673.977,25.391,37.109,41.992,44.922,32.715,0
1486660673.980,-22.461,33.203,47.852,29.297,-7.324,0
1486660673.984,18.066,29.297,43.945,44.434,-26.367,0
1486660673.988,97.168,33.691,35.645,67.383,5.371,0
1486660673.992,98.633,35.156,33.691,69.336,72.754,0
1486660673.996,42.480,35.156,41.504,55.176,62.012,0
1486660674.000,-13.672,33.203,45.898,39.551,9.277,0
1486660674.004,11.719,31.738,38.574,49.316,-19.531,0
1486660674.008,91.309,33.203,32.715,73.242,24.902,0
1486660674.012,99.609,36.133,37.109,76.660,74.707,0
1486660674.016,52.246,41.504,49.316,65.918,43.945,0
1486660674.020,-7.812,40.527,57.129,51.758,23.926,0
1486660674.023,-3.906,24.414,41.016,51.758,56.152,1
1486660674.027,71.777,23.438,27.832,71.777,100.098,0
1486660674.031,92.773,32.715,31.738,77.637,107.422,0
1486660674.035,46.387,32.227,41.016,62.988,60.547,0
1486660674.039,-20.020,30.762,51.270,42.969,11.230,0
1486660674.043,-15.137,28.320,50.293,47.852,-17.578,0
1486660674.047,60.059,29.785,43.457,66.406,1.465,0
1486660674.051,84.473,31.738,38.574,68.359,68.848,0
1486660674.055,43.945,31.250,42.480,51.758,45.410,0
1486660674.059,-24.414,33.203,49.805,30.273,5.859,0
1486660674.062,-28.320,27.832,46.875,22.949,-6.836,0
1486660674.066,51.270,28.320,39.551,42.969,45.410,0
1486660674.070,87.402,32.715,34.668,58.105,86.426,0
1486660674.074,57.129,34.668,37.109,45.410,69.336,0
1486660674.078,-6.348,40.527,50.293,33.691,67.383,0
1486660674.082,-31.738,32.227,49.805,34.668,37.598,0
1486660674.086,40.527,21.484,35.156,51.270,20.996,0
1486660674.090,94.238,24.414,33.691,71.777,43.457,0
1486660674.094,70.801,30.273,41.504,64.453,72.266,0
1486660674.098,3.906,30.273,48.340,39.551,44.922,0
1486660674.102,-24.414,23.438,48.828,34.668,28.320,0
1486660674.105,41.016,22.461,37.109,59.082,41.992,0
1486660674.109,95.703,29.297,30.762,82.031,75.684,0
1486660674.113,77.637,32.715,41.992,72.266,108.887,0
1486660674.117,13.672,31.250,51.758,44.434,74.219,0
1486660674.121,-29.297,25.879,49.316,28.320,58.105,0
1486660674.125,24.414,22.461,41.016,38.086,56.152,0
1486660674.129,93.262,25.879,35.156,59.082,72.266,0
1486660674.133,77.637,28.809,39.062,51.758,79.590,0
1486660674.137,10.742,27.832,35.645,22.949,72.754,0
1486660674.141,-34.668,30.273,35.645,11.230,60.547,0
1486660674.145,12.695,31.738,41.016,33.203,37.598,0
1486660674.148,81.543,25.879,37.109,57.129,76.172,0
1486660674.152,76.660,25.879,36.133,58.594,117.676,0
1486660674.156,18.555,26.855,39.062,38.086,70.312,0
1486660674.160,-29.785,23.926,47.363,31.250,36.621,0
1486660674.164,2.441,20.996,41.504,46.875,13.672,0
1486660674.168,85.449,30.273,35.645,68.359,18.555,0
1486660674.172,103.516,35.156,38.574,82.520,71.289,0
1486660674.176,41.992,30.273,37.598,61.035,80.566,0
1486660674.180,-18.555,30.273,49.316,36.621,46.387,0
1486660674.184,11.230,28.320,49.316,44.922,20.996,0
1486660674.187,92.285,27.832,36.621,66.895,-10.742,0
1486660674.191,104.980,31.250,34.180,75.684,16.113,0
1486660674.195,48.340,34.668,39.062,55.664,82.520,0
1486660674.199,-13.184,31.738,45.898,36.621,52.734,0
1486660674.203,-4.883,25.391,42.969,40.527,12.695,0
1486660674.207,70.312,25.391,39.551,60.547,-7.812,0
1486660674.211,109.863,35.645,41.992,77.637,46.875,0
1486660674.215,67.871,36.133,38.086,60.059,31.738,0
1486660674.219,-8.789,30.273,36.133,31.738,-4.395,0
1486660674.223,-5.859,30.762,36.133,40.039,11.230,0
1486660674.227,78.125,29.297,32.227,65.918,5.859,0
1486660674.230,114.746,32.227,33.203,76.172,75.195,0
1486660674.234,80.078,37.109,35.156,56.152,78.613,0
1486660674.238,13.672,35.156,39.062,37.598,14.160,0
1486660674.242,-6.836,27.832,46.387,36.621,27.832,0
1486660674.246,63.965,26.855,37.598,54.688,21.973,0
1486660674.250,108.398,28.809,25.391,79.102,46.387,0
1486660674.254,77.148,29.785,29.785,68.359,56.152,0
1486660674.258,13.672,29.785,41.992,45.898,4.883,0
1486660674.262,-14.648,23.438,38.086,40.039,6.836,0
1486660674.266,58.594,33.203,31.250,56.152,1.465,0
1486660674.270,115.234,38.086,32.715,76.172,90.332,0
1486660674.273,83.984,28.809,30.762,61.523,115.723,0
1486660674.277,21.484,28.809,39.551,40.039,19.531,0
1486660674.281,-13.184,29.785,44.922,33.203,27.832,0
1486660674.285,43.945,26.367,35.156,55.176,26.367,0
1486660674.289,104.004,26.855,27.832,79.590,60.059,0
1486660674.293,85.449,30.762,32.227,67.383,83.008,0
1486660674.297,26.367,31.250,41.504,42.969,43.457,0
1486660674.301,-21.484,25.879,44.434,32.715,40.527,0
1486660674.305,23.438,23.926,41.016,45.898,-9.277,0
1486660674.309,95.215,31.738,32.715,68.848,-23.926,0
1486660674.312,89.844,34.668,35.645,68.359,43.457,0
1486660674.316,33.203,37.109,50.781,46.387,32.227,0
1486660674.320,-18.066,35.156,52.734,31.738,17.578,0
1486660674.324,21.973,29.785,40.527,41.504,-8.789,0
1486660674.328,95.703,30.273,30.762,64.941,9.766,0
1486660674.332,103.027,41.016,37.109,76.172,51.758,0
1486660674.336,47.852,40.039,42.480,51.758,47.852,0
1486660674.340,-11.230,30.273,43.457,30.273,51.270,0
1486660674.344,16.113,31.738,43.457,43.945,32.715,0
1486660674.348,91.309,33.691,30.762,66.895,-1.953,0
1486660674.352,100.098,29.785,32.715,76.660,45.898,0
1486660674.355,45.410,30.273,41.992,58.594,76.172,0
1486660674.359,-12.695,33.203,41.992,35.156,26.855,0
1486660674.363,-0.977,28.320,35.156,35.645,24.902,0
1486660674.367,77.637,28.809,29.785,66.406,63.477,0
1486660674.371,103.516,35.156,33.691,79.590,63.965,0
1486660674.375,56.641,36.621,41.504,57.617,58.105,0
1486660674.379,-9.277,34.180,46.875,34.180,58.105,0
1486660674.383,-9.766,32.715,49.316,38.086,39.551,0
1486660674.387,67.871,29.785,44.434,65.918,64.941,0
1486660674.391,100.586,29.785,36.133,73.242,105.469,0
1486660674.394,67.383,39.551,43.945,59.570,96.680,0
1486660674.398,-1.465,33.203,51.270,38.086,32.715,0
1486660674.402,-20.996,23.438,37.598,33.203,-2.441,0
1486660674.406,58.105,29.785,29.785,61.035,0.977,0
1486660674.410,108.887,33.203,34.668,79.590,30.762,0
1486660674.414,81.543,37.109,35.645,67.383,53.223,0
1486660674.418,15.625,34.668,42.969,48.828,32.227,0
1486660674.422,-13.672,25.391,50.293,48.340,30.762,0
1486660674.426,52.246,24.414,39.062,66.895,50.293,0
1486660674.430,102.051,29.785,32.227,81.543,105.957,0
1486660674.434,73.730,31.250,45.898,72.754,104.004,0
1486660674.437,8.789,31.738,53.223,47.363,86.426,0
1486660674.441,-28.809,30.273,45.898,30.273,79.102,0
1486660674.445,33.203,20.508,42.480,43.945,11.230,0
1486660674.449,95.703,23.926,40.527,71.289,64.453,0
1486660674.453,77.637,32.715,42.480,72.266,105.957,0
1486660674.457,14.160,29.297,45.898,52.734,63.965,0
1486660674.461,-31.250,26.855,44.434,37.109,53.223,0
1486660674.465,18.066,22.461,41.992,54.199,56.641,0
1486660674.469,89.355,25.391,39.551,81.055,112.793,0
1486660674.473,80.078,28.320,41.992,69.824,135.254,0
1486660674.477,20.508,26.855,46.875,46.875,63.965,0
1486660674.480,-33.203,26.367,53.223,32.227,59.570,0
1486660674.484,2.930,20.996,45.898,41.016,75.195,0
1486660674.488,83.984,23.926,33.691,68.848,96.680,0
1486660674.492,94.727,29.785,37.109,73.730,134.766,0
1486660674.496,39.062,33.203,43.457,51.270,93.262,0
1486660674.500,-14.160,32.715,49.316,35.156,51.270,0
1486660674.504,17.578,32.227,46.875,47.363,30.273,0
1486660674.508,90.332,33.203,36.133,75.195,40.039,0
1486660674.512,101.562,35.645,34.668,80.566,85.449,0
1486660674.516,53.711,38.574,52.734,67.383,63.477,0
1486660674.519,-15.625,32.715,55.664,41.016,34.668,0
1486660674.523,-6.836,24.414,39.551,36.621,24.414,0
1486660674.527,74.707,24.414,33.691,65.430,23.438,0
1486660674.531,101.562,27.832,37.598,74.219,79.102,0
1486660674.535,53.711,27.832,42.480,59.570,59.082,0
1486660674.539,-14.648,25.391,41.504,32.715,47.363,0
1486660674.543,-9.766,27.832,35.645,33.691,34.668,0
1486660674.547,66.895,30.273,34.180,63.965,49.805,0
1486660674.551,98.145,34.180,39.062,71.777,94.238,0
1486660674.555,54.688,36.133,43.457,60.059,74.219,0
1486660674.559,-9.277,32.715,49.316,42.480,29.297,0
1486660674.562,-15.137,28.320,44.434,37.109,7.812,0
1486660674.566,56.641,24.414,35.156,59.082,40.527,0
1486660674.570,107.910,29.297,38.086,82.031,59.570,0
1486660674.574,73.730,32.715,45.410,70.801,56.152,0
1486660674.578,-2.930,30.273,48.828,43.945,70.801,0
1486660674.582,-20.508,30.273,53.711,41.504,59.570,2
1486660674.586,46.387,23.926,42.969,55.664,60.547,0
1486660674.590,100.098,28.320,32.715,70.801,83.008,0
1486660674.594,80.078,38.574,44.434,73.242,106.445,0
1486660674.598,5.371,31.250,51.758,44.434,75.195,0
1486660674.602,-31.250,25.879,46.387,28.809,29.297,0
1486660674.605,34.668,25.879,39.062,54.688,31.738,0
1486660674.609,97.656,28.809,38.574,77.148,57.617,0
1486660674.613,82.520,32.715,45.898,67.383,31.738,0
1486660674.617,21.484,33.691,49.805,46.875,-7.324,0
1486660674.621,-17.578,32.227,47.363,43.457,8.301,0
1486660674.625,30.762,29.297,39.551,56.152,-2.930,0
1486660674.629,95.703,26.367,35.156,69.336,17.090,0
1486660674.633,91.309,32.227,35.156,67.871,54.199,0
1486660674.637,34.668,34.180,38.086,46.387,32.227,0
1486660674.641,-18.066,31.250,45.898,32.227,47.363,0
1486660674.644,18.555,31.250,41.504,43.945,40.039,0
1486660674.648,93.750,32.715,34.180,69.336,38.574,0
1486660674.652,98.633,39.062,31.738,73.242,62.012,0
1486660674.656,42.480,42.969,38.086,46.387,11.230,0
1486660674.660,-16.113,38.086,52.734,36.621,0.000,0
1486660674.664,5.371,27.344,45.410,48.340,9.277,0
1486660674.668,83.008,26.855,29.785,68.359,32.227,0
1486660674.672,89.844,29.297,33.691,71.777,88.867,0
1486660674.676,35.156,30.273,44.434,46.387,81.055,0
1486660674.680,-22.949,24.902,47.852,30.273,22.949,0
1486660674.684,-3.418,21.484,43.457,42.969,9.766,0
1486660674.687,75.195,24.414,36.133,68.359,55.176,0
1486660674.691,90.820,27.344,27.832,72.266,94.238,0
1486660674.695,44.434,28.320,36.621,46.875,71.289,0
1486660674.699,-17.578,27.344,46.387,26.367,28.809,0
1486660674.703,-17.090,25.879,41.016,29.785,-1.465,0
1486660674.707,56.152,24.902,34.668,49.805,-21.484,0
1486660674.711,89.844,30.762,36.621,69.824,42.969,0
1486660674.715,48.828,32.715,43.457,54.199,48.828,0
1486660674.719,-16.602,35.156,43.945,31.250,11.719,0
1486660674.723,-16.602,35.156,45.898,45.898,22.461,0
1486660674.727,56.641,22.461,34.180,63.965,-4.883,0
1486660674.730,96.191,24.414,20.020,75.684,59.082,0
1486660674.734,59.570,32.227,28.320,59.082,62.012,0
1486660674.738,-7.324,33.203,41.504,38.086,13.672,0
1486660674.742,-26.367,29.785,43.457,45.898,17.090,0
1486660674.746,45.410,25.879,38.086,62.012,20.508,0
1486660674.750,100.586,29.297,37.598,82.031,60.059,0
1486660674.754,72.266,34.180,42.480,71.289,60.059,0
1486660674.758,2.441,35.156,42.969,41.992,63.965,0
1486660674.762,-28.809,33.691,41.992,38.086,55.176,0
1486660674.766,40.039,32.227,41.504,54.688,20.996,0
1486660674.769,93.262,32.227,38.086,77.637,67.383,0
1486660674.773,70.312,37.109,35.156,73.242,72.754,0
1486660674.777,7.812,34.668,42.480,47.852,28.320,0
1486660674.781,-33.203,30.273,49.316,35.645,38.574,0
1486660674.785,27.832,33.203,47.363,52.246,8.301,0
1486660674.789,89.355,30.273,40.527,77.637,53.711,0
1486660674.793,72.754,31.738,38.574,73.242,91.309,0
1486660674.797,12.207,37.109,46.387,50.293,60.059,0
1486660674.801,-35.156,32.227,52.246,37.109,57.617,0
1486660674.805,6.836,27.832,43.457,47.852,42.969,0
1486660674.809,83.496,31.250,39.062,83.984,40.527,0
1486660674.812,82.031,28.320,35.645,83.008,46.875,0
1486660674.816,21.973,29.297,39.551,51.758,19.043,0
1486660674.820,-29.297,29.297,50.293,39.062,-21.973,0
1486660674.824,-2.441,28.809,44.922,51.758,-4.883,0
1486660674.828,77.148,25.879,35.156,76.172,29.297,0
1486660674.832,96.680,26.855,33.203,76.660,90.332,0
1486660674.836,38.574,31.738,41.016,54.688,88.379,0
1486660674.840,-20.996,27.832,45.410,40.039,51.758,0
1486660674.844,0.977,27.344,41.992,47.852,11.719,0
1486660674.848,79.102,30.762,36.133,75.195,-5.859,0
1486660674.851,104.004,33.203,37.598,85.938,53.711,0
1486660674.855,51.758,34.180,43.457,59.082,56.641,0
1486660674.859,-17.578,27.832,47.852,37.598,43.457,0
1486660674.863,-12.695,23.438,45.898,40.527,54.199,0
1486660674.867,64.941,27.344,36.621,59.570,65.918,0
1486660674.871,97.656,30.273,36.133,75.195,98.633,0
1486660674.875,47.363,33.203,40.527,52.734,80.566,0
1486660674.879,-20.508,29.785,45.410,25.391,53.223,0
1486660674.883,-15.137,29.297,42.969,29.297,45.410,0
1486660674.887,64.453,35.156,35.645,56.152,14.160,0
1486660674.891,100.586,30.762,31.738,73.730,76.660,0
1486660674.894,61.523,30.273,34.180,54.199,102.051,0
1486660674.898,-11.719,30.762,43.457,28.320,39.551,0
1486660674.902,-30.762,28.809,45.410,27.344,37.109,0
1486660674.906,41.992,28.320,37.109,45.898,43.457,0
1486660674.910,89.844,31.250,32.227,65.918,99.121,0
1486660674.914,58.105,33.203,34.668,57.129,75.684,0
1486660674.918,-9.277,29.785,45.898,36.621,37.598,0
1486660674.922,-30.762,24.902,49.805,32.227,32.227,0
1486660674.926,33.203,23.926,40.527,49.805,8.789,0
1486660674.930,91.309,31.738,41.016,78.125,68.848,0
1486660674.934,73.242,37.109,40.527,65.430,111.328,0
1486660674.937,5.371,34.668,49.316,42.969,66.895,0
1486660674.941,-26.855,34.668,62.500,49.316,39.062,0
1486660674.945,30.762,30.762,52.734,59.082,42.969,0
1486660674.949,90.820,30.762,38.574,72.266,87.891,0
1486660674.953,82.031,36.133,38.574,71.777,98.633,0
1486660674.957,19.531,35.645,41.504,45.410,74.707,0
1486660674.961,-21.484,34.180,44.922,34.668,24.902,0
1486660674.965,20.020,29.297,43.945,51.758,10.254,0
1486660674.969,87.402,31.250,37.598,77.637,65.918,0
1486660674.973,91.309,35.645,37.598,82.031,87.891,0
1486660674.976,29.297,32.715,49.805,61.523,15.137,0
1486660674.980,-24.414,33.203,53.711,49.805,0.000,0
1486660674.984,14.648,30.762,49.316,62.988,-5.371,0
1486660674.988,94.727,30.762,46.387,81.543,37.109,0
1486660674.992,98.145,32.227,39.551,82.520,99.609,0
1486660674.996,50.293,38.086,47.363,69.336,7.812,0
1486660675.000,-11.230,35.156,56.641,51.758,-40.039,0
1486660675.004,-3.906,21.484,41.992,51.270,-9.766,0
1486660675.008,76.172,23.438,33.203,71.777,17.578,0
1486660675.012,103.516,30.762,39.062,82.031,72.754,0
1486660675.016,56.152,34.180,43.457,62.500,62.500,0
1486660675.019,-14.160,33.203,44.922,34.180,25.879,0
1486660675.023,0.977,31.250,47.363,43.945,18.066,0
1486660675.027,81.055,33.691,42.480,75.684,50.293,0
1486660675.031,106.934,36.133,35.645,83.496,116.699,0
1486660675.035,62.012,36.621,43.457,60.547,85.449,0
1486660675.039,-4.395,34.180,50.781,37.598,25.879,0
1486660675.043,-11.719,28.320,43.457,34.668,3.906,0
1486660675.047,61.523,31.250,37.109,57.129,20.508,0
1486660675.051,103.027,37.109,36.133,81.543,67.383,0
1486660675.055,70.312,36.133,39.551,67.871,40.039,0
1486660675.059,0.977,34.180,45.898,40.527,32.227,0
1486660675.062,-10.742,32.715,49.805,40.039,43.945,0
1486660675.066,60.547,29.785,42.480,62.500,38.086,0
1486660675.070,97.168,25.879,30.762,75.195,66.895,0
1486660675.074,68.359,31.738,39.551,68.359,72.266,0
1486660675.078,3.418,35.645,46.387,43.945,20.996,0
1486660675.082,-21.973,24.902,43.457,32.227,-23.438,0
1486660675.086,39.062,19.043,33.203,51.758,1.953,0
1486660675.090,95.703,28.809,31.250,77.637,54.199,1
1486660675.094,77.148,35.645,41.992,65.918,64.453,0
1486660675.098,15.137,34.668,47.852,43.457,24.902,0
1486660675.101,-19.531,33.691,48.828,36.621,31.250,0
1486660675.105,35.645,31.250,41.992,46.387,42.969,0
1486660675.109,100.586,27.832,42.480,69.824,26.367,0
1486660675.113,83.496,29.785,39.551,60.547,46.387,0
1486660675.117,16.602,29.785,40.527,31.738,21.484,0
1486660675.121,-30.762,22.949,48.828,24.414,-18.066,0
1486660675.125,17.090,22.949,40.039,43.457,25.879,0
1486660675.129,88.379,27.344,32.715,67.383,64.453,0
1486660675.133,80.078,28.809,35.645,62.500,47.363,0
1486660675.137,29.297,38.086,51.270,47.852,51.758,0
1486660675.141,-19.043,33.203,55.664,34.668,40.039,0
1486660675.144,14.160,24.902,39.551,36.621,29.297,0
1486660675.148,86.426,27.344,29.785,64.941,55.664,0
1486660675.152,88.379,27.832,29.785,68.848,71.777,0
1486660675.156,34.180,30.762,40.527,46.387,44.922,0
1486660675.160,-19.531,30.273,42.480,28.320,27.344,0
1486660675.164,9.766,30.273,40.527,41.016,-0.488,0
1486660675.168,87.402,33.691,36.133,73.242,59.082,0
1486660675.172,97.656,32.715,38.574,80.566,104.004,0
1486660675.176,44.922,30.273,53.223,58.594,28.320,0
1486660675.180,-17.578,31.250,53.711,36.621,35.645,0
1486660675.184,-7.812,26.855,38.574,42.969,32.715,0
1486660675.187,76.172,25.879,32.227,67.383,48.828,0
1486660675.191,99.121,27.832,31.738,75.684,107.910,0
1486660675.195,47.852,29.297,35.645,54.199,56.641,0
1486660675.199,-18.066,29.785,46.875,29.297,14.648,0
1486660675.203,-16.602,25.879,46.387,34.668,15.137,0
1486660675.207,60.059,25.391,39.062,56.641,17.578,0
1486660675.211,86.426,29.785,38.574,63.965,69.336,0
1486660675.215,51.270,30.762,45.898,53.711,85.449,0
1486660675.219,-11.719,28.320,58.594,33.691,31.738,0
1486660675.223,-22.461,29.785,51.758,35.156,-0.977,0
1486660675.226,58.105,30.273,34.180,55.664,25.879,0
1486660675.230,99.121,33.691,32.715,75.684,73.242,0
1486660675.234,64.453,34.668,38.086,66.406,67.383,0
1486660675.238,0.488,28.809,46.387,39.062,62.988,0
1486660675.242,-23.438,26.855,47.852,40.527,46.875,0
1486660675.246,44.434,27.344,41.016,57.617,9.277,0
1486660675.250,94.238,32.715,35.645,70.312,73.242,0
1486660675.254,69.824,36.621,42.969,66.406,93.750,0
1486660675.258,4.395,36.133,50.293,40.039,30.273,0
1486660675.262,-33.691,33.691,48.340,35.645,29.297,0
1486660675.266,29.785,33.691,39.551,55.176,35.645,0
1486660675.269,94.238,35.156,29.785,72.754,73.730,0
1486660675.273,80.566,35.645,36.133,77.148,79.102,0
1486660675.277,19.531,41.016,48.828,60.059,14.160,0
1486660675.281,-35.156,33.691,44.922,41.992,24.902,0
1486660675.285,11.719,25.391,40.039,49.805,35.156,0
1486660675.289,85.449,27.832,36.133,75.684,34.668,0
1486660675.293,77.148,32.715,35.645,77.637,82.031,0
1486660675.297,17.578,35.645,48.828,57.129,69.824,0
1486660675.301,-34.668,31.250,50.293,42.480,14.160,0
1486660675.305,3.906,28.320,41.016,49.805,1.465,0
1486660675.308,79.102,29.785,39.062,75.195,60.059,0
1486660675.312,84.473,35.645,41.504,81.543,113.281,0
1486660675.316,32.227,38.086,42.480,53.223,54.688,0
1486660675.320,-29.297,33.691,47.852,34.668,17.578,0
1486660675.324,-6.836,30.273,44.922,48.340,47.852,0
1486660675.328,74.707,27.832,32.715,76.660,32.715,0
1486660675.332,92.773,34.180,35.156,87.402,40.039,0
1486660675.336,35.156,30.762,43.457,64.941,32.227,0
1486660675.340,-27.832,25.879,49.316,48.828,10.742,0
1486660675.344,-2.441,29.785,46.875,56.152,13.184,0
1486660675.348,72.754,25.879,34.668,75.684,6.348,0
1486660675.351,91.797,29.297,31.738,87.891,59.570,0
1486660675.355,49.316,32.227,38.086,68.359,56.641,0
1486660675.359,-12.207,28.809,47.363,47.852,32.227,0
1486660675.363,-10.254,22.949,47.852,46.387,0.977,0
1486660675.367,65.918,23.926,37.109,68.848,-2.441,0
1486660675.371,99.609,31.738,35.156,86.914,91.797,0
1486660675.375,62.012,34.668,47.852,71.289,90.332,0
1486660675.379,-9.277,34.668,54.688,50.781,46.875,0
1486660675.383,-18.066,29.297,44.922,40.039,48.828,0
1486660675.387,62.012,27.832,29.785,61.035,53.223,0
1486660675.391,102.539,33.203,28.320,85.938,97.656,0
1486660675.394,64.453,36.133,35.645,72.266,97.656,0
1486660675.398,-0.977,31.738,40.039,54.199,71.777,0
1486660675.402,-23.438,23.438,38.086,45.410,32.227,0
1486660675.406,46.875,27.832,35.645,57.617,14.648,0
1486660675.410,103.027,34.180,43.945,84.961,76.660,0
1486660675.414,67.383,33.691,46.875,70.312,76.172,0
1486660675.418,-3.418,36.621,46.875,39.551,23.438,0
1486660675.422,-36.133,28.809,41.992,29.785,29.297,0
1486660675.426,22.949,28.809,31.738,43.457,55.664,0
1486660675.430,88.867,35.645,28.320,69.824,63.477,0
1486660675.433,74.219,36.621,32.715,67.383,62.012,0
1486660675.437,3.418,35.156,45.410,41.504,37.109,0
1486660675.441,-29.785,32.715,54.688,33.691,40.039,0
1486660675.445,20.996,27.344,47.363,50.293,23.926,0
1486660675.449,82.520,28.320,36.133,73.730,36.133,0
1486660675.453,80.078,34.668,41.504,71.777,88.867,0
1486660675.457,14.160,34.668,45.898,42.969,53.223,0
1486660675.461,-37.598,34.180,43.457,30.273,41.016,0
1486660675.465,6.348,34.668,40.527,46.875,36.621,0
1486660675.469,83.984,36.133,36.621,75.684,53.711,0
1486660675.473,93.262,39.551,40.527,80.566,91.797,0
1486660675.476,32.227,35.156,42.969,53.223,60.547,0
1486660675.480,-27.832,28.809,48.340,38.574,34.180,0
1486660675.484,5.859,24.902,46.875,48.828,8.301,0
1486660675.488,82.031,28.320,35.156,70.801,17.578,0
1486660675.492,83.984,32.715,39.551,74.219,93.750,0
1486660675.496,36.133,33.691,52.734,50.781,81.543,0
1486660675.500,-22.461,28.809,57.129,32.227,59.570,0
1486660675.504,-13.184,26.855,50.293,40.039,43.945,0
1486660675.508,66.406,26.855,36.133,67.383,31.738,0
1486660675.512,93.750,28.320,39.062,78.125,73.242,0
1486660675.516,42.480,31.738,43.945,58.594,84.473,0
1486660675.519,-26.367,31.250,47.852,36.621,50.781,0
1486660675.523,-17.578,31.250,46.875,38.086,1.465,0
1486660675.527,70.312,32.227,45.410,68.848,20.996,0
1486660675.531,97.168,27.832,41.992,74.219,68.359,0
1486660675.535,39.062,24.414,37.109,47.363,58.594,0
1486660675.539,-27.344,26.367,48.340,28.320,39.062,0
1486660675.543,-32.227,24.414,47.363,32.715,1.465,0
1486660675.547,51.270,25.391,36.621,62.988,7.812,0
1486660675.551,92.285,31.738,34.668,79.590,118.652,0
1486660675.555,55.664,35.645,36.621,55.664,107.422,0
1486660675.558,-4.883,38.574,44.434,37.109,43.945,0
1486660675.562,-23.926,36.133,46.387,37.598,41.992,0
1486660675.566,44.434,29.785,39.551,61.035,12.207,0
1486660675.570,92.773,31.738,41.504,81.543,39.062,0
1486660675.574,63.965,35.645,42.969,67.383,94.727,0
1486660675.578,-1.953,32.227,46.875,41.016,52.246,0
1486660675.582,-35.156,29.297,49.316,35.156,18.555,0
1486660675.586,29.785,31.738,46.875,58.105,9.277,0
1486660675.590,91.797,35.156,41.016,83.008,58.105,0
1486660675.594,71.777,35.156,39.551,78.125,83.984,0
1486660675.598,1.953,26.855,45.410,45.410,51.758,0
1486660675.601,-39.062,26.855,48.828,39.551,34.180,0
1486660675.605,17.090,30.273,45.410,56.152,14.648,0
1486660675.609,87.402,34.668,36.621,74.707,83.496,0
1486660675.613,75.195,35.645,36.621,71.289,127.441,0
1486660675.617,10.254,31.738,47.363,49.805,73.242,0
1486660675.621,-35.645,29.297,44.434,34.668,54.199,0
1486660675.625,15.137,28.320,37.598,48.340,34.668,0
1486660675.629,95.703,32.715,33.691,78.125,51.270,0
1486660675.633,96.191,33.691,33.203,75.684,91.309,0
1486660675.637,34.180,33.203,37.598,43.945,42.969,0
1486660675.641,-21.484,27.832,41.504,30.273,22.949,0
1486660675.644,16.602,25.879,40.527,52.246,26.367,0
1486660675.648,97.656,30.762,41.016,82.031,23.438,0
1486660675.652,96.191,27.344,41.504,81.055,29.297,0
1486660675.656,39.551,32.715,38.574,55.664,28.809,0
1486660675.660,-23.926,29.785,40.039,37.109,-5.859,0
1486660675.664,-7.812,23.926,34.180,45.410,0.000,0
1486660675.668,76.660,29.297,30.273,70.312,42.480,0
1486660675.672,97.168,34.180,33.691,80.078,79.590,0
1486660675.676,51.758,35.645,37.598,60.059,75.195,0
1486660675.680,-13.672,31.250,48.340,41.992,33.691,1
1486660675.683,-7.324,27.344,49.316,44.434,2.930,0
1486660675.687,70.801,27.832,39.062,62.500,16.602,0
1486660675.691,92.285,27.832,37.109,74.219,68.848,0
1486660675.695,49.316,24.902,41.992,54.688,50.293,0
1486660675.699,-12.695,23.438,44.434,37.109,-3.418,0
1486660675.703,-18.066,21.484,41.504,41.016,2.441,0
1486660675.707,62.500,29.297,41.016,63.477,8.301,0
1486660675.711,106.934,41.504,41.992,81.543,36.621,0
1486660675.715,67.871,33.691,39.551,57.129,59.570,0
1486660675.719,-0.977,26.855,43.457,38.086,43.945,0
1486660675.723,-20.020,25.879,44.922,41.992,29.297,0
1486660675.726,47.363,23.926,38.086,58.594,25.391,0
1486660675.730,93.750,27.832,36.621,74.707,59.570,0
1486660675.734,66.406,33.203,40.527,61.035,52.734,0
1486660675.738,-1.465,34.668,45.898,39.551,18.555,0
1486660675.742,-31.738,28.809,45.410,36.621,14.160,0
1486660675.746,32.715,24.902,37.598,53.711,8.789,0
1486660675.750,89.355,29.297,34.180,77.637,34.180,0
1486660675.754,71.289,33.691,41.016,72.266,68.848,0
1486660675.758,8.301,35.645,52.734,45.898,31.738,0
1486660675.762,-28.320,28.809,44.922,31.250,16.602,0
1486660675.765,30.762,30.273,32.715,44.922,21.484,0
1486660675.769,93.262,38.086,34.668,71.777,54.199,0
1486660675.773,69.824,30.273,32.227,62.012,99.609,0
1486660675.777,1.465,25.391,37.109,32.715,69.824,0
1486660675.781,-41.992,24.414,43.945,20.508,43.457,0
1486660675.785,7.812,26.367,41.504,35.645,19.531,0
1486660675.789,79.590,32.715,42.480,66.895,51.758,0
1486660675.793,76.660,31.250,47.363,69.824,103.027,0
1486660675.797,15.625,26.855,42.969,39.062,67.383,0
1486660675.801,-40.039,24.902,39.551,22.461,71.777,0
1486660675.805,-6.348,21.484,40.527,40.039,73.242,0
1486660675.808,71.777,20.996,32.715,62.988,63.965,0
1486660675.812,83.984,27.344,37.109,62.988,96.191,0
1486660675.816,30.762,32.715,45.898,43.457,60.059,0
1486660675.820,-28.809,33.691,44.922,34.180,37.598,0
1486660675.824,-2.930,30.273,41.504,46.387,29.297,0
1486660675.828,84.473,35.645,44.434,79.590,54.688,0
1486660675.832,101.562,39.551,41.504,84.473,94.238,0
1486660675.836,40.039,30.762,38.574,43.945,46.875,0
1486660675.840,-29.785,26.855,42.480,24.902,61.035,0
1486660675.844,-20.020,23.926,37.598,36.133,101.074,0
1486660675.848,67.383,28.809,32.715,60.059,58.594,0
1486660675.851,99.609,36.621,32.227,71.289,87.402,0
1486660675.855,51.758,36.133,36.133,56.641,118.164,0
1486660675.859,-14.648,31.738,47.363,35.645,47.852,0
1486660675.863,-7.812,28.320,48.340,42.480,-0.977,0
1486660675.867,68.359,30.273,30.762,64.941,21.973,0
1486660675.871,106.934,34.668,35.156,83.496,84.961,0
1486660675.875,66.895,35.645,42.480,65.918,65.430,0
1486660675.879,-7.324,34.180,40.039,40.039,48.340,0
1486660675.883,-16.602,31.738,44.922,42.969,46.387,0
1486660675.887,60.059,35.156,42.480,65.430,18.555,0
1486660675.890,100.098,32.715,30.273,79.102,68.359,0
1486660675.894,69.336,33.691,30.762,55.176,86.426,0
1486660675.898,-1.465,34.668,42.969,29.297,19.531,0
1486660675.902,-27.344,29.297,42.969,35.645,5.371,0
1486660675.906,50.781,32.715,39.551,57.129,8.301,0
1486660675.910,104.980,38.574,34.180,74.219,47.852,0
1486660675.914,74.707,42.969,32.715,61.035,93.262,0
1486660675.918,14.160,41.504,42.969,38.086,59.570,0
1486660675.922,-18.066,35.645,49.316,41.992,56.152,0
1486660675.926,36.133,36.133,42.969,60.059,52.246,0
1486660675.930,104.492,36.621,34.180,81.055,73.730,0
1486660675.933,90.332,38.086,37.109,71.777,99.609,0
1486660675.937,22.461,36.133,46.875,47.852,69.336,0
1486660675.941,-21.484,29.297,47.852,38.086,31.250,0
1486660675.945,29.297,29.297,41.504,49.316,10.254,0
1486660675.949,104.492,31.250,40.039,79.590,16.113,0
1486660675.953,99.609,33.691,41.992,84.961,62.500,0
1486660675.957,41.016,38.574,50.781,67.383,45.410,0
1486660675.961,-13.672,31.250,50.293,52.246,28.809,0
1486660675.965,18.066,24.902,42.969,60.547,26.367,0
1486660675.969,91.797,27.832,35.156,81.055,22.949,0
1486660675.973,100.098,30.762,39.062,80.566,53.711,0
1486660675.976,46.875,32.227,48.340,62.500,58.105,0
1486660675.980,-12.695,30.273,53.711,46.875,-0.977,0
1486660675.984,7.812,21.973,48.828,53.711,-17.578,0
1486660675.988,83.008,23.438,37.598,80.566,60.547,0
1486660675.992,95.703,32.715,35.156,74.219,122.070,0
1486660675.996,42.969,35.645,47.852,51.758,74.219,0
1486660676.000,-18.066,32.227,59.570,44.434,33.203,0
1486660676.004,-7.812,26.367,47.852,46.875,45.898,0
1486660676.008,61.523,28.320,37.598,64.941,46.387,0
1486660676.012,86.914,32.715,35.645,71.289,56.152,0
1486660676.015,46.875,33.203,43.945,51.270,78.125,0
1486660676.019,-21.484,32.227,52.734,33.691,66.406,0
1486660676.023,-21.973,30.762,46.387,35.156,22.949,0
1486660676.027,48.828,25.879,33.203,50.293,55.176,0
1486660676.031,88.867,25.879,30.762,65.430,101.562,0
1486660676.035,52.246,29.785,41.992,52.246,61.035,0
1486660676.039,-20.020,30.762,44.922,31.250,17.578,0
1486660676.043,-25.879,26.855,46.387,36.133,11.230,0
1486660676.047,52.734,26.855,41.504,55.664,0.000,0
1486660676.051,100.098,34.180,36.621,67.383,59.570,0
1486660676.055,71.777,37.109,44.922,64.453,73.730,0
1486660676.058,3.906,34.668,52.734,49.316,31.250,0
1486660676.062,-21.484,27.832,48.340,44.434,43.457,0
1486660676.066,51.270,24.902,36.133,66.895,46.875,0
1486660676.070,105.469,30.762,36.621,87.891,62.012,0
1486660676.074,77.148,32.227,37.598,74.219,64.941,0
1486660676.078,15.137,35.645,45.410,58.105,32.227,0
1486660676.082,-21.973,27.344,50.781,48.340,23.438,0
1486660676.086,37.109,17.578,45.410,64.941,24.902,0
1486660676.090,100.098,26.367,38.574,82.031,41.016,0
1486660676.094,85.938,33.203,35.156,71.289,85.449,0
1486660676.098,19.043,32.715,41.504,51.758,42.969,0
1486660676.101,-31.738,33.691,42.480,36.621,20.508,0
1486660676.105,18.555,30.762,37.109,53.223,19.531,0
1486660676.109,89.355,30.273,30.273,73.242,36.133,0
1486660676.113,76.172,34.668,32.227,65.430,101.074,0
1486660676.117,18.066,35.645,41.992,42.480,98.145,0
1486660676.121,-21.973,31.250,53.711,32.715,70.801,0
1486660676.125,15.137,28.320,50.781,40.527,55.664,0
1486660676.129,90.332,32.715,41.504,65.430,95.215,0
1486660676.133,90.332,32.715,32.715,67.383,108.887,0
1486660676.137,27.832,30.762,37.598,41.504,66.406,0
1486660676.140,-27.344,27.832,45.898,24.902,24.414,0
1486660676.144,6.836,28.320,42.969,42.969,16.113,0
1486660676.148,86.914,32.715,40.039,70.312,13.184,0
1486660676.152,91.797,31.250,37.109,68.359,34.668,0
1486660676.156,40.527,29.785,38.574,51.270,20.020,0
1486660676.160,-19.531,29.785,45.410,34.180,15.625,0
1486660676.164,-3.906,34.668,43.945,40.527,16.113,0
1486660676.168,76.660,34.668,34.180,65.918,14.648,0
1486660676.172,103.027,33.691,38.574,79.590,109.375,0
1486660676.176,56.641,32.715,44.922,60.547,115.723,0
1486660676.180,-11.719,30.273,43.457,40.039,42.969,0
1486660676.183,-5.371,26.855,41.504,44.922,11.719,0
1486660676.187,72.754,28.320,35.156,66.406,48.828,0
1486660676.191,100.586,34.180,31.250,73.242,97.656,0
1486660676.195,64.453,40.039,35.156,56.641,70.801,0
1486660676.199,-0.488,40.039,43.945,36.621,43.945,0
1486660676.203,-10.254,37.598,44.434,38.574,17.578,0
1486660676.207,68.848,38.574,35.645,60.059,11.719,0
1486660676.211,111.328,38.574,30.762,78.613,78.125,0
1486660676.215,80.078,41.992,41.992,71.777,63.965,0
1486660676.219,9.277,41.016,52.246,45.410,25.391,0
1486660676.222,-11.719,38.086,50.293,39.551,38.086,0
1486660676.226,58.105,35.645,40.039,57.129,24.902,0
1486660676.230,100.098,30.273,28.809,65.918,74.707,0
1486660676.234,70.312,29.297,34.180,57.617,78.125,0
1486660676.238,2.930,26.855,45.898,33.203,20.508,1
1486660676.242,-27.832,26.855,48.340,24.414,20.508,0
1486660676.246,35.645,33.203,40.527,42.480,24.414,0
1486660676.250,94.238,32.227,30.273,63.477,54.688,0
1486660676.254,74.707,33.691,32.715,64.941,57.617,0
1486660676.258,13.184,38.086,49.805,44.434,55.664,0
1486660676.262,-23.926,31.250,53.711,31.738,44.922,0
1486660676.265,26.367,24.414,40.527,48.828,10.254,0
1486660676.269,91.797,27.832,29.297,75.195,89.844,0
1486660676.273,84.473,32.227,33.691,71.777,121.582,0
1486660676.277,20.020,28.320,48.340,45.410,55.664,0
1486660676.281,-26.855,29.785,50.293,32.227,75.195,0
1486660676.285,17.578,32.227,40.527,41.016,65.430,0
1486660676.289,95.703,34.180,39.062,67.383,69.336,0
1486660676.293,92.773,34.180,40.039,65.918,67.383,0
1486660676.297,25.391,31.250,43.457,36.621,24.414,0
1486660676.301,-28.320,30.762,52.734,28.320,10.254,0
1486660676.305,4.883,24.414,43.945,39.062,8.301,0
1486660676.308,87.402,28.320,29.785,62.988,57.129,0
1486660676.312,103.027,34.668,38.086,73.242,107.422,0
1486660676.316,47.852,35.645,51.758,51.758,70.801,0
1486660676.320,-14.160,36.621,52.734,39.551,46.387,0
1486660676.324,9.766,31.250,45.410,45.898,44.434,0
1486660676.328,86.426,26.855,37.598,68.848,14.648,0
1486660676.332,98.145,27.832,37.109,78.125,83.984,0
1486660676.336,50.293,34.668,45.898,56.152,84.961,0
1486660676.340,-11.230,35.645,54.199,38.086,7.324,0
1486660676.344,-5.859,27.344,52.246,43.457,5.859,0
1486660676.347,74.707,30.273,48.340,77.637,56.641,0
1486660676.351,108.398,37.109,44.434,87.891,109.863,0
1486660676.355,57.617,27.832,40.039,57.617,79.590,0
1486660676.359,-9.766,23.926,45.898,43.945,58.105,0
1486660676.363,-12.695,25.391,44.434,50.293,68.848,0
1486660676.367,60.059,23.438,37.598,68.848,48.340,0
1486660676.371,101.074,31.250,39.062,83.008,61.035,0
1486660676.375,73.242,39.062,43.457,68.848,63.477,0
1486660676.379,4.395,38.086,52.246,45.898,4.883,0
1486660676.383,-17.090,34.668,53.711,40.527,2.930,0
1486660676.387,61.523,32.715,40.039,58.594,2.441,0
1486660676.390,104.980,36.133,31.738,78.125,50.781,0
1486660676.394,70.312,38.574,34.180,66.406,70.801,0
1486660676.398,7.812,38.086,43.457,42.480,12.207,0
1486660676.402,-21.484,36.621,46.875,33.691,-28.809,0
1486660676.406,35.645,31.250,31.250,41.504,-22.461,0
1486660676.410,94.727,32.227,27.344,63.477,35.645,0
1486660676.414,83.496,35.645,37.598,63.965,41.992,0
1486660676.418,14.648,33.691,43.457,41.992,11.230,0
1486660676.422,-19.043,36.621,54.199,44.434,17.090,0
1486660676.426,36.133,28.809,46.875,56.641,33.203,0
1486660676.430,97.656,26.855,31.250,72.754,50.293,0
1486660676.433,90.820,37.598,32.715,76.172,67.871,0
1486660676.437,24.902,34.668,40.039,54.199,40.527,0
1486660676.441,-27.344,27.832,43.945,39.062,32.715,0
1486660676.445,15.137,31.738,38.574,51.758,21.973,0
1486660676.449,89.844,36.621,34.180,77.637,34.180,0
1486660676.453,88.379,38.574,35.156,71.289,74.219,0
1486660676.457,33.691,43.457,43.945,48.828,61.035,0
1486660676.461,-11.719,42.969,50.781,36.133,25.879,0
1486660676.465,12.695,32.715,40.039,42.969,-6.836,0
1486660676.469,83.984,30.762,29.297,68.359,3.906,0
1486660676.472,105.469,41.016,38.574,80.566,51.270,0
1486660676.476,50.781,37.109,44.434,56.641,47.852,0
1486660676.480,-20.508,28.320,36.133,28.320,-5.371,0
1486660676.484,4.883,30.762,34.180,36.133,-30.762,0
1486660676.488,90.332,33.203,32.715,63.477,34.180,0
1486660676.492,107.910,36.621,34.668,71.777,80.566,0
1486660676.496,55.664,39.062,39.551,50.781,42.969,0
1486660676.500,-4.395,39.062,52.734,32.227,32.227,0
1486660676.504,3.418,34.668,53.711,38.574,39.551,0
1486660676.508,73.730,29.785,33.203,63.965,36.133,0
1486660676.512,98.633,32.715,30.273,77.637,85.449,0
1486660676.515,56.641,39.551,41.504,62.988,88.867,0
1486660676.519,-3.418,36.133,46.875,44.922,53.223,0
1486660676.523,-2.441,27.832,45.898,43.945,29.297,0
1486660676.527,72.266,29.785,38.574,66.406,41.992,0
1486660676.531,112.793,37.598,35.645,78.125,95.703,0
1486660676.535,76.172,41.504,47.363,62.500,62.012,0
1486660676.539,7.324,36.621,57.129,45.410,28.809,0
1486660676.543,-9.766,32.715,46.387,40.039,26.367,0
1486660676.547,64.941,36.133,41.992,66.895,27.832,0
1486660676.551,104.980,29.297,35.156,78.613,69.336,0
1486660676.555,70.801,30.762,31.738,60.059,67.871,0
1486660676.558,7.812,39.551,42.969,41.992,42.969,0
1486660676.562,-23.438,33.203,45.410,35.645,40.527,0
1486660676.566,43.457,29.297,38.574,54.199,36.621,0
1486660676.570,97.656,35.645,35.156,66.406,63.477,0
1486660676.574,67.871,38.574,41.016,59.082,82.520,0
1486660676.578,4.883,33.691,49.316,40.527,32.227,0
1486660676.582,-27.344,32.227,49.805,29.785,23.926,0
1486660676.586,30.273,29.297,35.645,44.434,51.758,0
1486660676.590,95.703,34.180,26.367,73.730,68.848,0
1486660676.594,85.449,40.527,37.109,75.684,60.547,0
1486660676.597,23.438,37.598,50.293,49.316,39.551,0
1486660676.601,-22.949,33.691,53.223,37.598,39.551,0
1486660676.605,23.926,32.715,47.852,52.246,41.504,0
1486660676.609,90.820,34.668,39.551,78.125,66.895,0
1486660676.613,84.961,33.691,39.062,71.289,95.703,0
1486660676.617,29.785,38.086,53.711,51.758,44.922,0
1486660676.621,-28.809,31.250,52.246,41.504,26.855,0
1486660676.625,4.883,21.973,41.992,46.875,21.973,0
1486660676.629,82.520,24.902,32.715,68.848,50.293,0
1486660676.633,93.750,30.273,34.668,76.172,81.543,0
1486660676.637,42.480,34.180,45.898,51.758,36.133,0
1486660676.640,-21.484,36.621,48.828,28.320,7.812,0
1486660676.644,3.906,34.668,49.805,40.527,17.578,0
1486660676.648,78.125,32.227,44.434,71.777,50.781,0
1486660676.652,92.285,35.645,42.480,78.125,85.449,0
1486660676.656,40.527,35.645,44.922,56.641,74.219,0
1486660676.660,-22.461,31.738,49.805,36.133,74.219,0
1486660676.664,-1.953,29.785,50.781,43.457,78.613,0
1486660676.668,76.172,33.691,40.039,73.242,67.871,0
1486660676.672,100.586,34.668,41.504,83.496,67.871,0
1486660676.676,60.547,36.133,49.805,67.871,58.594,0
1486660676.679,2.441,42.969,56.641,46.387,53.711,0
1486660676.683,-10.254,35.156,47.363,40.527,60.547,0
1486660676.687,62.988,29.297,34.180,68.848,60.059,0
1486660676.691,102.051,35.645,35.645,82.520,72.754,0
1486660676.695,60.059,37.598,47.852,65.430,60.059,0
1486660676.699,-7.324,37.109,58.105,42.480,31.738,0
1486660676.703,-20.996,31.738,51.758,33.203,4.883,0
1486660676.707,52.246,27.344,41.504,60.547,6.836,0
1486660676.711,99.121,31.738,39.551,82.520,64.453,0
1486660676.715,62.988,31.738,42.969,62.500,59.082,0
1486660676.719,-3.906,29.785,48.828,37.109,-1.953,0
1486660676.722,-21.973,30.273,50.781,35.645,-30.273,0
1486660676.726,41.992,26.855,43.945,54.688,-36.133,0
1486660676.730,93.750,31.250,37.598,74.219,-0.977,0
1486660676.734,71.777,36.621,39.551,62.012,40.039,0
1486660676.738,9.766,33.691,51.270,39.062,-12.695,0
1486660676.742,-21.973,36.133,58.105,40.527,-24.902,0
1486660676.746,31.250,29.297,44.922,47.363,-39.551,0
1486660676.750,86.914,21.973,34.180,66.406,-14.160,1
1486660676.754,79.590,32.227,41.504,71.777,63.477,0
1486660676.758,21.973,38.574,55.176,47.852,41.016,0
1486660676.762,-23.438,32.715,56.152,39.551,-7.812,0
1486660676.765,27.832,27.832,48.340,56.152,-5.371,0
1486660676.769,93.750,27.344,39.062,79.590,55.176,0
1486660676.773,86.914,28.809,36.621,76.172,71.289,0
1486660676.777,28.809,31.250,46.875,50.293,37.109,0
1486660676.781,-24.902,27.344,51.758,40.039,23.438,0
1486660676.785,11.719,22.461,46.875,55.176,29.785,0
1486660676.789,87.402,24.414,41.992,74.219,66.895,0
1486660676.793,86.914,28.320,41.992,81.543,87.402,0
1486660676.797,27.344,32.227,46.387,55.176,35.156,0
1486660676.801,-29.297,28.320,49.805,34.668,28.320,0
1486660676.804,0.977,24.902,52.246,52.734,2.441,0
1486660676.808,74.707,25.879,42.480,71.289,22.461,0
1486660676.812,83.984,27.344,29.297,71.289,130.371,0
1486660676.816,37.598,29.785,37.598,51.270,81.543,0
1486660676.820,-22.461,27.832,47.363,33.203,0.488,0
1486660676.824,-10.254,25.391,48.340,40.039,16.602,0
1486660676.828,69.336,25.391,41.992,68.848,19.531,0
1486660676.832,94.727,29.785,39.551,83.984,73.242,0
1486660676.836,45.898,30.762,45.410,54.199,83.008,0
1486660676.840,-19.043,28.320,52.734,31.738,42.480,0
1486660676.844,-15.137,29.297,52.734,41.016,32.227,0
1486660676.847,56.152,24.902,37.109,59.082,47.852,0
1486660676.851,82.031,28.809,35.645,73.242,94.238,0
1486660676.855,41.504,35.645,41.016,54.688,44.922,0
1486660676.859,-21.973,32.227,43.945,25.879,2.930,0
1486660676.863,-30.273,30.273,46.875,32.227,-11.719,0
1486660676.867,43.457,30.273,41.016,55.176,-32.715,0
1486660676.871,85.938,30.762,42.480,71.289,-5.371,0
1486660676.875,52.246,33.203,47.852,58.594,19.043,0
1486660676.879,-19.531,28.320,48.828,40.039,-7.324,0
1486660676.883,-38.574,23.926,46.875,41.504,-8.789,0
1486660676.887,41.504,27.832,44.922,57.617,-33.691,0
1486660676.890,94.727,31.738,38.086,77.148,14.160,0
1486660676.894,62.012,36.133,37.598,62.012,53.711,0
1486660676.898,-7.812,36.621,51.270,38.086,4.883,0
1486660676.902,-30.273,33.203,54.199,35.645,-3.418,0
1486660676.906,31.738,31.250,46.875,47.363,-11.230,0
1486660676.910,82.520,31.250,44.922,69.824,35.156,0
1486660676.914,68.848,32.715,42.480,67.871,39.551,0
1486660676.918,6.348,36.621,52.734,46.387,-12.695,0
1486660676.922,-37.598,34.180,56.152,40.039,-20.508,0
1486660676.926,20.996,30.762,46.875,61.035,-19.531,0
1486660676.929,85.938,32.227,40.039,82.031,11.230,0
1486660676.933,73.242,36.133,36.621,73.730,50.781,0
1486660676.937,21.484,42.969,52.246,60.059,13.672,0
1486660676.941,-25.391,41.992,59.570,48.340,-3.418,0
1486660676.945,0.000,28.809,40.039,41.504,11.719,0
1486660676.949,77.148,30.273,33.691,67.383,2.441,0
1486660676.953,84.961,38.574,36.133,75.195,44.434,0
1486660676.957,22.461,37.598,40.039,49.316,54.199,0
1486660676.961,-32.227,34.180,52.246,38.086,19.531,0
1486660676.965,-3.418,30.762,52.734,55.664,36.621,0
1486660676.969,69.824,30.762,40.527,78.125,48.828,0
1486660676.972,89.355,39.062,40.527,82.520,44.922,0
1486660676.976,39.551,41.016,54.199,62.988,45.410,0
1486660676.980,-25.391,34.180,54.199,41.992,29.785,0
1486660676.984,-7.812,31.738,43.945,42.480,11.719,0
1486660676.988,69.824,34.668,37.598,65.918,66.406,0
1486660676.992,90.332,35.645,32.227,76.660,94.727,0
1486660676.996,45.410,38.086,39.551,59.082,23.438,0
1486660677.000,-15.625,37.598,50.293,49.805,22.949,0
1486660677.004,-10.742,28.320,50.293,55.176,30.273,0
1486660677.008,61.523,29.785,41.016,74.219,8.301,0
1486660677.012,92.773,36.133,37.109,84.473,64.941,0
1486660677.015,52.734,35.645,47.852,73.730,69.336,0
1486660677.019,-18.555,36.621,53.223,51.758,41.016,0
1486660677.023,-15.625,39.551,55.664,51.758,35.156,0
1486660677.027,58.105,30.273,46.875,72.754,27.344,0
1486660677.031,88.379,25.879,34.180,77.637,83.984,0
1486660677.035,61.035,33.691,39.551,67.871,98.145,0
1486660677.039,-6.836,31.738,45.898,47.852,25.391,0
1486660677.043,-30.273,29.297,53.711,47.852,3.906,0
1486660677.047,39.551,29.785,52.246,67.383,32.227,0
1486660677.051,89.355,31.250,39.551,80.078,69.824,0
1486660677.054,64.941,35.645,41.504,70.312,68.848,0
1486660677.058,-2.930,34.668,47.363,46.387,43.945,0
1486660677.062,-32.227,28.809,43.945,41.992,15.625,0
1486660677.066,37.109,28.809,38.574,62.012,5.859,0
1486660677.070,93.262,32.227,37.109,80.078,34.668,0
1486660677.074,71.777,34.668,40.039,73.242,62.988,0
1486660677.078,9.766,34.668,51.758,46.387,36.621,0
1486660677.082,-23.926,32.715,55.176,37.109,20.020,0
1486660677.086,28.809,32.715,41.504,55.664,15.625,0
1486660677.090,88.867,38.574,30.762,76.660,37.598,0
1486660677.094,80.078,48.828,37.598,74.707,66.406,0
1486660677.097,14.648,43.457,46.875,49.316,53.223,0
1486660677.101,-40.527,32.715,41.992,30.273,43.457,0
1486660677.105,3.418,31.250,39.551,42.480,45.898,0
1486660677.109,81.055,32.227,39.062,71.289,34.180,0
1486660677.113,84.473,34.180,38.574,68.359,39.062,0
1486660677.117,30.762,39.551,48.828,46.387,57.129,0
1486660677.121,-18.555,37.598,58.105,37.598,23.438,0
1486660677.125,12.207,32.715,45.898,44.922,-5.859,0
1486660677.129,82.520,36.621,35.645,67.383,20.996,0
1486660677.133,87.891,33.203,40.527,73.730,71.289,0
1486660677.136,36.621,31.250,49.805,55.664,47.852,0
1486660677.140,-22.949,32.227,51.758,42.969,20.020,0
1486660677.144,-2.930,28.809,47.363,48.340,6.348,0
1486660677.148,78.125,29.785,42.480,72.266,12.207,0
1486660677.152,95.703,33.203,42.969,83.008,34.668,0
1486660677.156,52.246,36.621,51.758,68.848,17.578,0
1486660677.160,-5.859,35.156,57.617,43.457,-7.812,0
1486660677.164,-6.836,24.902,46.875,41.016,-41.992,0
1486660677.168,72.754,30.762,41.992,68.359,-26.367,0
1486660677.172,102.539,35.156,39.551,77.148,43.457,0
1486660677.176,49.316,33.203,37.598,54.199,54.688,0
1486660677.179,-16.602,35.156,46.875,32.715,-11.230,0
1486660677.183,-18.066,29.297,46.387,34.180,-25.391,0
1486660677.187,62.500,26.367,36.133,56.152,-6.836,0
1486660677.191,102.051,35.156,36.621,69.336,41.992,0
1486660677.195,63.965,38.086,45.410,50.781,57.617,0
1486660677.199,-5.859,36.133,43.945,25.879,24.414,0
1486660677.203,-18.555,32.227,42.480,30.273,23.438,0
1486660677.207,58.594,28.320,38.574,53.223,31.250,0
1486660677.211,102.539,34.668,35.156,67.871,72.266,0
1486660677.215,72.266,39.062,37.598,67.383,100.586,0
1486660677.219,-0.977,33.691,44.434,43.457,70.312,0
1486660677.222,-26.855,31.250,51.758,37.598,52.246,0
1486660677.226,35.645,30.273,44.434,67.383,48.828,0
1486660677.230,85.938,29.785,32.715,83.496,89.844,0
1486660677.234,66.406,27.832,35.156,69.824,136.230,0
1486660677.238,0.000,22.461,41.016,45.410,82.520,0
1486660677.242,-30.762,20.996,44.434,33.203,8.789,0
1486660677.246,28.809,21.973,41.992,51.758,23.926,0
1486660677.250,93.262,29.785,37.109,72.754,111.328,0
1486660677.254,76.172,33.203,38.086,69.336,116.699,0
1486660677.258,14.648,32.227,46.875,47.852,32.227,0
1486660677.261,-30.762,30.762,46.875,33.203,15.625,0
1486660677.265,9.277,26.855,39.062,44.922,-7.324,0
1486660677.269,81.543,26.855,38.086,66.895,2.930,0
1486660677.273,82.520,26.367,41.992,75.195,58.105,0
1486660677.277,27.344,25.879,43.945,55.664,41.504,0
1486660677.281,-27.832,23.438,44.922,34.668,12.695,0
1486660677.285,17.090,25.879,47.363,55.176,0.488,0
1486660677.289,94.238,28.320,38.574,79.102,57.617,0
1486660677.293,86.426,24.902,31.738,68.848,84.961,0
1486660677.297,37.598,31.250,39.551,48.828,59.570,0
1486660677.301,-19.531,33.691,45.410,41.504,28.809,0
1486660677.304,0.488,28.320,40.039,50.781,-19.043,0
1486660677.308,83.008,31.738,36.621,73.730,18.555,0
1486660677.312,96.191,34.668,38.086,80.566,66.895,0
1486660677.316,48.828,31.738,38.574,55.176,32.715,0
1486660677.320,-6.348,32.227,47.852,41.992,7.812,0
1486660677.324,1.953,28.809,45.410,51.758,12.695,0
1486660677.328,75.195,23.926,34.180,65.918,57.129,0
1486660677.332,103.516,29.785,36.133,83.984,111.328,0
1486660677.336,62.500,34.668,42.480,73.730,74.707,0
1486660677.340,-7.812,32.227,46.387,45.410,11.719,0
1486660677.344,-2.930,34.180,47.852,46.875,7.324,0
1486660677.347,73.730,35.645,45.410,68.848,26.855,0
1486660677.351,105.957,35.156,42.480,80.078,44.922,0
1486660677.355,66.895,34.668,43.945,58.105,54.199,0
1486660677.359,-7.324,30.273,50.293,36.133,53.711,0
1486660677.363,-18.066,30.762,50.781,39.551,22.949,0
1486660677.367,55.176,25.391,45.410,50.293,25.391,0
1486660677.371,93.262,24.902,35.645,64.453,58.105,0
1486660677.375,61.035,32.715,35.156,58.594,21.973,0
1486660677.379,0.977,29.297,47.852,39.551,8.301,0
1486660677.383,-22.461,19.531,47.852,36.621,30.273,0
