timestamps,TP9,AF7,AF8,TP10,Right AUX,Marker
1486660839.872,89.844,33.691,39.551,82.031,30.762,0
1486660839.876,27.832,32.715,34.180,52.246,39.551,0
1486660839.880,-17.090,29.785,45.410,44.434,44.434,0
1486660839.884,2.441,23.926,47.363,50.781,48.828,0
1486660839.887,73.730,29.297,33.203,68.359,66.895,0
1486660839.891,88.867,38.086,29.297,62.988,86.426,0
1486660839.895,31.250,39.062,34.668,38.574,71.289,0
1486660839.899,-25.391,34.668,36.621,27.344,31.250,0
1486660839.903,-11.230,31.250,39.062,38.086,25.391,0
1486660839.907,61.523,33.203,37.598,62.500,61.035,0
1486660839.911,85.938,33.203,31.250,70.312,51.270,0
1486660839.915,45.898,31.738,35.645,52.734,20.508,0
1486660839.919,-5.859,35.156,45.898,41.016,55.176,0
1486660839.923,-5.859,33.691,41.992,45.898,41.504,0
1486660839.926,60.059,31.738,33.203,60.059,38.574,0
1486660839.930,94.238,36.621,35.156,74.219,68.848,0
1486660839.934,61.035,39.551,43.457,60.547,79.590,0
1486660839.938,-0.977,30.762,49.316,46.875,40.039,0
1486660839.942,-6.836,29.785,51.758,53.711,18.066,0
1486660839.946,66.406,33.691,40.039,68.848,38.086,0
1486660839.950,98.145,30.273,29.297,77.637,53.711,0
1486660839.954,62.012,34.180,38.086,65.918,42.969,0
1486660839.958,3.418,29.785,43.457,44.922,38.574,0
1486660839.962,-19.043,23.438,41.016,34.668,-8.301,0
1486660839.966,41.992,24.902,37.598,53.711,6.836,0
1486660839.969,90.332,29.297,44.434,73.242,47.852,0
1486660839.973,63.965,31.738,51.270,59.570,21.484,0
1486660839.977,1.953,31.738,47.363,37.109,20.020,0
1486660839.981,-19.043,31.250,41.504,33.203,26.855,0
1486660839.985,28.320,26.855,37.109,38.574,40.039,0
1486660839.989,73.730,26.367,34.668,56.152,52.734,0
1486660839.993,69.824,30.273,39.062,63.965,48.828,0
1486660839.997,5.859,32.227,38.086,32.227,10.742,0
1486660840.001,-32.715,26.367,39.551,22.949,-2.441,0
1486660840.005,21.973,20.996,39.062,42.969,36.621,0
1486660840.009,81.055,26.855,35.645,65.430,33.691,0
1486660840.012,75.195,30.762,38.574,62.500,25.391,0
1486660840.016,21.973,31.738,41.504,46.387,32.227,0
1486660840.020,-22.949,31.738,43.945,43.945,6.836,1
1486660840.024,14.648,28.809,41.016,44.434,18.555,0
1486660840.028,81.543,28.320,35.156,65.430,44.434,0
1486660840.032,83.008,31.250,34.668,69.824,76.660,0
1486660840.036,30.762,32.715,37.109,49.316,72.266,0
1486660840.040,-15.137,31.250,39.551,38.086,64.453,0
1486660840.044,12.207,26.855,38.086,41.016,59.570,0
1486660840.048,82.031,28.320,35.645,64.453,48.828,0
1486660840.051,94.727,41.016,42.480,76.172,53.223,0
1486660840.055,42.480,45.410,52.734,58.105,63.477,0
1486660840.059,-16.602,33.691,47.852,41.016,59.082,0
1486660840.063,5.371,27.344,35.645,38.574,30.762,0
1486660840.067,73.242,30.273,30.762,61.035,42.480,0
1486660840.071,92.773,34.180,36.621,78.125,63.965,0
1486660840.075,55.664,33.203,42.480,66.895,61.035,0
1486660840.079,3.418,34.180,44.434,58.105,59.570,0
1486660840.083,15.625,35.645,48.828,61.523,45.898,0
1486660840.087,88.379,34.180,45.898,79.590,49.316,0
1486660840.091,119.629,37.598,44.434,90.820,71.777,0
1486660840.094,78.613,43.457,44.922,75.195,53.223,0
1486660840.098,6.348,38.086,47.852,59.570,11.719,0
1486660840.102,-2.441,34.668,46.387,54.199,1.465,0
1486660840.106,65.918,36.621,41.016,74.219,35.645,0
1486660840.110,97.168,34.180,45.898,96.191,73.242,0
1486660840.114,69.336,35.645,50.781,82.031,47.363,0
1486660840.118,6.348,39.551,52.734,61.523,-11.230,0
1486660840.122,-17.090,38.086,53.223,46.875,-25.391,0
1486660840.126,50.293,36.133,44.922,57.617,5.371,0
1486660840.130,95.703,37.109,39.551,76.172,60.547,0
1486660840.134,60.059,37.598,38.574,61.035,68.359,0
1486660840.137,1.953,37.109,47.363,53.223,56.152,0
1486660840.141,-18.066,29.785,47.852,45.410,37.598,0
1486660840.145,33.691,24.414,36.621,48.340,35.156,0
1486660840.149,85.449,30.762,41.016,74.219,71.777,0
1486660840.153,64.941,34.180,40.527,68.848,74.707,0
1486660840.157,6.348,35.156,40.527,48.340,26.367,0
1486660840.161,-22.949,30.762,45.410,39.551,11.719,0
1486660840.165,34.668,30.273,42.480,52.246,11.719,0
1486660840.169,90.332,31.738,37.109,77.148,36.133,0
1486660840.173,74.219,34.180,38.574,72.754,53.223,0
1486660840.176,20.508,32.715,46.387,54.688,54.688,0
1486660840.180,-15.137,29.297,53.223,45.898,39.062,0
1486660840.184,23.926,30.273,50.293,56.641,-6.836,0
1486660840.188,84.961,32.227,43.457,78.125,39.062,0
1486660840.192,82.031,32.715,37.598,67.383,73.242,0
1486660840.196,27.344,28.809,41.016,50.781,38.574,0
1486660840.200,-15.625,26.855,46.875,43.457,8.301,0
1486660840.204,24.902,31.250,43.945,52.734,18.555,0
1486660840.208,91.309,32.715,37.598,79.102,54.688,0
1486660840.212,88.867,35.645,31.250,75.684,98.633,0
1486660840.216,40.527,40.527,45.898,55.176,72.754,0
1486660840.219,-12.695,36.621,58.594,43.457,-3.906,0
1486660840.223,10.254,24.902,41.992,42.969,25.879,0
1486660840.227,75.195,24.414,28.809,62.988,89.355,0
1486660840.231,90.820,30.273,31.250,76.172,104.492,0
1486660840.235,46.387,28.809,37.109,53.711,66.895,0
1486660840.239,-14.648,28.809,48.340,39.062,69.336,0
1486660840.243,-3.906,22.949,44.434,43.457,90.820,0
1486660840.247,67.871,21.973,34.668,62.988,91.797,0
1486660840.251,93.750,34.180,39.551,70.801,83.496,0
1486660840.255,50.781,35.645,47.852,54.199,77.637,0
1486660840.259,-10.254,32.227,47.852,41.504,82.520,0
1486660840.262,-3.906,30.273,41.992,42.969,16.602,0
1486660840.266,70.312,26.855,42.480,69.824,37.598,0
1486660840.270,95.215,29.785,39.062,82.031,120.605,0
1486660840.274,61.523,34.180,41.016,64.453,83.496,0
1486660840.278,2.441,31.738,52.734,51.270,51.758,0
1486660840.282,-17.090,27.344,46.875,48.340,55.664,0
1486660840.286,54.199,25.879,36.621,61.035,48.828,0
1486660840.290,96.680,26.367,38.574,79.102,54.199,0
1486660840.294,58.594,29.785,44.922,63.477,34.180,0
1486660840.298,4.883,33.691,49.316,58.105,42.969,0
1486660840.301,-6.836,28.320,51.758,60.547,18.066,0
1486660840.305,63.477,31.738,44.922,67.383,4.395,0
1486660840.309,113.281,38.574,49.316,86.914,67.871,0
1486660840.313,77.148,31.250,48.828,74.219,90.820,0
1486660840.317,12.695,29.297,43.457,50.293,48.828,0
1486660840.321,-9.277,28.320,42.480,45.898,11.230,0
1486660840.325,47.852,29.785,35.645,61.035,11.230,0
1486660840.329,94.238,35.645,35.156,77.148,50.781,0
1486660840.333,74.219,38.574,37.598,69.336,66.406,0
1486660840.337,15.625,31.738,38.086,51.270,52.246,0
1486660840.341,-20.996,26.367,39.551,44.922,18.555,0
1486660840.344,25.391,24.902,35.645,51.758,15.625,0
1486660840.348,87.402,28.320,32.715,76.172,44.922,0
1486660840.352,79.590,33.203,37.598,82.520,78.125,0
1486660840.356,18.555,33.691,40.527,60.059,58.594,0
1486660840.360,-27.832,29.785,42.969,43.945,-0.488,0
1486660840.364,9.766,26.855,40.527,50.781,-10.254,0
1486660840.368,75.684,31.250,41.016,67.383,15.625,0
1486660840.372,81.055,31.738,45.898,65.430,37.109,0
1486660840.376,23.926,28.809,38.086,45.898,24.414,0
1486660840.380,-29.297,27.344,37.109,34.668,3.906,0
1486660840.383,4.395,24.902,39.551,41.016,19.531,0
1486660840.387,73.730,27.344,29.785,62.988,42.969,0
1486660840.391,80.566,32.227,29.297,74.219,48.340,0
1486660840.395,38.574,33.203,41.504,62.988,63.965,0
1486660840.399,-14.160,38.086,49.805,41.504,54.199,0
1486660840.403,-1.953,34.668,43.457,46.875,12.695,0
1486660840.407,70.801,29.785,30.762,74.219,52.246,0
1486660840.411,92.773,38.574,36.133,78.125,102.539,0
1486660840.415,46.387,36.621,47.852,52.734,40.527,0
1486660840.419,-15.625,25.879,47.363,37.109,45.410,0
1486660840.423,-7.324,25.879,40.039,41.504,62.500,0
1486660840.426,62.988,24.902,34.668,59.570,41.504,0
1486660840.430,91.797,27.344,40.039,82.520,67.871,0
1486660840.434,60.059,34.180,45.410,63.965,111.328,0
1486660840.438,1.465,33.203,55.176,48.828,49.316,0
1486660840.442,-7.324,24.902,50.293,55.664,-31.738,0
1486660840.446,55.664,25.391,33.203,58.105,49.805,0
1486660840.450,93.262,34.180,33.203,71.777,137.207,0
1486660840.454,63.477,36.133,40.527,70.801,83.008,0
1486660840.458,-0.977,35.645,46.387,47.852,63.965,0
1486660840.462,-20.020,33.691,44.434,40.039,64.453,0
1486660840.466,49.805,33.203,34.180,59.570,19.043,0
1486660840.469,100.586,34.668,35.156,75.684,24.414,0
1486660840.473,68.359,31.738,39.062,61.035,65.430,0
1486660840.477,6.348,34.668,44.922,46.387,52.734,0
1486660840.481,-14.160,35.156,50.781,44.922,8.301,0
1486660840.485,41.504,32.227,43.457,56.152,-12.207,0
1486660840.489,85.938,29.785,35.156,71.777,17.578,0
1486660840.493,78.613,39.062,47.363,72.266,47.852,0
1486660840.497,28.809,38.574,52.734,48.340,18.066,0
1486660840.501,-19.531,25.879,39.062,32.715,20.020,0
1486660840.505,25.879,27.344,37.598,48.340,25.391,0
1486660840.508,89.844,29.297,38.574,66.895,39.551,0
1486660840.512,78.125,31.250,35.156,64.941,61.035,0
1486660840.516,18.555,30.762,40.527,45.410,58.594,0
1486660840.520,-20.996,28.320,48.340,40.039,41.016,0
1486660840.524,19.531,30.273,41.504,54.688,28.320,0
1486660840.528,86.914,31.738,35.645,71.777,32.715,0
1486660840.532,85.938,34.180,40.039,67.871,66.895,0
1486660840.536,29.297,32.715,43.945,49.316,52.246,0
1486660840.540,-17.578,26.367,41.992,43.945,60.547,0
1486660840.544,16.602,26.855,44.922,53.711,61.523,0
1486660840.548,78.125,29.785,40.527,69.336,62.012,0
1486660840.551,83.496,33.691,33.691,73.242,119.141,0
1486660840.555,35.156,34.180,39.062,49.316,98.633,0
1486660840.559,-28.320,25.879,41.016,35.156,43.945,0
1486660840.563,-5.859,24.902,41.504,46.387,10.254,0
1486660840.567,69.824,27.832,46.387,73.730,16.113,0
1486660840.571,83.984,26.855,42.969,74.219,75.684,0
1486660840.575,32.227,26.855,37.109,46.875,56.152,0
1486660840.579,-22.949,27.344,45.410,38.574,16.113,0
1486660840.583,-7.812,27.832,41.992,47.363,25.879,0
1486660840.587,62.500,27.344,30.762,65.918,26.367,0
1486660840.591,94.238,28.320,34.668,78.125,52.734,0
1486660840.594,59.570,35.156,39.551,61.523,56.641,0
1486660840.598,-3.906,38.574,42.480,37.109,16.602,0
1486660840.602,-8.301,32.715,43.457,35.645,21.973,0
1486660840.606,58.105,30.762,38.086,56.152,20.996,0
1486660840.610,88.867,33.203,34.180,67.383,23.438,0
1486660840.614,53.711,34.668,39.062,56.641,51.270,0
1486660840.618,-2.930,33.691,46.875,46.875,51.758,0
1486660840.622,-11.719,30.273,44.922,45.410,20.508,0
1486660840.626,52.734,26.367,41.504,61.035,-7.812,0
1486660840.630,95.215,34.180,38.574,78.125,20.508,0
1486660840.633,67.871,41.992,38.086,62.500,37.598,0
1486660840.637,11.719,37.109,48.828,48.828,10.742,0
1486660840.641,-8.301,37.598,51.758,55.176,7.812,0
1486660840.645,45.410,32.227,41.504,62.500,4.883,0
1486660840.649,89.844,25.391,31.738,71.777,26.367,0
1486660840.653,64.453,32.715,37.109,67.383,55.664,0
1486660840.657,6.836,35.645,47.363,46.875,23.926,0
1486660840.661,-23.438,29.785,43.457,37.109,0.488,0
1486660840.665,28.809,26.367,33.691,47.363,11.230,0
1486660840.669,81.543,31.738,36.621,68.848,31.738,0
1486660840.673,66.406,34.180,39.551,60.059,51.758,0
1486660840.676,7.324,31.250,37.598,32.227,60.547,0
1486660840.680,-26.367,29.785,43.945,29.785,23.438,0
1486660840.684,18.066,27.344,41.992,41.992,15.137,0
1486660840.688,77.148,25.391,34.180,57.617,72.266,0
1486660840.692,77.637,29.785,41.992,62.988,69.824,0
1486660840.696,23.438,32.715,45.410,48.828,30.762,0
1486660840.700,-22.949,32.715,39.551,41.504,16.602,0
1486660840.704,16.602,34.668,41.992,57.129,4.883,0
1486660840.708,86.426,37.109,37.109,83.984,47.852,0
1486660840.712,87.891,39.062,34.668,77.148,79.102,1
1486660840.716,44.434,43.945,48.340,58.105,40.039,0
1486660840.719,-12.207,39.062,53.711,48.340,14.648,0
1486660840.723,0.488,28.320,46.387,51.270,26.855,0
1486660840.727,71.289,30.762,37.109,72.754,60.059,0
1486660840.731,91.797,37.109,41.992,75.684,90.332,0
1486660840.735,45.410,39.062,45.898,54.688,89.844,0
1486660840.739,-11.230,32.715,41.992,40.039,37.109,0
1486660840.743,-2.930,26.855,41.504,43.457,44.434,0
1486660840.747,64.453,27.344,31.250,67.383,70.312,0
1486660840.751,88.379,28.809,29.297,75.684,61.035,0
1486660840.755,46.387,30.273,37.109,51.758,54.688,0
1486660840.758,-12.695,33.691,42.480,41.992,48.340,0
1486660840.762,-8.301,29.785,45.410,42.969,20.996,0
1486660840.766,63.477,28.320,43.457,62.012,52.246,0
1486660840.770,96.191,31.738,44.922,76.660,87.891,0
1486660840.774,54.199,31.250,41.992,60.547,70.312,0
1486660840.778,-12.695,28.320,34.180,41.504,19.531,0
1486660840.782,-15.625,23.438,38.574,41.016,-13.184,0
1486660840.786,54.199,23.926,38.086,62.988,-10.742,0
1486660840.790,92.773,32.227,33.203,73.730,17.578,0
1486660840.794,68.359,40.039,41.504,61.523,24.902,0
1486660840.798,9.277,35.645,48.828,50.781,-11.230,0
1486660840.801,-16.602,25.879,40.527,43.457,-23.926,0
1486660840.805,45.898,27.344,32.715,52.734,-0.977,0
1486660840.809,92.285,30.273,35.645,70.312,20.508,0
1486660840.813,67.871,31.738,41.016,63.965,31.250,0
1486660840.817,9.766,28.809,41.504,45.898,10.254,0
1486660840.821,-20.996,20.508,39.062,37.109,-14.648,0
1486660840.825,25.879,21.484,30.762,46.387,15.137,0
1486660840.829,81.055,27.344,29.297,67.871,45.410,0
1486660840.833,66.406,28.809,31.738,56.641,44.434,0
1486660840.837,7.812,27.344,35.645,40.527,60.547,0
1486660840.840,-20.996,26.855,41.504,38.574,20.996,0
1486660840.844,28.809,26.367,41.992,44.434,-20.996,0
1486660840.848,88.867,28.320,41.504,64.453,49.805,0
1486660840.852,82.031,29.297,42.480,66.406,67.871,0
1486660840.856,29.297,32.227,46.875,55.176,10.254,0
1486660840.860,-16.602,31.250,48.340,49.316,22.949,0
1486660840.864,16.113,25.391,40.039,50.781,30.273,0
1486660840.868,88.379,28.809,34.180,66.895,73.730,0
1486660840.872,91.797,35.645,36.621,75.684,116.699,0
1486660840.876,45.410,41.992,49.805,61.523,61.523,0
1486660840.880,-6.836,32.715,54.688,38.086,30.273,0
1486660840.883,10.254,20.996,41.992,40.039,5.371,0
1486660840.887,75.684,29.297,32.227,58.105,5.859,0
1486660840.891,76.660,27.832,34.180,60.059,31.738,0
1486660840.895,26.855,23.926,41.016,49.316,43.457,0
1486660840.899,-22.949,27.832,40.527,38.086,42.969,0
1486660840.903,-10.742,27.344,39.551,42.480,26.855,0
1486660840.907,61.035,29.297,39.062,70.312,54.688,0
1486660840.911,86.914,31.738,41.992,85.938,92.285,0
1486660840.915,42.480,30.762,39.551,64.453,87.891,0
1486660840.919,-14.648,31.250,45.410,46.387,43.945,0
1486660840.923,-5.371,26.855,44.434,54.199,15.625,0
1486660840.926,54.688,25.391,34.180,67.871,38.086,0
1486660840.930,77.637,31.738,38.574,72.754,61.523,0
1486660840.934,49.316,31.250,43.945,63.477,42.480,0
1486660840.938,-6.836,27.344,49.316,47.852,36.133,0
1486660840.942,-15.137,30.273,40.039,38.574,35.645,0
1486660840.946,57.129,27.832,30.762,58.105,35.156,0
1486660840.950,96.680,25.391,36.133,79.590,62.012,0
1486660840.954,60.547,34.668,40.039,67.383,68.848,0
1486660840.958,9.277,41.016,52.734,53.711,49.316,0
1486660840.962,-5.859,30.273,44.922,47.363,34.180,0
1486660840.965,52.734,24.414,24.902,60.547,41.016,0
1486660840.969,101.074,31.250,39.062,79.590,60.547,0
1486660840.973,66.895,30.273,45.410,66.895,45.410,0
1486660840.977,0.000,29.297,42.480,49.316,36.133,0
1486660840.981,-20.508,27.832,42.480,47.852,20.508,0
1486660840.985,40.527,23.438,31.250,60.547,5.859,0
1486660840.989,95.215,32.715,29.785,79.102,45.898,0
1486660840.993,78.613,41.992,38.574,65.430,61.035,0
1486660840.997,18.555,37.598,53.223,49.805,39.062,0
1486660841.001,-12.695,35.645,48.340,50.781,10.254,0
1486660841.005,37.109,27.832,30.762,57.617,5.859,0
1486660841.008,88.379,28.320,32.715,69.824,73.730,0
1486660841.012,74.707,33.691,37.109,66.895,75.195,0
1486660841.016,23.438,28.809,41.016,51.758,39.062,0
1486660841.020,-19.043,25.391,45.410,38.574,40.039,0
1486660841.024,17.578,25.879,41.992,48.828,37.109,0
1486660841.028,79.102,26.855,39.551,78.125,31.738,0
1486660841.032,81.543,32.715,49.316,75.195,30.762,0
1486660841.036,29.297,33.203,48.828,47.363,29.297,0
1486660841.040,-21.973,28.809,42.969,39.551,27.832,0
1486660841.044,11.719,27.832,43.945,46.875,27.832,0
1486660841.048,82.520,35.156,47.363,74.219,54.199,0
1486660841.051,87.402,39.551,48.828,81.055,83.984,0
1486660841.055,33.691,31.738,42.480,56.641,90.332,0
1486660841.059,-18.555,27.344,49.316,45.410,73.242,0
1486660841.063,1.953,26.855,43.457,43.457,60.547,0
1486660841.067,76.172,25.879,35.156,68.359,47.363,0
1486660841.071,90.820,27.344,40.527,78.613,61.035,0
1486660841.075,39.062,28.809,41.504,50.293,69.824,0
1486660841.079,-16.113,29.785,40.039,36.621,27.344,0
1486660841.083,1.465,28.809,45.898,43.457,1.953,0
1486660841.087,69.336,28.320,43.945,62.012,14.648,0
1486660841.090,94.727,32.227,35.156,71.777,51.758,0
1486660841.094,56.152,33.691,42.969,59.570,58.105,0
1486660841.098,-9.766,28.809,47.363,42.969,42.969,0
1486660841.102,-14.160,21.973,36.133,36.133,36.621,0
1486660841.106,61.523,24.902,31.738,55.176,45.410,0
1486660841.110,92.773,29.785,37.598,76.660,47.363,0
1486660841.114,50.293,29.297,41.016,62.988,53.711,0
1486660841.118,-2.930,31.738,46.387,48.340,46.875,0
1486660841.122,-13.672,25.879,48.828,39.551,47.363,0
1486660841.126,48.828,23.926,36.621,51.270,66.406,0
1486660841.130,95.703,31.738,41.504,73.242,96.680,0
1486660841.133,64.941,30.273,46.875,61.523,96.191,0
1486660841.137,4.395,27.344,44.922,47.363,51.758,0
1486660841.141,-13.672,22.461,44.434,39.551,19.043,0
1486660841.145,38.086,19.531,32.715,48.828,29.785,0
1486660841.149,85.938,26.367,30.273,67.871,82.520,0
1486660841.153,67.871,30.762,45.410,62.500,118.164,0
1486660841.157,5.371,31.250,48.340,45.898,84.961,0
1486660841.161,-23.926,28.320,40.039,41.992,60.059,0
1486660841.165,30.762,25.391,40.039,55.176,70.801,0
1486660841.169,86.426,29.297,36.133,73.730,79.590,0
1486660841.172,72.266,35.156,37.109,67.383,76.172,0
1486660841.176,11.230,33.203,45.410,43.945,50.781,0
1486660841.180,-20.996,25.879,48.828,35.645,20.996,0
1486660841.184,29.297,20.020,38.086,41.992,23.438,0
1486660841.188,86.914,26.367,31.250,64.941,53.711,0
1486660841.192,83.984,34.668,43.945,72.754,48.828,0
1486660841.196,25.391,33.203,51.758,57.617,25.879,0
1486660841.200,-22.461,28.809,44.434,45.898,11.719,0
1486660841.204,16.113,24.414,33.203,48.828,5.371,0
1486660841.208,83.496,30.273,35.645,73.242,35.156,0
1486660841.212,83.008,33.691,39.551,73.242,17.578,0
1486660841.215,22.949,30.273,36.621,43.457,41.992,0
1486660841.219,-20.508,31.250,49.316,33.203,43.945,0
1486660841.223,9.766,30.762,48.340,44.434,9.277,0
1486660841.227,79.102,33.691,35.156,69.336,35.645,0
1486660841.231,88.867,33.203,33.691,76.172,80.566,0
1486660841.235,37.109,29.785,40.527,58.594,59.082,0
1486660841.239,-15.625,28.320,52.734,46.387,26.367,0
1486660841.243,-6.348,22.949,43.945,50.781,38.086,0
1486660841.247,61.035,23.438,31.738,63.965,39.551,0
1486660841.251,83.984,30.273,38.086,69.336,52.734,0
1486660841.255,47.363,32.227,43.945,58.594,66.406,0
1486660841.258,-3.418,34.668,51.270,48.828,63.477,0
1486660841.262,-0.488,28.809,47.363,44.434,54.199,0
1486660841.266,59.570,22.949,33.203,66.895,56.152,0
1486660841.270,91.309,29.297,34.668,84.961,74.219,0
1486660841.274,54.199,33.203,40.527,63.965,86.914,0
1486660841.278,-2.930,36.133,49.316,52.734,47.363,0
1486660841.282,-10.254,24.902,45.898,49.316,-6.836,0
1486660841.286,50.293,17.090,30.273,60.059,33.203,0
1486660841.290,95.215,25.879,34.668,74.219,67.383,0
1486660841.294,58.105,31.738,42.969,63.965,79.590,0
1486660841.297,-4.883,26.367,47.363,43.457,74.707,0
1486660841.301,-18.066,22.461,43.945,34.668,44.922,0
1486660841.305,39.062,21.484,36.133,47.852,61.035,0
1486660841.309,83.496,20.020,35.645,64.453,53.223,0
1486660841.313,57.129,25.879,39.062,50.293,42.480,0
1486660841.317,-0.488,28.809,50.781,37.598,52.734,0
1486660841.321,-20.508,25.879,49.805,35.156,45.898,0
1486660841.325,42.969,24.902,36.621,50.293,48.828,0
1486660841.329,95.215,27.344,36.133,78.125,72.266,0
1486660841.333,66.406,27.832,37.598,64.941,71.777,0
1486660841.337,15.137,26.367,43.945,47.852,32.227,0
1486660841.340,-13.184,24.902,51.270,45.898,-4.395,0
1486660841.344,26.855,20.020,39.551,53.223,5.859,0
1486660841.348,84.961,20.020,34.180,73.730,59.082,0
1486660841.352,78.613,23.926,37.598,63.477,63.965,0
1486660841.356,26.367,33.691,43.457,40.527,34.180,0
1486660841.360,-24.414,33.203,47.852,34.668,23.926,0
1486660841.364,11.230,23.926,36.133,42.969,2.441,0
1486660841.368,77.148,27.344,26.367,57.617,34.180,1
1486660841.372,72.754,29.785,30.273,57.129,83.008,0
1486660841.376,25.879,31.738,42.969,47.852,41.992,0
1486660841.380,-16.602,32.227,48.340,36.621,23.926,0
1486660841.383,10.254,28.320,40.527,49.316,42.969,0
1486660841.387,72.754,29.785,40.039,73.242,71.289,0
1486660841.391,83.496,33.203,46.875,75.684,102.539,0
1486660841.395,41.992,30.273,51.758,64.453,49.805,0
1486660841.399,-13.672,27.832,49.805,49.805,16.602,0
1486660841.403,1.465,26.855,44.434,55.664,34.668,0
1486660841.407,75.684,30.273,35.156,83.008,67.383,0
1486660841.411,91.797,32.715,34.180,83.008,72.754,0
1486660841.415,45.410,29.297,41.992,54.688,38.574,0
1486660841.419,-5.371,35.645,50.293,44.922,22.949,0
1486660841.422,0.000,31.738,49.316,46.387,7.324,0
1486660841.426,60.547,20.508,39.551,63.477,42.480,0
1486660841.430,91.309,25.391,33.691,75.195,60.547,0
1486660841.434,50.781,33.203,33.203,59.570,15.625,0
1486660841.438,-10.254,33.203,45.410,39.551,18.555,0
1486660841.442,-6.348,26.855,40.039,33.203,19.043,0
1486660841.446,57.129,28.320,26.855,46.875,20.508,0
1486660841.450,90.332,33.203,33.203,61.523,16.113,0
1486660841.454,64.941,33.691,41.016,52.734,-0.488,0
1486660841.458,3.418,34.180,45.410,35.645,30.273,0
1486660841.462,-12.207,32.715,47.363,40.039,14.160,0
1486660841.465,58.105,30.273,38.574,64.453,15.137,0
1486660841.469,99.121,29.785,37.598,80.566,67.383,0
1486660841.473,67.383,33.203,40.039,74.707,80.566,0
1486660841.477,15.137,33.691,43.945,60.059,36.621,0
1486660841.481,-7.812,27.344,45.410,51.758,-24.414,0
1486660841.485,49.316,22.461,41.016,72.266,-18.066,0
1486660841.489,97.656,26.367,38.086,89.844,55.176,0
1486660841.493,70.801,33.691,37.598,70.312,23.438,0
1486660841.497,8.301,32.715,42.969,44.434,-12.207,0
1486660841.501,-16.602,33.203,50.293,48.828,-7.324,0
1486660841.505,37.598,31.250,38.574,62.500,-9.766,0
1486660841.508,88.867,27.344,30.762,74.219,34.668,0
1486660841.512,77.148,28.809,46.875,70.312,85.938,0
1486660841.516,23.438,28.320,52.246,48.340,52.246,0
1486660841.520,-17.090,28.320,40.527,41.016,19.531,0
1486660841.524,21.484,28.320,36.133,55.176,-1.953,0
1486660841.528,84.473,29.297,40.527,79.590,33.203,0
1486660841.532,87.891,34.668,47.363,84.961,84.473,0
1486660841.536,37.109,36.133,45.898,63.965,84.961,0
1486660841.540,-15.137,31.250,41.016,44.922,69.824,0
1486660841.544,11.230,26.367,39.062,53.223,32.227,0
1486660841.547,81.055,26.855,36.621,74.707,50.781,0
1486660841.551,85.449,31.738,38.574,76.172,55.664,0
1486660841.555,31.738,35.645,39.551,53.711,54.688,0
1486660841.559,-24.902,31.738,47.852,43.945,68.848,0
1486660841.563,-0.488,29.297,43.457,52.734,48.828,0
1486660841.567,73.730,34.668,37.598,67.871,67.383,0
1486660841.571,85.449,31.738,38.574,70.312,71.289,0
1486660841.575,39.551,26.367,34.180,50.781,53.711,0
1486660841.579,-20.996,24.902,39.551,38.574,34.668,0
1486660841.583,-11.230,23.438,35.645,44.922,15.625,0
1486660841.587,66.406,32.227,33.691,73.730,33.203,0
1486660841.590,87.402,35.156,43.457,78.613,39.551,0
1486660841.594,44.922,27.832,43.945,54.199,10.742,0
1486660841.598,-12.695,25.879,38.574,36.621,5.371,0
1486660841.602,-6.348,26.367,37.598,37.598,-2.930,0
1486660841.606,62.012,28.320,33.203,59.570,19.043,0
1486660841.610,87.402,26.855,31.738,77.148,82.031,0
1486660841.614,60.547,28.809,35.156,62.500,101.562,0
1486660841.618,6.348,27.832,43.457,44.922,45.898,0
1486660841.622,-9.766,23.926,47.363,46.875,-5.371,0
1486660841.626,56.641,27.344,43.457,60.547,11.230,0
1486660841.629,104.492,30.762,36.621,80.566,50.781,0
1486660841.633,69.824,32.227,30.762,67.871,67.383,0
1486660841.637,8.789,33.203,41.504,47.852,52.246,0
1486660841.641,-6.348,28.320,46.875,52.734,-0.488,0
1486660841.645,50.293,29.785,37.598,63.965,12.695,0
1486660841.649,108.887,38.086,38.574,80.566,52.246,0
1486660841.653,80.078,35.645,36.133,69.824,67.383,0
1486660841.657,7.812,28.809,37.109,42.480,40.527,0
1486660841.661,-15.625,30.762,48.340,45.410,45.410,0
1486660841.665,26.855,30.273,37.109,60.059,50.293,0
1486660841.669,82.520,25.391,33.203,78.125,46.875,0
1486660841.672,70.312,28.320,39.062,75.195,59.570,0
1486660841.676,4.883,33.203,43.457,53.711,54.199,0
1486660841.680,-29.297,25.879,46.387,43.945,47.363,0
1486660841.684,11.230,23.438,33.691,50.781,64.941,0
1486660841.688,72.266,29.297,29.297,72.754,73.242,0
1486660841.692,70.312,30.762,38.574,65.918,63.965,0
1486660841.696,13.184,33.203,51.270,37.598,97.656,0
1486660841.700,-31.738,27.344,50.293,29.297,56.641,0
1486660841.704,5.859,20.996,34.668,39.551,10.254,0
1486660841.708,69.336,25.391,30.762,60.059,60.059,0
1486660841.712,73.730,28.320,38.086,68.359,100.098,0
1486660841.715,30.762,28.809,42.480,51.758,69.824,0
1486660841.719,-18.555,26.367,45.898,38.086,21.973,0
1486660841.723,5.371,23.926,44.434,48.340,0.488,0
1486660841.727,70.312,28.809,39.551,71.777,30.762,0
1486660841.731,76.660,34.668,41.504,69.824,74.219,0
1486660841.735,33.203,34.668,44.434,51.758,52.246,0
1486660841.739,-12.695,32.227,48.828,42.969,26.855,0
1486660841.743,7.324,32.227,48.828,47.363,-4.395,0
1486660841.747,78.613,29.785,35.645,65.918,31.738,0
1486660841.751,94.727,25.879,35.645,76.660,66.895,0
1486660841.754,50.781,25.391,46.387,67.871,14.648,0
1486660841.758,-8.301,23.438,49.316,49.805,-6.836,0
1486660841.762,-3.906,20.020,43.457,46.387,6.348,0
1486660841.766,67.383,23.926,40.527,71.777,38.086,0
1486660841.770,95.215,31.738,41.016,79.590,87.402,0
1486660841.774,58.105,32.227,40.527,62.988,45.898,0
1486660841.778,0.488,32.227,41.504,53.223,-4.395,0
1486660841.782,-6.348,30.273,44.922,47.852,-11.230,0
1486660841.786,56.641,24.902,36.621,63.477,-2.441,0
1486660841.790,95.215,24.902,35.156,81.055,37.598,0
1486660841.794,63.965,31.250,45.410,70.312,27.344,0
1486660841.797,-1.465,30.762,45.410,53.223,28.809,0
1486660841.801,-16.113,27.344,53.223,51.270,54.199,0
1486660841.805,48.340,24.414,52.734,56.641,34.668,0
1486660841.809,87.891,20.020,32.227,69.336,30.273,0
1486660841.813,57.617,24.902,27.832,58.594,60.059,0
1486660841.817,-1.953,29.297,41.016,38.086,49.316,0
1486660841.821,-16.602,28.809,41.992,38.574,10.742,0
1486660841.825,43.945,26.367,36.133,49.805,4.395,0
1486660841.829,88.867,25.391,29.785,67.871,51.758,0
1486660841.833,72.266,31.738,34.180,62.012,85.449,0
1486660841.837,8.789,33.203,41.016,37.598,63.477,0
1486660841.840,-26.367,25.879,42.969,34.180,28.320,0
1486660841.844,32.227,25.391,41.992,48.828,25.879,0
1486660841.848,88.867,29.785,37.598,68.359,53.711,0
1486660841.852,77.637,29.785,33.691,66.406,58.105,0
1486660841.856,22.949,30.762,37.598,49.805,40.039,0
1486660841.860,-18.066,31.250,47.363,40.039,0.488,0
1486660841.864,20.508,24.902,45.898,50.293,20.996,0
1486660841.868,89.355,28.320,37.598,68.848,73.730,0
1486660841.872,89.844,36.621,38.574,67.383,70.801,0
1486660841.876,30.762,37.109,46.387,60.059,48.828,0
1486660841.879,-14.648,33.691,48.828,51.270,35.156,0
1486660841.883,12.695,30.273,45.410,53.223,47.363,0
1486660841.887,81.543,30.762,37.109,74.219,62.012,0
1486660841.891,83.496,24.902,28.809,73.730,67.383,0
1486660841.895,31.738,24.902,32.715,55.176,51.270,0
1486660841.899,-13.672,29.785,49.316,50.293,23.438,0
1486660841.903,-1.953,20.020,40.527,46.875,10.742,0
1486660841.907,62.988,19.043,28.809,64.453,51.270,0
1486660841.911,85.938,31.250,40.527,75.684,46.875,0
1486660841.915,41.504,31.250,43.457,53.223,1.465,0
1486660841.919,-19.531,27.832,42.480,40.039,15.625,0
1486660841.922,-10.742,25.879,40.039,41.016,5.859,0
1486660841.926,60.059,25.879,31.738,58.105,9.766,0
1486660841.930,80.078,26.855,29.297,74.707,82.031,0
1486660841.934,45.410,30.273,35.645,61.523,91.797,0
1486660841.938,-5.859,29.785,45.898,45.898,50.293,0
1486660841.942,-10.254,25.391,48.340,47.363,32.227,0
1486660841.946,57.617,27.832,43.457,63.477,46.875,0
1486660841.950,88.867,29.785,37.109,68.359,72.754,0
1486660841.954,54.688,24.414,33.691,53.711,74.707,0
1486660841.958,-1.953,24.414,41.992,42.969,84.961,0
1486660841.962,-16.602,24.902,43.457,41.992,46.875,0
1486660841.965,47.852,26.855,38.574,62.500,20.020,0
1486660841.969,97.168,34.668,43.945,83.496,43.457,0
1486660841.973,70.801,33.203,41.992,67.871,60.059,0
1486660841.977,2.441,30.762,45.898,47.852,59.082,0
1486660841.981,-18.066,28.809,54.199,52.734,6.348,0
1486660841.985,43.457,25.879,43.945,65.918,24.902,1
1486660841.989,86.426,31.738,41.992,73.242,33.691,0
1486660841.993,63.965,32.715,39.062,66.895,44.922,0
1486660841.997,8.789,32.227,38.086,51.758,54.688,0
1486660842.001,-22.461,29.785,43.945,44.922,6.836,0
1486660842.004,30.762,28.320,37.598,59.082,12.207,0
1486660842.008,90.820,32.227,36.133,73.242,62.988,0
1486660842.012,72.266,34.180,43.945,61.035,55.664,0
1486660842.016,14.648,32.715,46.387,44.922,59.082,0
1486660842.020,-25.391,30.273,45.898,38.086,37.598,0
1486660842.024,13.672,28.809,40.039,46.875,-1.953,0
1486660842.028,76.660,28.320,34.180,66.406,44.434,0
1486660842.032,72.266,33.203,38.086,63.477,73.242,0
1486660842.036,20.020,32.715,39.551,42.969,81.543,0
1486660842.040,-22.949,28.320,40.527,29.297,85.938,0
1486660842.044,9.277,28.320,38.086,39.062,39.062,0
1486660842.047,81.543,32.715,33.691,65.918,67.871,0
1486660842.051,89.355,29.297,36.621,68.359,122.070,0
1486660842.055,30.273,28.809,37.109,48.340,76.660,0
1486660842.059,-17.578,32.227,44.922,38.574,54.688,0
1486660842.063,6.348,26.367,43.457,46.875,22.461,0
1486660842.067,67.383,27.832,33.691,64.453,36.133,0
1486660842.071,77.637,27.344,32.715,64.453,62.012,0
1486660842.075,33.691,24.902,38.086,47.363,24.414,0
1486660842.079,-20.020,25.879,45.410,33.203,-4.883,0
1486660842.083,-9.766,22.949,40.039,34.668,4.395,0
1486660842.086,60.547,23.438,31.250,53.223,32.227,0
1486660842.090,85.938,28.809,37.109,65.918,80.566,0
1486660842.094,41.992,33.691,45.898,54.199,73.730,0
1486660842.098,-18.555,25.391,40.527,31.738,46.387,0
1486660842.102,-7.324,20.508,39.551,31.250,34.180,0
1486660842.106,63.477,27.832,35.156,50.293,34.668,0
1486660842.110,87.402,32.715,30.273,62.988,83.984,0
1486660842.114,58.105,33.203,31.250,46.875,73.242,0
1486660842.118,-0.488,27.832,34.668,29.297,44.922,0
1486660842.122,-18.066,25.391,40.527,36.621,56.152,0
1486660842.126,55.176,29.785,36.133,57.617,62.988,0
1486660842.129,97.168,33.691,32.715,75.684,95.215,0
1486660842.133,64.453,37.109,38.086,73.730,80.078,0
1486660842.137,14.648,33.691,44.922,57.129,45.410,0
1486660842.141,-5.371,24.902,40.039,53.223,14.160,0
1486660842.145,38.574,21.973,33.203,63.965,30.762,0
1486660842.149,89.355,25.391,32.715,69.824,65.918,0
1486660842.153,72.266,32.227,30.273,54.688,50.293,0
1486660842.157,4.395,35.156,28.809,34.668,30.762,0
1486660842.161,-27.344,33.203,39.551,36.133,27.832,0
1486660842.165,36.133,28.320,37.109,49.805,60.059,0
1486660842.169,94.238,27.344,32.227,68.848,74.707,0
1486660842.172,77.148,31.738,32.715,69.336,86.426,0
1486660842.176,21.973,32.227,36.133,50.293,62.500,0
1486660842.180,-15.625,29.785,45.410,43.945,41.016,0
1486660842.184,32.715,29.785,46.387,47.363,20.020,0
1486660842.188,99.609,30.273,37.598,72.754,40.039,0
1486660842.192,85.938,29.785,33.691,74.707,49.805,0
1486660842.196,27.344,34.180,44.434,47.852,20.996,0
1486660842.200,-11.719,31.250,49.805,45.898,8.301,0
1486660842.204,20.996,22.461,41.016,54.199,-14.160,0
1486660842.208,88.379,29.297,31.738,79.102,36.621,0
1486660842.211,86.426,36.133,32.227,85.449,70.801,0
1486660842.215,34.180,32.715,43.457,60.547,73.242,0
1486660842.219,-7.324,34.180,48.340,57.129,77.148,0
1486660842.223,15.625,28.809,43.945,59.082,29.297,0
1486660842.227,85.938,24.902,38.574,72.266,28.320,0
1486660842.231,94.238,33.203,34.668,84.961,97.656,0
1486660842.235,43.945,28.320,37.109,63.477,57.617,0
1486660842.239,-5.371,27.832,43.945,51.758,22.461,0
1486660842.243,7.812,32.227,39.062,47.363,39.551,0
1486660842.247,76.172,29.297,33.691,63.477,56.641,0
1486660842.251,94.238,29.297,42.480,79.590,67.871,0
1486660842.254,45.410,28.809,44.922,55.664,61.035,0
1486660842.258,-11.230,27.832,41.504,40.527,63.965,0
1486660842.262,-3.906,28.320,40.039,44.434,45.898,0
1486660842.266,67.383,30.273,38.086,64.941,36.133,0
1486660842.270,92.773,32.227,35.156,82.520,57.617,0
1486660842.274,49.805,32.227,35.156,56.152,57.129,0
1486660842.278,-11.719,31.738,36.133,33.203,50.781,0
1486660842.282,-11.719,20.996,37.598,37.598,51.758,0
1486660842.286,58.594,15.625,29.785,53.223,51.758,0
1486660842.290,89.355,27.344,29.297,65.430,74.707,0
1486660842.294,55.176,31.250,41.504,55.176,62.500,0
1486660842.297,-8.301,25.879,38.574,38.574,48.828,0
1486660842.301,-19.531,26.855,35.645,37.109,27.832,0
1486660842.305,48.340,30.762,37.109,61.523,38.086,0
1486660842.309,96.191,30.273,36.621,83.496,72.754,0
1486660842.313,75.195,36.133,44.922,72.754,60.059,0
1486660842.317,5.859,36.621,42.480,47.852,17.090,0
1486660842.321,-22.461,25.391,33.203,32.715,41.992,0
1486660842.325,37.598,23.926,30.762,46.875,75.195,0
1486660842.329,90.820,32.227,31.250,72.266,77.148,0
1486660842.333,70.312,34.180,37.598,64.941,95.215,0
1486660842.336,8.789,30.762,42.480,39.062,85.449,0
1486660842.340,-20.508,27.344,46.387,34.668,57.617,0
1486660842.344,34.180,20.508,41.992,49.316,60.547,0
1486660842.348,86.914,27.344,38.086,64.941,79.590,0
1486660842.352,65.430,34.180,37.109,65.918,58.594,0
1486660842.356,10.254,29.297,36.133,48.340,27.344,0
1486660842.360,-27.344,27.344,41.016,36.133,9.277,0
1486660842.364,12.207,27.344,40.039,45.410,3.418,0
1486660842.368,81.055,26.855,33.691,62.012,46.875,0
1486660842.372,77.637,26.855,38.574,62.500,106.934,0
1486660842.376,16.602,29.785,45.898,50.781,103.027,0
1486660842.379,-25.879,30.762,50.293,43.457,53.223,0
1486660842.383,8.301,26.855,50.293,54.199,32.715,0
1486660842.387,76.660,26.367,39.551,71.289,66.406,0
1486660842.391,81.055,30.273,38.574,64.453,61.523,0
1486660842.395,38.574,35.645,46.387,52.246,29.297,0
1486660842.399,-21.973,23.926,40.527,36.133,52.246,0
1486660842.403,-8.301,19.043,32.227,30.273,51.270,0
1486660842.407,71.777,24.902,33.691,60.059,53.223,0
1486660842.411,83.496,23.438,39.062,72.754,73.730,0
1486660842.415,38.574,22.461,45.898,50.293,49.805,0
1486660842.419,-6.348,22.461,50.293,31.738,19.531,0
1486660842.422,3.906,22.949,42.480,31.250,-25.879,0
1486660842.426,70.312,29.297,33.691,54.199,5.859,0
1486660842.430,96.191,29.785,31.738,60.059,56.641,0
1486660842.434,60.059,24.902,40.527,43.945,27.344,0
1486660842.438,-5.859,23.438,44.434,37.598,33.203,0
1486660842.442,-11.719,20.508,40.527,37.109,24.414,0
1486660842.446,62.500,21.973,37.598,55.176,65.918,0
1486660842.450,95.703,28.809,36.621,69.824,122.559,0
1486660842.454,57.129,30.273,43.457,54.688,104.492,0
1486660842.458,-4.395,23.438,47.363,38.574,49.316,0
1486660842.461,-17.090,19.043,40.039,41.504,29.297,0
1486660842.465,45.410,23.438,33.203,62.012,62.988,0
1486660842.469,94.727,29.785,33.203,75.195,91.309,0
1486660842.473,60.547,30.762,40.527,57.129,109.863,0
1486660842.477,-8.301,27.832,43.457,39.062,105.957,0
1486660842.481,-18.066,33.203,45.410,44.434,62.012,0
1486660842.485,44.434,30.273,39.551,56.641,59.570,0
1486660842.489,83.984,20.996,31.250,63.477,83.984,0
1486660842.493,73.242,26.855,38.086,60.059,74.707,0
1486660842.497,20.508,29.297,43.945,48.340,50.293,0
1486660842.501,-13.184,26.855,47.363,46.387,5.371,0
1486660842.504,39.062,28.320,39.551,57.617,15.625,0
1486660842.508,95.703,34.180,33.203,76.660,55.664,0
1486660842.512,83.984,32.715,45.410,74.219,37.598,0
1486660842.516,21.484,28.320,48.340,49.805,40.527,0
1486660842.520,-21.973,28.320,41.016,39.551,41.504,0
1486660842.524,20.020,27.832,35.645,50.293,8.301,0
1486660842.528,77.637,29.297,36.133,69.336,40.039,0
1486660842.532,72.266,29.297,40.527,62.500,43.457,0
1486660842.536,15.137,23.926,39.551,42.969,8.301,0
1486660842.540,-31.738,25.879,45.898,39.062,17.090,0
1486660842.543,12.207,24.414,45.898,50.781,39.062,0
1486660842.547,82.031,23.438,37.109,66.895,54.199,0
1486660842.551,80.566,29.785,41.992,73.730,67.383,0
1486660842.555,40.527,37.598,49.805,65.430,67.871,0
1486660842.559,-13.184,34.668,39.062,44.434,53.711,0
1486660842.563,-1.465,19.531,31.250,40.039,22.461,0
1486660842.567,71.289,21.484,32.715,62.500,18.555,0
1486660842.571,81.055,26.855,37.109,67.383,48.340,0
1486660842.575,32.227,26.367,38.574,42.969,45.410,0
1486660842.579,-20.996,22.949,42.480,31.738,25.879,0
1486660842.583,-7.324,19.043,42.480,40.039,3.418,0
1486660842.586,62.500,25.391,35.156,60.547,26.855,0
1486660842.590,83.984,28.809,34.180,69.336,70.801,0
1486660842.594,46.387,30.273,45.410,52.734,68.359,0
1486660842.598,-12.695,34.668,49.805,35.156,38.086,0
1486660842.602,-13.184,25.879,41.992,39.062,35.156,0
1486660842.606,62.500,24.414,40.039,65.430,64.453,0
1486660842.610,92.285,32.715,45.410,71.777,88.379,0
1486660842.614,54.199,32.715,46.875,51.270,70.801,0
1486660842.618,-7.812,30.273,44.434,36.621,47.363,0
1486660842.622,-19.043,27.832,42.480,34.668,39.062,1
1486660842.626,57.617,23.438,35.645,53.711,46.387,0
1486660842.629,98.145,21.973,35.156,74.707,96.191,0
1486660842.633,66.895,26.855,37.109,59.570,98.145,0
1486660842.637,6.836,34.668,45.898,44.922,71.777,0
1486660842.641,-18.066,26.855,48.828,41.992,67.383,0
1486660842.645,46.387,24.902,43.457,50.293,61.035,0
1486660842.649,94.727,33.691,41.016,72.754,63.477,0
1486660842.653,66.895,37.598,35.645,62.988,92.285,0
1486660842.657,9.766,36.621,41.016,43.457,61.523,0
1486660842.661,-8.789,32.715,43.457,44.434,18.066,0
1486660842.665,41.992,32.227,37.598,56.152,39.551,0
1486660842.668,91.797,30.273,38.086,77.637,59.570,0
1486660842.672,74.707,28.809,41.504,70.801,63.477,0
1486660842.676,17.090,35.156,47.363,48.828,28.809,0
1486660842.680,-14.160,34.180,44.434,45.898,43.945,0
1486660842.684,29.785,27.344,41.016,57.129,59.082,0
1486660842.688,84.473,29.297,39.062,72.754,64.453,0
1486660842.692,76.172,31.738,39.062,72.754,70.312,0
1486660842.696,17.578,31.250,43.457,50.293,58.105,0
1486660842.700,-27.344,31.250,46.387,35.645,8.301,0
1486660842.704,15.625,28.320,42.480,49.805,-1.953,0
1486660842.708,79.102,27.344,41.504,72.266,43.457,0
1486660842.711,74.707,25.391,42.480,65.918,10.742,0
1486660842.715,20.508,25.391,41.992,40.527,27.344,0
1486660842.719,-29.297,24.902,47.852,32.227,33.691,0
1486660842.723,2.441,26.855,42.969,40.039,-5.859,0
1486660842.727,72.266,28.809,38.574,61.035,31.250,0
1486660842.731,73.730,24.414,38.574,61.523,72.266,0
1486660842.735,28.809,28.320,44.922,43.945,73.730,0
1486660842.739,-18.555,25.879,49.316,34.180,33.691,0
1486660842.743,-0.488,23.926,39.062,38.574,30.762,0
1486660842.747,75.195,30.273,36.621,62.988,62.500,0
1486660842.751,90.332,30.273,33.203,69.824,39.062,0
1486660842.754,47.852,35.156,34.180,50.781,28.809,0
1486660842.758,-0.977,35.645,48.340,44.434,52.246,0
1486660842.762,0.000,27.344,42.480,49.316,68.359,0
1486660842.766,68.359,26.367,29.297,65.918,68.359,0
1486660842.770,94.727,28.320,41.504,79.590,63.477,0
1486660842.774,47.363,31.738,48.828,58.594,78.125,0
1486660842.778,-6.836,34.668,50.781,43.457,57.129,0
1486660842.782,-7.324,30.273,52.246,48.828,41.016,0
1486660842.786,57.129,30.273,39.551,61.523,59.570,0
1486660842.790,88.867,32.715,34.668,74.219,122.559,0
1486660842.793,58.594,32.227,39.062,58.105,125.977,0
1486660842.797,-0.977,29.297,51.270,50.293,52.734,0
1486660842.801,-14.648,23.926,48.340,53.223,28.809,0
1486660842.805,49.805,23.926,36.621,62.500,22.461,0
1486660842.809,90.332,31.738,37.109,74.219,58.105,0
1486660842.813,66.406,32.715,40.527,62.012,64.941,0
1486660842.817,13.184,35.645,49.805,53.711,53.711,0
1486660842.821,-16.602,29.785,45.410,47.363,41.016,0
1486660842.825,36.133,21.484,27.832,49.316,38.574,0
1486660842.829,94.727,28.320,23.438,70.312,79.102,0
1486660842.833,70.801,30.762,30.762,61.035,93.750,0
1486660842.836,5.859,29.297,39.062,41.016,51.270,0
1486660842.840,-22.461,25.879,39.551,42.480,38.574,0
1486660842.844,31.738,25.391,41.504,59.082,24.902,0
1486660842.848,88.867,26.855,34.668,75.684,42.969,0
1486660842.852,79.102,27.344,32.715,67.383,55.664,0
1486660842.856,29.785,29.785,42.969,53.711,36.133,0
1486660842.860,-15.137,27.344,40.039,52.246,38.574,0
1486660842.864,21.973,23.438,34.180,53.223,21.973,0
1486660842.868,89.355,27.344,34.180,72.266,46.875,0
1486660842.872,86.914,35.645,39.551,75.684,82.031,0
1486660842.876,29.297,35.156,41.992,54.199,43.945,0
1486660842.879,-15.625,30.273,42.969,44.922,-1.953,0
1486660842.883,18.555,25.879,40.039,49.805,-16.113,0
1486660842.887,78.613,24.902,29.785,72.266,46.387,0
1486660842.891,84.961,30.762,32.227,72.754,89.844,0
1486660842.895,41.992,33.203,41.504,51.758,65.430,0
1486660842.899,-13.184,27.832,37.109,42.969,63.965,0
1486660842.903,5.371,26.855,31.250,47.852,44.434,0
1486660842.907,74.707,28.320,26.855,71.289,62.988,0
1486660842.911,87.402,32.715,36.133,78.613,140.625,0
1486660842.915,43.945,34.180,49.805,61.523,124.023,0
1486660842.918,-16.113,25.391,48.340,45.410,55.176,0
1486660842.922,-9.766,20.996,41.992,40.039,35.156,0
1486660842.926,65.430,22.949,35.645,60.547,64.941,0
1486660842.930,96.680,29.297,35.645,75.195,76.660,0
1486660842.934,53.223,33.203,36.621,59.082,62.012,0
1486660842.938,-7.324,28.809,41.992,46.875,46.387,0
1486660842.942,-7.324,23.438,37.109,45.898,14.648,0
1486660842.946,63.477,21.973,32.227,66.406,27.832,0
1486660842.950,93.750,26.367,37.109,76.660,52.734,0
1486660842.954,56.152,31.738,42.969,58.105,29.785,0
1486660842.958,-8.789,30.762,50.293,44.922,37.598,0
1486660842.961,-19.531,27.832,45.410,40.527,50.293,0
1486660842.965,47.363,32.227,38.574,58.594,8.301,0
1486660842.969,86.914,27.832,35.645,72.266,4.395,0
1486660842.973,58.594,21.973,37.598,56.641,13.672,0
1486660842.977,0.977,28.320,47.363,47.363,7.812,0
1486660842.981,-11.719,25.391,47.852,50.293,-12.695,0
1486660842.985,44.922,21.484,39.551,61.035,-15.137,0
1486660842.989,92.285,28.320,41.016,77.637,20.508,0
1486660842.993,71.289,32.227,39.551,68.848,29.785,0
1486660842.997,9.766,28.809,41.016,48.828,-1.465,0
1486660843.000,-18.555,27.344,48.340,43.945,-40.039,0
1486660843.004,33.203,27.344,34.668,52.734,-8.789,0
1486660843.008,87.891,29.785,29.297,74.219,36.133,0
1486660843.012,78.613,31.250,39.062,66.895,41.504,0
1486660843.016,26.367,34.180,43.945,44.922,29.297,0
1486660843.020,-14.160,33.691,41.992,40.527,13.672,0
1486660843.024,29.297,26.367,34.668,52.734,32.715,0
1486660843.028,93.750,27.344,37.109,76.660,44.434,0
1486660843.032,86.426,35.156,41.504,72.266,65.430,0
1486660843.036,20.508,30.762,35.645,41.016,78.125,0
1486660843.040,-26.367,24.902,40.527,30.273,31.250,0
1486660843.043,5.371,22.461,34.180,41.992,8.301,0
1486660843.047,76.660,24.902,29.785,62.988,68.848,0
1486660843.051,86.426,29.785,37.598,66.895,89.844,0
1486660843.055,29.785,33.691,41.992,50.293,48.828,0
1486660843.059,-20.020,29.785,42.969,37.598,36.621,0
1486660843.063,4.395,23.438,39.062,43.945,33.691,0
1486660843.067,71.777,27.344,40.527,64.453,62.500,0
1486660843.071,83.984,28.809,42.969,69.336,91.797,0
1486660843.075,40.039,29.297,41.992,49.316,41.992,0
1486660843.079,-12.207,30.762,47.852,41.016,14.648,0
1486660843.083,-1.465,30.273,39.551,53.223,21.973,0
1486660843.086,70.801,29.785,30.273,68.359,53.223,0
1486660843.090,89.844,28.809,35.645,74.707,60.059,0
1486660843.094,43.457,30.273,41.016,57.617,36.621,0
1486660843.098,-6.348,28.809,47.363,45.410,70.312,0
1486660843.102,1.465,24.902,51.270,49.316,46.387,0
1486660843.106,63.965,23.438,42.969,63.477,55.176,0
1486660843.110,87.402,27.832,33.691,74.707,114.746,0
1486660843.114,49.316,28.809,37.109,59.082,81.055,0
1486660843.118,-10.254,22.461,47.852,38.086,72.266,0
1486660843.122,-11.230,22.461,47.852,41.504,80.566,0
1486660843.125,62.988,27.344,41.016,62.988,65.918,0
1486660843.129,96.191,24.414,32.715,70.312,82.031,0
1486660843.133,60.547,22.461,32.227,56.641,85.449,0
1486660843.137,2.930,27.344,48.828,45.898,68.848,0
1486660843.141,-15.137,27.344,47.363,42.480,32.227,0
1486660843.145,46.387,25.391,32.715,56.152,65.430,0
1486660843.149,91.797,29.297,34.180,69.824,128.418,0
1486660843.153,68.848,31.738,40.039,58.105,89.355,0
1486660843.157,10.254,30.762,46.387,47.363,61.523,0
1486660843.161,-12.207,27.344,49.316,40.527,40.039,0
1486660843.165,44.434,22.461,38.086,48.828,43.457,0
1486660843.168,91.309,24.414,27.344,67.871,68.359,0
1486660843.172,72.754,33.203,32.227,62.500,43.457,0
1486660843.176,13.672,33.203,41.992,46.387,31.250,0
1486660843.180,-19.043,28.320,45.898,41.504,3.418,0
1486660843.184,23.926,29.785,39.551,48.828,19.043,0
1486660843.188,81.543,30.762,36.133,66.895,98.633,0
1486660843.192,76.172,30.273,38.086,69.824,85.938,0
1486660843.196,22.949,35.645,42.969,46.875,56.152,0
1486660843.200,-16.113,34.668,55.664,42.969,46.875,0
1486660843.204,21.484,29.297,48.828,58.594,40.039,0
1486660843.208,84.473,29.297,34.668,69.336,89.355,0
1486660843.211,91.309,35.645,40.039,65.918,102.051,0
1486660843.215,36.621,37.598,45.898,46.387,78.125,0
1486660843.219,-18.555,31.738,44.922,32.715,37.109,0
1486660843.223,12.207,28.320,40.039,40.039,-5.371,0
1486660843.227,75.684,30.273,34.180,55.664,65.430,0
1486660843.231,85.449,32.715,31.250,60.547,92.773,0
1486660843.235,49.805,28.809,43.457,48.340,32.227,0
1486660843.239,-6.836,28.809,49.805,36.621,6.348,0
1486660843.243,7.812,25.391,32.715,39.551,32.715,0
1486660843.247,77.148,27.344,28.320,63.477,41.016,0
1486660843.250,86.914,29.785,36.621,70.801,48.828,0
1486660843.254,41.016,28.320,45.898,52.734,42.969,0
1486660843.258,-17.578,29.785,48.340,40.527,31.738,0
1486660843.262,-16.113,25.879,37.109,31.738,31.250,0
1486660843.266,52.246,23.926,29.785,54.199,37.109,0
1486660843.270,82.520,26.855,33.691,74.219,48.828,0
1486660843.274,43.457,30.762,43.457,49.316,37.598,0
1486660843.278,-14.648,29.785,48.828,39.062,35.645,0
1486660843.282,-12.695,20.020,41.992,43.457,1.953,0
1486660843.286,50.293,20.508,29.297,50.781,-5.859,0
1486660843.290,86.426,31.250,36.133,65.430,35.645,0
1486660843.293,55.176,32.715,49.316,57.617,45.898,0
1486660843.297,-8.301,26.367,41.992,36.133,20.508,0
1486660843.301,-21.484,26.367,36.133,39.551,-9.766,1
1486660843.305,43.945,28.320,29.297,50.781,20.996,0
1486660843.309,87.891,35.645,32.715,70.801,77.148,0
1486660843.313,65.918,35.645,44.434,69.336,59.570,0
1486660843.317,-0.488,24.902,43.945,43.457,56.641,0
1486660843.321,-33.203,20.508,40.527,39.062,48.828,0
1486660843.325,29.297,21.484,33.691,56.152,17.578,0
1486660843.329,90.820,26.367,30.762,77.637,48.340,0
1486660843.332,70.801,27.344,34.668,69.824,68.359,0
1486660843.336,10.254,28.809,38.086,50.293,54.688,0
1486660843.340,-18.066,27.832,42.969,43.457,12.207,0
1486660843.344,35.645,22.461,37.598,50.781,19.043,0
1486660843.348,88.379,24.414,38.086,68.848,31.250,0
1486660843.352,68.359,29.297,46.387,62.012,22.949,0
1486660843.356,10.254,29.297,45.410,38.574,21.973,0
1486660843.360,-24.902,28.809,43.457,29.297,10.254,0
1486660843.364,21.484,27.344,40.527,44.922,29.785,0
1486660843.368,82.031,29.785,41.992,75.684,45.898,0
1486660843.372,80.566,33.691,41.016,71.777,57.129,0
1486660843.375,23.926,25.879,36.621,45.410,80.566,0
1486660843.379,-23.438,22.949,43.945,39.062,41.016,0
1486660843.383,14.648,22.461,42.969,50.781,18.066,0
1486660843.387,83.984,18.555,36.133,71.777,58.105,0
1486660843.391,86.914,23.438,32.227,71.777,90.332,0
1486660843.395,34.668,23.926,33.203,52.734,86.426,0
1486660843.399,-16.602,25.391,44.922,48.828,42.969,0
1486660843.403,3.906,24.414,39.551,49.316,16.113,0
1486660843.407,67.871,22.461,25.879,64.941,50.781,0
1486660843.411,81.543,25.879,29.785,67.871,74.707,0
1486660843.415,38.086,26.855,32.715,41.992,50.293,0
1486660843.418,-24.414,24.902,39.062,31.738,8.301,0
1486660843.422,-14.648,20.508,40.039,34.668,-8.301,0
1486660843.426,64.941,25.879,35.156,55.176,50.781,0
1486660843.430,88.867,29.785,38.574,69.824,77.637,0
1486660843.434,50.293,31.738,36.133,48.828,4.883,0
1486660843.438,-8.301,35.156,40.527,37.109,1.465,0
1486660843.442,-10.254,28.320,39.551,42.969,32.227,0
1486660843.446,67.383,26.367,32.715,61.035,41.016,0
1486660843.450,99.121,33.691,34.180,74.219,76.660,0
1486660843.454,60.059,35.156,39.062,62.012,65.918,0
1486660843.457,-1.465,31.250,41.504,47.363,28.320,0
1486660843.461,-15.625,27.344,35.645,41.504,31.738,0
1486660843.465,53.711,23.926,34.180,58.594,51.270,0
1486660843.469,93.262,27.832,39.062,79.102,36.133,0
1486660843.473,59.082,35.156,37.598,71.289,20.508,0
1486660843.477,1.953,30.273,41.504,50.781,29.785,0
1486660843.481,-15.625,26.367,44.922,40.039,46.875,0
1486660843.485,41.016,25.879,32.227,45.410,69.336,0
1486660843.489,87.891,28.320,27.344,66.406,77.637,0
1486660843.493,69.824,36.133,38.574,60.059,50.781,0
1486660843.497,7.812,34.180,41.992,41.992,34.180,0
1486660843.500,-20.020,28.809,41.016,41.992,47.852,0
1486660843.504,40.527,32.227,41.992,59.570,62.012,0
1486660843.508,91.797,25.879,35.156,79.102,89.355,0
1486660843.512,75.195,24.414,32.715,68.359,109.863,0
1486660843.516,9.766,27.832,37.109,46.387,101.074,0
1486660843.520,-24.902,22.949,43.457,39.062,70.801,0
1486660843.524,27.344,20.996,40.527,52.734,32.715,0
1486660843.528,87.891,28.809,30.762,72.266,35.156,0
1486660843.532,82.031,35.156,33.203,66.895,87.891,0
1486660843.536,20.996,31.250,37.109,51.270,67.871,0
1486660843.540,-18.066,31.250,43.457,50.781,47.852,0
1486660843.543,21.973,29.297,37.109,53.711,40.039,0
1486660843.547,86.426,26.855,31.250,73.730,68.848,0
1486660843.551,83.496,25.879,36.133,80.566,94.727,0
1486660843.555,29.785,26.855,42.480,61.035,51.758,0
1486660843.559,-17.578,30.273,47.363,45.898,47.363,0
1486660843.563,10.254,30.273,39.062,50.293,5.859,0
1486660843.567,80.078,31.738,34.668,74.219,26.367,0
1486660843.571,87.402,25.879,34.668,83.496,81.543,0
1486660843.575,42.969,22.461,37.109,69.336,40.527,0
1486660843.579,-15.137,28.809,44.922,51.270,23.926,0
1486660843.582,-6.836,29.785,40.527,53.711,28.320,0
1486660843.586,74.219,32.715,39.062,79.102,34.668,0
1486660843.590,95.215,33.203,38.086,81.055,59.570,0
1486660843.594,47.363,31.738,34.668,56.152,51.758,0
1486660843.598,-6.348,30.273,47.852,44.434,39.062,0
1486660843.602,0.000,25.879,45.898,47.363,18.555,0
1486660843.606,65.430,25.879,28.320,66.895,36.621,0
1486660843.610,94.238,30.762,29.785,79.102,38.574,0
1486660843.614,60.547,32.227,43.457,66.406,4.883,0
1486660843.618,-3.418,27.344,43.457,44.434,34.668,0
1486660843.622,-7.324,23.438,39.551,43.457,41.992,0
1486660843.625,62.500,30.273,37.109,64.941,39.551,0
1486660843.629,92.773,33.203,33.691,75.684,63.477,0
1486660843.633,55.664,29.297,34.180,62.988,55.176,0
1486660843.637,-1.953,28.809,46.875,43.945,33.203,0
1486660843.641,-20.996,25.391,46.387,38.574,22.949,0
1486660843.645,42.480,23.926,33.203,58.594,21.973,0
1486660843.649,88.379,23.438,34.668,73.730,39.062,0
1486660843.653,57.129,28.809,37.598,58.594,44.922,0
1486660843.657,-0.977,30.762,41.504,37.598,48.828,0
1486660843.661,-27.832,24.902,45.898,28.809,25.391,0
1486660843.665,25.391,21.973,37.598,36.621,10.742,0
1486660843.668,81.055,27.344,35.645,58.594,60.059,0
1486660843.672,61.523,31.250,42.480,52.246,61.523,0
1486660843.676,4.395,28.320,39.551,30.273,27.344,0
1486660843.680,-13.184,34.180,50.781,43.945,18.555,0
1486660843.684,33.691,28.809,44.922,57.617,19.043,0
1486660843.688,82.031,22.949,25.879,65.430,58.105,0
1486660843.692,73.730,32.227,31.738,60.547,97.168,0
1486660843.696,19.531,33.203,40.039,39.062,63.965,0
1486660843.700,-16.602,25.879,42.480,34.180,18.555,0
1486660843.704,18.555,25.879,41.992,46.387,35.645,0
1486660843.707,83.984,28.320,33.691,67.383,72.266,0
1486660843.711,86.914,28.320,32.715,65.918,75.684,0
1486660843.715,30.273,30.762,43.945,51.270,60.547,0
1486660843.719,-14.160,28.809,50.781,51.270,9.277,0
1486660843.723,18.066,27.832,47.852,60.059,23.926,0
1486660843.727,87.891,29.297,36.621,79.590,105.957,0
1486660843.731,95.703,27.344,32.715,76.172,128.906,0
1486660843.735,40.039,29.297,39.062,57.617,90.332,0
1486660843.739,-12.207,28.809,50.293,48.340,41.016,0
1486660843.743,7.324,23.926,45.898,47.363,7.324,0
1486660843.747,69.824,28.809,33.203,63.965,69.824,0
1486660843.750,86.426,32.227,33.203,75.195,104.004,0
1486660843.754,47.852,32.227,43.945,62.500,67.383,0
1486660843.758,-5.371,34.180,50.781,45.410,34.668,0
1486660843.762,4.883,30.762,41.992,45.410,14.648,0
1486660843.766,75.195,33.203,40.039,70.801,32.715,0
1486660843.770,96.680,37.109,37.598,81.055,56.641,0
1486660843.774,47.852,32.715,36.133,56.641,93.262,0
1486660843.778,-14.648,27.832,44.922,37.598,64.941,0
1486660843.782,-19.531,22.949,44.434,33.203,53.711,0
1486660843.786,49.316,24.414,37.109,46.387,82.520,0
1486660843.789,79.590,28.809,33.691,57.617,80.566,0
1486660843.793,44.922,37.109,36.133,48.828,82.520,0
1486660843.797,-8.789,31.738,49.316,39.551,58.594,0
1486660843.801,-16.113,26.367,50.781,38.574,21.973,0
1486660843.805,52.734,32.227,34.668,50.781,19.531,0
1486660843.809,91.797,35.645,30.762,63.477,75.684,0
1486660843.813,61.523,33.691,36.133,50.293,99.121,0
1486660843.817,3.418,29.785,44.922,37.598,87.891,0
1486660843.821,-18.066,26.855,44.922,37.598,52.246,0
1486660843.825,39.551,26.855,35.156,52.734,8.301,0
1486660843.829,89.844,28.809,32.715,72.266,41.504,0
1486660843.832,62.500,28.320,31.738,62.988,89.355,0
1486660843.836,6.348,31.250,48.340,45.410,40.039,0
1486660843.840,-18.066,31.250,61.035,42.969,4.883,0
1486660843.844,26.855,23.438,36.133,47.363,39.062,0
1486660843.848,89.844,24.414,29.785,68.359,61.035,0
1486660843.852,77.148,27.832,41.016,69.336,59.082,0
1486660843.856,10.254,27.344,36.133,42.480,69.824,0
1486660843.860,-23.926,28.809,38.086,38.574,53.223,0
1486660843.864,17.090,23.438,39.551,53.223,0.977,0
1486660843.868,79.590,25.391,34.180,77.148,26.367,0
1486660843.872,72.754,31.250,34.668,66.895,44.434,0
1486660843.875,17.578,29.297,40.527,44.434,41.992,0
1486660843.879,-19.043,25.879,47.852,40.039,61.035,0
1486660843.883,10.254,23.926,37.109,39.551,44.922,0
1486660843.887,76.172,25.391,28.320,60.059,21.484,0
1486660843.891,79.102,26.855,37.109,65.430,84.473,0
1486660843.895,22.949,26.367,42.969,44.922,88.379,0
1486660843.899,-23.438,27.832,43.457,39.062,29.297,0
1486660843.903,1.953,26.855,42.480,44.434,17.578,0
1486660843.907,77.148,28.809,31.738,62.500,50.293,0
1486660843.911,89.355,33.203,27.344,67.871,108.398,0
1486660843.914,46.875,38.574,43.457,58.594,76.172,0
1486660843.918,-6.836,31.738,52.734,50.293,54.199,0
1486660843.922,-3.906,22.461,41.016,41.992,50.293,0
1486660843.926,66.895,21.973,28.809,58.594,51.758,0
1486660843.930,94.727,24.414,30.273,71.777,68.359,0
1486660843.934,52.246,27.344,33.691,53.711,52.246,0
1486660843.938,-11.719,25.879,35.645,38.086,44.434,0
1486660843.942,-12.695,24.414,36.133,40.039,-8.789,0
1486660843.946,56.152,25.879,31.738,58.105,17.090,0
1486660843.950,93.750,30.273,34.668,73.242,97.168,0
1486660843.954,62.500,31.250,42.480,59.570,83.496,0
1486660843.957,3.906,34.180,44.922,43.457,37.598,0
1486660843.961,-5.371,29.785,44.922,37.109,8.789,0
1486660843.965,55.664,26.367,32.227,46.387,25.879,0
1486660843.969,89.844,29.785,25.879,65.430,34.668,0
1486660843.973,55.176,26.855,33.691,57.617,26.367,0
1486660843.977,-5.371,21.484,38.086,46.387,63.477,0
1486660843.981,-16.113,23.926,37.598,46.387,45.898,0
1486660843.985,45.898,27.344,28.809,57.617,22.461,0
1486660843.989,92.285,29.785,33.203,73.242,61.035,0
1486660843.993,63.965,31.738,38.086,65.430,78.613,0
1486660843.997,-1.465,27.344,37.598,47.852,38.086,0
1486660844.000,-17.090,27.344,48.340,46.387,11.719,2
1486660844.004,41.016,27.344,37.109,58.105,27.832,0
1486660844.008,84.961,21.484,22.461,68.848,65.918,0
1486660844.012,75.195,23.926,32.715,68.848,61.523,0
1486660844.016,22.461,29.785,41.504,53.711,26.367,0
1486660844.020,-10.742,27.344,44.922,49.805,16.113,0
1486660844.024,48.340,26.855,42.480,62.012,-1.465,0
1486660844.028,109.375,36.133,37.598,79.102,19.043,0
1486660844.032,94.238,39.062,38.086,76.172,26.367,0
1486660844.036,37.598,35.156,39.551,52.246,45.898,0
1486660844.039,-10.742,32.227,36.621,33.691,37.598,0
1486660844.043,20.508,33.691,37.109,42.480,21.484,0
1486660844.047,78.125,34.180,37.598,66.406,71.777,0
1486660844.051,74.707,35.645,34.668,69.824,71.289,0
1486660844.055,28.809,34.668,41.016,54.199,49.805,0
1486660844.059,-13.184,32.227,48.828,45.898,17.090,0
1486660844.063,11.719,22.949,46.387,49.805,2.930,0
1486660844.067,83.496,23.438,35.156,72.266,33.203,0
1486660844.071,102.539,38.086,38.574,84.961,68.848,0
1486660844.075,49.316,35.645,44.922,64.453,60.547,0
1486660844.079,-13.672,26.855,40.039,47.363,1.465,0
1486660844.082,5.371,24.902,40.039,54.199,1.465,0
1486660844.086,71.289,24.902,33.691,79.102,37.109,0
1486660844.090,93.750,27.832,31.738,78.125,60.059,0
1486660844.094,50.781,27.344,43.945,61.523,38.574,0
1486660844.098,-20.996,21.484,43.945,45.898,26.855,0
1486660844.102,-10.742,20.996,38.086,40.527,31.250,0
1486660844.106,57.129,22.461,38.086,62.500,25.391,0
1486660844.110,80.078,22.461,37.598,73.242,54.199,0
1486660844.114,48.340,28.320,40.039,54.199,64.453,0
1486660844.118,-12.207,29.785,44.922,35.645,41.504,0
1486660844.122,-14.160,27.344,45.410,38.086,8.301,0
1486660844.125,60.059,25.879,39.062,56.641,6.348,0
1486660844.129,90.332,28.809,29.785,66.895,61.523,0
1486660844.133,60.547,31.250,32.227,54.688,51.758,0
1486660844.137,2.441,30.273,43.457,40.039,9.766,0
1486660844.141,-18.066,25.391,48.340,37.598,49.805,0
1486660844.145,46.387,22.949,41.016,50.781,14.648,0
1486660844.149,90.820,24.902,37.109,73.242,10.742,0
1486660844.153,62.012,23.438,35.156,65.918,62.012,0
1486660844.157,2.930,30.273,48.828,55.176,46.875,0
1486660844.161,-12.695,34.668,53.711,55.664,15.625,0
1486660844.164,41.992,26.855,34.668,60.547,11.230,0
1486660844.168,87.891,25.879,30.762,78.613,57.617,0
1486660844.172,76.172,29.297,42.480,74.707,71.777,0
1486660844.176,16.602,26.367,53.711,57.617,58.594,0
1486660844.180,-14.648,26.367,53.711,52.246,21.973,0
1486660844.184,37.598,28.809,39.062,61.523,1.465,0
1486660844.188,91.797,30.762,34.668,82.031,60.547,0
1486660844.192,76.172,34.180,41.016,77.148,111.328,0
1486660844.196,10.254,33.691,47.852,50.781,80.566,0
1486660844.200,-29.785,28.320,56.152,41.504,14.648,0
1486660844.204,18.555,24.414,52.246,57.129,-4.883,0
1486660844.207,82.520,29.785,44.434,73.242,40.527,0
1486660844.211,78.613,31.250,43.945,70.312,39.062,0
1486660844.215,23.926,28.320,41.992,47.852,33.691,0
1486660844.219,-25.391,26.367,40.527,34.180,30.762,0
1486660844.223,12.695,27.832,43.945,47.852,1.953,0
1486660844.227,81.543,27.344,40.527,67.871,47.363,0
1486660844.231,90.332,30.273,37.598,69.824,65.918,0
1486660844.235,46.387,37.109,48.340,52.246,35.645,0
1486660844.239,-6.348,33.691,57.129,43.945,10.254,0
1486660844.243,12.695,29.297,44.434,50.781,7.324,0
1486660844.246,81.055,32.227,34.180,66.895,81.543,0
1486660844.250,93.262,33.691,35.645,76.660,101.074,0
1486660844.254,56.641,38.086,44.922,69.336,19.531,0
1486660844.258,-1.465,41.504,47.363,53.711,7.812,0
1486660844.262,-1.465,30.273,36.621,47.363,-6.348,0
1486660844.266,74.707,29.785,36.133,68.848,-10.742,0
1486660844.270,93.750,38.086,41.016,73.730,59.570,0
1486660844.274,54.688,39.551,43.457,61.523,61.523,0
1486660844.278,-2.930,33.203,47.852,56.641,35.156,0
1486660844.282,-6.836,29.297,41.016,52.246,49.316,0
1486660844.286,62.988,32.227,33.691,62.988,62.988,0
1486660844.289,87.891,32.715,37.598,78.125,78.613,0
1486660844.293,52.246,30.762,44.922,67.871,80.566,0
1486660844.297,-4.395,29.297,45.410,48.340,44.434,0
1486660844.301,-20.508,26.855,41.504,40.039,34.668,0
1486660844.305,43.457,27.344,38.086,51.758,39.062,0
1486660844.309,83.984,32.715,36.133,69.336,65.430,0
1486660844.313,54.688,37.109,48.828,60.547,56.641,0
1486660844.317,-8.301,33.203,54.199,39.062,58.594,0
1486660844.321,-30.273,28.320,40.039,34.180,62.012,0
1486660844.325,31.250,28.320,34.668,43.945,30.762,0
1486660844.329,80.566,31.738,33.691,57.129,78.125,0
1486660844.332,54.199,31.738,34.668,53.711,99.609,0
1486660844.336,-4.883,32.715,39.062,31.250,88.867,0
1486660844.340,-33.691,31.738,42.969,28.809,63.965,0
1486660844.344,19.043,25.879,40.527,49.316,53.711,0
1486660844.348,72.754,25.391,32.715,64.941,76.172,0
1486660844.352,65.430,34.668,40.527,60.059,29.297,0
1486660844.356,18.066,37.109,49.805,42.480,38.574,0
1486660844.360,-33.203,25.391,46.875,28.809,67.383,0
1486660844.364,8.789,23.926,35.645,33.691,44.922,0
1486660844.368,80.078,27.344,29.785,55.176,55.664,0
1486660844.371,72.266,27.832,37.109,62.012,96.191,0
1486660844.375,18.066,30.273,41.992,41.992,83.984,0
1486660844.379,-23.926,34.180,43.457,35.156,35.645,0
1486660844.383,11.230,29.297,38.086,48.828,33.203,0
1486660844.387,73.730,25.879,43.457,69.336,36.621,0
1486660844.391,75.684,28.320,47.363,74.219,58.105,0
1486660844.395,25.391,28.809,47.852,58.594,45.898,0
1486660844.399,-29.785,23.438,47.852,51.270,11.719,0
1486660844.403,-1.465,19.043,44.922,49.805,15.137,0
1486660844.407,68.848,24.414,34.180,58.594,55.664,0
1486660844.411,80.566,29.785,29.297,67.871,74.707,0
1486660844.414,37.109,28.809,41.504,54.199,47.363,0
1486660844.418,-15.625,26.367,44.922,39.551,23.438,0
1486660844.422,-2.441,22.461,42.480,43.945,-4.883,0
1486660844.426,70.312,27.344,39.551,71.289,22.461,0
1486660844.430,94.238,33.203,39.551,83.008,54.688,0
1486660844.434,55.176,30.762,44.434,59.082,29.297,0
1486660844.438,2.441,30.762,47.363,45.410,6.836,0
1486660844.442,-5.371,27.344,41.504,41.016,32.227,0
1486660844.446,55.664,20.508,28.320,55.176,55.664,0
1486660844.450,90.820,20.996,30.273,72.754,61.035,0
1486660844.454,52.734,26.367,42.969,62.500,28.809,0
1486660844.457,-7.812,24.902,43.457,43.457,5.859,0
1486660844.461,-8.789,20.508,38.086,42.969,-4.883,0
1486660844.465,61.035,23.438,38.086,63.477,-27.344,0
1486660844.469,99.121,30.762,39.551,75.684,44.922,0
1486660844.473,67.871,34.180,39.062,62.500,100.098,0
1486660844.477,0.977,28.320,44.434,43.457,59.570,0
1486660844.481,-18.066,22.461,43.945,39.062,28.809,0
1486660844.485,47.363,25.391,35.645,54.688,18.066,0
1486660844.489,91.797,32.227,34.668,74.707,49.316,0
1486660844.493,66.406,31.250,40.527,64.941,30.762,0
1486660844.496,5.859,29.297,45.898,45.410,25.879,0
1486660844.500,-23.438,24.902,45.410,37.598,0.488,0
1486660844.504,31.738,21.973,39.062,53.223,-23.438,0
1486660844.508,90.820,24.902,37.109,75.195,40.527,0
1486660844.512,72.266,24.414,36.621,65.918,69.336,0
1486660844.516,12.207,27.832,45.410,49.805,25.391,0
1486660844.520,-20.508,27.344,45.898,42.969,-4.395,0
1486660844.524,23.438,22.949,33.203,43.457,-8.789,0
1486660844.528,80.078,22.461,27.344,61.035,-5.371,0
1486660844.532,71.289,22.461,29.297,66.895,20.508,0
1486660844.536,12.695,24.902,35.156,43.457,20.996,0
1486660844.539,-29.785,25.391,41.504,35.156,10.742,0
1486660844.543,17.090,24.414,40.527,45.898,-2.441,0
1486660844.547,86.426,26.367,35.156,62.500,22.949,0
1486660844.551,87.891,36.133,40.527,69.824,53.223,0
1486660844.555,38.086,34.668,44.434,47.852,-2.441,0
1486660844.559,-16.602,23.438,42.969,30.273,-28.809,0
1486660844.563,6.836,25.391,37.109,36.621,-16.602,0
1486660844.567,75.684,27.344,31.738,67.383,14.160,0
1486660844.571,86.426,31.250,29.785,73.730,48.828,0
1486660844.575,35.645,33.691,30.762,47.852,23.926,0
1486660844.579,-11.719,29.297,41.992,43.457,-8.301,0
1486660844.582,4.395,27.344,42.969,49.805,4.883,0
1486660844.586,72.266,34.180,31.738,69.336,35.156,0
1486660844.590,100.098,35.156,39.551,80.078,67.383,0
1486660844.594,55.176,29.785,47.852,59.570,59.570,0
1486660844.598,-3.418,26.855,40.527,41.016,26.367,0
1486660844.602,5.371,24.902,40.527,41.504,13.672,0
1486660844.606,69.824,25.391,38.574,63.477,28.320,0
1486660844.610,88.379,28.809,36.621,77.637,62.012,0
1486660844.614,49.316,31.250,37.598,59.082,40.527,0
1486660844.618,-11.230,34.180,47.852,42.969,0.000,1
1486660844.621,-11.230,32.227,44.434,44.434,-27.832,0
1486660844.625,61.035,32.227,33.203,64.453,-1.953,0
1486660844.629,96.680,38.086,39.062,78.125,43.945,0
1486660844.633,65.430,33.691,40.527,61.523,34.668,0
1486660844.637,0.488,29.297,41.504,43.945,44.434,0
1486660844.641,-13.184,26.855,41.016,47.852,28.320,0
1486660844.645,58.105,27.344,36.133,66.895,6.836,0
1486660844.649,100.098,33.203,36.621,80.566,62.012,0
1486660844.653,70.312,34.180,44.434,75.195,37.598,0
1486660844.657,11.230,35.156,54.199,62.988,5.859,0
1486660844.661,-15.625,30.762,50.293,49.805,0.488,0
1486660844.664,39.062,22.461,40.039,53.711,-16.113,0
1486660844.668,87.891,25.879,35.156,71.289,18.555,0
1486660844.672,65.430,29.297,37.598,59.570,35.645,0
1486660844.676,10.254,30.273,42.480,43.945,61.035,0
1486660844.680,-19.043,27.832,48.340,39.062,61.035,0
1486660844.684,31.738,22.949,39.062,44.922,-11.719,0
1486660844.688,91.309,23.438,27.832,64.941,11.230,0
1486660844.692,82.031,27.344,35.156,62.012,50.293,0
1486660844.696,22.949,30.273,46.875,42.969,27.832,0
1486660844.700,-15.137,29.785,44.434,39.062,8.789,0
1486660844.703,28.809,27.832,36.133,50.781,6.836,0
1486660844.707,85.449,23.438,30.273,68.359,53.223,0
1486660844.711,77.148,26.855,32.227,71.289,69.824,0
1486660844.715,26.855,33.203,38.086,56.641,67.871,0
1486660844.719,-14.160,28.809,42.969,44.922,19.043,0
1486660844.723,17.090,26.855,38.086,45.898,-3.906,0
1486660844.727,79.590,29.297,34.180,65.430,47.363,0
1486660844.731,81.543,28.320,34.668,63.965,66.406,0
1486660844.735,29.297,26.367,36.133,43.457,34.668,0
1486660844.739,-20.996,24.414,43.945,43.945,7.324,0
1486660844.743,6.348,25.391,41.016,46.875,24.414,0
1486660844.746,76.172,32.715,34.180,61.035,77.637,0
1486660844.750,94.727,33.203,38.086,70.801,65.918,0
1486660844.754,55.176,24.902,37.109,53.223,52.246,0
1486660844.758,-3.418,30.762,43.945,42.480,24.414,0
1486660844.762,-1.953,30.273,46.387,46.875,8.301,0
1486660844.766,65.430,20.996,32.715,61.523,40.039,0
1486660844.770,95.215,29.785,33.691,76.172,31.738,0
1486660844.774,53.711,35.645,46.387,60.547,38.086,0
1486660844.778,-6.348,30.762,52.246,46.875,50.293,0
1486660844.782,-6.836,25.879,44.922,50.293,13.672,0
1486660844.786,62.500,23.926,33.203,62.500,61.035,0
1486660844.789,89.844,28.320,31.250,74.219,121.582,0
1486660844.793,56.641,31.738,38.086,65.430,106.934,0
1486660844.797,0.977,22.949,43.457,42.969,33.691,0
1486660844.801,-7.324,17.578,37.598,39.062,12.695,0
1486660844.805,65.918,27.344,30.762,55.664,33.691,0
1486660844.809,100.098,33.203,37.109,74.219,71.289,0
1486660844.813,69.336,31.738,44.434,68.848,80.566,0
1486660844.817,11.719,33.203,44.434,50.293,64.941,0
1486660844.821,-14.160,28.320,43.457,45.898,57.617,0
1486660844.825,43.945,22.461,33.691,62.012,43.945,0
1486660844.828,95.215,28.320,29.297,83.008,39.551,0
1486660844.832,79.102,35.645,42.480,75.684,37.109,0
1486660844.836,17.578,34.668,46.387,56.641,41.016,0
1486660844.840,-8.301,31.250,43.457,52.246,-0.488,0
1486660844.844,46.875,24.902,40.527,62.012,0.000,0
1486660844.848,102.539,27.344,38.086,83.984,52.734,0
1486660844.852,92.285,35.645,49.805,83.984,28.320,0
1486660844.856,25.879,31.738,53.223,54.199,9.766,0
1486660844.860,-11.230,26.367,46.387,41.992,-13.672,0
1486660844.864,39.062,25.391,40.039,58.105,-29.297,0
1486660844.868,95.703,30.273,30.762,78.125,68.359,0
1486660844.871,88.379,35.156,35.645,76.660,73.242,0
1486660844.875,38.086,33.691,44.922,60.547,3.418,0
1486660844.879,-4.883,30.762,47.852,50.293,21.484,0
1486660844.883,24.414,25.391,42.969,56.152,13.184,0
1486660844.887,86.914,25.879,37.598,77.148,35.156,0
1486660844.891,93.750,35.156,44.922,85.449,63.965,0
1486660844.895,40.527,36.621,52.246,57.617,65.918,0
1486660844.899,-13.184,32.715,50.293,40.039,54.688,0
1486660844.903,11.719,26.855,41.504,46.387,0.977,0
1486660844.907,78.613,27.344,41.504,65.918,33.203,0
1486660844.911,85.938,32.227,41.992,71.777,77.148,0
1486660844.914,36.133,35.156,39.062,46.387,44.434,0
1486660844.918,-20.508,29.785,44.922,32.227,28.809,0
1486660844.922,-4.395,26.855,44.922,40.527,55.664,0
1486660844.926,75.195,35.645,48.340,70.312,88.867,0
1486660844.930,91.797,34.668,49.316,72.754,82.031,0
1486660844.934,41.504,30.273,41.504,39.551,63.965,0
1486660844.938,-13.672,28.809,44.922,34.668,47.852,0
1486660844.942,-7.812,22.949,46.387,40.039,32.715,0
1486660844.946,60.059,22.461,39.551,51.270,30.273,0
1486660844.950,82.520,29.297,34.180,62.500,65.430,0
1486660844.953,46.875,31.738,40.527,49.805,68.848,0
1486660844.957,-8.789,27.344,48.340,36.621,36.621,0
1486660844.961,-19.531,24.414,47.363,41.992,43.945,0
1486660844.965,49.316,28.809,40.527,58.594,46.875,0
1486660844.969,90.820,31.738,39.062,71.289,63.965,0
1486660844.973,57.129,30.762,41.992,50.781,51.758,0
1486660844.977,-0.488,35.156,44.922,35.645,26.855,0
1486660844.981,-12.207,30.762,40.527,38.086,15.137,0
1486660844.985,48.828,24.414,35.156,52.734,31.738,0
1486660844.989,89.844,24.414,39.551,74.219,68.359,0
1486660844.993,61.035,24.414,42.480,58.105,58.105,0
1486660844.996,3.418,26.855,45.898,41.992,34.180,0
1486660845.000,-18.555,23.926,46.875,41.504,19.043,0
1486660845.004,26.367,22.461,41.016,41.504,29.297,0
1486660845.008,78.125,26.367,33.691,57.129,64.941,0
1486660845.012,67.871,29.785,32.227,47.363,43.945,0
1486660845.016,3.906,31.738,36.621,28.320,0.977,0
1486660845.020,-30.273,29.785,37.598,31.738,11.230,0
1486660845.024,21.484,26.367,33.203,43.945,53.223,0
1486660845.028,80.078,30.762,33.203,64.941,83.008,0
1486660845.032,73.242,34.180,43.457,65.430,85.449,0
1486660845.036,15.137,30.273,44.922,42.969,64.453,0
1486660845.039,-28.320,24.902,45.898,33.691,49.805,0
1486660845.043,20.508,24.902,48.340,51.758,54.688,0
1486660845.047,79.590,26.855,33.203,72.266,78.125,0
1486660845.051,67.871,26.855,29.297,62.012,62.988,0
1486660845.055,20.996,24.902,38.574,41.504,24.902,0
1486660845.059,-25.879,25.391,44.434,41.016,23.438,0
1486660845.063,1.953,26.855,36.621,46.387,3.906,0
1486660845.067,75.684,31.250,34.180,69.336,15.625,0
1486660845.071,77.148,34.180,37.598,68.359,53.223,0
1486660845.075,27.832,33.203,43.457,41.504,33.203,0
1486660845.078,-19.043,32.227,53.711,36.621,12.207,0
1486660845.082,-8.789,25.879,46.387,40.039,32.715,0
1486660845.086,61.035,27.832,39.062,64.941,50.293,0
1486660845.090,82.520,28.320,36.133,77.637,105.957,0
1486660845.094,40.039,29.297,39.062,58.594,100.586,0
1486660845.098,-17.578,29.297,47.852,54.199,53.711,0
1486660845.102,-10.254,22.949,45.410,56.152,29.785,0
1486660845.106,60.547,22.949,38.574,64.453,35.645,0
1486660845.110,86.426,25.391,40.039,75.684,67.383,0
1486660845.114,47.363,29.297,40.527,56.641,44.922,0
1486660845.118,-5.371,32.715,44.434,48.828,40.527,0
1486660845.121,-4.395,28.809,47.363,49.316,6.836,0
1486660845.125,62.988,27.344,38.086,58.105,35.645,0
1486660845.129,103.516,38.086,34.668,84.473,115.723,0
1486660845.133,68.359,41.992,41.992,72.266,80.566,0
1486660845.137,-2.441,30.273,44.922,44.434,52.246,0
1486660845.141,-12.695,24.414,41.504,44.922,35.645,0
1486660845.145,46.387,26.367,35.156,59.082,46.387,0
1486660845.149,83.984,30.273,41.992,73.242,78.613,0
1486660845.153,62.012,29.297,44.434,60.547,88.379,0
1486660845.157,-1.465,27.832,41.992,45.898,57.129,0
1486660845.160,-23.438,27.832,43.457,44.434,-2.441,0
1486660845.164,43.457,31.250,32.227,56.641,25.391,0
1486660845.168,93.750,33.691,32.227,77.637,63.965,0
1486660845.172,70.312,34.180,41.504,73.242,48.828,0
1486660845.176,14.160,33.203,46.875,55.176,35.645,0
1486660845.180,-12.695,24.414,50.781,47.852,20.508,0
1486660845.184,41.504,18.555,41.992,65.918,22.949,1
1486660845.188,94.238,23.438,36.621,81.055,51.758,0
1486660845.192,77.637,28.320,38.086,66.406,70.312,0
1486660845.196,25.879,25.879,47.363,57.617,83.496,0
1486660845.200,-13.672,23.438,52.734,51.758,72.754,0
1486660845.203,25.879,24.414,40.039,56.641,73.242,0
1486660845.207,87.402,28.809,36.621,72.754,95.703,0
1486660845.211,79.590,33.203,45.410,66.406,68.359,0
1486660845.215,24.902,30.762,46.387,50.781,65.918,0
1486660845.219,-19.043,28.809,42.480,37.598,59.082,0
1486660845.223,26.855,34.180,45.410,49.316,28.320,0
1486660845.227,93.262,33.203,42.969,77.148,70.801,0
1486660845.231,83.984,26.855,31.738,69.336,96.191,0
1486660845.235,32.715,29.785,35.156,46.875,76.660,0
1486660845.239,-13.184,25.879,45.898,42.480,51.270,0
1486660845.243,13.672,21.484,42.480,50.781,34.668,0
1486660845.246,79.102,23.926,32.715,72.266,54.199,0
1486660845.250,89.355,31.738,36.133,73.730,57.617,0
1486660845.254,47.852,35.156,43.945,55.176,27.832,0
1486660845.258,-9.766,29.785,45.410,47.852,30.273,0
1486660845.262,-1.465,25.879,35.156,46.875,8.301,0
1486660845.266,69.336,28.809,33.691,65.430,38.086,0
1486660845.270,85.938,25.879,41.992,73.730,40.527,0
1486660845.274,36.621,23.926,38.574,53.711,54.688,0
1486660845.278,-20.996,26.367,38.574,39.551,53.223,0
1486660845.282,-19.531,20.020,42.480,36.621,-2.441,0
1486660845.285,52.246,17.090,37.598,53.223,24.414,0
1486660845.289,84.961,19.043,44.922,73.242,39.551,0
1486660845.293,45.410,17.578,43.457,53.711,3.906,0
1486660845.297,-15.625,22.461,38.574,37.109,17.578,0
1486660845.301,-11.719,25.879,44.922,45.898,-24.902,0
1486660845.305,56.152,26.855,45.410,63.965,-10.254,0
1486660845.309,91.797,30.273,41.016,74.219,25.879,0
1486660845.313,69.824,33.203,37.598,62.988,19.043,0
1486660845.317,9.277,33.691,48.828,48.828,48.828,0
1486660845.321,-12.207,29.785,50.293,43.945,21.973,0
1486660845.325,50.293,27.832,33.203,56.641,4.395,0
1486660845.328,97.656,28.320,32.715,77.637,63.477,0
1486660845.332,74.219,29.297,40.527,71.289,64.941,0
1486660845.336,16.602,33.203,45.898,48.340,29.785,0
1486660845.340,-17.090,32.227,47.852,38.574,20.020,0
1486660845.344,31.250,26.367,38.086,48.828,18.066,0
1486660845.348,83.984,30.273,30.762,67.383,58.594,0
1486660845.352,69.336,36.133,35.645,61.035,40.039,0
1486660845.356,10.254,37.109,43.457,42.480,11.230,0
1486660845.360,-23.438,36.621,43.457,34.668,21.973,0
1486660845.364,25.879,29.785,38.574,46.387,19.043,0
1486660845.368,91.797,33.203,44.434,81.055,47.852,0
1486660845.371,86.914,40.039,43.457,79.590,74.707,0
1486660845.375,17.578,29.785,43.945,52.246,41.504,0
1486660845.379,-30.273,20.508,50.781,46.875,-18.066,0
1486660845.383,13.184,22.949,40.527,57.129,-14.648,0
1486660845.387,82.031,26.855,34.180,83.496,43.457,0
1486660845.391,85.449,28.320,37.109,76.660,46.875,0
1486660845.395,35.156,30.762,39.551,41.992,9.766,0
1486660845.399,-13.184,32.715,43.945,34.180,-28.320,0
1486660845.403,11.719,30.762,40.039,43.945,-44.922,0
1486660845.407,80.078,29.785,34.668,69.824,4.883,0
1486660845.410,94.238,36.621,36.133,79.102,55.664,0
1486660845.414,42.969,33.691,41.016,56.641,81.543,0
1486660845.418,-14.648,27.832,44.922,43.457,85.938,0
1486660845.422,4.883,29.297,38.574,46.387,60.547,0
1486660845.426,75.195,31.250,33.203,66.895,104.980,0
1486660845.430,92.285,31.250,37.598,74.219,133.301,0
1486660845.434,44.922,33.203,41.016,50.781,86.426,0
1486660845.438,-12.695,29.297,49.316,41.016,82.520,0
1486660845.442,0.000,22.949,51.758,47.363,64.453,0
1486660845.446,68.848,23.438,38.574,67.871,56.641,0
1486660845.450,87.891,20.020,32.227,80.566,83.984,0
1486660845.453,51.758,20.020,37.109,67.871,87.891,0
1486660845.457,-8.301,23.926,47.852,50.293,61.523,0
1486660845.461,-11.719,25.391,42.969,50.293,64.453,0
1486660845.465,59.082,27.344,34.180,65.918,107.910,0
1486660845.469,93.262,33.203,38.086,71.777,98.145,0
1486660845.473,58.594,36.621,39.551,54.199,78.613,0
1486660845.477,-1.953,34.180,49.316,41.992,83.496,0
1486660845.481,-17.090,27.344,49.316,41.504,73.730,0
1486660845.485,47.852,23.926,37.598,50.293,43.945,0
1486660845.489,86.426,25.879,34.668,68.848,65.430,0
1486660845.492,54.688,25.391,30.762,51.270,83.496,0
1486660845.496,1.465,27.832,42.480,39.062,20.996,0
1486660845.500,-19.043,29.785,48.340,43.457,14.160,0
1486660845.504,35.645,26.855,35.156,42.969,14.648,0
1486660845.508,87.891,28.809,30.762,63.965,14.648,0
1486660845.512,66.895,29.785,34.668,55.664,63.477,0
1486660845.516,6.348,29.297,42.969,34.668,58.594,0
1486660845.520,-18.555,27.832,46.387,32.715,29.785,0
1486660845.524,38.086,25.879,40.527,47.363,8.789,0
1486660845.528,97.656,29.297,31.738,68.848,38.574,0
1486660845.532,85.449,32.715,36.133,66.406,65.430,0
1486660845.535,28.809,32.715,47.363,50.293,37.109,0
1486660845.539,-7.812,28.320,45.898,41.504,40.527,0
1486660845.543,30.762,26.855,37.109,49.316,11.230,0
1486660845.547,89.355,28.809,29.297,74.707,13.184,0
1486660845.551,83.984,32.227,32.715,72.754,63.477,0
1486660845.555,29.297,35.645,38.574,48.828,30.762,0
1486660845.559,-19.531,35.156,42.480,37.598,22.461,0
1486660845.563,6.348,29.785,43.945,51.270,61.035,0
1486660845.567,66.895,25.879,33.203,73.242,83.496,0
1486660845.571,77.148,29.297,32.227,71.777,71.289,0
1486660845.575,33.203,32.227,43.945,48.828,33.691,0
1486660845.578,-20.996,30.762,51.270,41.016,51.758,0
1486660845.582,0.000,25.879,44.434,48.828,66.895,0
1486660845.586,69.336,27.832,31.250,62.988,66.406,0
1486660845.590,79.102,30.762,33.203,69.336,71.289,0
1486660845.594,29.785,27.344,41.016,46.875,44.922,0
1486660845.598,-23.926,23.438,49.316,31.250,33.691,0
1486660845.602,-11.719,23.926,46.387,33.203,46.387,0
1486660845.606,56.152,27.344,34.668,51.758,42.480,0
1486660845.610,75.195,29.785,32.715,71.777,47.363,0
1486660845.614,42.969,32.715,41.016,56.152,36.621,0
1486660845.617,-9.277,28.809,45.410,41.504,6.836,0
1486660845.621,-7.324,27.832,38.086,44.434,3.906,0
1486660845.625,55.176,27.832,31.250,54.688,31.738,0
1486660845.629,78.125,26.367,35.645,63.965,64.941,0
1486660845.633,46.875,31.738,47.852,57.617,61.035,0
1486660845.637,-12.207,26.367,47.852,37.109,33.203,0
1486660845.641,-29.297,17.090,38.574,28.809,-0.977,0
1486660845.645,44.922,23.438,38.574,53.711,2.441,0
1486660845.649,89.355,26.855,40.039,79.102,59.082,0
1486660845.653,53.711,26.367,39.062,60.059,65.430,0
1486660845.657,-5.371,27.344,40.039,36.621,41.016,0
1486660845.660,-21.973,25.879,36.133,29.785,17.090,0
1486660845.664,34.180,21.973,31.250,37.598,-8.789,0
1486660845.668,80.078,24.414,26.367,59.570,36.621,0
1486660845.672,61.523,28.320,27.344,55.664,38.574,0
1486660845.676,3.906,29.297,34.668,35.156,11.230,0
1486660845.680,-16.602,27.832,36.621,27.832,16.602,0
1486660845.684,43.457,26.855,39.062,45.410,20.996,0
1486660845.688,94.238,31.250,40.527,68.848,64.941,0
1486660845.692,77.148,33.691,33.203,61.523,59.570,0
1486660845.696,18.555,33.691,36.133,41.016,51.270,0
1486660845.700,-24.414,27.832,37.109,28.809,42.480,0
1486660845.703,20.508,25.391,30.273,37.109,23.926,0
1486660845.707,83.984,28.320,30.273,63.477,78.125,0
1486660845.711,74.219,27.832,33.691,58.594,106.445,0
1486660845.715,13.672,28.809,36.621,33.691,60.059,1
1486660845.719,-25.879,26.855,45.410,28.320,9.766,0
1486660845.723,6.836,23.438,48.340,41.016,2.930,0
1486660845.727,69.336,25.879,42.480,66.406,62.500,0
1486660845.731,81.055,28.809,34.180,67.871,97.656,0
1486660845.735,30.762,28.809,36.133,49.805,78.125,0
1486660845.739,-18.066,25.879,46.387,45.898,61.523,0
1486660845.742,11.230,24.902,43.457,59.082,55.664,0
1486660845.746,82.031,27.344,39.551,80.078,36.133,0
1486660845.750,89.844,24.902,36.621,82.520,41.504,0
1486660845.754,46.875,29.785,44.434,62.988,22.949,0
1486660845.758,-10.742,30.762,54.688,45.898,-22.461,0
1486660845.762,-3.906,21.973,43.945,41.016,-12.695,0
1486660845.766,70.312,24.414,38.086,69.336,26.855,0
1486660845.770,89.355,27.832,38.086,74.707,64.453,0
1486660845.774,52.246,32.227,39.062,56.152,57.129,0
1486660845.778,-8.301,29.297,44.434,48.340,26.855,0
1486660845.782,-4.395,19.531,43.457,55.176,-6.348,0
1486660845.785,69.336,27.344,38.574,78.125,34.180,0
1486660845.789,100.098,36.621,39.062,84.473,109.375,0
1486660845.793,63.477,34.668,38.086,64.941,70.801,0
1486660845.797,4.395,32.715,41.992,47.852,32.227,0
1486660845.801,-1.953,30.273,49.316,52.734,57.617,0
1486660845.805,62.012,31.738,41.504,69.824,62.500,0
1486660845.809,97.656,33.203,29.785,77.148,79.590,0
1486660845.813,63.965,33.691,39.551,64.453,30.762,0
1486660845.817,-0.488,31.738,45.410,43.945,6.836,0
1486660845.821,-16.602,31.250,40.039,38.574,52.246,0
1486660845.825,46.387,32.715,35.156,60.059,46.387,0
1486660845.828,93.262,32.227,34.180,79.590,51.758,0
1486660845.832,73.242,35.645,34.180,68.359,60.059,0
1486660845.836,10.742,37.109,42.480,46.387,62.988,0
1486660845.840,-11.719,33.691,48.340,41.504,41.992,0
1486660845.844,46.387,28.320,47.852,55.664,31.738,0
1486660845.848,90.332,30.273,42.480,73.242,63.965,0
1486660845.852,75.684,37.109,41.504,70.801,37.598,0
1486660845.856,24.414,39.551,45.410,49.805,27.832,0
1486660845.860,-17.090,33.203,43.945,46.387,44.434,0
1486660845.864,28.809,27.832,35.645,61.035,48.340,0
1486660845.867,92.285,32.227,29.785,81.055,61.523,0
1486660845.871,83.984,36.133,31.738,77.637,80.566,0
1486660845.875,25.879,36.133,38.086,57.617,46.387,0
1486660845.879,-21.973,31.738,46.387,43.457,44.922,0
1486660845.883,16.602,30.762,48.340,48.828,85.449,0
1486660845.887,78.613,29.785,37.598,70.312,94.238,0
1486660845.891,74.707,31.738,30.273,62.500,111.328,0
1486660845.895,21.973,35.156,37.109,45.410,105.469,0
1486660845.899,-27.344,26.855,47.363,40.527,75.195,0
1486660845.903,4.395,24.414,42.480,41.992,44.434,0
1486660845.907,76.660,26.367,30.273,64.453,33.203,0
1486660845.910,91.309,26.367,32.715,70.801,70.312,0
1486660845.914,47.363,39.062,44.922,57.617,74.707,0
1486660845.918,-10.742,36.133,49.316,44.434,31.250,0
1486660845.922,4.883,26.855,40.039,43.945,20.996,0
1486660845.926,75.195,32.715,35.645,69.824,63.965,0
1486660845.930,90.332,33.691,39.551,74.219,79.102,0
1486660845.934,49.805,29.785,42.969,53.223,42.480,0
1486660845.938,-6.836,28.809,44.434,44.922,34.180,0
1486660845.942,1.953,26.367,39.551,51.270,13.672,0
1486660845.946,76.172,25.879,34.180,74.219,57.617,0
1486660845.949,103.027,30.762,38.574,84.961,81.055,0
1486660845.953,62.988,31.250,41.504,66.406,53.223,0
1486660845.957,-0.488,29.785,45.410,51.270,51.758,0
1486660845.961,-1.465,26.855,44.922,52.246,13.672,0
1486660845.965,64.941,25.879,39.062,67.871,7.812,0
1486660845.969,88.867,29.785,41.992,77.637,65.430,0
1486660845.973,57.129,30.273,41.504,61.035,55.664,0
1486660845.977,-0.977,28.320,41.992,43.945,17.090,0
1486660845.981,-12.207,26.367,45.898,44.434,30.273,0
1486660845.985,54.688,26.367,40.039,63.477,14.648,0
1486660845.989,89.355,29.297,32.715,76.172,62.500,0
1486660845.992,58.594,32.715,35.156,64.941,87.891,0
1486660845.996,3.418,33.691,39.062,42.969,39.062,0
1486660846.000,-19.043,29.297,42.969,32.715,19.043,0
1486660846.004,41.016,24.902,38.086,50.781,19.043,0
1486660846.008,84.473,20.020,29.297,67.383,58.105,0
1486660846.012,61.523,23.438,35.156,62.500,78.125,0
1486660846.016,9.766,30.762,41.992,48.828,34.668,0
1486660846.020,-23.438,22.949,41.504,35.156,18.066,0
1486660846.024,28.809,20.996,37.598,47.363,20.996,0
1486660846.028,88.867,27.832,36.621,72.266,54.199,0
1486660846.032,79.590,28.809,38.574,69.336,89.844,0
1486660846.035,23.438,29.785,39.062,50.293,27.832,0
1486660846.039,-19.531,28.320,41.016,43.457,-33.691,0
1486660846.043,26.855,25.391,41.504,60.059,-17.090,0
1486660846.047,85.938,24.414,33.203,79.102,24.414,0
1486660846.051,78.613,28.809,30.762,68.848,57.129,0
1486660846.055,30.273,37.598,41.016,51.758,26.367,0
1486660846.059,-13.184,33.203,44.922,45.898,17.578,0
1486660846.063,22.461,24.414,40.527,48.340,28.809,0
1486660846.067,84.961,30.762,37.109,68.359,53.223,0
1486660846.071,90.332,36.621,41.504,73.242,75.195,0
1486660846.074,44.434,38.574,42.480,51.270,72.266,0
1486660846.078,-7.812,35.156,47.363,41.992,39.551,0
1486660846.082,9.766,29.785,44.922,45.898,36.621,0
1486660846.086,77.148,33.203,33.691,61.035,73.730,0
1486660846.090,88.379,32.715,32.715,69.824,77.637,0
1486660846.094,41.504,29.297,41.016,53.223,46.387,0
1486660846.098,-8.789,30.273,44.922,40.527,30.762,0
1486660846.102,-2.930,30.273,38.574,45.898,30.762,0
1486660846.106,61.035,28.320,34.668,63.965,24.414,0
1486660846.110,80.078,30.273,36.133,65.918,28.809,0
1486660846.114,44.434,29.785,42.969,49.805,21.484,0
1486660846.117,-8.301,29.785,43.945,36.621,38.086,0
1486660846.121,-11.230,29.297,43.457,40.039,62.988,0
1486660846.125,59.082,27.832,35.645,59.082,97.168,0
1486660846.129,96.191,29.297,27.832,70.801,105.469,0
1486660846.133,56.641,31.738,35.645,53.223,77.637,0
1486660846.137,-4.395,29.785,42.480,36.133,63.965,0
1486660846.141,-15.625,26.855,41.992,41.016,39.062,0
1486660846.145,45.410,25.391,31.738,54.199,23.926,0
1486660846.149,89.355,29.785,30.273,67.383,60.547,0
1486660846.153,62.012,33.691,35.645,59.082,89.355,0
1486660846.157,6.348,32.715,44.434,46.387,75.684,0
1486660846.160,-7.812,29.785,49.316,48.340,23.438,0
1486660846.164,48.340,20.996,31.738,52.734,25.391,0
1486660846.168,94.727,22.949,26.855,69.336,83.496,0
1486660846.172,66.406,30.273,37.598,69.336,57.129,0
1486660846.176,3.418,34.180,41.016,48.340,38.574,0
1486660846.180,-22.461,31.250,48.828,44.434,35.645,0
1486660846.184,36.133,28.320,38.574,54.199,28.809,0
1486660846.188,91.797,33.691,27.832,71.289,71.289,0
1486660846.192,74.707,32.715,42.969,70.312,51.758,0
1486660846.196,18.066,24.414,46.387,52.734,23.438,0
1486660846.199,-12.207,25.391,40.039,41.504,16.602,0
1486660846.203,38.574,23.926,36.133,50.293,5.371,0
1486660846.207,96.680,25.879,32.715,75.684,72.754,0
1486660846.211,81.055,32.715,41.504,74.219,104.492,0
1486660846.215,29.785,33.203,49.316,52.734,47.363,0
1486660846.219,-15.625,29.785,43.457,43.457,14.160,0
1486660846.223,10.254,29.785,41.504,53.223,10.254,0
1486660846.227,81.543,29.785,38.574,72.754,41.504,0
1486660846.231,81.055,27.832,36.621,71.777,78.125,0
1486660846.235,25.391,30.273,42.969,54.199,58.594,0
1486660846.239,-22.461,27.832,42.969,43.457,25.879,0
1486660846.242,11.230,28.809,42.480,49.316,-5.371,0
1486660846.246,83.496,32.715,44.434,72.754,38.574,0
1486660846.250,86.914,31.250,40.527,68.848,93.262,0
1486660846.254,36.133,28.320,37.109,45.898,57.617,0
1486660846.258,-18.555,25.391,43.457,37.109,25.879,0
1486660846.262,3.906,29.297,47.852,45.898,20.020,0
1486660846.266,78.125,33.203,43.945,67.871,64.453,0
1486660846.270,93.262,31.250,34.180,72.754,72.754,0
1486660846.274,50.293,31.738,36.621,52.246,23.438,0
1486660846.278,-3.906,32.715,46.387,40.527,19.043,0
1486660846.282,3.418,27.344,47.852,49.805,0.488,0
1486660846.285,72.754,27.832,41.016,72.266,50.781,0
1486660846.289,99.121,30.762,35.156,80.566,87.891,0
1486660846.293,66.895,29.297,41.016,65.918,70.312,1
1486660846.297,3.906,30.762,48.340,49.805,49.805,0
1486660846.301,-10.254,31.738,44.434,44.922,17.090,0
1486660846.305,61.035,27.832,38.574,64.941,40.527,0
1486660846.309,93.262,24.902,38.086,81.543,98.145,0
1486660846.313,59.570,27.344,38.086,62.012,69.824,0
1486660846.317,-4.395,27.344,39.062,43.945,22.461,0
1486660846.321,-21.973,20.996,43.945,38.086,21.484,0
1486660846.324,45.410,20.020,36.621,45.410,33.691,0
1486660846.328,86.914,23.926,36.133,67.383,54.199,0
1486660846.332,58.105,26.367,42.480,59.082,24.414,0
1486660846.336,1.953,27.344,43.945,45.410,35.645,0
1486660846.340,-20.996,25.879,45.410,43.457,25.879,0
1486660846.344,26.367,21.973,31.250,51.758,22.949,0
1486660846.348,79.102,26.855,28.809,70.801,84.473,0
1486660846.352,72.266,33.203,46.387,73.242,78.613,0
1486660846.356,5.371,25.879,43.457,47.852,42.969,0
1486660846.360,-34.668,20.020,36.133,31.738,26.367,0
1486660846.364,22.949,21.973,38.086,45.410,32.715,0
1486660846.367,83.496,26.367,34.180,68.359,54.688,0
1486660846.371,63.965,24.902,38.086,60.547,56.641,0
1486660846.375,4.395,23.926,43.457,45.410,45.898,0
1486660846.379,-34.180,24.414,42.969,41.992,37.109,0
1486660846.383,5.859,19.531,34.180,41.504,38.086,0
1486660846.387,72.754,21.973,29.297,56.641,87.891,0
1486660846.391,71.777,30.762,35.156,58.594,80.078,0
1486660846.395,20.996,31.738,49.316,51.758,42.969,0
1486660846.399,-16.602,27.344,51.270,47.363,47.852,0
1486660846.403,12.695,24.414,37.109,49.805,24.414,0
1486660846.406,77.148,26.367,37.109,68.848,62.500,0
1486660846.410,92.773,32.227,46.875,76.660,68.359,0
1486660846.414,41.992,35.156,44.922,58.105,21.484,0
1486660846.418,-13.184,27.832,39.551,40.527,26.855,0
1486660846.422,8.789,23.926,34.668,45.898,2.930,0
1486660846.426,78.125,29.785,27.832,61.035,25.391,0
1486660846.430,96.191,37.109,35.156,73.730,62.012,0
1486660846.434,54.199,38.086,47.852,66.895,31.738,0
1486660846.438,-8.789,26.367,49.805,37.598,26.855,0
1486660846.442,-5.859,19.531,40.039,36.133,22.949,0
1486660846.446,64.941,22.949,34.180,62.012,8.301,0
1486660846.449,87.402,28.320,40.039,69.824,74.219,0
1486660846.453,48.828,30.273,40.527,50.293,83.984,0
1486660846.457,-2.930,28.809,40.527,40.039,50.781,0
1486660846.461,-7.324,29.297,40.039,44.434,50.293,0
1486660846.465,61.523,33.203,37.109,57.617,37.109,0
1486660846.469,95.215,28.809,37.109,67.871,64.941,0
1486660846.473,56.152,28.809,42.969,53.223,83.008,0
1486660846.477,-5.371,29.785,55.176,34.668,98.633,0
1486660846.481,-16.602,22.461,51.758,36.621,44.922,0
1486660846.485,49.805,22.461,29.785,49.316,20.508,0
1486660846.489,95.215,30.762,30.273,64.453,55.664,0
1486660846.492,66.895,33.203,38.574,59.570,61.523,0
1486660846.496,7.324,32.715,43.457,38.086,52.246,0
1486660846.500,-19.043,29.785,45.898,30.273,14.648,0
1486660846.504,42.969,28.809,42.480,50.293,40.527,0
1486660846.508,95.215,29.785,40.527,73.730,98.145,0
1486660846.512,74.707,29.297,40.039,69.336,77.637,0
1486660846.516,21.973,35.645,45.898,53.711,69.336,0
1486660846.520,-8.789,34.180,48.340,46.387,69.824,0
1486660846.524,41.992,27.344,34.180,55.176,59.570,0
1486660846.528,102.539,33.691,31.738,82.520,94.727,0
1486660846.531,87.891,36.133,41.992,79.102,74.219,0
1486660846.535,27.344,30.762,42.969,50.781,36.621,0
1486660846.539,-9.766,30.273,44.922,45.898,24.902,0
1486660846.543,31.738,24.902,41.016,59.570,38.574,0
1486660846.547,91.797,25.391,34.668,83.008,84.473,0
1486660846.551,82.520,28.809,39.062,83.496,89.844,0
1486660846.555,26.855,26.855,41.992,53.711,58.105,0
1486660846.559,-20.508,26.855,39.551,45.410,25.879,0
1486660846.563,13.184,24.902,35.645,53.223,21.973,0
1486660846.567,78.613,27.344,36.621,69.336,38.086,0
1486660846.571,84.473,33.203,40.527,77.637,53.223,0
1486660846.574,37.109,34.180,44.922,62.988,45.410,0
1486660846.578,-20.020,30.762,41.992,42.480,23.438,0
1486660846.582,8.789,30.762,37.109,46.875,22.949,0
1486660846.586,80.566,27.344,42.969,75.195,59.082,0
1486660846.590,82.520,25.879,39.551,77.148,60.547,0
1486660846.594,43.457,29.785,42.480,56.152,54.199,0
1486660846.598,-7.324,30.762,50.781,41.992,64.941,0
1486660846.602,1.953,27.832,42.969,48.828,40.039,0
1486660846.606,72.754,29.785,38.086,70.801,17.578,0
1486660846.610,97.168,33.691,41.504,83.984,63.477,0
1486660846.614,56.152,32.227,43.945,67.383,28.809,0
1486660846.617,-6.836,32.227,42.969,48.340,-24.902,0
1486660846.621,2.441,31.250,42.969,50.293,-62.500,0
1486660846.625,68.359,26.855,42.480,65.430,-48.340,0
1486660846.629,93.750,31.250,40.039,73.730,12.695,0
1486660846.633,64.941,35.645,46.875,60.059,20.020,0
1486660846.637,-0.977,28.809,47.363,42.480,13.184,0
1486660846.641,-15.137,22.949,40.527,41.504,22.949,0
1486660846.645,58.105,25.391,33.691,63.965,41.504,0
1486660846.649,90.820,28.809,35.645,79.102,59.082,0
1486660846.653,55.176,30.273,37.598,69.336,76.660,0
1486660846.656,1.465,35.156,34.180,50.293,44.434,0
1486660846.660,-16.113,32.715,36.621,41.504,15.625,0
1486660846.664,49.805,29.297,29.785,59.570,18.066,0
1486660846.668,97.656,31.738,28.320,82.520,65.918,0
1486660846.672,77.148,32.227,36.133,68.359,59.570,0
1486660846.676,16.602,32.227,40.527,48.340,15.137,0
1486660846.680,-10.254,32.715,47.363,50.781,14.160,0
1486660846.684,47.363,27.344,45.410,67.871,-0.977,0
1486660846.688,101.562,25.391,36.621,88.379,5.371,0
1486660846.692,81.055,34.180,41.504,77.637,19.531,0
1486660846.696,12.207,33.691,46.387,54.199,20.996,0
1486660846.699,-21.484,29.297,43.457,43.945,9.277,0
1486660846.703,27.832,27.832,38.086,51.758,14.160,0
1486660846.707,83.008,29.785,37.109,72.266,49.805,0
1486660846.711,74.707,36.133,40.039,62.500,71.289,0
1486660846.715,23.926,38.574,47.363,41.016,18.066,0
1486660846.719,-18.066,33.691,56.152,35.645,-15.137,0
1486660846.723,19.531,29.297,44.434,43.945,-18.555,0
1486660846.727,80.566,32.227,33.203,66.895,8.301,0
1486660846.731,78.613,33.691,35.156,70.801,45.410,0
1486660846.735,31.250,34.668,40.527,53.223,25.391,0
1486660846.739,-21.973,32.715,41.504,37.598,10.254,0
1486660846.742,12.207,30.762,41.016,49.316,-16.602,0
1486660846.746,79.590,29.785,42.480,78.613,37.598,0
1486660846.750,79.590,30.273,40.039,69.336,83.008,0
1486660846.754,34.180,34.668,49.805,43.945,73.242,0
1486660846.758,-23.438,31.738,50.293,35.645,89.844,0
1486660846.762,-8.789,26.855,40.039,40.039,53.711,0
1486660846.766,60.059,29.297,35.156,57.129,55.176,0
1486660846.770,81.543,36.133,30.762,65.430,120.117,0
1486660846.774,41.016,38.086,37.598,51.758,106.934,0
1486660846.778,-18.066,32.227,48.340,40.039,53.223,0
1486660846.781,-12.695,28.320,46.875,43.457,51.270,0
1486660846.785,58.594,26.367,39.062,60.059,85.938,0
1486660846.789,85.938,25.879,38.574,74.219,101.562,0
1486660846.793,48.828,32.715,39.551,57.129,93.750,0
1486660846.797,-5.859,33.203,41.992,42.969,36.133,0
1486660846.801,-5.371,26.367,39.551,47.363,-3.906,0
1486660846.805,65.430,27.344,29.785,62.012,60.059,0
1486660846.809,96.191,29.297,33.691,75.684,62.012,0
1486660846.813,57.617,28.809,41.504,64.453,4.395,0
1486660846.817,-3.418,32.715,45.410,45.898,25.879,0
1486660846.821,-21.484,27.344,40.527,40.039,31.738,0
1486660846.824,50.781,28.809,39.551,63.965,-4.883,0
1486660846.828,100.098,33.691,42.480,78.125,15.137,0
1486660846.832,60.547,23.926,38.086,53.711,49.805,1
1486660846.836,-2.441,23.926,41.016,36.133,75.684,0
1486660846.840,-22.461,25.879,42.969,34.668,35.156,0
1486660846.844,35.156,25.879,40.527,43.945,2.930,0
1486660846.848,89.355,31.250,35.156,66.406,40.527,0
1486660846.852,73.242,32.227,28.809,63.477,63.477,0
1486660846.856,7.324,30.762,37.598,40.039,58.105,0
1486660846.860,-24.414,30.273,47.852,38.086,38.574,0
1486660846.863,29.297,25.391,41.992,56.152,35.156,0
1486660846.867,86.426,28.809,35.156,79.590,79.590,0
1486660846.871,79.102,34.668,43.457,79.102,81.055,0
1486660846.875,27.344,37.598,49.805,51.758,87.891,0
1486660846.879,-17.090,33.203,45.410,35.156,72.266,0
1486660846.883,18.066,24.414,37.598,48.828,50.781,0
1486660846.887,78.125,30.762,33.691,73.242,108.887,0
1486660846.891,75.195,37.109,37.109,66.406,101.074,0
1486660846.895,20.508,35.156,40.039,41.504,17.578,0
1486660846.899,-25.391,33.691,47.363,36.133,20.508,0
1486660846.903,8.789,32.227,41.016,45.410,45.410,0
1486660846.906,75.195,32.715,29.297,64.453,62.012,0
1486660846.910,88.867,36.133,35.645,68.848,90.820,0
1486660846.914,37.598,36.133,45.410,47.852,69.336,0
1486660846.918,-17.578,33.691,42.969,37.598,26.855,0
1486660846.922,8.301,29.785,41.992,50.781,19.043,0
1486660846.926,72.754,25.879,36.133,72.754,62.988,0
1486660846.930,87.891,28.320,33.691,78.125,94.238,0
1486660846.934,49.316,28.809,43.945,54.688,39.062,0
1486660846.938,-5.371,28.809,43.945,41.016,41.504,0
1486660846.942,2.441,29.297,37.598,45.410,28.320,0
1486660846.946,71.777,28.320,33.203,63.477,4.883,0
1486660846.949,93.262,29.785,40.039,79.102,44.434,0
1486660846.953,52.734,35.156,47.363,63.477,48.828,0
1486660846.957,-4.395,33.203,43.945,42.480,40.527,0
1486660846.961,-7.812,25.879,41.016,47.852,21.484,0
1486660846.965,59.570,30.273,41.504,70.312,35.645,0
1486660846.969,90.820,36.133,39.062,85.938,68.359,0
1486660846.973,53.223,31.738,38.574,72.266,55.664,0
1486660846.977,-7.324,31.250,47.363,53.711,56.641,0
1486660846.981,-12.207,28.809,47.852,56.152,31.738,0
1486660846.985,56.152,26.367,39.551,72.266,24.414,0
1486660846.988,96.191,32.227,35.156,82.520,71.777,0
1486660846.992,69.336,39.551,43.457,69.824,82.520,0
1486660846.996,14.160,39.551,49.316,49.805,33.691,0
1486660847.000,-7.812,29.785,41.992,44.922,0.977,0
1486660847.004,46.387,25.879,30.273,61.523,17.578,0
1486660847.008,94.727,32.715,28.809,77.637,24.902,0
1486660847.012,73.730,35.645,38.086,66.895,28.320,0
1486660847.016,14.648,33.203,37.598,42.480,45.898,0
1486660847.020,-16.113,32.715,38.086,34.180,46.875,0
1486660847.024,35.156,29.785,32.227,45.898,27.344,0
1486660847.028,92.285,27.344,30.762,64.941,51.758,0
1486660847.031,84.473,32.715,40.527,62.988,30.273,0
1486660847.035,24.414,34.668,36.133,37.109,12.695,0
1486660847.039,-10.742,34.180,40.039,33.691,-3.906,0
1486660847.043,38.574,33.203,41.016,55.664,-2.930,0
1486660847.047,94.238,31.250,28.809,78.613,43.945,0
1486660847.051,88.379,31.738,36.133,75.195,44.922,0
1486660847.055,25.391,31.250,40.527,44.922,20.020,0
1486660847.059,-16.113,31.738,42.969,42.480,-5.371,0
1486660847.063,20.508,27.344,44.922,49.805,-23.438,0
1486660847.067,73.730,23.438,38.086,64.453,28.809,0
1486660847.071,77.148,23.926,31.250,71.289,70.801,0
1486660847.074,32.227,28.320,32.227,51.758,65.430,0
1486660847.078,-13.184,32.715,42.480,41.504,32.715,0
1486660847.082,12.207,29.785,46.387,47.363,0.000,0
1486660847.086,82.520,27.344,39.551,72.754,49.805,0
1486660847.090,89.844,31.738,32.227,75.195,73.242,0
1486660847.094,37.109,31.738,35.156,47.363,43.457,0
1486660847.098,-16.602,28.809,42.969,42.969,40.039,0
1486660847.102,0.000,30.273,39.551,53.223,36.133,0
1486660847.106,67.383,32.227,27.344,62.500,32.227,0
1486660847.110,94.238,33.691,30.762,75.195,40.039,0
1486660847.113,53.223,32.715,38.086,64.941,58.594,0
1486660847.117,-5.371,31.738,43.457,43.457,52.246,0
1486660847.121,3.906,33.203,45.898,47.363,8.301,0
1486660847.125,73.730,33.203,34.668,65.918,15.137,0
1486660847.129,97.656,33.691,32.227,78.125,67.871,0
1486660847.133,59.082,35.156,40.527,61.035,103.516,0
1486660847.137,2.930,34.180,47.363,41.504,57.129,0
1486660847.141,-8.301,30.273,45.898,46.875,13.672,0
1486660847.145,59.570,30.762,41.504,63.965,34.668,0
1486660847.149,98.633,31.250,38.086,82.520,64.453,0
1486660847.153,63.477,27.344,31.738,72.266,46.875,0
1486660847.156,0.977,22.461,38.574,48.340,20.020,0
1486660847.160,-17.090,22.461,43.457,43.457,19.043,0
1486660847.164,47.363,27.344,37.598,58.594,6.836,0
1486660847.168,101.074,35.156,38.574,81.055,35.156,0
1486660847.172,72.754,34.668,41.016,67.383,48.340,0
1486660847.176,1.465,27.832,37.598,40.039,46.875,0
1486660847.180,-26.367,25.879,37.598,34.180,35.645,0
1486660847.184,32.715,27.832,36.133,48.828,41.016,0
1486660847.188,86.426,28.809,33.203,68.359,77.637,0
1486660847.192,64.941,31.250,36.133,61.523,64.941,0
1486660847.196,12.207,36.133,44.434,40.527,53.711,0
1486660847.199,-20.508,28.320,48.340,33.203,61.035,0
1486660847.203,21.484,23.438,41.992,46.387,44.922,0
1486660847.207,90.332,30.273,38.574,72.266,102.051,0
1486660847.211,83.984,31.250,36.133,62.500,97.656,0
1486660847.215,20.996,34.668,34.180,38.574,40.527,0
1486660847.219,-20.508,33.203,41.016,35.156,25.391,0
1486660847.223,17.578,26.367,36.133,38.574,29.297,0
1486660847.227,76.660,27.344,34.668,60.547,79.102,0
1486660847.231,78.125,30.762,39.062,64.453,104.492,0
1486660847.235,30.762,33.203,42.480,46.875,72.266,0
1486660847.238,-17.578,27.344,49.805,41.504,52.734,0
1486660847.242,11.230,24.902,48.340,45.410,43.945,0
1486660847.246,80.566,29.297,35.156,65.430,71.777,0
1486660847.250,86.914,31.738,29.785,68.848,83.496,0
1486660847.254,37.598,31.738,38.574,50.293,66.406,0
1486660847.258,-14.648,26.855,43.457,39.551,56.641,0
1486660847.262,4.883,24.414,40.039,42.969,13.184,0
1486660847.266,76.660,29.297,35.645,70.801,40.039,0
1486660847.270,89.355,32.227,38.086,77.148,76.660,0
1486660847.274,42.969,29.785,41.016,51.758,59.570,0
1486660847.278,-8.789,31.250,48.828,43.945,51.758,0
1486660847.281,3.906,35.156,49.316,46.387,20.508,0
1486660847.285,63.965,27.832,39.062,64.941,7.812,0
1486660847.289,87.402,26.367,32.715,77.148,35.645,0
1486660847.293,48.340,33.203,31.250,55.176,48.340,0
1486660847.297,-13.672,31.250,39.062,40.527,32.715,0
1486660847.301,-14.648,24.414,40.039,46.387,0.000,0
1486660847.305,55.176,24.414,34.180,58.594,29.785,0
1486660847.309,92.285,30.273,39.062,70.801,64.453,0
1486660847.313,62.988,36.621,41.504,66.895,51.758,0
1486660847.317,4.395,40.039,40.527,49.316,71.777,0
1486660847.320,-7.324,34.180,46.875,44.922,70.801,0
1486660847.324,58.105,26.855,39.551,63.965,20.508,0
1486660847.328,103.516,31.250,32.227,80.566,44.434,0
1486660847.332,67.871,33.691,37.109,65.430,34.668,0
1486660847.336,1.465,32.715,42.480,49.316,25.879,0
1486660847.340,-19.043,27.832,45.898,44.434,41.992,0
1486660847.344,40.039,23.926,41.016,55.664,34.180,0
1486660847.348,90.820,28.809,37.109,77.148,85.938,0
1486660847.352,71.777,32.715,40.039,71.777,92.285,0
1486660847.356,18.555,31.738,45.898,56.152,59.570,0
1486660847.360,-15.137,26.367,43.945,52.246,36.133,0
1486660847.363,31.738,27.832,40.527,57.617,2.930,0
1486660847.367,89.844,35.156,40.527,79.590,73.730,0
1486660847.371,78.125,35.156,41.016,68.359,82.520,0
1486660847.375,20.996,30.762,43.945,39.551,22.949,2
1486660847.379,-21.973,26.367,43.945,36.621,11.719,0
1486660847.383,20.020,24.902,41.504,49.316,16.113,0
1486660847.387,86.914,30.762,39.551,70.312,55.664,0
1486660847.391,81.055,31.738,40.039,68.359,85.938,0
1486660847.395,26.855,33.203,41.992,53.711,52.734,0
1486660847.399,-27.344,34.668,44.922,39.062,26.367,0
1486660847.403,-1.465,30.762,42.480,39.551,19.531,0
1486660847.406,65.430,27.344,34.668,64.941,58.594,0
1486660847.410,77.637,31.738,41.504,70.801,117.676,0
1486660847.414,35.645,37.109,46.875,44.922,69.336,0
1486660847.418,-20.508,33.691,46.875,30.273,38.574,0
1486660847.422,2.441,29.785,43.945,41.992,22.949,0
1486660847.426,72.754,28.809,35.645,72.266,19.043,0
1486660847.430,86.426,33.691,33.203,73.730,75.684,0
1486660847.434,41.016,37.109,37.598,49.805,24.414,0
1486660847.438,-15.625,31.738,44.434,39.551,5.859,0
1486660847.442,-2.441,26.367,41.504,42.480,22.949,0
1486660847.445,63.477,28.809,38.086,62.500,-16.113,0
1486660847.449,81.055,30.273,41.504,73.242,23.438,0
1486660847.453,48.828,33.691,44.434,62.012,33.203,0
1486660847.457,-5.859,35.645,51.270,44.922,36.621,0
1486660847.461,-7.812,31.250,45.410,38.574,2.441,0
1486660847.465,58.105,28.320,35.156,56.641,16.113,0
1486660847.469,91.797,35.156,33.203,71.777,69.336,0
1486660847.473,59.570,37.109,39.062,63.477,68.848,0
1486660847.477,-0.488,28.809,43.945,44.922,74.219,0
1486660847.481,-13.184,23.926,42.480,44.922,40.527,0
1486660847.485,55.664,26.367,40.039,62.988,28.320,0
1486660847.488,99.121,31.738,37.109,83.984,69.824,0
1486660847.492,62.012,35.156,40.039,71.289,79.590,0
1486660847.496,-2.930,31.738,48.340,45.898,43.945,0
1486660847.500,-17.578,28.320,47.852,47.852,34.668,0
1486660847.504,45.898,31.738,43.457,65.430,36.621,0
1486660847.508,84.473,28.320,42.969,79.102,58.594,0
1486660847.512,62.500,24.414,43.945,69.336,43.457,0
1486660847.516,8.301,30.273,47.852,55.664,26.367,0
1486660847.520,-31.250,28.809,47.852,49.805,15.625,0
1486660847.524,21.484,26.855,42.480,60.547,0.977,0
1486660847.528,87.402,27.832,39.551,83.984,75.195,0
1486660847.531,70.801,26.855,42.480,75.684,77.637,0
1486660847.535,10.254,26.855,43.945,49.805,44.434,0
1486660847.539,-20.996,26.367,44.922,48.828,49.805,0
1486660847.543,25.879,30.273,38.574,58.594,78.125,0
1486660847.547,87.891,31.250,32.715,77.148,117.188,0
1486660847.551,89.355,30.273,39.062,83.008,66.406,0
1486660847.555,36.621,33.691,43.945,62.012,31.250,0
1486660847.559,-12.207,32.715,47.852,46.387,58.594,0
1486660847.563,25.879,25.879,40.527,52.246,31.738,0
1486660847.567,87.891,24.902,30.762,70.312,61.035,0
1486660847.570,81.055,28.809,34.180,73.242,87.891,0
1486660847.574,33.203,29.297,37.109,59.570,50.293,0
1486660847.578,-13.184,27.832,39.551,47.852,32.715,0
1486660847.582,16.113,27.832,39.551,53.711,16.113,0
1486660847.586,84.961,27.832,35.156,72.754,36.621,0
1486660847.590,89.844,27.832,33.691,79.102,82.520,0
1486660847.594,48.828,30.273,35.645,54.199,49.805,0
1486660847.598,-4.883,32.227,43.945,41.504,12.695,0
1486660847.602,5.859,30.273,42.480,50.293,13.672,0
1486660847.606,76.660,32.227,32.715,69.336,32.227,0
1486660847.610,94.238,34.180,33.203,81.055,57.617,0
1486660847.613,60.547,37.598,42.480,68.359,76.172,0
1486660847.617,0.977,35.156,45.410,52.246,71.289,0
1486660847.621,-5.371,28.320,38.574,48.828,46.387,0
1486660847.625,72.266,27.344,34.180,65.430,73.242,0
1486660847.629,100.098,26.855,31.738,73.242,69.336,0
1486660847.633,59.570,32.715,33.691,62.988,27.344,0
1486660847.637,-0.488,38.086,43.945,48.340,20.508,0
1486660847.641,-4.883,37.598,55.664,46.387,16.602,0
1486660847.645,63.965,34.180,40.527,61.035,64.941,0
1486660847.649,100.098,34.668,29.785,75.195,107.422,0
1486660847.652,67.383,35.645,40.527,68.848,66.895,0
1486660847.656,4.883,32.715,43.457,51.270,46.387,0
1486660847.660,-5.859,30.762,42.969,49.316,41.504,0
1486660847.664,60.547,32.715,38.574,64.453,36.133,0
1486660847.668,99.121,34.180,34.668,82.520,70.801,0
1486660847.672,71.777,35.156,44.922,72.754,65.918,0
1486660847.676,9.277,35.156,54.199,45.898,50.781,0
1486660847.680,-22.461,30.762,40.527,39.062,25.879,0
1486660847.684,38.086,28.320,34.180,49.316,31.738,0
1486660847.688,91.309,28.809,43.457,70.312,74.707,0
1486660847.692,64.453,32.715,42.969,69.336,73.242,0
1486660847.695,4.883,36.621,48.828,47.363,50.293,0
1486660847.699,-29.297,32.227,48.828,32.715,40.039,0
1486660847.703,20.996,28.809,36.621,37.598,58.105,0
1486660847.707,79.102,30.762,37.598,62.500,91.797,0
1486660847.711,64.941,32.715,41.504,58.105,70.801,0
1486660847.715,10.254,32.715,46.387,35.156,16.602,0
1486660847.719,-30.273,28.809,43.945,31.738,13.672,0
1486660847.723,5.371,25.391,32.227,33.691,46.387,0
1486660847.727,70.801,26.367,28.320,53.711,73.242,0
1486660847.731,75.195,27.832,33.203,59.082,48.340,0
1486660847.735,19.531,29.297,34.180,33.691,17.578,0
1486660847.738,-28.809,26.367,35.156,26.367,44.922,0
1486660847.742,5.859,24.414,38.086,35.645,32.715,0
1486660847.746,69.824,29.785,32.227,60.547,18.066,0
1486660847.750,82.520,33.691,27.344,74.219,64.453,0
1486660847.754,46.875,37.598,40.039,69.336,50.781,0
1486660847.758,-12.207,32.227,48.828,55.176,25.879,0
1486660847.762,6.348,27.832,40.039,43.457,27.344,0
1486660847.766,81.055,27.344,28.320,67.383,28.320,0
1486660847.770,96.191,30.762,29.785,80.566,23.438,0
1486660847.774,46.387,39.062,43.945,54.199,5.859,0
1486660847.777,-10.742,33.203,44.434,38.574,-7.324,0
1486660847.781,0.977,25.391,41.016,43.945,-3.418,0
1486660847.785,65.918,26.367,38.086,65.430,41.992,0
1486660847.789,94.727,32.227,34.180,82.520,67.383,0
1486660847.793,60.547,34.668,45.898,66.406,25.391,0
1486660847.797,-3.418,24.902,50.781,45.410,30.762,0
1486660847.801,-5.859,20.508,38.574,41.992,41.504,0
1486660847.805,66.406,27.344,31.738,62.012,21.484,0
1486660847.809,102.539,30.762,35.645,79.102,84.473,0
1486660847.813,67.871,32.227,42.480,64.453,117.676,0
1486660847.817,7.812,30.273,44.434,45.410,95.703,0
1486660847.820,-3.906,27.832,41.016,36.133,45.898,0
1486660847.824,50.293,29.297,31.738,51.758,32.715,0
1486660847.828,85.938,31.738,32.715,82.520,75.195,0
1486660847.832,63.965,34.180,41.504,66.895,61.523,0
1486660847.836,-0.977,29.785,42.969,40.527,11.719,0
1486660847.840,-24.902,21.484,38.574,35.156,-15.625,0
1486660847.844,38.086,20.996,34.668,49.805,0.488,0
1486660847.848,84.473,27.344,33.203,73.242,49.316,0
1486660847.852,65.430,33.691,36.621,64.453,62.012,0
1486660847.856,11.230,30.762,43.945,50.781,23.438,0
1486660847.860,-19.043,23.438,41.504,49.316,1.953,0
1486660847.863,28.809,26.855,33.203,52.734,10.254,0
1486660847.867,90.820,33.691,41.016,78.125,60.059,0
1486660847.871,84.961,30.762,49.316,78.125,78.125,0
1486660847.875,23.438,29.297,48.340,46.875,33.203,0
1486660847.879,-14.648,30.762,43.945,41.992,25.391,0
1486660847.883,31.738,30.762,40.527,55.664,38.574,0
1486660847.887,84.473,29.297,37.109,75.684,49.316,0
1486660847.891,76.660,31.738,41.016,75.684,32.227,0
1486660847.895,27.832,36.133,44.434,50.293,18.066,0
1486660847.899,-21.973,28.809,49.316,44.434,24.414,0
1486660847.902,3.418,22.461,45.410,49.805,-6.836,0
1486660847.906,75.195,27.832,35.156,71.289,27.832,0
1486660847.910,85.938,30.762,44.922,78.613,82.031,0
1486660847.914,32.227,24.414,48.340,53.223,45.410,0
1486660847.918,-17.090,21.484,41.504,36.133,-5.859,0
1486660847.922,6.836,24.902,35.645,42.969,-16.113,0
1486660847.926,75.684,26.855,28.809,70.801,52.734,0
1486660847.930,90.820,31.738,32.227,77.637,86.426,0
1486660847.934,48.340,34.668,39.062,60.547,43.457,0
1486660847.938,-7.812,31.250,48.828,50.293,34.668,0
1486660847.942,0.000,28.320,51.758,52.246,48.340,0
1486660847.945,71.289,28.809,36.133,66.895,76.172,0
1486660847.949,91.309,29.785,34.668,75.684,102.539,0
1486660847.953,42.480,30.762,41.016,56.641,61.035,0
1486660847.957,-13.184,32.227,42.969,44.922,38.574,0
1486660847.961,-1.465,29.297,43.457,54.199,44.434,0
1486660847.965,67.383,24.414,38.574,69.824,21.484,0
1486660847.969,99.121,29.785,34.180,81.055,92.773,0
1486660847.973,64.453,34.668,38.574,65.918,75.195,0
1486660847.977,3.906,33.203,44.434,50.293,22.461,0
1486660847.981,1.465,33.203,46.875,54.199,20.020,0
1486660847.985,64.453,31.250,42.480,68.848,25.391,0
1486660847.988,96.680,29.297,35.156,79.590,74.707,0
1486660847.992,67.871,29.785,32.227,64.941,89.355,0
1486660847.996,6.348,28.809,38.574,43.945,66.895,0
1486660848.000,-12.695,24.902,41.992,38.086,48.340,0
1486660848.004,43.945,24.902,34.668,57.129,65.918,0
1486660848.008,88.867,27.344,30.273,75.195,101.074,0
1486660848.012,67.871,31.250,32.715,60.547,75.195,0
1486660848.016,14.648,39.551,44.922,49.316,81.543,0
1486660848.020,-20.508,34.668,49.805,38.574,96.191,0
1486660848.024,28.320,24.414,42.969,44.922,64.453,0
1486660848.027,86.426,28.809,33.691,64.941,68.848,0
1486660848.031,67.383,30.762,33.203,55.664,70.312,0
1486660848.035,9.277,27.832,40.527,42.480,44.922,1
1486660848.039,-19.043,27.832,42.480,38.086,24.414,0
1486660848.043,23.438,26.367,36.621,47.363,-0.977,0
1486660848.047,75.195,27.832,36.133,67.871,22.949,0
1486660848.051,68.848,29.785,38.086,64.453,59.570,0
1486660848.055,12.695,30.762,37.598,45.410,19.043,0
1486660848.059,-29.785,29.785,47.363,32.227,10.742,0
1486660848.063,15.625,25.879,47.852,41.016,43.457,0
1486660848.067,76.660,24.902,30.762,65.918,90.332,0
1486660848.070,75.684,28.809,31.738,69.824,75.684,0
1486660848.074,32.227,34.180,41.992,55.664,38.086,0
1486660848.078,-17.578,37.598,43.457,46.875,44.922,0
1486660848.082,7.324,32.227,42.969,53.223,-5.859,0
1486660848.086,83.984,33.203,40.039,73.242,33.691,0
1486660848.090,98.633,40.039,40.527,79.102,90.332,0
1486660848.094,44.434,39.551,45.898,62.012,42.480,0
1486660848.098,-7.812,36.133,53.711,50.293,17.090,0
1486660848.102,6.836,30.273,48.340,51.758,18.066,0
1486660848.106,73.242,30.762,31.738,65.430,79.102,0
1486660848.109,93.262,34.668,32.715,72.754,77.148,0
1486660848.113,49.805,34.180,44.434,58.594,25.879,0
1486660848.117,-13.672,29.785,47.852,40.039,29.297,0
1486660848.121,-11.230,26.367,41.504,40.527,12.695,0
1486660848.125,57.129,27.344,32.715,62.012,15.137,0
1486660848.129,84.961,32.227,36.621,68.848,36.133,0
1486660848.133,50.293,36.621,48.340,59.570,54.688,0
1486660848.137,-4.883,38.086,52.734,45.410,20.508,0
1486660848.141,-10.254,33.203,41.016,40.527,-22.949,0
1486660848.145,55.176,29.297,31.250,59.570,0.488,0
1486660848.149,98.145,34.668,35.156,81.055,46.875,0
1486660848.152,65.430,36.133,42.480,62.988,30.273,0
1486660848.156,-6.348,32.227,45.898,43.457,30.273,0
1486660848.160,-18.555,32.227,42.969,45.898,37.598,0
1486660848.164,46.387,28.320,34.668,57.129,36.133,0
1486660848.168,89.844,28.809,34.668,77.637,73.730,0
1486660848.172,70.801,36.133,42.969,70.312,83.496,0
1486660848.176,7.812,34.668,42.969,50.781,37.598,0
1486660848.180,-18.066,32.227,41.992,40.527,22.461,0
1486660848.184,48.828,34.668,42.480,50.293,56.641,0
1486660848.188,100.586,40.527,36.133,71.289,64.453,0
1486660848.192,75.684,40.527,38.086,62.012,62.012,0
1486660848.195,21.973,36.133,52.734,46.387,48.340,0
1486660848.199,-17.578,32.715,45.898,40.527,28.320,0
1486660848.203,22.949,27.832,36.621,48.828,39.551,0
1486660848.207,87.402,28.320,36.133,72.754,108.887,0
1486660848.211,76.660,30.762,34.668,76.660,106.934,0
1486660848.215,18.555,30.273,42.480,59.082,28.320,0
1486660848.219,-18.555,27.832,51.758,50.293,-3.418,0
1486660848.223,22.461,28.809,42.480,50.781,14.160,0
1486660848.227,91.797,35.156,36.621,72.754,67.383,0
1486660848.231,87.402,34.180,39.551,74.707,98.145,0
1486660848.234,28.809,27.832,39.062,51.758,73.242,0
1486660848.238,-22.949,24.414,40.039,40.527,62.500,0
1486660848.242,6.836,22.949,30.762,41.992,20.508,0
1486660848.246,76.660,25.879,29.785,68.359,27.832,0
1486660848.250,85.938,31.250,42.480,74.707,65.918,0
1486660848.254,43.945,34.668,47.363,58.105,32.227,0
1486660848.258,-7.812,28.809,41.016,46.875,28.809,0
1486660848.262,6.348,25.879,36.621,46.387,33.203,0
1486660848.266,78.613,29.785,30.273,68.359,48.828,0
1486660848.270,98.145,31.250,35.645,81.055,94.238,0
1486660848.274,55.664,35.156,40.527,62.988,65.918,0
1486660848.277,1.953,38.086,40.039,51.758,11.230,0
1486660848.281,10.254,31.738,42.480,55.664,-7.324,0
1486660848.285,77.637,28.809,36.133,75.195,14.160,0
1486660848.289,96.191,29.297,32.715,93.262,57.129,0
1486660848.293,57.129,29.297,40.527,67.383,44.922,0
1486660848.297,-1.953,28.320,47.852,46.875,25.879,0
1486660848.301,-3.418,26.367,41.504,52.734,-6.348,0
1486660848.305,66.406,30.762,33.691,72.266,27.832,0
1486660848.309,101.074,38.086,38.086,84.473,108.887,0
1486660848.313,67.383,36.621,41.504,66.895,83.984,0
1486660848.317,6.836,30.762,44.922,50.781,-3.418,0
1486660848.320,-2.930,25.879,51.270,56.152,-2.930,0
1486660848.324,56.641,23.438,39.551,67.383,33.203,0
1486660848.328,90.820,27.344,31.250,77.637,82.031,0
1486660848.332,68.848,34.180,42.480,65.918,62.988,0
1486660848.336,9.277,36.133,49.316,45.410,22.949,0
1486660848.340,-15.137,31.250,40.039,36.133,43.457,0
1486660848.344,43.945,30.273,35.156,53.711,62.012,0
1486660848.348,91.797,27.832,34.180,73.242,89.355,0
1486660848.352,69.824,30.273,35.645,58.594,90.820,0
1486660848.356,6.348,35.156,44.922,40.039,80.566,0
1486660848.359,-26.855,32.227,45.410,34.180,43.457,0
1486660848.363,23.926,25.879,36.621,48.828,45.410,0
1486660848.367,81.055,26.367,35.156,66.895,82.031,0
1486660848.371,68.848,32.715,38.574,60.547,87.402,0
1486660848.375,12.695,33.203,49.316,47.852,68.359,0
1486660848.379,-21.484,30.762,51.758,41.504,44.434,0
1486660848.383,24.902,26.367,40.527,48.828,77.148,0
1486660848.387,83.008,27.832,33.203,72.754,91.797,0
1486660848.391,76.172,31.250,36.133,73.242,63.965,0
1486660848.395,23.926,33.203,41.992,50.781,31.738,0
1486660848.399,-20.020,35.645,44.922,44.922,19.531,0
1486660848.402,13.672,33.691,36.621,51.270,6.348,0
1486660848.406,79.102,30.273,29.785,69.824,19.531,0
1486660848.410,85.449,29.785,36.133,72.754,94.238,0
1486660848.414,39.062,31.738,46.387,52.734,57.129,0
1486660848.418,-11.719,29.297,45.898,50.781,-3.906,0
1486660848.422,9.766,26.855,41.016,61.035,8.301,0
1486660848.426,77.637,28.809,37.109,76.172,23.438,0
1486660848.430,90.820,30.273,37.109,76.172,58.594,0
1486660848.434,43.457,34.668,41.016,52.246,60.059,0
1486660848.438,-13.184,33.203,42.969,43.457,27.344,0
1486660848.442,0.000,29.785,41.992,46.875,-14.160,0
1486660848.445,64.453,28.320,35.156,61.523,0.488,0
1486660848.449,85.449,30.273,38.086,74.707,60.059,0
1486660848.453,50.293,34.668,42.480,62.012,63.477,0
1486660848.457,-9.766,29.785,40.527,46.875,30.762,0
1486660848.461,-13.184,23.926,40.039,43.457,-41.992,0
1486660848.465,65.430,32.715,35.645,62.500,-4.395,0
1486660848.469,98.145,36.133,35.645,74.707,68.848,0
1486660848.473,53.223,31.250,37.109,51.758,55.176,0
1486660848.477,-6.348,31.738,41.016,39.062,43.945,0
1486660848.481,-11.230,27.344,42.969,42.480,22.949,0
1486660848.484,53.223,28.320,36.133,61.523,40.039,0
1486660848.488,84.961,31.738,35.156,73.730,71.777,0
1486660848.492,58.594,34.668,40.039,60.059,27.344,0
1486660848.496,0.000,35.156,42.480,41.992,13.672,0
1486660848.500,-17.578,29.785,39.551,38.574,-0.488,0
1486660848.504,43.945,28.320,33.203,53.711,-27.344,0
1486660848.508,87.402,31.738,36.133,69.336,36.133,0
1486660848.512,68.848,34.180,40.039,61.035,71.777,0
1486660848.516,8.789,32.715,47.363,40.527,32.715,0
1486660848.520,-19.531,28.320,46.875,35.156,13.184,0
1486660848.524,34.668,22.461,34.668,47.852,23.438,0
1486660848.527,85.938,26.367,30.762,69.824,63.477,0
1486660848.531,65.918,32.227,34.180,59.570,76.172,0
1486660848.535,10.254,27.344,43.945,41.016,65.430,0
1486660848.539,-20.020,24.414,45.410,41.016,37.109,0
1486660848.543,20.508,28.320,35.156,50.293,7.324,0
1486660848.547,78.613,30.762,33.203,72.266,74.219,0
1486660848.551,74.707,29.785,36.621,70.801,107.422,0
1486660848.555,19.531,30.762,43.945,49.316,63.477,0
1486660848.559,-18.066,29.297,42.480,40.527,47.363,0
1486660848.563,20.020,29.297,37.598,57.129,44.922,0
1486660848.566,88.379,30.273,32.715,70.312,70.801,0
1486660848.570,89.844,27.344,30.273,62.500,83.496,0
1486660848.574,37.598,30.273,35.645,46.875,80.078,0
1486660848.578,-9.277,33.691,44.434,38.086,64.941,0
1486660848.582,17.090,26.367,41.016,44.434,19.531,0
1486660848.586,85.449,24.414,27.344,63.965,27.832,0
1486660848.590,89.355,26.855,28.809,66.895,69.824,0
1486660848.594,40.527,29.785,35.156,50.781,63.965,0
1486660848.598,-14.160,28.809,42.480,41.016,34.668,0
1486660848.602,-6.348,19.531,39.551,41.016,35.156,0
1486660848.606,59.082,22.949,31.738,57.129,71.777,0
1486660848.609,86.914,30.273,41.504,72.754,78.613,0
1486660848.613,44.434,31.250,47.852,59.570,37.598,0
1486660848.617,-24.414,29.297,48.828,38.574,32.227,0
1486660848.621,-17.090,21.484,48.340,37.109,25.391,0
1486660848.625,59.082,21.484,41.016,56.152,32.715,0
1486660848.629,84.961,28.320,37.109,71.777,85.449,0
1486660848.633,50.293,31.250,38.574,54.199,94.727,0
1486660848.637,-5.371,32.227,45.898,41.016,66.895,0
1486660848.641,-10.254,28.809,47.363,48.340,3.418,0
1486660848.645,52.246,23.926,33.691,60.547,-2.441,0
1486660848.649,86.426,25.879,29.785,71.777,71.777,1
1486660848.652,60.547,32.227,35.645,62.988,75.684,0
1486660848.656,-3.906,34.668,38.574,33.691,44.434,0
1486660848.660,-16.113,30.762,33.691,25.879,3.906,0
1486660848.664,49.805,30.273,27.832,52.246,-1.465,0
1486660848.668,87.891,32.715,30.273,72.754,36.621,0
1486660848.672,66.895,34.180,37.109,59.082,39.551,0
1486660848.676,9.766,34.668,45.898,44.922,2.441,0
1486660848.680,-15.137,31.250,43.945,48.828,-11.230,0
1486660848.684,38.574,25.391,36.133,56.641,-12.207,0
1486660848.688,91.309,24.414,32.715,73.242,34.668,0
1486660848.691,74.219,28.809,36.621,73.242,104.980,0
1486660848.695,9.766,33.691,40.527,51.270,90.820,0
1486660848.699,-18.066,32.227,42.969,45.898,20.020,0
1486660848.703,33.203,27.832,35.645,54.688,-11.719,0
1486660848.707,90.820,32.715,28.320,74.707,54.688,0
1486660848.711,84.473,37.109,39.551,72.266,67.383,0
1486660848.715,24.902,38.086,46.387,44.922,32.715,0
1486660848.719,-18.066,33.691,45.410,43.457,59.082,0
1486660848.723,21.484,26.855,41.504,50.293,52.246,0
1486660848.727,83.008,31.738,31.250,66.895,63.965,0
1486660848.731,73.730,34.668,28.809,68.848,71.777,0
1486660848.734,24.902,32.227,40.527,53.223,42.969,0
1486660848.738,-18.066,26.367,47.852,46.387,29.785,0
1486660848.742,4.395,20.508,41.992,48.340,26.855,0
1486660848.746,70.801,24.414,39.062,75.195,83.984,0
1486660848.750,80.078,32.227,38.086,77.637,105.469,0
1486660848.754,35.156,32.715,37.598,48.828,56.641,0
1486660848.758,-10.254,28.320,44.434,37.598,70.312,0
1486660848.762,4.883,28.320,39.551,41.504,62.988,0
1486660848.766,67.871,33.203,32.227,62.012,58.594,0
1486660848.770,86.914,35.156,34.668,68.848,74.707,0
1486660848.774,46.387,34.668,38.574,53.711,48.828,0
1486660848.777,-6.836,33.691,44.434,42.480,43.457,0
1486660848.781,0.977,28.809,36.133,38.086,61.035,0
1486660848.785,72.266,27.344,33.203,58.105,58.594,0
1486660848.789,96.191,30.762,37.109,73.730,87.891,0
1486660848.793,55.176,38.086,39.551,57.617,86.914,0
1486660848.797,-0.488,38.086,53.223,52.246,48.828,0
1486660848.801,-0.977,32.715,50.293,59.570,19.531,0
1486660848.805,60.547,32.715,36.621,67.383,21.973,0
1486660848.809,90.820,34.180,41.504,80.078,81.543,0
1486660848.813,60.547,33.203,44.434,66.406,87.891,0
1486660848.816,4.883,32.227,48.828,51.270,31.738,0
1486660848.820,-14.160,25.879,47.363,47.852,40.039,0
1486660848.824,44.434,24.414,36.133,53.223,85.938,0
1486660848.828,83.008,27.832,34.180,71.777,86.426,0
1486660848.832,55.176,27.344,44.922,62.012,90.332,0
1486660848.836,3.418,27.832,58.594,43.945,76.660,0
1486660848.840,-19.043,26.367,48.828,42.969,28.809,0
1486660848.844,43.945,25.391,34.668,54.688,-13.672,0
1486660848.848,95.703,29.785,30.762,81.055,73.242,0
1486660848.852,72.266,33.691,33.203,74.219,134.277,0
1486660848.856,12.207,33.691,44.922,52.734,91.797,0
1486660848.859,-19.531,33.203,47.363,46.875,21.973,0
