timestamps,TP9,AF7,AF8,TP10,Right AUX,Marker
1486660439.129,-48.828,29.297,60.547,15.137,59.570,0
1486660439.133,27.344,31.250,48.828,50.293,53.223,0
1486660439.137,120.605,36.133,40.039,111.328,72.754,0
1486660439.141,103.027,36.133,44.922,93.262,45.898,0
1486660439.145,19.531,35.645,54.199,27.344,39.062,0
1486660439.149,-47.363,27.344,55.664,-0.488,50.293,0
1486660439.153,15.625,26.367,48.340,34.668,36.621,0
1486660439.157,118.164,34.668,42.480,94.727,44.922,0
1486660439.160,112.305,33.691,43.457,92.285,32.227,0
1486660439.164,26.855,30.762,53.711,29.785,10.742,0
1486660439.168,-42.969,27.344,54.199,-4.883,26.367,0
1486660439.172,9.766,25.391,43.457,33.203,26.367,0
1486660439.176,113.770,33.203,34.668,102.539,37.109,0
1486660439.180,113.770,40.527,35.645,103.516,44.922,0
1486660439.184,39.062,36.621,45.410,41.504,8.789,0
1486660439.188,-36.133,31.738,57.129,2.930,52.246,0
1486660439.192,-13.672,30.273,54.688,16.113,66.406,0
1486660439.196,96.680,35.645,49.805,94.238,59.082,0
1486660439.200,126.465,41.504,47.852,120.605,104.492,0
1486660439.203,53.223,37.109,47.852,56.152,75.684,0
1486660439.207,-35.645,32.715,55.176,14.648,51.270,0
1486660439.211,-17.578,32.227,49.805,29.297,31.250,0
1486660439.215,95.703,36.133,38.574,93.262,59.570,0
1486660439.219,129.395,39.551,36.133,115.723,107.910,0
1486660439.223,64.453,38.086,45.410,59.570,90.820,0
1486660439.227,-24.902,34.180,58.594,6.836,61.523,0
1486660439.231,-26.855,31.250,57.129,16.602,21.973,0
1486660439.235,78.613,36.133,41.504,74.219,51.758,0
1486660439.239,126.465,41.992,40.039,109.863,105.957,0
1486660439.243,75.684,38.574,51.758,72.266,63.477,0
1486660439.246,-19.531,30.762,54.199,14.160,71.777,0
1486660439.250,-43.945,28.320,48.340,15.137,92.773,0
1486660439.254,61.035,33.691,41.016,70.801,60.059,0
1486660439.258,128.418,42.969,37.598,112.305,87.891,0
1486660439.262,91.797,44.434,41.992,79.590,77.148,0
1486660439.266,-7.324,40.039,53.223,20.996,60.059,0
1486660439.270,-48.828,35.645,62.988,7.324,21.973,0
1486660439.274,44.434,36.621,53.711,55.664,20.996,0
1486660439.278,123.535,42.969,41.504,109.863,27.344,0
1486660439.282,94.238,40.039,44.922,86.426,37.598,0
1486660439.285,3.418,33.691,55.664,16.602,50.293,0
1486660439.289,-47.363,29.297,59.082,-1.953,34.668,0
1486660439.293,16.602,29.297,48.340,38.574,50.781,0
1486660439.297,104.004,35.645,41.504,91.309,73.730,0
1486660439.301,96.191,38.086,41.992,74.707,68.359,0
1486660439.305,4.395,34.180,51.758,15.625,46.387,0
1486660439.309,-52.734,30.762,62.500,-0.977,22.461,0
1486660439.313,12.207,32.227,48.828,36.133,-3.906,0
1486660439.317,108.887,37.598,37.598,104.492,37.598,0
1486660439.321,112.793,40.039,41.992,103.516,73.730,0
1486660439.325,29.785,37.109,51.270,33.691,47.852,0
1486660439.328,-54.199,26.855,56.152,-5.859,13.184,0
1486660439.332,-7.812,25.391,46.875,30.273,2.441,0
1486660439.336,102.539,36.621,36.621,98.145,53.223,0
1486660439.340,116.211,41.992,42.969,103.027,73.730,0
1486660439.344,36.621,40.527,57.617,43.945,62.500,0
1486660439.348,-41.992,35.156,57.617,-2.441,62.988,0
1486660439.352,-11.230,28.809,45.898,17.090,47.852,0
1486660439.356,84.961,32.227,37.598,79.590,57.617,0
1486660439.360,112.793,37.598,40.039,104.980,70.312,0
1486660439.364,41.504,36.621,50.293,45.898,53.223,0
1486660439.367,-45.898,32.715,61.523,-3.418,59.082,0
1486660439.371,-26.855,28.809,53.223,18.066,64.941,0
1486660439.375,81.055,34.180,40.039,70.801,101.562,0
1486660439.379,121.582,39.551,44.434,98.145,103.027,0
1486660439.383,61.035,39.062,53.223,61.523,98.145,0
1486660439.387,-33.203,31.738,56.641,6.836,92.773,0
1486660439.391,-28.809,27.344,53.711,15.137,33.203,0
1486660439.395,80.566,34.668,49.805,73.242,31.250,0
1486660439.399,126.465,40.527,42.969,102.539,86.914,0
1486660439.403,74.707,38.086,43.945,65.430,56.152,0
1486660439.407,-24.414,34.180,54.688,8.301,24.902,0
1486660439.410,-37.109,32.715,55.176,6.348,43.457,0
1486660439.414,68.848,35.156,44.922,53.223,42.480,0
1486660439.418,128.418,40.527,41.016,107.422,112.305,0
1486660439.422,85.938,40.527,45.898,77.148,121.094,0
1486660439.426,-14.160,33.691,54.199,10.742,55.664,0
1486660439.430,-49.805,25.879,55.176,2.930,79.590,0
1486660439.434,49.805,27.832,42.480,36.621,87.891,0
1486660439.438,124.512,36.621,36.621,98.633,69.336,0
1486660439.442,85.449,40.039,42.480,83.496,74.707,0
1486660439.446,-7.812,32.715,51.270,7.812,41.992,0
1486660439.450,-53.711,28.320,54.688,0.000,40.527,0
1486660439.453,31.738,31.250,41.992,38.574,43.457,0
1486660439.457,119.629,38.086,34.668,89.844,63.477,0
1486660439.461,98.145,42.480,41.016,77.637,66.406,0
1486660439.465,9.277,38.086,44.434,11.719,75.195,0
1486660439.469,-48.828,29.785,49.316,-1.953,58.594,0
1486660439.473,20.996,28.809,43.457,36.133,28.809,0
1486660439.477,115.723,37.109,33.691,97.656,73.242,0
1486660439.481,105.469,38.086,37.109,102.051,90.820,0
1486660439.485,22.949,34.668,49.316,28.809,48.828,0
1486660439.489,-47.852,30.762,56.641,0.488,42.969,0
1486660439.492,0.977,31.738,44.922,26.367,55.176,0
1486660439.496,104.492,38.574,37.109,90.332,59.570,0
1486660439.500,113.770,40.039,39.551,104.492,69.824,0
1486660439.504,39.551,38.574,47.363,30.273,53.711,0
1486660439.508,-40.039,32.715,57.617,-4.883,60.547,0
1486660439.512,-5.859,26.855,45.898,10.742,53.223,0
1486660439.516,100.098,32.715,28.809,77.637,61.523,0
1486660439.520,121.582,38.086,32.715,110.840,77.637,0
1486660439.524,50.781,36.621,42.969,48.828,44.434,0
1486660439.528,-38.574,30.762,54.199,6.348,41.992,0
1486660439.532,-10.254,27.832,54.688,23.926,34.180,1
1486660439.535,96.680,34.668,39.551,80.078,39.062,0
1486660439.539,119.141,40.039,36.133,105.469,64.941,0
1486660439.543,52.734,37.598,44.434,47.363,52.734,0
1486660439.547,-38.574,33.203,47.363,-9.277,32.227,0
1486660439.551,-28.809,29.297,43.945,-4.883,35.156,0
1486660439.555,79.590,31.738,28.320,50.293,32.227,0
1486660439.559,121.582,41.504,29.785,107.422,55.664,0
1486660439.563,62.988,41.992,42.969,68.359,48.340,0
1486660439.567,-30.762,32.715,53.711,9.766,19.043,0
1486660439.571,-35.156,26.855,51.758,13.672,43.457,0
1486660439.575,71.289,29.785,38.574,63.477,72.754,0
1486660439.578,129.883,36.133,37.109,119.629,94.238,0
1486660439.582,81.543,40.527,41.992,79.102,28.320,0
1486660439.586,-14.648,35.645,49.805,6.836,2.930,0
1486660439.590,-43.457,27.344,47.852,1.953,68.359,0
1486660439.594,51.758,29.785,35.645,54.199,31.738,0
1486660439.598,116.211,38.574,30.762,110.840,34.668,0
1486660439.602,80.566,38.086,35.156,88.379,72.754,0
1486660439.606,-6.348,35.156,48.340,24.902,41.016,0
1486660439.610,-49.316,32.715,52.734,3.418,35.156,0
1486660439.614,34.180,29.297,39.551,44.922,66.895,0
1486660439.617,111.816,33.203,31.738,103.516,88.379,0
1486660439.621,87.891,35.645,36.621,81.055,78.613,0
1486660439.625,-2.930,33.203,45.898,15.625,67.871,0
1486660439.629,-61.035,25.391,49.316,-7.324,46.387,0
1486660439.633,8.789,23.438,43.457,32.227,35.645,0
1486660439.637,101.074,32.715,36.133,96.680,53.223,0
1486660439.641,92.285,36.133,40.039,88.867,63.477,0
1486660439.645,5.371,32.227,48.828,22.461,35.645,0
1486660439.649,-57.617,29.297,49.316,-5.859,31.738,0
1486660439.653,5.371,32.715,48.828,33.691,44.434,0
1486660439.657,101.562,39.551,42.969,95.703,62.988,0
1486660439.660,100.586,39.062,43.945,100.586,68.359,0
1486660439.664,18.555,33.691,49.316,40.039,58.594,0
1486660439.668,-56.152,29.785,51.758,1.953,88.379,0
1486660439.672,-9.766,27.832,51.270,33.203,99.121,0
1486660439.676,100.098,35.156,41.016,106.445,93.750,0
1486660439.680,121.094,41.016,40.527,111.816,56.152,0
1486660439.684,46.387,35.645,46.387,51.270,15.137,0
1486660439.688,-35.645,29.785,49.316,15.625,41.016,0
1486660439.692,-5.859,31.738,49.316,31.250,34.180,0
1486660439.696,101.562,35.645,43.457,107.422,20.996,0
1486660439.699,131.836,37.598,41.504,129.883,37.598,0
1486660439.703,64.453,36.133,47.363,66.406,37.598,0
1486660439.707,-32.227,31.738,53.711,12.207,52.734,0
1486660439.711,-24.902,26.367,50.781,21.973,35.156,0
1486660439.715,89.844,31.738,39.062,83.008,19.531,0
1486660439.719,125.488,38.574,35.156,107.422,41.504,0
1486660439.723,61.035,37.598,43.945,53.711,9.766,0
1486660439.727,-32.715,33.203,54.688,-5.371,22.461,0
1486660439.731,-41.016,28.809,51.758,-2.930,36.621,0
1486660439.735,67.871,32.715,38.574,59.082,1.465,0
1486660439.739,123.047,39.551,36.133,106.934,32.227,0
1486660439.742,72.266,40.039,49.316,68.848,24.414,0
1486660439.746,-23.438,34.668,55.176,10.254,9.277,0
1486660439.750,-42.969,32.715,49.805,11.230,46.387,0
1486660439.754,55.176,34.180,41.504,72.754,35.156,0
1486660439.758,121.094,38.574,40.039,123.535,60.547,0
1486660439.762,84.473,40.039,46.875,91.309,32.715,0
1486660439.766,-5.371,35.156,55.176,27.344,-1.953,0
1486660439.770,-42.969,31.250,57.617,19.531,47.852,0
1486660439.774,47.852,31.738,49.316,71.777,33.203,0
1486660439.778,129.883,39.062,41.504,123.047,40.039,0
1486660439.782,100.098,41.016,44.434,100.098,60.059,0
1486660439.785,14.648,36.621,52.246,29.785,82.031,0
1486660439.789,-32.227,32.715,55.176,11.230,61.035,0
1486660439.793,28.320,32.227,45.410,58.105,25.391,0
1486660439.797,109.375,36.621,34.668,116.211,54.199,0
1486660439.801,99.121,36.133,35.156,97.168,47.363,0
1486660439.805,14.648,31.738,48.340,27.832,5.859,0
1486660439.809,-49.805,26.367,52.246,-0.488,15.137,0
1486660439.813,11.230,27.344,39.551,41.992,14.648,0
1486660439.817,107.422,35.645,31.250,105.957,54.688,0
1486660439.821,104.004,39.062,37.598,102.539,97.168,0
1486660439.824,18.555,34.668,39.062,30.762,68.848,0
1486660439.828,-53.223,29.297,41.992,-10.742,34.180,0
1486660439.832,-1.953,29.785,42.480,28.320,22.461,0
1486660439.836,104.980,35.156,37.598,101.562,56.641,0
1486660439.840,115.723,39.062,42.969,109.375,65.430,0
1486660439.844,34.668,34.668,48.340,44.434,37.598,0
1486660439.848,-48.828,23.926,48.340,0.000,42.969,0
1486660439.852,-22.461,23.438,40.527,14.648,52.734,0
1486660439.856,84.473,32.227,32.715,78.613,60.059,0
1486660439.860,110.352,36.133,37.109,97.656,84.961,0
1486660439.864,44.434,33.203,45.410,32.715,49.805,0
1486660439.867,-41.016,27.832,45.410,-13.672,12.695,0
1486660439.871,-33.691,28.809,41.992,18.066,18.066,0
1486660439.875,74.219,30.762,40.039,92.285,25.879,0
1486660439.879,115.234,34.180,37.109,116.211,65.430,0
1486660439.883,58.105,36.133,42.480,59.082,45.410,0
1486660439.887,-29.785,31.738,53.223,12.695,30.762,0
1486660439.891,-31.250,29.785,50.293,23.438,12.207,0
1486660439.895,73.242,32.715,38.574,85.449,14.160,0
1486660439.899,131.348,39.062,37.598,120.605,67.871,0
1486660439.903,77.148,41.016,44.434,72.754,63.965,0
1486660439.907,-20.996,34.668,51.270,16.113,37.598,0
1486660439.910,-38.086,31.738,53.223,13.672,52.246,0
1486660439.914,58.105,35.156,40.527,62.988,59.082,0
1486660439.918,122.070,37.598,31.738,109.863,67.871,0
1486660439.922,78.125,39.062,38.086,72.266,76.660,0
1486660439.926,-18.066,35.156,48.340,9.766,36.621,0
1486660439.930,-55.664,25.879,50.781,-0.488,20.508,0
1486660439.934,29.785,27.832,40.039,46.387,42.969,0
1486660439.938,112.305,37.598,37.109,102.539,71.289,0
1486660439.942,85.449,37.598,43.945,79.102,71.777,0
1486660439.946,-6.348,35.156,54.199,9.277,49.316,0
1486660439.949,-58.594,33.203,54.688,-8.789,57.617,0
1486660439.953,22.461,29.785,38.574,36.621,55.176,0
1486660439.957,114.258,35.156,28.320,99.121,70.801,0
1486660439.961,95.703,40.039,39.062,88.379,49.316,0
1486660439.965,8.301,37.598,51.270,26.855,19.531,0
1486660439.969,-57.129,33.203,54.199,5.371,64.453,0
1486660439.973,10.254,27.832,46.387,38.574,54.199,0
1486660439.977,107.910,33.691,37.598,106.934,62.988,0
1486660439.981,104.004,41.992,42.480,105.469,72.754,0
1486660439.985,18.555,39.062,52.734,40.039,79.102,0
1486660439.989,-45.898,30.273,54.199,5.371,38.574,0
1486660439.992,5.859,27.344,48.828,40.527,3.906,0
1486660439.996,106.934,33.691,42.480,115.723,78.125,0
1486660440.000,118.164,36.621,39.551,118.652,82.031,0
1486660440.004,33.203,34.180,48.828,42.480,33.203,0
1486660440.008,-47.852,29.785,56.641,4.395,48.340,0
1486660440.012,-10.742,30.273,50.781,33.203,29.785,0
1486660440.016,96.680,38.086,40.527,98.633,23.926,0
1486660440.020,121.582,42.480,43.945,128.906,43.945,0
1486660440.024,44.434,42.480,52.734,61.035,19.531,0
1486660440.028,-43.457,35.156,56.152,7.324,23.926,0
1486660440.032,-19.043,32.227,52.734,41.992,49.316,0
1486660440.035,87.402,38.574,47.363,102.539,52.734,0
1486660440.039,123.535,41.504,44.434,123.047,37.109,0
1486660440.043,61.035,41.504,45.410,50.781,17.578,0
1486660440.047,-32.715,32.715,54.199,-1.953,40.039,0
1486660440.051,-32.227,24.414,54.688,24.902,42.969,0
1486660440.055,72.266,32.715,43.945,76.660,31.738,0
1486660440.059,115.234,37.598,39.551,117.676,62.988,0
1486660440.063,60.547,35.645,45.898,64.453,76.660,0
1486660440.067,-29.297,32.715,57.129,2.441,35.156,0
1486660440.071,-42.969,28.320,52.734,20.020,34.180,0
1486660440.074,57.129,30.273,39.062,70.801,28.809,0
1486660440.078,121.094,38.086,37.598,117.676,27.832,0
1486660440.082,76.172,39.062,42.969,78.125,55.664,0
1486660440.086,-17.578,29.785,50.293,9.766,35.645,0
1486660440.090,-47.852,24.902,50.781,11.230,50.781,0
1486660440.094,47.363,28.320,42.969,60.059,66.406,0
1486660440.098,119.629,35.156,38.086,109.375,88.867,0
1486660440.102,75.195,35.645,41.992,74.219,55.176,0
1486660440.106,-18.066,29.785,50.293,2.441,24.902,0
1486660440.110,-55.176,28.320,51.270,-4.395,40.527,0
1486660440.114,35.156,32.227,41.992,48.828,68.848,0
1486660440.117,113.770,38.574,37.109,105.469,126.953,0
1486660440.121,79.102,40.039,44.434,78.613,90.820,0
1486660440.125,-4.883,39.551,55.176,12.695,47.852,0
1486660440.129,-55.176,32.715,61.035,-0.977,52.246,0
1486660440.133,11.230,29.297,49.316,35.156,16.602,0
1486660440.137,109.375,40.039,40.039,104.492,54.199,0
1486660440.141,113.281,42.480,44.434,95.703,54.688,0
1486660440.145,22.461,37.598,48.828,23.926,29.785,0
1486660440.149,-48.340,32.227,52.246,0.000,22.461,0
1486660440.153,14.648,31.250,46.387,33.203,9.277,0
1486660440.156,113.770,37.598,36.133,96.680,62.500,0
1486660440.160,115.723,41.016,41.504,98.633,52.734,0
1486660440.164,38.086,39.062,56.152,36.621,35.645,0
1486660440.168,-37.598,31.738,60.059,-5.371,54.199,0
1486660440.172,-5.859,31.738,47.852,17.578,42.480,0
1486660440.176,97.656,40.039,41.016,88.867,57.617,0
1486660440.180,111.816,43.457,45.898,102.051,65.918,0
1486660440.184,38.086,41.016,50.781,46.387,62.012,0
1486660440.188,-40.039,34.668,54.199,5.859,76.660,0
1486660440.192,-16.113,30.273,46.875,28.809,79.590,0
1486660440.196,93.262,36.621,36.621,99.121,101.562,2
1486660440.199,126.465,39.551,37.109,113.770,89.844,0
1486660440.203,66.406,38.086,42.480,52.734,54.688,0
1486660440.207,-26.855,37.598,51.758,7.324,26.367,0
1486660440.211,-28.809,35.156,51.270,25.391,28.320,0
1486660440.215,81.543,37.109,40.527,90.332,70.801,0
1486660440.219,127.441,45.410,35.645,115.723,102.051,0
1486660440.223,63.965,42.480,42.480,65.918,40.039,0
1486660440.227,-29.785,31.250,51.270,12.695,18.555,0
1486660440.231,-36.621,31.738,45.898,10.742,39.551,0
1486660440.235,63.965,36.621,33.691,75.195,16.602,0
1486660440.239,117.676,42.480,34.668,122.070,80.078,0
1486660440.242,77.148,43.457,44.922,78.613,72.754,0
1486660440.246,-16.602,37.598,52.734,22.461,21.973,0
1486660440.250,-41.016,31.738,56.152,16.113,28.320,0
1486660440.254,59.082,35.156,45.898,68.359,18.066,0
1486660440.258,124.512,40.039,40.039,116.211,34.180,0
1486660440.262,85.449,41.016,43.457,84.473,37.109,0
1486660440.266,-12.207,36.133,44.922,19.531,48.828,0
1486660440.270,-49.316,26.367,51.758,4.883,36.133,0
1486660440.274,41.992,28.809,44.434,58.594,40.039,0
1486660440.278,118.652,38.086,37.109,113.770,95.703,0
1486660440.281,93.750,39.551,43.945,88.867,74.219,0
1486660440.285,4.883,32.715,52.734,27.832,-9.277,0
1486660440.289,-49.316,28.320,53.711,8.789,9.277,0
1486660440.293,22.461,27.832,41.504,55.664,34.180,0
1486660440.297,114.258,37.109,29.785,109.375,64.453,0
1486660440.301,104.492,43.457,34.180,96.680,97.168,0
1486660440.305,15.137,36.133,45.410,41.016,76.172,0
1486660440.309,-50.781,29.785,47.852,9.766,58.594,0
1486660440.313,11.230,29.297,43.945,42.969,74.707,0
1486660440.317,117.188,37.109,39.551,101.074,86.426,0
1486660440.321,115.723,37.598,38.574,98.145,69.336,0
1486660440.324,34.180,33.203,44.922,40.527,62.988,0
1486660440.328,-32.715,33.203,52.246,7.812,59.570,0
1486660440.332,7.324,34.668,46.875,41.992,49.805,0
1486660440.336,109.375,38.574,37.109,108.398,48.340,0
1486660440.340,127.441,41.992,38.086,111.328,47.852,0
1486660440.344,52.734,42.480,46.387,53.711,32.715,0
1486660440.348,-38.574,35.645,52.246,7.812,55.176,0
1486660440.352,-12.695,31.250,49.805,26.855,57.617,0
1486660440.356,100.586,38.574,36.621,90.332,48.340,0
1486660440.360,125.488,42.969,35.156,104.980,74.219,0
1486660440.364,53.223,42.969,49.805,54.688,74.707,0
1486660440.367,-32.227,37.598,53.711,1.953,41.992,0
1486660440.371,-25.391,30.273,44.922,7.324,37.109,0
1486660440.375,77.148,33.203,33.203,70.312,40.039,0
1486660440.379,112.305,38.574,30.273,101.074,70.801,0
1486660440.383,51.270,36.621,43.457,51.758,72.754,0
1486660440.387,-35.645,29.297,51.270,-2.441,67.383,0
1486660440.391,-41.992,27.344,44.922,1.465,68.359,0
1486660440.395,68.359,33.691,37.598,59.570,72.266,0
1486660440.399,124.512,40.527,40.527,105.957,83.008,0
1486660440.403,74.707,42.480,44.434,72.754,64.941,0
1486660440.406,-15.625,37.598,52.246,15.137,51.758,0
1486660440.410,-37.109,31.738,55.176,11.230,15.625,0
1486660440.414,69.336,33.691,41.504,73.242,6.836,0
1486660440.418,140.625,42.480,36.133,124.512,49.316,0
1486660440.422,95.703,41.504,48.340,89.355,43.945,0
1486660440.426,-0.488,37.109,55.176,23.926,14.160,0
1486660440.430,-34.668,33.203,51.270,8.789,-9.277,0
1486660440.434,54.688,32.227,41.992,61.035,20.020,0
1486660440.438,129.395,36.621,36.621,120.605,74.219,0
1486660440.442,101.074,39.062,43.457,99.609,67.871,0
1486660440.446,7.324,39.062,54.199,35.645,38.086,0
1486660440.449,-46.387,33.203,57.617,12.695,37.109,0
1486660440.453,41.504,33.691,44.922,53.223,35.156,0
1486660440.457,128.906,42.969,35.645,117.676,60.547,0
1486660440.461,112.793,44.922,42.480,107.910,79.102,0
1486660440.465,20.996,36.621,51.270,34.180,54.199,0
1486660440.469,-48.828,31.250,52.734,0.000,46.387,0
1486660440.473,26.855,32.227,47.852,45.898,25.391,0
1486660440.477,119.141,36.133,36.621,111.816,60.059,0
1486660440.481,115.723,44.434,37.598,109.375,86.914,0
1486660440.485,44.434,44.434,50.293,42.969,23.926,0
1486660440.489,-35.156,32.227,52.246,1.953,43.945,0
1486660440.492,0.000,28.809,40.527,28.809,67.871,0
1486660440.496,104.980,35.645,32.227,96.191,75.684,0
1486660440.500,120.605,36.621,37.598,112.793,106.445,0
1486660440.504,39.062,36.621,46.387,50.781,83.008,0
1486660440.508,-51.758,32.227,53.223,6.348,77.637,0
1486660440.512,-10.742,31.738,45.898,32.227,42.480,0
1486660440.516,99.609,39.551,37.109,98.633,35.645,0
1486660440.520,110.840,40.039,36.621,115.234,71.777,0
1486660440.524,41.016,37.598,42.969,60.547,58.594,0
1486660440.528,-45.898,33.203,53.711,11.230,77.148,0
1486660440.531,-33.691,27.832,48.340,21.484,64.941,0
1486660440.535,75.684,33.203,36.133,86.914,53.711,0
1486660440.539,114.258,38.574,38.574,121.094,65.918,0
1486660440.543,50.781,37.109,51.270,64.453,67.383,0
1486660440.547,-43.945,33.203,55.176,0.977,68.359,0
1486660440.551,-44.434,30.762,51.758,12.207,85.449,0
1486660440.555,70.312,35.156,51.270,72.754,56.152,0
1486660440.559,117.188,39.062,45.410,106.445,60.059,0
1486660440.563,58.105,38.086,42.969,62.988,99.609,0
1486660440.567,-35.156,31.250,50.293,2.930,70.312,0
1486660440.571,-47.852,26.367,48.828,-1.953,39.062,0
1486660440.574,50.781,28.809,41.016,50.781,41.992,0
1486660440.578,110.840,37.109,37.109,104.980,86.426,0
1486660440.582,67.383,36.621,40.527,69.336,56.641,0
1486660440.586,-34.668,29.785,47.852,2.441,37.109,0
1486660440.590,-65.430,27.832,49.805,-6.836,62.988,0
1486660440.594,30.762,32.227,44.922,45.410,45.410,0
1486660440.598,103.027,35.156,36.133,102.539,66.895,0
1486660440.602,72.266,33.691,39.551,77.637,98.633,0
1486660440.606,-14.648,29.297,51.758,14.648,106.445,0
1486660440.610,-60.059,25.391,51.270,6.836,71.289,0
1486660440.613,21.484,27.344,40.527,52.246,42.969,0
1486660440.617,110.840,34.180,35.156,108.398,53.223,0
1486660440.621,87.891,38.086,41.016,92.285,79.102,0
1486660440.625,-2.930,32.715,48.828,18.555,87.891,0
1486660440.629,-58.594,28.320,52.734,-13.184,86.426,0
1486660440.633,14.160,32.227,51.270,33.203,62.012,0
1486660440.637,117.188,35.156,35.156,104.492,82.031,0
1486660440.641,106.445,35.645,35.645,95.215,86.426,0
1486660440.645,21.973,35.645,50.781,34.180,31.250,0
1486660440.649,-49.805,31.738,48.340,5.371,13.184,0
1486660440.653,4.883,30.762,41.992,31.738,32.715,0
1486660440.656,109.863,37.109,38.574,93.262,61.523,0
1486660440.660,115.723,41.992,36.133,99.609,57.617,0
1486660440.664,36.621,39.062,45.898,45.898,31.250,0
1486660440.668,-44.922,31.738,52.734,-0.488,40.039,0
1486660440.672,-4.883,30.273,45.898,15.137,27.344,0
1486660440.676,99.609,37.109,36.133,91.309,28.320,0
1486660440.680,113.281,41.504,37.598,110.840,54.688,0
1486660440.684,44.922,37.109,52.246,49.316,20.996,0
1486660440.688,-41.504,32.715,54.688,4.395,37.109,0
1486660440.692,-24.902,29.785,49.316,27.344,49.805,0
1486660440.696,96.191,34.668,45.410,99.121,35.645,0
1486660440.699,131.348,43.457,46.875,129.395,65.918,0
1486660440.703,53.223,38.574,51.758,67.871,40.039,0
1486660440.707,-42.969,29.297,53.711,6.836,14.648,0
1486660440.711,-37.109,24.414,50.293,16.113,0.488,0
1486660440.715,77.148,27.832,41.992,85.938,25.879,0
1486660440.719,124.023,36.621,40.527,125.488,79.590,0
1486660440.723,69.336,37.109,48.828,77.637,73.730,0
1486660440.727,-21.484,32.227,58.594,23.926,47.363,0
1486660440.731,-32.227,26.855,53.223,24.414,43.945,0
1486660440.735,77.148,32.715,45.410,76.660,28.320,0
1486660440.738,133.301,42.969,45.898,126.465,34.668,0
1486660440.742,89.844,39.551,46.387,83.008,47.363,0
1486660440.746,0.000,33.691,52.734,18.066,32.715,0
1486660440.750,-33.203,29.785,50.781,9.277,38.086,1
1486660440.754,56.152,31.250,42.969,62.500,16.602,0
1486660440.758,122.070,39.062,36.621,118.164,36.133,0
1486660440.762,88.379,41.016,36.621,79.102,61.523,0
1486660440.766,-1.953,37.598,49.805,19.043,59.570,0
1486660440.770,-48.828,36.133,56.641,2.930,67.383,0
1486660440.774,37.598,39.062,44.434,44.922,26.367,0
1486660440.778,125.488,44.434,36.133,106.934,35.645,0
1486660440.781,98.145,44.434,39.551,91.797,55.664,0
1486660440.785,4.395,36.133,46.387,33.691,41.016,0
1486660440.789,-50.293,28.320,49.805,7.812,71.777,0
1486660440.793,25.391,30.273,41.016,47.852,78.613,0
1486660440.797,122.070,40.527,36.133,107.422,76.172,0
1486660440.801,105.469,41.504,39.551,93.750,51.758,0
1486660440.805,20.996,37.598,45.898,33.691,17.090,0
1486660440.809,-44.922,32.715,54.199,0.000,64.941,0
1486660440.813,15.137,33.691,50.781,39.551,64.941,0
1486660440.817,120.117,41.992,40.039,113.281,37.109,0
1486660440.821,112.305,41.504,40.039,112.793,38.086,0
1486660440.824,34.180,36.621,44.434,46.875,2.441,0
1486660440.828,-38.574,30.273,50.293,2.930,14.648,0
1486660440.832,-0.488,26.855,44.922,29.785,23.438,0
1486660440.836,108.887,34.668,32.227,99.609,13.184,0
1486660440.840,123.535,40.527,35.645,113.770,22.949,0
1486660440.844,50.781,35.645,49.316,60.547,-9.766,0
1486660440.848,-33.203,31.738,52.734,11.719,-38.574,0
1486660440.852,-14.160,28.809,47.852,33.691,-7.812,0
1486660440.856,94.238,35.645,39.062,97.168,22.461,0
1486660440.860,122.559,41.992,36.621,114.258,60.059,0
1486660440.863,42.480,36.621,41.016,61.035,28.809,0
1486660440.867,-50.781,29.297,46.387,-0.488,8.301,0
1486660440.871,-32.715,25.391,46.875,13.184,22.461,0
1486660440.875,78.125,30.273,35.645,85.449,34.180,0
1486660440.879,121.094,35.645,34.180,118.164,63.965,0
1486660440.883,60.547,35.156,39.062,69.336,55.176,0
1486660440.887,-23.926,30.762,47.363,5.859,47.363,0
1486660440.891,-26.367,29.785,46.875,16.602,60.547,0
1486660440.895,68.848,34.180,37.109,86.426,88.379,0
1486660440.899,126.953,37.109,38.086,124.023,91.797,0
1486660440.903,80.078,35.156,45.898,87.402,80.566,0
1486660440.906,-15.137,30.273,54.199,20.508,103.516,0
1486660440.910,-40.527,27.344,55.664,12.695,108.398,0
1486660440.914,56.152,30.762,43.457,78.613,78.613,0
1486660440.918,125.000,38.574,37.109,128.906,85.449,0
1486660440.922,80.566,37.598,44.922,98.633,70.312,0
1486660440.926,-13.672,33.203,53.711,24.414,33.691,0
1486660440.930,-48.828,28.809,54.199,5.371,48.340,0
1486660440.934,42.969,28.320,41.016,59.082,58.105,0
1486660440.938,120.117,34.668,35.645,114.258,72.754,0
1486660440.942,98.145,36.621,46.387,101.562,49.805,0
1486660440.945,6.348,31.738,55.664,34.668,30.762,0
1486660440.949,-50.293,27.832,51.270,5.371,30.273,0
1486660440.953,26.855,30.273,42.969,53.711,27.832,0
1486660440.957,124.512,39.551,38.086,116.699,63.965,0
1486660440.961,117.188,43.457,42.480,106.934,63.477,0
1486660440.965,31.738,35.156,56.152,37.109,53.711,0
1486660440.969,-35.645,29.785,53.711,3.906,41.504,0
1486660440.973,15.137,33.203,42.480,48.340,39.062,0
1486660440.977,109.863,37.109,39.551,108.398,48.340,0
1486660440.981,108.398,39.551,44.922,107.422,50.781,0
1486660440.985,30.273,38.574,54.688,38.086,23.926,0
1486660440.988,-42.969,34.668,63.477,5.859,39.551,0
1486660440.992,-7.324,31.250,55.664,51.758,60.547,0
1486660440.996,104.004,41.016,41.504,112.305,58.594,0
1486660441.000,118.652,45.410,43.457,116.699,51.758,0
1486660441.004,34.180,37.109,49.316,54.199,64.453,0
1486660441.008,-35.156,35.156,50.293,5.371,78.613,0
1486660441.012,-1.465,33.691,50.781,31.738,26.855,0
1486660441.016,100.098,40.527,46.387,103.027,66.895,0
1486660441.020,127.930,45.410,37.598,125.000,119.141,0
1486660441.024,55.176,37.598,40.527,61.523,51.758,0
1486660441.028,-39.062,34.180,52.734,18.066,38.574,0
1486660441.031,-31.250,33.203,52.246,35.156,30.762,0
1486660441.035,77.637,33.203,37.598,83.984,29.297,0
1486660441.039,110.840,39.062,32.715,108.887,77.637,0
1486660441.043,40.039,39.551,39.062,52.246,70.312,0
1486660441.047,-41.504,35.156,46.875,0.000,50.293,0
1486660441.051,-34.180,33.691,44.922,17.578,75.195,0
1486660441.055,67.871,38.086,34.668,66.895,87.402,0
1486660441.059,116.211,41.992,36.133,102.051,68.848,0
1486660441.063,65.430,41.016,43.457,62.012,75.195,0
1486660441.067,-26.855,38.574,53.223,0.000,67.383,0
1486660441.070,-43.945,30.762,53.711,4.883,45.898,0
1486660441.074,54.688,28.809,38.086,60.547,50.781,0
1486660441.078,121.094,38.574,34.668,107.422,83.008,0
1486660441.082,79.590,39.062,45.410,73.730,95.215,0
1486660441.086,-18.555,31.738,53.223,2.441,76.660,0
1486660441.090,-52.246,28.320,51.270,-4.395,55.176,0
1486660441.094,39.551,30.762,40.039,49.805,46.875,0
1486660441.098,117.188,37.598,35.645,104.980,88.867,0
1486660441.102,87.891,39.062,47.363,80.078,75.684,0
1486660441.106,-3.906,33.691,55.664,10.742,42.969,0
1486660441.110,-50.781,27.832,53.223,-10.742,45.410,0
1486660441.113,25.879,30.273,44.922,30.762,18.066,0
1486660441.117,115.234,37.109,43.945,101.562,71.289,0
1486660441.121,98.145,37.598,51.758,92.285,64.941,0
1486660441.125,8.789,34.668,53.223,19.531,15.137,0
1486660441.129,-47.363,29.785,55.176,-2.441,33.691,0
1486660441.133,20.508,30.762,46.875,34.668,26.855,0
1486660441.137,112.305,36.621,34.180,87.891,71.777,0
1486660441.141,109.863,38.574,40.527,90.332,55.664,0
1486660441.145,31.738,38.574,49.805,33.691,25.879,0
1486660441.149,-44.434,31.738,50.293,-5.371,37.598,0
1486660441.153,3.906,28.320,47.363,23.438,10.742,0
1486660441.156,109.375,34.668,38.574,88.379,4.883,0
1486660441.160,113.281,39.062,38.086,97.656,23.438,0
1486660441.164,35.156,34.668,49.316,32.227,12.695,0
1486660441.168,-42.480,29.785,51.270,-8.301,13.672,0
1486660441.172,-9.766,31.250,42.969,20.996,26.855,0
1486660441.176,96.680,37.109,37.598,83.984,38.086,0
1486660441.180,113.281,41.016,41.992,105.957,96.191,0
1486660441.184,48.340,41.504,45.410,52.734,67.383,0
1486660441.188,-36.621,36.621,53.711,11.719,10.742,0
1486660441.192,-28.809,33.691,56.641,27.344,9.766,0
1486660441.195,83.008,38.574,41.504,85.938,9.766,0
1486660441.199,125.000,41.992,40.039,117.676,19.043,0
1486660441.203,59.082,37.109,46.875,68.359,1.953,0
1486660441.207,-30.273,31.250,49.316,9.766,-3.418,0
1486660441.211,-26.367,29.785,51.270,21.973,20.996,0
1486660441.215,75.684,30.762,40.039,86.914,34.668,0
1486660441.219,123.047,38.574,32.715,114.746,59.082,0
1486660441.223,64.941,35.645,42.480,65.918,20.020,0
1486660441.227,-27.344,28.320,51.758,10.254,10.254,0
1486660441.231,-39.062,26.855,45.410,15.137,56.152,0
1486660441.235,64.453,30.762,35.156,73.730,18.066,0
1486660441.238,125.000,35.645,39.062,132.812,27.344,0
1486660441.242,74.219,36.133,40.039,87.891,55.664,0
1486660441.246,-18.555,34.180,45.898,22.461,42.969,0
1486660441.250,-50.781,28.320,50.293,21.973,61.523,0
1486660441.254,43.457,31.738,39.062,67.383,35.156,0
1486660441.258,119.629,38.574,39.062,120.117,55.664,0
1486660441.262,97.168,37.598,46.387,89.844,56.152,0
1486660441.266,3.418,30.762,51.270,23.926,-4.883,0
1486660441.270,-51.270,27.832,51.758,8.301,-1.953,0
1486660441.274,32.227,30.273,41.992,55.664,2.930,0
1486660441.278,114.258,34.180,35.156,112.305,39.062,0
1486660441.281,89.844,36.621,39.062,89.355,45.410,0
1486660441.285,2.441,33.691,45.898,26.855,41.016,1
1486660441.289,-55.176,28.809,50.293,7.324,41.504,0
1486660441.293,23.926,27.344,46.875,48.340,28.320,0
1486660441.297,114.258,31.738,36.133,107.910,53.711,0
1486660441.301,98.145,34.668,38.086,99.121,68.359,0
1486660441.305,21.973,32.715,54.199,37.109,26.855,0
1486660441.309,-53.711,28.809,55.176,2.441,7.324,0
1486660441.313,-1.953,27.344,41.016,33.691,15.625,0
1486660441.317,103.027,33.203,36.621,97.168,34.180,0
1486660441.320,107.422,35.645,41.016,104.492,42.480,0
1486660441.324,34.668,31.738,52.734,50.293,15.625,0
1486660441.328,-45.898,28.320,54.199,9.277,35.156,0
1486660441.332,-13.184,24.902,42.480,29.785,37.598,0
1486660441.336,94.727,30.762,31.738,88.867,52.246,0
1486660441.340,114.746,38.086,31.738,96.680,110.840,0
1486660441.344,45.410,34.668,41.504,41.504,77.148,0
1486660441.348,-34.668,28.809,47.852,-1.953,47.363,0
1486660441.352,-14.160,27.832,46.387,19.531,52.246,0
1486660441.356,94.238,34.180,35.645,88.379,62.012,0
1486660441.360,126.465,41.016,37.109,109.863,68.848,0
1486660441.363,62.500,40.039,49.316,49.805,81.055,0
1486660441.367,-27.344,29.297,54.688,-5.371,69.336,0
1486660441.371,-28.809,26.367,49.805,8.301,42.480,0
1486660441.375,78.613,32.715,39.062,74.219,63.965,0
1486660441.379,120.117,38.086,38.086,104.004,63.477,0
1486660441.383,63.965,36.133,45.898,53.223,25.879,0
1486660441.387,-28.809,32.227,48.340,-5.859,36.621,0
1486660441.391,-42.969,31.250,45.898,-1.953,54.688,0
1486660441.395,59.082,33.691,35.156,56.641,22.461,0
1486660441.399,115.234,39.062,30.273,90.820,73.242,0
1486660441.402,72.266,41.016,41.504,56.152,111.328,0
1486660441.406,-24.414,34.668,49.316,2.930,56.152,0
1486660441.410,-48.340,27.832,45.898,-6.836,30.762,0
1486660441.414,48.340,28.320,33.691,51.270,47.852,0
1486660441.418,112.305,35.156,30.273,95.215,56.152,0
1486660441.422,85.938,38.086,39.062,74.219,34.668,0
1486660441.426,-2.441,33.691,46.875,15.137,59.570,0
1486660441.430,-52.246,29.297,49.316,-4.883,61.035,0
1486660441.434,29.297,32.227,41.016,47.363,21.484,0
1486660441.438,106.934,38.086,31.250,96.191,61.035,0
1486660441.442,85.449,38.574,37.109,78.125,62.988,0
1486660441.445,2.930,38.086,50.781,25.391,66.895,0
1486660441.449,-52.734,33.203,47.363,-1.953,37.598,0
1486660441.453,22.949,29.297,35.645,41.016,21.973,0
1486660441.457,117.188,37.598,29.785,101.074,73.730,0
1486660441.461,101.074,41.992,37.109,91.797,63.477,0
1486660441.465,13.672,37.109,49.805,39.062,36.133,0
1486660441.469,-51.758,32.715,49.316,4.395,46.387,0
1486660441.473,6.348,31.250,41.992,37.598,12.207,0
1486660441.477,107.422,37.109,31.738,96.680,31.250,0
1486660441.481,110.352,40.527,34.668,95.215,55.176,0
1486660441.485,32.227,38.574,56.641,43.457,22.461,0
1486660441.488,-40.039,32.227,62.500,2.930,9.277,0
1486660441.492,0.000,26.855,45.898,32.715,13.184,0
1486660441.496,100.586,31.738,34.668,88.379,48.828,0
1486660441.500,114.258,34.668,37.598,99.121,52.734,0
1486660441.504,45.410,32.227,43.457,50.293,22.949,0
1486660441.508,-38.086,26.367,47.852,-4.883,9.277,0
1486660441.512,-18.555,24.414,47.852,24.414,19.043,0
1486660441.516,87.402,31.738,41.504,82.520,53.223,0
1486660441.520,118.652,37.109,41.504,100.098,65.430,0
1486660441.524,54.199,36.133,45.898,58.594,44.922,0
1486660441.527,-36.621,33.691,54.199,14.648,56.641,0
1486660441.531,-23.926,29.297,55.664,36.621,39.062,0
1486660441.535,85.449,30.762,40.527,84.961,13.672,0
1486660441.539,124.512,39.551,36.621,113.281,55.176,0
1486660441.543,60.059,38.574,43.457,80.566,45.898,0
1486660441.547,-28.320,30.762,51.270,15.137,26.855,0
1486660441.551,-24.902,31.250,50.293,16.113,58.594,0
1486660441.555,68.848,33.691,37.598,69.336,65.918,0
1486660441.559,113.770,35.645,32.227,105.957,87.891,0
1486660441.563,67.383,39.062,44.434,76.660,91.309,0
1486660441.567,-21.484,37.109,50.781,17.578,91.797,0
1486660441.570,-41.016,30.762,51.270,17.578,79.102,0
1486660441.574,54.199,31.250,45.410,64.941,58.105,0
1486660441.578,121.094,36.621,35.156,110.352,99.121,0
1486660441.582,81.055,35.156,38.086,82.520,78.613,0
1486660441.586,-13.184,29.297,52.246,12.695,65.918,0
1486660441.590,-49.316,27.832,57.129,6.836,81.055,0
1486660441.594,43.457,31.738,44.922,55.664,68.359,0
1486660441.598,124.023,36.621,36.621,109.375,76.172,0
1486660441.602,99.121,40.039,44.434,94.727,50.781,0
1486660441.606,1.465,31.738,51.758,23.926,48.340,0
1486660441.610,-53.711,23.438,48.828,2.930,68.848,0
1486660441.613,32.715,26.855,46.875,44.922,42.969,0
1486660441.617,117.188,35.645,39.062,105.469,83.008,0
1486660441.621,92.285,39.062,39.551,95.703,71.289,0
1486660441.625,8.301,35.156,54.199,35.156,32.227,0
1486660441.629,-47.363,28.809,53.711,7.324,63.477,0
1486660441.633,10.742,31.738,43.457,29.297,61.035,0
1486660441.637,107.910,39.062,38.574,94.238,65.430,0
1486660441.641,104.492,39.062,38.086,104.980,87.402,0
1486660441.645,19.043,35.156,44.434,37.598,63.477,0
1486660441.649,-47.363,28.320,53.711,-5.859,45.410,0
1486660441.652,-7.812,25.879,51.270,17.090,42.969,0
1486660441.656,84.961,33.691,34.668,81.543,64.941,0
1486660441.660,102.051,36.621,36.621,95.703,68.359,0
1486660441.664,35.156,31.250,48.340,33.691,-2.441,0
1486660441.668,-45.898,28.809,51.758,-4.883,16.602,0
1486660441.672,-16.602,30.762,45.410,11.719,51.270,0
1486660441.676,87.891,33.203,34.180,81.543,45.410,0
1486660441.680,108.887,37.109,33.203,110.840,63.965,0
1486660441.684,41.016,35.156,40.527,46.387,72.754,0
1486660441.688,-46.387,26.855,48.340,-5.859,34.668,0
1486660441.692,-23.438,28.320,46.875,10.254,9.766,0
1486660441.695,88.379,33.203,39.551,82.520,47.852,0
1486660441.699,125.000,37.598,40.527,112.305,69.824,0
1486660441.703,59.570,35.645,45.898,46.875,26.367,0
1486660441.707,-27.832,32.227,48.340,0.488,0.000,0
1486660441.711,-23.926,30.762,46.875,11.230,27.832,0
1486660441.715,64.453,34.180,40.527,62.500,41.992,0
1486660441.719,115.234,40.527,34.180,114.746,74.707,0
1486660441.723,69.336,36.621,37.598,63.965,86.914,0
1486660441.727,-26.855,28.320,45.898,1.953,78.613,0
1486660441.731,-44.922,24.902,50.293,9.277,51.758,0
1486660441.735,53.711,29.297,43.457,62.988,25.391,0
1486660441.738,120.117,35.645,37.109,119.141,87.402,0
1486660441.742,76.660,34.180,44.922,86.426,82.520,0
1486660441.746,-20.020,28.809,55.664,17.578,30.273,0
1486660441.750,-50.781,29.785,53.711,7.812,53.223,0
1486660441.754,41.992,33.691,37.598,54.199,56.152,0
1486660441.758,116.211,38.086,32.227,109.375,76.660,0
1486660441.762,85.449,41.016,37.598,87.891,77.148,0
1486660441.766,-5.371,37.109,49.805,21.484,44.922,0
1486660441.770,-53.711,30.762,55.176,0.000,34.180,0
1486660441.774,30.762,34.668,44.434,46.875,53.223,0
1486660441.777,121.094,39.062,39.551,110.840,98.633,0
1486660441.781,98.145,35.645,40.527,92.773,76.660,0
1486660441.785,16.113,33.691,44.434,28.320,30.762,0
1486660441.789,-42.969,31.250,52.734,0.488,50.781,0
1486660441.793,11.719,28.320,46.387,34.668,54.688,0
1486660441.797,102.539,36.133,34.180,101.562,79.590,0
1486660441.801,98.633,39.551,37.109,95.215,88.867,0
1486660441.805,17.090,37.109,46.875,22.949,58.105,0
1486660441.809,-51.758,30.762,53.711,-16.602,55.664,0
1486660441.813,0.488,24.902,46.387,14.648,45.410,0
1486660441.817,100.098,32.715,32.715,90.820,56.152,0
1486660441.820,110.352,38.086,35.645,105.469,95.215,0
1486660441.824,29.785,35.156,45.898,37.109,59.082,0
1486660441.828,-51.758,28.809,51.270,-5.859,45.410,0
1486660441.832,-12.207,27.832,44.434,20.020,40.527,0
1486660441.836,91.797,33.691,37.598,86.914,72.754,0
1486660441.840,113.770,38.086,41.016,99.121,107.910,0
1486660441.844,40.039,34.180,48.828,35.645,95.703,0
1486660441.848,-49.316,25.879,52.734,-4.883,89.355,0
1486660441.852,-21.484,25.879,43.945,17.578,56.152,0
1486660441.856,88.867,32.227,33.691,83.496,93.262,0
1486660441.859,116.211,38.086,36.133,104.980,106.445,0
1486660441.863,46.875,36.621,43.945,59.570,71.289,0
1486660441.867,-39.551,27.832,49.805,9.766,49.805,0
1486660441.871,-28.809,28.320,45.898,13.672,27.344,0
1486660441.875,77.148,34.668,36.621,81.543,49.316,0
1486660441.879,122.559,35.156,36.621,120.117,83.984,1
1486660441.883,66.895,34.668,41.992,67.383,82.031,0
1486660441.887,-31.738,28.320,52.246,0.000,18.066,0
1486660441.891,-40.039,22.461,47.852,4.395,36.621,0
1486660441.895,61.523,28.809,32.715,62.012,61.035,0
1486660441.899,114.746,37.598,31.738,102.051,48.828,0
1486660441.902,80.078,38.574,39.062,62.012,72.266,0
1486660441.906,-6.836,38.086,46.875,5.371,43.457,0
1486660441.910,-38.574,33.691,51.270,4.395,20.020,0
1486660441.914,54.688,30.273,38.574,54.688,42.480,0
1486660441.918,120.117,37.598,33.203,109.863,96.191,0
1486660441.922,89.844,39.551,40.039,81.055,84.473,0
1486660441.926,-3.906,30.762,44.922,16.602,10.742,0
1486660441.930,-51.270,25.879,53.223,0.488,24.414,0
1486660441.934,38.086,28.320,45.898,45.410,16.113,0
1486660441.938,120.117,34.180,38.086,104.492,43.457,0
1486660441.942,94.238,35.645,41.992,90.332,83.496,0
1486660441.945,6.348,30.762,51.758,32.715,63.477,0
1486660441.949,-48.828,24.414,62.012,10.742,49.316,0
1486660441.953,31.738,26.855,49.316,51.270,46.875,0
1486660441.957,124.023,36.133,38.574,114.258,71.289,0
1486660441.961,109.375,42.480,39.551,100.098,70.801,0
1486660441.965,29.785,40.527,48.828,34.180,27.832,0
1486660441.969,-44.434,36.621,54.199,7.812,7.812,0
1486660441.973,14.648,35.156,47.363,41.504,37.109,0
1486660441.977,120.117,37.598,39.062,106.445,46.387,0
1486660441.981,120.117,42.480,42.969,114.746,84.473,0
1486660441.984,42.969,39.551,53.711,44.922,71.777,0
1486660441.988,-33.203,30.273,59.570,5.859,3.906,0
1486660441.992,-5.371,21.484,49.316,46.387,-7.812,0
1486660441.996,95.215,28.320,37.598,106.445,36.133,0
1486660442.000,112.793,36.621,42.969,112.793,47.363,0
1486660442.004,42.480,32.227,51.270,56.152,33.691,0
1486660442.008,-38.086,26.367,56.641,16.113,54.199,0
1486660442.012,-14.648,27.344,52.734,32.715,12.207,0
1486660442.016,92.773,36.133,39.551,94.727,18.555,0
1486660442.020,125.488,46.387,42.480,122.070,74.219,0
1486660442.024,67.383,45.410,52.734,66.895,33.691,0
1486660442.027,-14.648,36.133,50.293,13.184,22.461,0
1486660442.031,-21.484,30.273,42.480,20.508,23.926,0
1486660442.035,70.312,32.715,33.691,79.590,20.508,0
1486660442.039,114.258,37.598,32.715,113.770,50.293,0
1486660442.043,56.641,36.621,41.504,60.059,17.578,0
1486660442.047,-37.109,29.297,54.688,8.301,24.414,0
1486660442.051,-45.410,20.996,56.152,23.438,38.574,0
1486660442.055,59.570,24.902,46.387,85.938,15.137,0
1486660442.059,120.117,35.645,44.434,131.836,43.945,0
1486660442.063,74.219,36.621,44.434,88.379,29.297,0
1486660442.067,-20.020,31.250,50.293,22.461,15.137,0
1486660442.070,-45.410,30.762,49.316,15.137,19.043,0
1486660442.074,54.688,32.715,40.039,68.359,0.977,0
1486660442.078,127.441,34.668,38.086,125.000,32.715,0
1486660442.082,91.309,36.133,45.410,98.145,51.758,0
1486660442.086,0.000,28.320,53.711,37.109,26.367,0
1486660442.090,-41.016,21.484,57.617,28.320,35.156,0
1486660442.094,48.828,26.855,47.363,75.195,38.574,0
1486660442.098,123.047,33.203,34.668,123.047,51.758,0
1486660442.102,97.656,35.156,39.551,100.586,51.758,0
1486660442.106,14.648,32.227,51.270,37.109,45.898,0
1486660442.109,-42.480,25.879,56.641,26.855,30.273,0
1486660442.113,35.645,26.855,46.387,70.312,-11.719,0
1486660442.117,125.977,32.715,37.109,119.141,26.855,0
1486660442.121,109.863,31.738,39.062,108.887,27.344,0
1486660442.125,22.949,32.227,42.969,35.645,8.789,0
1486660442.129,-37.109,28.809,43.457,10.254,53.711,0
1486660442.133,10.742,25.879,35.645,47.363,53.711,0
1486660442.137,104.004,36.133,26.855,90.820,63.965,0
1486660442.141,122.559,43.457,28.320,88.867,40.527,0
1486660442.145,34.180,42.480,41.504,27.832,19.043,0
1486660442.149,-45.898,35.156,52.246,-11.719,16.113,0
1486660442.152,3.418,30.273,41.016,23.438,33.203,0
1486660442.156,106.445,35.645,30.762,89.844,86.426,0
1486660442.160,110.840,38.574,39.062,105.957,90.820,0
1486660442.164,34.180,35.645,46.875,34.180,30.273,0
1486660442.168,-49.805,30.762,50.781,-11.230,6.348,0
1486660442.172,-20.020,28.320,43.457,20.996,25.879,0
1486660442.176,89.355,34.180,33.203,85.938,44.434,0
1486660442.180,116.211,39.062,34.668,111.816,84.961,0
1486660442.184,52.246,38.086,47.363,47.852,79.102,0
1486660442.188,-41.016,31.738,49.805,-13.672,47.363,0
1486660442.191,-30.273,25.391,42.480,4.395,21.973,0
1486660442.195,71.777,29.785,38.086,70.312,53.711,0
1486660442.199,112.305,37.598,37.109,104.980,143.555,0
1486660442.203,49.805,36.133,45.410,51.270,94.238,0
1486660442.207,-46.387,27.344,52.246,-5.371,34.668,0
1486660442.211,-50.293,23.926,49.805,1.465,21.484,0
1486660442.215,55.664,29.785,41.504,54.199,8.301,0
1486660442.219,114.746,37.598,35.645,91.309,34.180,0
1486660442.223,61.035,34.180,40.039,47.363,62.012,0
1486660442.227,-29.297,28.809,47.852,-7.812,71.289,0
1486660442.231,-42.969,26.855,51.270,0.000,44.434,0
1486660442.234,50.293,31.250,41.992,50.293,31.250,0
1486660442.238,121.094,36.621,35.645,103.027,45.898,0
1486660442.242,80.566,35.156,41.016,67.383,5.371,0
1486660442.246,-14.648,34.180,51.758,-1.953,2.930,0
1486660442.250,-45.410,28.320,52.734,-2.441,44.922,0
1486660442.254,38.086,30.762,36.133,39.062,48.828,0
1486660442.258,110.840,38.086,33.203,87.402,74.219,0
1486660442.262,83.984,36.133,41.016,63.477,76.660,0
1486660442.266,-7.812,32.715,45.898,5.371,74.707,0
1486660442.270,-59.570,25.879,49.316,-4.395,64.941,0
1486660442.274,21.973,24.902,43.457,36.621,51.270,0
1486660442.277,114.746,31.250,35.645,101.074,90.820,0
1486660442.281,91.797,34.668,37.109,77.148,91.797,0
1486660442.285,5.371,31.738,51.270,8.301,61.523,0
1486660442.289,-49.805,27.344,54.688,1.953,45.410,0
1486660442.293,8.789,29.785,41.016,38.574,62.500,0
1486660442.297,101.562,35.156,34.180,90.332,113.770,0
1486660442.301,104.980,39.551,40.039,86.426,126.953,0
1486660442.305,27.344,34.668,48.340,25.391,53.223,0
1486660442.309,-48.828,30.273,54.688,-3.906,16.113,0
1486660442.313,-8.789,30.273,46.387,31.738,29.297,0
1486660442.316,91.797,34.180,37.109,94.238,37.598,0
1486660442.320,104.004,36.621,42.969,93.750,61.035,0
1486660442.324,33.691,34.668,50.293,42.969,48.340,0
1486660442.328,-44.922,27.344,54.688,12.207,17.578,0
1486660442.332,-13.184,26.367,47.852,33.691,15.137,0
1486660442.336,84.961,33.203,39.062,103.516,57.129,0
1486660442.340,104.492,35.645,37.598,113.770,106.934,0
1486660442.344,42.969,34.668,41.016,46.387,41.992,0
1486660442.348,-39.062,27.832,48.828,1.953,-8.789,0
1486660442.352,-23.926,26.855,46.387,20.996,3.906,0
1486660442.356,75.195,33.203,37.109,83.984,7.324,0
1486660442.359,111.816,39.062,35.156,101.074,49.316,0
1486660442.363,53.711,38.574,42.480,50.293,23.926,0
1486660442.367,-40.527,29.297,44.922,8.301,18.066,0
1486660442.371,-41.504,23.438,43.457,8.301,19.531,0
1486660442.375,66.895,25.391,42.480,79.102,23.926,0
1486660442.379,120.605,31.250,36.621,114.258,73.730,0
1486660442.383,69.336,34.668,39.062,59.082,67.383,0
1486660442.387,-26.367,29.297,53.223,12.207,35.645,0
1486660442.391,-39.551,22.949,52.246,12.695,27.832,0
1486660442.395,53.711,27.344,38.574,64.941,49.316,0
1486660442.399,118.164,36.133,37.109,111.816,77.148,0
1486660442.402,78.125,36.621,42.480,75.195,36.621,0
1486660442.406,-23.926,29.785,49.316,12.207,17.090,0
1486660442.410,-55.664,25.391,50.781,2.441,47.852,0
1486660442.414,44.922,26.855,40.527,53.223,48.828,0
1486660442.418,112.305,34.180,35.645,98.633,67.871,0
1486660442.422,83.984,36.621,41.504,69.824,60.547,0
1486660442.426,0.977,31.250,54.199,15.625,41.016,0
1486660442.430,-45.898,26.855,55.176,1.465,23.438,0
1486660442.434,39.062,30.762,38.086,39.062,28.320,0
1486660442.438,125.977,37.598,30.273,90.820,65.918,0
1486660442.441,107.422,37.598,36.621,82.031,63.477,0
1486660442.445,14.648,34.668,43.945,20.996,38.574,0
1486660442.449,-49.805,30.762,48.828,-5.859,58.594,0
1486660442.453,20.996,30.273,44.434,42.480,83.008,0
1486660442.457,113.770,35.156,37.109,96.191,133.789,1
1486660442.461,102.539,37.109,40.527,100.586,91.797,0
1486660442.465,24.902,36.133,48.828,52.734,15.137,0
1486660442.469,-46.387,31.250,50.293,15.625,59.570,0
1486660442.473,2.441,26.855,39.551,55.176,92.773,0
1486660442.477,104.980,33.203,33.203,116.699,126.465,0
1486660442.481,111.328,41.016,36.133,107.422,122.559,0
1486660442.484,35.156,38.574,42.480,41.992,41.016,0
1486660442.488,-44.922,30.762,52.734,9.277,77.148,0
1486660442.492,-3.906,29.297,49.805,38.086,33.691,0
1486660442.496,100.098,37.109,37.598,94.238,0.488,0
1486660442.500,105.957,38.086,36.133,104.492,54.199,0
1486660442.504,34.668,35.156,43.457,48.340,59.082,0
1486660442.508,-54.199,29.785,55.664,-0.977,41.992,0
1486660442.512,-35.645,25.391,51.758,20.508,21.484,0
1486660442.516,82.520,33.691,37.598,85.938,50.781,0
1486660442.520,114.746,42.969,37.109,110.840,95.215,0
1486660442.524,54.199,41.504,47.852,65.430,64.941,0
1486660442.527,-31.738,34.180,55.664,18.066,44.922,0
1486660442.531,-35.156,28.809,47.852,21.973,51.270,0
1486660442.535,69.824,31.250,34.180,79.102,36.133,0
1486660442.539,121.094,34.668,32.715,117.188,53.223,0
1486660442.543,68.359,34.668,41.504,67.871,46.875,0
1486660442.547,-26.367,31.250,53.223,11.719,61.523,0
1486660442.551,-39.551,25.879,53.223,20.020,47.852,0
1486660442.555,63.477,29.297,42.969,78.613,0.488,0
1486660442.559,121.094,37.598,40.039,120.117,27.832,0
1486660442.563,70.801,36.133,40.527,82.031,70.801,0
1486660442.566,-20.020,32.227,49.316,20.020,68.848,0
1486660442.570,-52.246,25.879,55.176,8.789,51.758,0
1486660442.574,40.527,25.879,43.457,56.152,70.312,0
1486660442.578,117.676,35.645,34.668,109.375,88.379,0
1486660442.582,80.566,38.086,43.457,77.148,94.727,0
1486660442.586,-8.301,33.203,56.152,15.625,61.035,0
1486660442.590,-44.434,29.785,54.199,4.883,16.602,0
1486660442.594,36.133,34.180,42.969,43.945,54.199,0
1486660442.598,121.582,41.504,35.645,97.656,85.449,0
1486660442.602,97.656,40.527,35.645,82.031,56.641,0
1486660442.606,-3.418,32.715,40.527,20.508,44.922,0
1486660442.609,-54.199,27.344,47.852,0.488,58.105,0
1486660442.613,30.762,25.879,43.457,43.945,51.270,0
1486660442.617,122.559,30.762,36.621,112.305,88.867,0
1486660442.621,103.027,33.691,45.410,107.422,81.055,0
1486660442.625,17.090,29.785,53.223,31.738,20.020,0
1486660442.629,-50.781,29.785,53.711,0.000,29.297,0
1486660442.633,13.672,31.250,48.340,34.180,36.621,0
1486660442.637,113.281,35.156,37.109,97.656,38.086,0
1486660442.641,108.887,38.086,40.039,113.770,65.430,0
1486660442.645,31.738,38.086,49.805,52.734,51.270,0
1486660442.648,-42.480,32.227,60.059,3.906,15.137,0
1486660442.652,-5.859,28.320,56.152,27.832,5.371,0
1486660442.656,95.703,32.715,41.992,89.355,51.758,0
1486660442.660,113.281,33.691,39.062,107.910,95.215,0
1486660442.664,42.969,32.227,43.945,43.945,65.430,0
1486660442.668,-38.574,30.762,48.828,-9.766,80.566,0
1486660442.672,-14.648,28.320,47.852,19.043,89.355,0
1486660442.676,88.379,32.715,44.434,83.008,75.684,0
1486660442.680,124.023,39.062,44.434,105.469,83.984,0
1486660442.684,61.035,39.062,48.340,59.570,33.203,0
1486660442.688,-42.480,28.320,56.641,4.883,19.043,0
1486660442.691,-34.180,23.926,51.270,22.949,24.414,0
1486660442.695,73.730,31.250,35.645,89.844,35.645,0
1486660442.699,116.699,36.621,35.156,115.723,84.961,0
1486660442.703,66.895,37.598,45.410,69.336,70.801,0
1486660442.707,-27.832,34.180,58.105,13.672,42.969,0
1486660442.711,-36.133,29.297,57.617,17.090,24.414,0
1486660442.715,68.848,32.227,46.387,70.312,13.184,0
1486660442.719,121.582,40.527,40.527,107.422,58.594,0
1486660442.723,71.289,40.039,40.527,62.500,51.270,0
1486660442.727,-20.996,33.203,47.363,3.906,26.855,0
1486660442.731,-40.527,28.320,47.852,10.254,52.734,0
1486660442.734,46.875,28.809,38.086,60.059,30.273,0
1486660442.738,116.211,35.156,32.227,106.934,43.945,0
1486660442.742,76.660,38.086,37.109,75.684,34.180,0
1486660442.746,-18.555,36.621,51.758,21.973,38.086,0
1486660442.750,-43.945,34.180,54.688,19.043,84.473,0
1486660442.754,34.180,33.203,42.969,60.547,97.656,0
1486660442.758,110.352,37.598,36.133,113.281,118.164,0
1486660442.762,92.773,37.598,44.434,97.168,119.629,0
1486660442.766,4.395,31.738,50.781,39.062,104.980,0
1486660442.770,-59.570,27.344,50.781,9.277,97.168,0
1486660442.773,12.207,28.809,45.898,42.480,87.891,0
1486660442.777,111.328,37.109,41.016,105.469,123.535,0
1486660442.781,99.121,41.504,46.387,101.074,96.680,0
1486660442.785,10.254,36.621,49.316,37.109,66.406,0
1486660442.789,-49.316,31.250,50.781,0.977,88.379,0
1486660442.793,14.648,36.133,49.805,39.551,67.871,0
1486660442.797,110.352,41.016,42.969,108.398,67.871,0
1486660442.801,110.352,40.039,43.457,108.887,82.520,0
1486660442.805,30.762,37.598,49.316,47.852,93.262,0
1486660442.809,-40.039,33.203,55.176,14.648,79.590,0
1486660442.813,-4.883,34.180,51.758,45.898,55.176,0
1486660442.816,90.332,37.598,38.574,104.980,72.754,0
1486660442.820,110.352,38.086,36.621,107.422,75.684,0
1486660442.824,34.180,37.109,45.898,43.945,42.969,0
1486660442.828,-47.363,33.691,55.176,-3.418,34.668,0
1486660442.832,-14.648,31.250,50.781,25.391,24.902,0
1486660442.836,89.844,30.273,33.691,96.680,53.711,0
1486660442.840,110.840,35.156,31.738,114.258,114.746,0
1486660442.844,46.875,35.156,40.039,63.477,95.703,0
1486660442.848,-36.133,30.273,50.781,19.043,47.852,0
1486660442.852,-30.273,23.926,45.410,19.531,53.711,0
1486660442.856,73.242,28.320,29.297,72.754,53.223,0
1486660442.859,108.398,36.621,23.926,106.445,71.777,0
1486660442.863,47.363,35.156,35.645,49.316,62.988,0
1486660442.867,-39.551,30.273,48.340,-10.254,51.270,0
1486660442.871,-39.551,29.297,44.922,8.789,57.617,0
1486660442.875,68.848,33.203,38.574,74.707,14.160,0
1486660442.879,132.812,39.062,40.527,118.652,53.223,0
1486660442.883,79.102,40.527,43.945,80.566,55.664,0
1486660442.887,-20.508,33.691,46.387,15.137,5.859,0
1486660442.891,-39.062,28.320,44.434,4.395,53.711,0
1486660442.895,50.293,28.809,38.574,56.641,65.918,0
1486660442.898,115.234,33.203,39.062,106.445,39.551,0
1486660442.902,80.566,37.598,43.457,83.496,25.391,0
1486660442.906,-9.766,32.227,50.781,15.137,-19.043,0
1486660442.910,-42.969,24.902,49.805,4.395,34.180,0
1486660442.914,45.898,28.320,37.598,57.129,45.898,0
1486660442.918,120.605,35.645,35.645,109.375,18.555,0
1486660442.922,91.309,39.062,45.898,90.332,43.457,0
1486660442.926,1.953,33.691,49.805,30.273,35.645,0
1486660442.930,-41.016,28.809,52.734,1.465,5.371,0
1486660442.934,31.738,31.738,46.875,55.176,1.953,0
1486660442.938,116.211,36.621,39.551,126.465,46.387,0
1486660442.941,103.027,36.621,40.039,106.445,55.664,0
1486660442.945,17.090,30.273,44.434,44.434,20.508,0
1486660442.949,-45.410,26.855,49.805,10.254,48.340,0
1486660442.953,9.766,28.320,41.016,40.039,85.449,0
1486660442.957,107.422,35.156,34.668,117.188,68.848,0
1486660442.961,107.422,40.527,42.969,119.629,88.867,0
1486660442.965,20.020,38.574,54.199,54.688,62.500,0
1486660442.969,-44.922,28.809,54.199,6.348,16.113,0
1486660442.973,6.836,27.344,47.852,38.574,28.320,0
1486660442.977,98.145,33.203,38.574,109.375,50.781,0
1486660442.981,110.840,35.645,34.180,108.398,42.969,0
1486660442.984,41.992,35.156,40.527,56.641,24.902,0
1486660442.988,-39.551,30.762,52.246,6.836,55.176,0
1486660442.992,-11.230,29.297,50.781,26.367,88.379,0
1486660442.996,97.656,33.203,38.086,99.609,88.867,0
1486660443.000,118.652,36.621,39.551,104.980,79.590,0
1486660443.004,47.363,36.133,44.434,41.992,17.090,0
1486660443.008,-36.133,31.250,50.781,-12.207,11.230,0
1486660443.012,-27.344,26.855,49.805,7.324,40.039,0
1486660443.016,82.520,32.227,38.086,82.031,63.965,0
1486660443.020,123.047,38.574,35.645,103.027,107.422,0
1486660443.023,53.223,33.691,36.621,49.805,83.984,0
1486660443.027,-38.086,25.879,43.457,-3.906,65.430,0
1486660443.031,-32.227,24.414,50.293,6.348,53.223,0
1486660443.035,67.871,31.738,35.645,69.824,70.312,0
1486660443.039,115.234,37.109,27.832,99.121,100.586,0
1486660443.043,65.918,35.645,40.527,54.688,64.453,0
1486660443.047,-33.203,31.738,47.852,-13.672,31.250,0
1486660443.051,-49.805,28.809,43.945,-19.531,35.645,0
1486660443.055,57.617,31.250,32.715,51.270,49.805,0
1486660443.059,116.699,38.574,30.273,96.680,54.199,0
1486660443.063,72.754,41.016,41.016,62.012,48.340,0
1486660443.066,-15.625,38.574,53.711,7.324,49.316,0
1486660443.070,-42.969,28.809,51.270,-0.977,35.645,0
1486660443.074,45.410,25.391,37.109,55.664,36.621,0
1486660443.078,113.770,31.250,33.203,112.793,56.152,1
1486660443.082,79.102,33.203,43.457,94.727,49.805,0
1486660443.086,-9.277,28.809,55.664,21.973,66.895,0
1486660443.090,-56.641,22.461,57.129,-1.465,61.035,0
1486660443.094,21.484,25.391,48.828,46.875,13.184,0
1486660443.098,112.793,35.645,41.504,100.586,49.805,0
1486660443.102,90.332,36.621,43.945,92.773,77.637,0
1486660443.105,3.418,33.691,53.711,21.484,64.941,0
1486660443.109,-51.758,28.809,53.223,-8.789,50.293,0
1486660443.113,6.348,25.879,44.434,46.387,24.414,0
1486660443.117,103.516,34.180,35.156,99.121,59.082,0
1486660443.121,98.633,36.621,34.668,73.242,78.125,0
1486660443.125,14.648,31.250,41.992,4.883,34.668,0
1486660443.129,-47.363,25.391,50.781,-18.555,41.504,0
1486660443.133,-2.441,26.855,46.387,13.672,28.809,0
1486660443.137,90.820,33.691,33.691,73.730,56.152,0
1486660443.141,106.934,36.133,41.992,82.520,108.887,0
1486660443.145,35.156,33.691,51.758,-2.930,69.336,0
1486660443.148,-41.504,30.273,44.922,-42.969,64.453,0
1486660443.152,-4.883,29.297,38.574,-0.488,71.777,0
1486660443.156,96.191,34.668,35.156,55.664,76.172,0
1486660443.160,118.652,39.551,38.574,80.566,81.543,0
1486660443.164,50.293,37.598,47.852,21.973,60.547,0
1486660443.168,-37.109,33.203,50.781,-29.297,47.363,0
1486660443.172,-16.113,28.809,47.852,-2.441,78.613,0
1486660443.176,83.984,30.762,38.574,54.688,97.656,0
1486660443.180,113.770,35.156,35.645,83.984,59.570,0
1486660443.184,53.711,36.621,45.898,30.762,7.812,0
1486660443.188,-34.180,31.738,52.246,-27.344,13.184,0
1486660443.191,-28.809,25.391,49.316,-6.836,18.066,0
1486660443.195,73.242,30.273,40.039,52.734,-1.953,0
1486660443.199,111.816,35.645,38.574,86.914,25.391,0
1486660443.203,56.152,36.133,48.828,46.387,20.996,0
1486660443.207,-33.203,33.203,55.664,-16.113,24.902,0
1486660443.211,-41.992,31.250,53.223,-17.578,13.184,0
1486660443.215,59.082,35.645,44.922,43.945,11.719,0
1486660443.219,112.305,41.992,39.062,90.332,68.848,0
1486660443.223,67.871,40.527,46.387,48.828,46.875,0
1486660443.227,-21.973,30.273,55.664,-4.883,37.109,0
1486660443.230,-46.387,25.391,56.641,-0.977,54.199,0
1486660443.234,51.758,31.250,46.387,43.945,22.461,0
1486660443.238,123.535,38.574,39.062,100.586,49.805,0
1486660443.242,87.402,36.133,45.898,71.289,47.363,0
1486660443.246,-4.395,32.227,57.129,5.859,34.668,0
1486660443.250,-59.570,27.832,59.570,0.977,78.125,0
1486660443.254,29.297,29.297,49.805,40.039,60.547,0
1486660443.258,124.512,37.109,41.992,95.703,31.250,0
1486660443.262,96.680,38.086,43.457,82.031,16.602,0
1486660443.266,6.348,37.109,54.199,30.762,-2.930,0
1486660443.270,-43.945,31.250,58.594,14.648,6.836,0
1486660443.273,32.227,30.762,46.875,52.246,29.785,0
1486660443.277,122.070,38.086,35.156,107.910,35.156,0
1486660443.281,99.609,39.551,41.016,90.820,34.180,0
1486660443.285,14.648,32.715,50.781,26.855,6.836,0
1486660443.289,-47.852,26.855,54.688,-4.883,2.930,0
1486660443.293,4.395,29.785,46.387,25.391,25.391,0
1486660443.297,100.098,37.109,38.574,89.844,67.383,0
1486660443.301,104.980,37.598,40.039,91.797,92.773,0
1486660443.305,26.367,36.133,44.434,33.691,65.918,0
1486660443.309,-50.293,32.227,48.340,-7.812,21.973,0
1486660443.313,-5.371,28.320,49.316,20.020,-9.277,0
1486660443.316,107.910,34.180,40.527,89.844,16.113,0
1486660443.320,123.047,41.504,38.086,105.469,57.617,0
1486660443.324,41.504,41.016,54.199,48.828,91.309,0
1486660443.328,-41.016,36.133,61.523,-2.441,108.398,0
1486660443.332,-6.348,31.250,49.316,18.555,54.199,0
1486660443.336,101.074,35.645,39.551,82.031,18.555,0
1486660443.340,122.070,38.574,38.574,96.191,55.664,0
1486660443.344,48.828,38.086,45.410,41.992,57.617,0
1486660443.348,-36.133,37.598,59.570,3.418,45.898,0
1486660443.352,-22.949,31.738,55.176,12.695,44.922,0
1486660443.355,82.031,33.203,39.551,75.195,42.480,0
1486660443.359,124.512,41.016,41.016,110.840,77.148,0
1486660443.363,63.477,40.527,42.480,66.895,75.684,0
1486660443.367,-27.344,32.715,50.293,18.555,37.109,0
1486660443.371,-33.691,27.832,49.805,20.996,12.207,0
1486660443.375,59.082,33.691,37.109,71.289,30.762,0
1486660443.379,115.723,41.504,34.180,109.863,71.289,0
1486660443.383,82.031,41.016,44.434,72.266,73.730,0
1486660443.387,-10.742,34.180,53.711,13.184,44.434,0
1486660443.391,-40.527,29.297,49.805,8.301,18.066,0
1486660443.395,56.152,30.762,41.504,58.594,11.230,0
1486660443.398,118.164,37.598,36.621,108.398,54.688,0
1486660443.402,76.660,41.016,41.504,74.707,61.523,0
1486660443.406,-9.766,35.645,52.246,11.230,46.387,0
1486660443.410,-42.969,31.250,52.734,1.953,25.879,0
1486660443.414,47.363,36.133,44.434,51.758,19.043,0
1486660443.418,122.070,43.945,40.039,100.098,54.688,0
1486660443.422,90.820,42.480,48.340,81.543,54.199,0
1486660443.426,1.465,37.109,55.176,24.414,62.012,0
1486660443.430,-48.340,32.715,57.617,1.953,59.570,0
1486660443.434,27.344,31.250,51.758,45.410,41.016,0
1486660443.438,111.816,38.086,40.527,98.145,54.199,0
1486660443.441,102.539,41.992,44.434,88.379,41.504,0
1486660443.445,15.137,37.109,54.199,37.598,44.922,0
1486660443.449,-52.246,31.738,59.082,12.207,59.570,0
1486660443.453,6.836,31.738,51.270,45.898,75.684,0
1486660443.457,104.980,35.645,41.504,106.445,67.871,0
1486660443.461,107.422,36.133,49.316,106.445,44.922,0
1486660443.465,20.996,32.227,53.223,39.551,43.457,0
1486660443.469,-51.758,28.809,55.176,1.953,11.719,0
1486660443.473,-1.465,26.367,50.293,32.227,11.230,0
1486660443.477,98.145,31.250,33.691,89.844,64.453,0
1486660443.480,106.934,35.156,35.156,95.703,82.031,0
1486660443.484,35.156,34.180,46.875,40.039,46.875,0
1486660443.488,-48.828,32.227,54.688,-1.465,33.691,0
1486660443.492,-17.090,28.320,48.340,21.484,20.508,0
1486660443.496,97.656,31.738,36.621,84.473,45.410,0
1486660443.500,109.375,37.109,37.109,103.516,78.125,0
1486660443.504,39.551,36.621,44.434,49.805,34.668,0
1486660443.508,-35.645,33.203,51.270,5.859,20.996,0
1486660443.512,-25.391,28.809,50.293,20.508,21.484,0
1486660443.516,78.613,31.738,34.668,72.754,2.930,0
1486660443.520,123.535,39.062,32.715,104.004,54.199,0
1486660443.523,65.918,38.574,47.363,55.664,75.195,0
1486660443.527,-24.902,32.227,50.293,8.301,35.645,0
1486660443.531,-30.273,27.344,43.945,12.695,-13.184,0
1486660443.535,72.754,34.668,36.133,68.359,25.879,0
1486660443.539,125.488,42.969,36.621,102.539,72.266,0
1486660443.543,65.918,39.551,40.527,55.664,45.898,0
1486660443.547,-20.020,30.762,47.852,4.395,19.531,0
1486660443.551,-35.645,27.832,55.664,2.441,17.578,0
1486660443.555,57.617,33.203,46.387,59.082,44.922,0
1486660443.559,122.070,38.086,36.621,109.863,83.496,0
1486660443.562,79.102,35.156,42.480,80.566,55.664,0
1486660443.566,-14.160,28.320,50.781,20.996,11.230,0
1486660443.570,-44.922,26.367,51.270,5.371,35.645,0
1486660443.574,41.504,27.832,40.527,49.805,52.734,0
1486660443.578,119.141,34.668,31.250,92.285,54.688,0
1486660443.582,86.914,38.574,39.551,66.895,51.758,0
1486660443.586,-9.277,35.156,52.246,13.672,36.133,0
1486660443.590,-48.340,30.762,55.664,-6.836,21.484,0
1486660443.594,24.902,30.273,41.992,36.133,13.672,0
1486660443.598,111.816,33.203,30.762,87.891,59.082,0
1486660443.602,100.586,37.598,41.992,84.961,73.730,0
1486660443.605,9.766,36.133,52.246,25.391,61.523,0
1486660443.609,-48.828,27.832,50.781,-4.883,62.500,0
1486660443.613,18.066,29.785,44.922,36.133,23.438,0
1486660443.617,110.352,36.133,39.062,96.680,15.137,0
1486660443.621,109.863,38.086,45.410,105.957,64.453,0
1486660443.625,27.344,37.109,55.176,46.875,50.293,0
1486660443.629,-41.016,30.273,55.176,4.883,35.156,0
1486660443.633,12.207,26.367,41.504,37.109,50.781,0
1486660443.637,106.934,32.227,37.109,102.051,65.918,0
1486660443.641,106.934,36.133,41.992,106.445,64.941,0
1486660443.645,28.320,32.715,47.363,40.039,44.434,0
1486660443.648,-50.293,25.879,60.059,-3.906,19.531,0
1486660443.652,-17.090,22.461,53.711,27.344,-4.883,0
1486660443.656,94.238,30.273,36.621,76.660,26.855,0
1486660443.660,109.863,37.109,37.598,86.914,56.152,0
1486660443.664,27.344,35.645,48.828,37.598,49.316,0
1486660443.668,-50.781,30.762,51.758,-13.184,57.617,0
1486660443.672,-23.926,31.738,44.434,1.953,52.246,0
1486660443.676,77.148,35.156,38.086,63.477,54.688,0
1486660443.680,112.793,39.062,41.992,98.633,71.289,0
1486660443.684,59.082,39.062,47.363,51.758,58.594,1
1486660443.687,-32.227,33.691,55.176,-8.301,43.945,0
1486660443.691,-28.809,29.297,52.246,-1.465,45.898,0
1486660443.695,78.125,34.180,36.621,58.594,91.309,0
1486660443.699,117.188,39.551,37.109,99.121,150.879,0
1486660443.703,61.523,34.180,48.340,60.547,67.871,0
1486660443.707,-24.902,29.297,52.734,3.418,18.066,0
1486660443.711,-44.922,27.344,51.270,1.953,47.363,0
1486660443.715,49.805,31.250,43.945,49.316,60.547,0
1486660443.719,113.770,35.645,41.504,97.168,70.312,0
1486660443.723,67.383,36.621,42.969,67.871,64.453,0
1486660443.727,-21.973,30.762,47.363,1.465,46.875,0
1486660443.730,-47.852,25.391,53.711,-1.953,28.320,0
1486660443.734,44.922,31.250,46.387,52.246,33.203,0
1486660443.738,116.211,36.621,41.504,96.191,47.852,0
1486660443.742,89.355,39.062,46.387,69.336,24.902,0
1486660443.746,7.812,38.086,55.664,18.066,3.906,0
1486660443.750,-36.621,30.273,62.012,8.301,34.668,0
1486660443.754,39.551,30.273,43.457,39.551,44.434,0
1486660443.758,123.047,38.574,29.785,99.121,60.059,0
1486660443.762,109.863,38.574,39.062,94.238,47.363,0
1486660443.766,12.695,33.203,47.363,31.738,38.574,0
1486660443.770,-37.598,30.273,50.781,7.324,56.641,0
1486660443.773,28.320,29.297,48.340,44.922,45.410,0
1486660443.777,110.352,35.645,38.086,104.004,89.355,0
1486660443.781,107.422,36.133,41.016,95.215,69.824,0
1486660443.785,17.578,31.250,53.711,28.809,30.273,0
1486660443.789,-53.223,26.855,54.688,0.000,78.125,0
1486660443.793,1.465,25.391,45.410,28.320,70.312,0
1486660443.797,100.098,30.273,37.109,86.914,43.945,0
1486660443.801,102.539,32.227,37.109,92.773,51.758,0
1486660443.805,29.297,31.738,48.828,36.621,14.648,0
1486660443.809,-42.969,28.320,62.500,6.836,20.996,0
1486660443.812,-8.301,28.809,54.688,20.020,22.461,0
1486660443.816,93.750,34.180,37.598,77.637,23.438,0
1486660443.820,108.887,35.156,35.645,108.887,65.918,0
1486660443.824,38.086,34.180,44.434,51.758,78.125,0
1486660443.828,-45.898,29.785,55.664,-4.395,48.828,0
1486660443.832,-28.809,25.879,52.246,10.254,33.691,0
1486660443.836,78.125,30.273,39.551,75.195,42.969,0
1486660443.840,112.793,35.645,39.062,104.004,89.844,0
1486660443.844,54.688,35.156,47.363,47.852,79.102,0
1486660443.848,-32.715,28.320,52.734,-2.441,44.434,0
1486660443.852,-30.762,25.879,44.434,3.906,57.617,0
1486660443.855,74.219,30.273,32.715,67.871,51.270,0
1486660443.859,124.023,37.109,33.203,111.328,66.895,0
1486660443.863,68.848,36.621,42.969,59.082,69.336,0
1486660443.867,-23.926,32.227,51.270,5.859,55.176,0
1486660443.871,-23.438,31.738,47.852,5.859,47.852,0
1486660443.875,95.215,36.133,36.133,62.500,64.453,0
1486660443.879,151.855,41.504,35.645,121.094,73.242,0
1486660443.883,95.215,41.016,45.898,84.473,67.383,0
1486660443.887,4.395,38.086,52.246,20.996,54.688,0
1486660443.891,-26.367,34.180,48.340,4.395,42.480,0
1486660443.894,65.430,34.668,39.062,56.152,27.344,0
1486660443.898,125.977,41.016,36.621,118.652,57.129,0
1486660443.902,83.984,41.992,42.969,93.750,93.750,0
1486660443.906,-4.883,35.645,53.223,43.457,77.637,0
1486660443.910,-50.293,28.320,57.617,29.785,21.973,0
1486660443.914,33.691,30.273,50.781,73.242,13.184,0
1486660443.918,110.352,38.086,41.504,125.488,84.473,0
1486660443.922,91.309,41.016,44.922,97.656,55.176,0
1486660443.926,11.719,38.086,56.152,34.180,15.137,0
1486660443.930,-53.223,33.691,59.570,10.254,40.039,0
1486660443.934,16.113,33.203,44.922,46.387,34.180,0
1486660443.937,113.281,36.133,33.691,104.492,71.289,0
1486660443.941,110.352,39.062,47.852,97.656,50.781,0
1486660443.945,24.902,39.062,62.500,38.574,12.695,0
1486660443.949,-46.875,33.203,56.152,0.488,6.836,0
1486660443.953,3.418,31.250,46.875,25.879,15.137,0
1486660443.957,97.656,39.062,41.016,93.750,62.012,0
1486660443.961,100.586,42.969,40.527,95.215,90.332,0
1486660443.965,17.090,36.133,47.852,32.227,65.918,0
1486660443.969,-58.105,30.762,52.246,-5.371,52.734,0
1486660443.973,-18.066,30.762,47.363,26.367,30.762,0
1486660443.977,86.914,35.156,36.621,92.773,60.547,0
1486660443.980,108.398,38.086,40.527,104.492,100.098,0
1486660443.984,42.480,39.062,54.688,53.223,69.824,0
1486660443.988,-37.598,32.227,56.641,7.812,71.289,0
1486660443.992,-14.160,24.414,48.828,26.367,28.320,0
1486660443.996,89.355,29.785,37.109,95.215,31.738,0
1486660444.000,114.746,35.645,36.133,118.652,55.664,0
1486660444.004,53.711,37.109,48.828,61.035,33.691,0
1486660444.008,-34.668,33.203,56.152,9.277,50.781,0
1486660444.012,-30.273,29.785,51.758,27.344,56.152,0
1486660444.016,80.566,34.668,42.969,86.426,45.898,0
1486660444.019,124.512,41.992,38.574,114.258,49.805,0
1486660444.023,66.406,41.992,44.434,72.754,64.941,0
1486660444.027,-23.926,33.203,62.012,16.113,61.035,0
1486660444.031,-32.227,25.879,60.059,12.695,26.367,0
1486660444.035,68.359,29.297,39.551,70.801,1.465,0
1486660444.039,121.582,38.086,35.156,114.746,63.477,0
1486660444.043,70.801,38.086,44.434,75.684,60.059,0
1486660444.047,-24.414,32.227,56.152,14.648,24.414,0
1486660444.051,-50.293,29.297,51.758,9.766,59.570,0
1486660444.055,45.410,32.227,39.551,55.176,45.410,0
1486660444.059,119.141,36.133,38.574,98.633,20.020,0
1486660444.062,86.914,38.086,41.992,70.801,38.574,0
1486660444.066,-8.301,33.691,50.781,11.230,51.758,0
1486660444.070,-45.898,27.344,52.734,1.953,43.945,0
1486660444.074,44.434,30.762,41.016,48.828,55.176,0
1486660444.078,120.117,39.062,37.109,104.980,94.727,0
1486660444.082,98.633,42.969,43.945,76.660,78.613,0
1486660444.086,13.184,38.086,49.316,7.324,81.055,0
1486660444.090,-50.781,29.297,54.199,-14.160,83.496,0
1486660444.094,18.555,28.809,45.898,25.391,26.855,0
1486660444.098,117.188,39.062,32.715,83.008,44.434,0
1486660444.102,97.168,42.480,35.645,71.777,56.641,0
1486660444.105,12.207,37.598,47.363,11.719,10.254,0
1486660444.109,-41.992,35.156,54.199,-18.555,-24.414,0
1486660444.113,14.160,39.062,46.387,28.809,10.254,0
1486660444.117,106.445,43.945,36.621,89.844,57.129,0
1486660444.121,106.934,42.969,40.527,88.867,55.176,0
1486660444.125,27.344,38.574,47.852,27.832,54.688,0
1486660444.129,-45.898,33.691,52.246,-8.789,60.547,0
1486660444.133,-0.488,31.738,48.340,32.715,47.852,0
1486660444.137,105.469,37.109,37.598,97.168,51.270,0
1486660444.141,115.723,39.062,33.691,98.145,67.871,0
1486660444.144,40.039,38.086,46.875,40.527,54.688,0
1486660444.148,-34.668,34.180,58.105,6.836,68.848,0
1486660444.152,-7.324,31.250,50.293,32.227,76.172,0
1486660444.156,97.168,37.109,43.457,94.238,69.824,0
1486660444.160,125.000,43.457,44.434,113.281,100.098,0
1486660444.164,54.199,40.527,44.922,57.617,98.145,0
1486660444.168,-32.227,33.691,50.293,5.859,45.410,0
1486660444.172,-18.555,33.691,53.223,23.438,33.691,0
1486660444.176,86.426,36.621,41.016,85.449,59.570,0
1486660444.180,120.605,40.039,42.480,113.281,75.195,0
1486660444.184,57.617,39.062,47.852,60.547,46.875,0
1486660444.187,-29.297,35.645,49.316,5.859,29.297,0
1486660444.191,-34.180,32.227,50.781,12.207,82.520,0
1486660444.195,68.359,34.180,41.992,65.918,92.285,0
1486660444.199,119.629,39.062,37.109,109.375,75.684,0
1486660444.203,68.848,38.086,42.480,68.359,76.660,0
1486660444.207,-21.484,33.691,56.152,11.230,43.457,0
1486660444.211,-33.203,27.832,61.523,24.902,32.227,0
1486660444.215,55.176,30.273,44.922,70.801,83.496,0
1486660444.219,116.211,37.109,39.551,104.004,103.516,0
1486660444.223,79.102,36.133,44.922,71.289,54.688,0
1486660444.227,-18.066,32.715,51.758,7.812,40.527,0
1486660444.230,-55.176,30.273,53.223,6.836,72.754,0
1486660444.234,33.203,30.762,40.039,50.293,39.062,0
1486660444.238,112.793,35.156,31.738,96.680,42.480,0
1486660444.242,81.055,37.109,40.527,79.590,39.551,0
1486660444.246,-8.301,33.691,50.293,12.207,20.020,0
1486660444.250,-55.176,28.320,52.246,-6.836,28.320,0
1486660444.254,26.855,30.273,39.551,40.039,41.016,0
1486660444.258,113.770,36.621,34.180,99.609,93.262,0
1486660444.262,91.309,38.574,39.062,83.984,79.102,0
1486660444.266,6.348,37.598,42.480,17.578,26.367,0
1486660444.269,-48.828,33.203,48.828,0.000,69.824,0
1486660444.273,13.184,30.762,43.945,34.180,70.801,0
1486660444.277,110.352,36.133,40.039,87.891,42.969,0
1486660444.281,99.609,37.598,42.969,79.102,41.016,0
1486660444.285,10.254,31.250,44.922,19.531,30.762,0
1486660444.289,-55.176,27.832,48.340,-2.930,43.457,0
1486660444.293,-6.348,27.832,42.969,23.926,44.922,0
1486660444.297,101.074,31.738,32.715,88.867,62.012,0
1486660444.301,114.258,35.156,36.621,94.238,83.984,1
1486660444.305,36.133,33.203,46.875,31.738,50.781,0
1486660444.309,-45.410,28.809,52.734,-1.953,18.555,0
1486660444.312,-14.160,26.855,52.246,18.555,50.781,0
1486660444.316,90.332,32.715,47.363,76.660,80.078,0
1486660444.320,112.793,38.086,44.922,91.797,57.617,0
1486660444.324,42.969,34.668,47.852,30.762,46.875,0
1486660444.328,-41.992,29.297,53.711,-6.348,46.875,0
1486660444.332,-24.902,25.391,47.363,13.672,24.902,0
1486660444.336,77.148,27.832,36.621,68.359,32.715,0
1486660444.340,116.211,34.668,38.086,100.586,81.543,0
1486660444.344,55.664,34.668,48.340,43.945,67.383,0
1486660444.348,-41.016,30.762,54.199,-6.836,44.922,0
1486660444.351,-28.809,29.297,53.711,14.648,50.293,0
1486660444.355,73.730,32.227,44.434,69.824,44.434,0
1486660444.359,113.281,34.668,36.621,99.609,54.199,0
1486660444.363,67.383,36.621,44.922,59.082,46.387,0
1486660444.367,-29.785,31.250,50.781,5.859,39.551,0
1486660444.371,-46.875,26.367,50.781,8.301,42.969,0
1486660444.375,56.641,26.367,43.945,66.895,29.297,0
1486660444.379,119.629,33.691,32.227,110.352,67.383,0
1486660444.383,73.242,38.086,38.086,55.176,75.195,0
1486660444.387,-16.113,31.738,54.688,-8.789,1.953,0
1486660444.391,-39.551,30.762,55.664,1.953,29.297,0
1486660444.394,49.805,32.715,42.480,55.176,45.410,0
1486660444.398,119.141,37.598,36.621,112.793,66.895,0
1486660444.402,84.961,38.086,42.969,77.637,86.914,0
1486660444.406,-10.254,32.227,50.293,14.160,64.941,0
1486660444.410,-55.664,26.855,53.223,6.836,48.828,0
1486660444.414,27.832,29.785,44.434,43.945,47.363,0
1486660444.418,113.281,39.062,39.551,103.027,88.379,0
1486660444.422,90.332,42.480,44.434,82.520,81.055,0
1486660444.426,3.418,37.109,50.293,15.625,42.480,0
1486660444.430,-42.480,28.809,55.664,-2.930,26.855,0
1486660444.434,27.344,27.832,45.898,35.645,2.930,0
1486660444.437,114.258,37.598,35.156,100.098,50.781,0
1486660444.441,104.004,40.527,41.016,94.238,67.871,0
1486660444.445,24.414,33.203,42.480,28.809,48.340,0
1486660444.449,-49.316,28.320,48.828,0.488,23.438,0
1486660444.453,-10.742,29.297,49.316,37.109,-0.488,0
1486660444.457,93.750,32.715,38.574,110.352,36.133,0
1486660444.461,100.586,35.156,41.016,104.492,41.504,0
1486660444.465,25.391,31.250,44.922,39.062,14.648,0
1486660444.469,-46.387,28.320,47.852,12.695,24.902,0
1486660444.473,-8.301,29.297,44.922,34.668,28.809,0
1486660444.476,96.191,34.180,32.227,104.004,71.777,0
1486660444.480,113.770,37.598,32.715,119.141,86.426,0
1486660444.484,41.016,36.621,49.805,54.688,45.898,0
1486660444.488,-40.527,33.691,50.781,16.113,68.848,0
1486660444.492,-16.602,29.297,45.898,33.691,78.125,0
1486660444.496,87.402,32.715,39.551,98.633,88.867,0
1486660444.500,116.211,39.551,33.203,111.816,104.492,0
1486660444.504,57.129,36.621,42.480,44.922,34.180,0
1486660444.508,-27.832,32.227,51.758,1.465,14.160,0
1486660444.512,-22.949,31.738,47.852,12.695,38.086,0
1486660444.516,84.961,37.598,34.668,73.730,40.039,0
1486660444.519,123.047,43.945,34.180,109.863,75.195,0
1486660444.523,65.430,41.016,39.551,59.570,72.266,0
1486660444.527,-18.066,35.156,46.875,16.602,58.594,0
1486660444.531,-30.762,32.227,51.270,21.973,58.105,0
1486660444.535,70.312,35.156,41.504,69.336,37.598,0
1486660444.539,127.441,38.574,33.691,106.934,50.781,0
1486660444.543,78.125,38.574,38.574,77.148,62.500,0
1486660444.547,-15.137,32.715,51.758,22.461,38.574,0
1486660444.551,-39.551,30.762,49.805,11.719,65.430,0
1486660444.555,61.035,37.109,37.598,66.895,56.152,0
1486660444.559,130.371,39.062,34.668,114.258,20.508,0
1486660444.562,91.309,39.062,37.109,92.285,7.812,0
1486660444.566,0.977,38.086,47.852,36.133,-3.906,0
1486660444.570,-41.992,31.738,55.176,14.648,1.465,0
1486660444.574,36.621,31.250,40.039,55.664,22.949,0
1486660444.578,117.676,36.621,30.762,98.145,54.199,0
1486660444.582,96.191,39.062,38.574,79.590,57.617,0
1486660444.586,10.254,34.180,48.340,29.297,42.480,0
1486660444.590,-41.016,29.297,53.711,11.230,5.859,0
1486660444.594,29.785,31.250,50.293,50.781,-25.879,0
1486660444.598,124.512,40.039,39.062,105.957,35.156,0
1486660444.601,109.375,42.480,34.668,100.586,68.848,0
1486660444.605,31.738,37.598,46.875,38.086,25.391,0
1486660444.609,-31.738,32.715,56.152,3.906,29.785,0
1486660444.613,12.695,32.715,45.898,36.133,66.895,0
1486660444.617,118.164,37.109,35.156,83.984,59.570,0
1486660444.621,123.047,37.109,41.016,88.379,42.969,0
1486660444.625,41.992,35.645,48.828,35.645,29.785,0
1486660444.629,-32.227,33.203,52.246,-2.441,18.066,0
1486660444.633,2.930,31.250,54.199,35.645,19.043,0
1486660444.637,99.609,33.691,43.945,95.703,79.102,0
1486660444.641,104.980,35.645,39.551,109.863,106.934,0
1486660444.644,34.180,37.598,51.270,59.570,50.781,0
1486660444.648,-38.574,33.203,61.523,12.207,47.363,0
1486660444.652,-12.207,26.855,59.570,41.016,60.547,0
1486660444.656,85.449,32.715,45.410,93.750,57.617,0
1486660444.660,113.281,38.086,45.898,111.328,96.680,0
1486660444.664,51.270,34.668,56.641,58.594,77.148,0
1486660444.668,-35.156,29.297,62.012,1.465,41.992,0
1486660444.672,-25.879,27.832,55.664,23.926,67.871,0
1486660444.676,81.055,31.738,39.551,83.984,82.031,0
1486660444.680,124.512,32.715,37.109,108.398,93.750,0
1486660444.684,62.500,32.715,48.340,64.941,91.309,0
1486660444.687,-31.738,30.273,54.688,13.672,77.148,0
1486660444.691,-34.180,27.832,54.199,24.902,72.754,0
1486660444.695,68.359,32.715,46.875,74.707,57.617,0
1486660444.699,118.652,39.551,44.434,109.375,69.336,0
1486660444.703,67.871,42.969,52.246,77.148,57.129,0
1486660444.707,-22.949,39.062,55.664,20.508,41.016,0
1486660444.711,-45.898,34.180,54.199,19.043,50.781,0
1486660444.715,48.340,34.180,42.480,66.406,41.016,0
1486660444.719,113.770,38.086,37.109,107.910,62.012,0
1486660444.723,76.660,38.574,44.922,84.473,66.406,0
1486660444.726,-10.254,35.156,53.223,24.902,57.617,0
1486660444.730,-48.828,29.297,55.664,11.719,42.480,0
1486660444.734,39.551,33.203,44.922,54.199,38.574,0
1486660444.738,123.535,40.527,36.621,106.934,55.664,0
1486660444.742,94.727,40.527,44.922,91.309,48.828,0
1486660444.746,1.465,36.133,61.035,31.250,39.062,0
1486660444.750,-51.270,30.762,62.012,12.207,20.996,0
1486660444.754,18.066,28.809,47.852,45.898,20.508,0
1486660444.758,111.816,32.715,41.016,98.145,35.645,0
1486660444.762,98.145,35.156,42.969,85.449,12.207,0
1486660444.766,12.207,33.203,50.781,25.391,10.742,0
1486660444.769,-47.363,29.297,55.176,-4.395,17.090,0
1486660444.773,9.766,30.273,50.781,31.250,7.324,0
1486660444.777,108.398,37.598,44.434,92.285,55.176,0
1486660444.781,104.980,38.086,45.898,85.938,33.203,0
1486660444.785,24.902,35.645,52.734,20.020,10.742,0
1486660444.789,-42.480,31.738,59.570,-11.230,30.762,0
1486660444.793,-4.395,28.320,54.199,12.695,15.137,0
1486660444.797,95.703,33.203,43.945,74.219,5.371,0
1486660444.801,111.328,38.086,46.875,94.238,1.465,0
1486660444.805,38.574,39.062,53.711,28.320,-2.930,0
1486660444.808,-44.434,31.250,55.176,-15.137,15.137,0
1486660444.812,-15.625,29.297,53.223,16.113,18.555,0
1486660444.816,93.750,37.598,42.480,78.125,21.484,0
1486660444.820,122.070,40.527,38.574,95.703,26.855,0
1486660444.824,50.781,37.598,45.410,38.574,23.438,0
1486660444.828,-34.668,32.715,51.758,-9.766,49.805,0
1486660444.832,-19.531,28.320,53.711,12.207,66.895,0
1486660444.836,83.008,34.668,44.922,75.684,100.098,0
1486660444.840,121.094,41.016,37.109,103.027,88.379,0
1486660444.844,59.082,37.109,41.016,55.176,42.480,1
1486660444.848,-35.645,31.250,52.246,7.324,76.172,0
1486660444.851,-39.062,27.344,51.758,17.578,87.402,0
1486660444.855,65.430,29.297,39.062,61.523,62.500,0
1486660444.859,112.305,32.715,31.738,93.262,98.633,0
1486660444.863,58.105,31.738,37.109,54.688,70.801,0
1486660444.867,-25.879,30.273,49.316,-4.883,45.410,0
1486660444.871,-50.293,28.320,50.293,1.465,64.453,0
1486660444.875,38.086,32.715,37.598,45.898,35.156,0
1486660444.879,103.516,37.109,37.109,85.449,60.547,0
1486660444.883,65.918,37.598,44.434,58.594,86.914,0
1486660444.887,-15.137,37.109,47.363,3.418,54.199,0
1486660444.891,-52.246,33.203,50.293,-8.301,48.340,0
1486660444.894,34.668,32.715,43.457,38.086,84.473,0
1486660444.898,113.770,38.574,34.180,91.797,77.637,0
1486660444.902,84.473,39.062,36.621,66.406,46.387,0
1486660444.906,-3.906,33.691,46.387,15.137,29.785,0
1486660444.910,-53.711,27.832,52.246,10.742,41.016,0
1486660444.914,22.949,27.832,47.363,50.293,44.922,0
1486660444.918,109.863,34.668,38.086,104.980,53.223,0
1486660444.922,86.914,37.109,37.598,95.215,76.172,0
1486660444.926,-0.977,32.227,45.898,30.762,20.508,0
1486660444.930,-56.152,28.320,50.293,8.789,-11.230,0
1486660444.933,8.789,29.297,44.922,49.316,10.742,0
1486660444.937,103.516,34.180,37.109,108.398,69.336,0
1486660444.941,101.562,35.645,40.527,107.910,69.824,0
1486660444.945,15.625,33.691,46.387,39.551,60.059,0
1486660444.949,-61.035,29.297,53.711,-1.465,54.199,0
1486660444.953,-9.277,27.344,51.270,33.203,25.391,0
1486660444.957,95.215,34.180,39.551,92.773,56.641,0
1486660444.961,102.539,37.598,44.434,97.656,67.383,0
1486660444.965,31.738,33.691,55.176,37.598,15.137,0
1486660444.969,-41.016,30.273,58.594,-2.930,10.254,0
1486660444.973,-6.348,29.785,50.781,25.879,41.504,0
1486660444.976,97.168,31.250,36.133,96.191,47.363,0
1486660444.980,126.953,37.598,36.133,111.816,63.965,0
1486660444.984,59.082,38.086,49.316,58.594,66.406,0
1486660444.988,-31.738,33.203,55.664,18.555,58.594,0
1486660444.992,-6.836,31.250,52.734,33.203,34.668,0
1486660444.996,98.145,37.109,40.527,95.703,15.625,0
1486660445.000,126.465,44.434,41.016,119.141,54.688,0
1486660445.004,71.289,41.504,52.246,65.918,51.758,0
1486660445.008,-16.113,36.621,53.711,20.508,50.293,0
1486660445.012,-18.555,35.156,53.711,25.391,61.523,0
1486660445.016,82.520,39.062,45.898,87.402,53.223,0
1486660445.019,136.230,44.922,41.992,120.605,62.012,0
1486660445.023,75.195,41.992,47.852,64.941,46.875,0
1486660445.027,-26.855,36.621,55.664,15.137,65.430,0
1486660445.031,-35.156,33.203,53.223,16.602,68.848,0
1486660445.035,62.012,36.621,41.016,61.035,44.434,0
1486660445.039,117.188,43.457,38.574,104.980,102.539,0
1486660445.043,74.707,41.016,44.434,64.941,110.840,0
1486660445.047,-20.508,32.227,51.270,5.371,83.496,0
1486660445.051,-47.363,26.855,51.270,-0.488,72.754,0
1486660445.055,50.781,28.809,44.434,56.641,63.965,0
1486660445.058,118.164,38.574,41.016,110.840,99.609,0
1486660445.062,92.285,40.527,41.016,76.660,83.008,0
1486660445.066,4.395,34.180,49.316,21.973,72.754,0
1486660445.070,-44.922,29.297,54.199,1.465,67.383,0
1486660445.074,38.574,29.297,42.969,36.133,49.805,0
1486660445.078,115.234,35.156,34.180,99.609,67.871,0
1486660445.082,95.703,36.133,39.062,87.891,57.617,0
1486660445.086,15.137,34.668,47.852,31.250,44.922,0
1486660445.090,-43.945,31.250,51.270,6.836,23.926,0
1486660445.094,22.949,29.785,41.992,49.316,47.852,0
1486660445.098,119.141,36.621,31.250,112.305,80.078,0
1486660445.101,106.934,39.551,41.504,102.539,32.715,0
1486660445.105,18.555,36.621,55.176,42.969,1.953,0
1486660445.109,-43.945,32.227,57.129,6.836,24.414,0
1486660445.113,7.324,30.273,48.340,36.621,26.855,0
1486660445.117,106.445,37.109,36.133,97.168,44.922,0
1486660445.121,112.793,41.504,40.039,102.539,57.129,0
1486660445.125,36.133,37.109,52.246,44.434,25.391,0
1486660445.129,-43.945,28.809,52.734,1.465,35.645,0
1486660445.133,-14.160,24.414,46.387,34.180,31.738,0
1486660445.137,93.262,29.297,34.668,103.027,48.828,0
1486660445.140,117.188,34.180,39.551,112.793,60.547,0
1486660445.144,49.316,33.691,46.875,52.734,31.250,0
1486660445.148,-35.156,26.367,50.293,9.277,54.688,0
1486660445.152,-17.090,24.902,47.852,26.367,41.992,0
1486660445.156,83.496,28.809,32.715,91.797,30.762,0
1486660445.160,117.188,32.227,30.273,117.188,59.082,0
1486660445.164,60.059,30.762,45.898,66.895,18.066,0
1486660445.168,-24.902,27.344,51.758,11.719,10.254,0
1486660445.172,-25.391,25.879,44.434,14.160,27.832,0
1486660445.176,76.660,28.320,34.180,80.078,56.152,0
1486660445.180,126.465,36.133,31.738,108.887,94.238,0
1486660445.183,68.359,36.133,42.969,66.895,62.988,0
1486660445.187,-27.832,30.273,52.246,10.742,74.219,0
1486660445.191,-33.691,27.832,54.199,11.230,71.289,0
1486660445.195,68.359,32.227,45.898,80.078,14.648,0
1486660445.199,126.953,38.086,41.992,116.699,47.363,0
1486660445.203,85.449,40.039,49.316,74.219,53.711,0
1486660445.207,-3.418,36.133,56.152,14.160,27.344,0
1486660445.211,-30.762,31.250,56.152,15.137,56.641,0
1486660445.215,60.547,34.180,45.898,60.547,53.711,0
1486660445.219,127.930,40.527,39.062,106.445,55.664,0
1486660445.223,98.145,44.434,45.410,85.449,76.660,0
1486660445.226,10.742,39.062,56.152,20.996,77.637,0
1486660445.230,-34.180,32.227,58.594,12.695,66.895,0
1486660445.234,48.828,32.715,46.387,61.523,46.387,0
1486660445.238,130.859,40.039,43.945,117.676,73.242,0
1486660445.242,97.168,41.992,51.270,103.516,98.145,0
1486660445.246,5.859,36.133,54.199,28.320,69.336,0
1486660445.250,-47.852,30.273,55.176,5.859,9.766,0
1486660445.254,18.555,30.273,44.922,45.410,-26.367,0
1486660445.258,111.816,35.156,36.133,97.168,33.203,0
1486660445.262,98.145,37.109,40.527,89.355,82.520,0
1486660445.265,15.625,33.691,45.898,17.578,31.738,0
1486660445.269,-47.852,30.273,54.199,-9.766,1.465,0
1486660445.273,1.465,29.785,47.363,36.133,14.160,0
1486660445.277,100.586,34.180,38.574,99.609,55.664,0
1486660445.281,99.609,38.086,42.480,99.609,82.520,0
1486660445.285,22.949,38.086,44.922,32.227,80.566,0
1486660445.289,-47.852,32.715,50.781,-3.418,80.078,0
1486660445.293,-13.672,27.832,44.434,21.973,60.059,0
1486660445.297,89.844,34.668,37.109,77.148,70.801,0
1486660445.301,109.375,41.992,42.480,94.727,62.012,0
1486660445.305,36.133,36.621,48.828,23.926,26.855,0
1486660445.308,-42.969,30.762,52.246,-23.926,29.297,0
1486660445.312,-17.578,28.809,48.828,10.254,20.996,0
1486660445.316,82.031,31.738,41.504,70.312,18.066,0
1486660445.320,111.816,35.645,39.062,88.867,33.691,0
1486660445.324,53.711,34.180,42.480,30.273,23.926,0
1486660445.328,-39.551,29.785,48.828,-18.555,22.461,0
1486660445.332,-37.109,25.879,47.852,-2.441,16.113,0
1486660445.336,78.613,34.668,41.504,66.406,48.828,0
1486660445.340,113.770,41.016,40.527,94.238,96.680,0
1486660445.344,54.199,39.551,46.875,34.180,77.637,0
1486660445.348,-28.320,36.133,54.199,-20.996,70.312,0
1486660445.351,-44.434,32.227,49.316,-7.812,55.176,0
1486660445.355,62.500,34.180,38.574,57.129,28.320,0
1486660445.359,125.000,38.574,37.109,93.750,47.852,0
1486660445.363,70.312,38.574,40.527,47.363,41.992,0
1486660445.367,-25.391,33.691,47.363,-7.812,47.363,0
1486660445.371,-35.645,28.320,49.805,-1.465,47.852,0
1486660445.375,69.824,33.691,41.016,51.758,23.438,0
1486660445.379,132.324,41.016,37.109,99.609,50.293,0
1486660445.383,89.355,40.527,41.504,65.430,72.754,0
1486660445.387,-3.906,37.109,50.293,-1.465,47.852,0
1486660445.390,-47.852,29.785,52.246,-11.230,3.418,0
1486660445.394,29.297,30.762,41.504,38.086,-17.578,0
1486660445.398,104.004,35.156,35.645,95.215,18.066,0
1486660445.402,80.566,34.180,41.504,74.219,57.129,0
1486660445.406,-7.324,32.715,54.688,11.719,32.227,0
1486660445.410,-58.594,28.809,58.594,0.488,39.062,0
1486660445.414,18.066,28.809,46.875,30.273,37.598,0
1486660445.418,107.910,35.645,39.062,84.961,65.430,0
1486660445.422,99.121,39.551,47.852,78.125,52.734,0
1486660445.426,14.648,39.062,53.711,18.555,21.484,0
1486660445.430,-56.152,30.762,54.199,-4.883,17.578,0
1486660445.433,1.953,27.344,48.828,25.879,20.020,0
1486660445.437,98.633,35.156,38.574,84.473,49.805,0
1486660445.441,100.586,38.086,40.039,86.426,30.762,0
1486660445.445,26.855,34.180,52.246,23.438,-25.391,0
1486660445.449,-40.527,30.762,56.152,-5.371,-12.207,0
1486660445.453,3.906,34.180,46.875,26.855,4.395,0
1486660445.457,98.145,36.133,38.086,83.008,13.184,0
1486660445.461,111.816,35.156,37.598,93.262,42.969,0
1486660445.465,47.852,37.109,47.363,43.945,21.973,0
1486660445.469,-40.527,30.762,54.199,9.766,26.855,0
1486660445.473,-18.066,25.391,48.828,30.762,20.020,0
1486660445.476,95.215,33.691,38.574,96.191,17.578,1
1486660445.480,118.164,39.062,40.039,113.281,67.871,0
1486660445.484,51.270,37.109,55.176,57.129,29.785,0
1486660445.488,-27.832,33.691,61.035,10.254,32.227,0
1486660445.492,-19.531,27.344,54.199,23.438,45.898,0
1486660445.496,83.496,33.203,44.922,78.613,40.039,0
1486660445.500,123.535,39.551,41.504,103.516,81.543,0
1486660445.504,62.500,35.645,44.922,62.988,81.543,0
1486660445.508,-27.832,31.738,54.199,22.461,78.125,0
1486660445.512,-26.367,28.320,55.176,24.414,68.359,0
1486660445.515,77.148,31.738,45.898,83.496,46.387,0
1486660445.519,125.977,37.109,41.016,127.930,65.918,0
1486660445.523,71.289,37.109,42.480,71.777,67.383,0
1486660445.527,-22.949,33.203,49.805,8.789,53.711,0
1486660445.531,-43.457,28.320,51.270,8.301,37.598,0
1486660445.535,54.688,35.156,43.945,55.176,32.715,0
1486660445.539,117.188,43.457,37.109,101.074,82.031,0
1486660445.543,82.520,41.504,43.945,65.430,65.430,0
1486660445.547,-5.371,36.621,57.129,7.812,45.898,0
1486660445.551,-45.898,31.250,60.059,-3.418,26.367,0
1486660445.555,45.898,34.180,44.922,36.621,4.395,0
1486660445.558,122.070,37.598,30.273,86.426,39.551,0
1486660445.562,90.820,36.133,38.574,66.895,49.316,0
1486660445.566,1.465,31.250,50.781,4.395,36.621,0
1486660445.570,-47.852,24.902,54.688,-13.672,27.832,0
1486660445.574,31.738,24.902,43.457,33.203,18.555,0
1486660445.578,113.770,33.691,29.785,87.891,62.988,0
1486660445.582,91.309,37.109,39.062,72.754,58.105,0
1486660445.586,13.672,35.645,53.223,15.137,9.277,0
1486660445.590,-44.922,31.250,50.781,-6.348,24.902,0
1486660445.594,18.555,27.344,41.016,30.273,14.648,0
1486660445.597,116.211,37.598,35.645,90.332,50.781,0
1486660445.601,112.793,41.992,38.574,85.938,78.125,0
1486660445.605,27.344,36.133,42.969,22.461,31.738,0
1486660445.609,-50.293,31.738,46.387,-7.812,46.875,0
1486660445.613,0.977,31.250,42.480,23.438,73.242,0
1486660445.617,104.004,37.598,36.133,75.684,50.781,0
1486660445.621,111.816,41.992,37.598,82.031,50.781,0
1486660445.625,39.062,41.504,46.875,34.180,38.086,0
1486660445.629,-38.574,34.668,53.223,-6.348,33.203,0
1486660445.633,-11.230,29.297,48.340,9.277,52.734,0
1486660445.637,93.262,33.203,37.598,77.148,73.730,0
1486660445.640,116.699,36.621,40.039,98.145,82.031,0
1486660445.644,46.875,34.668,50.781,49.316,83.008,0
1486660445.648,-40.039,30.762,57.617,11.230,102.051,0
1486660445.652,-31.250,27.832,55.176,18.066,61.035,0
1486660445.656,78.125,33.691,43.945,73.242,47.852,0
1486660445.660,114.746,35.156,40.039,105.957,78.613,0
1486660445.664,49.316,30.762,44.922,53.711,66.895,0
1486660445.668,-46.875,26.855,51.270,-4.395,51.270,0
1486660445.672,-43.945,21.484,49.805,1.953,38.086,0
1486660445.676,64.453,26.367,41.992,67.871,50.781,0
1486660445.680,112.305,32.227,41.992,103.516,89.355,0
1486660445.683,62.988,31.738,48.340,48.828,48.828,0
1486660445.687,-26.855,29.785,54.199,-2.930,20.996,0
1486660445.691,-45.898,24.414,52.246,8.301,59.082,0
1486660445.695,56.152,27.832,41.504,58.594,62.500,0
1486660445.699,117.188,35.156,39.062,99.609,95.703,0
1486660445.703,72.266,35.156,47.363,69.824,83.984,0
1486660445.707,-8.789,30.273,58.105,17.578,52.734,0
1486660445.711,-37.109,27.344,54.688,7.324,38.574,0
1486660445.715,51.270,31.250,41.992,56.641,65.430,0
1486660445.719,125.488,34.180,35.156,105.957,108.398,0
1486660445.722,89.355,35.645,41.504,83.984,95.703,0
1486660445.726,-4.883,32.715,56.152,27.344,68.848,0
1486660445.730,-49.805,29.785,55.176,7.324,55.176,0
1486660445.734,32.715,31.738,42.480,43.945,34.180,0
1486660445.738,116.211,38.574,40.039,99.121,60.059,0
1486660445.742,94.238,37.598,45.898,87.891,74.219,0
1486660445.746,5.859,28.809,50.781,26.855,45.898,0
1486660445.750,-55.176,25.391,53.223,5.371,35.645,0
1486660445.754,11.719,26.367,43.457,36.133,34.668,0
1486660445.758,107.910,34.180,39.062,92.773,54.199,0
1486660445.762,102.539,41.504,47.363,99.609,20.020,0
1486660445.765,21.973,41.992,53.711,35.156,9.277,0
1486660445.769,-46.875,33.691,56.152,6.348,43.945,0
1486660445.773,3.906,30.762,46.875,41.992,52.734,0
1486660445.777,105.469,38.086,37.109,95.215,71.289,0
1486660445.781,114.746,41.992,41.992,101.074,41.992,0
1486660445.785,37.109,39.062,50.781,40.039,9.766,0
1486660445.789,-41.504,31.250,51.758,-4.883,5.371,0
1486660445.793,-5.371,28.320,46.387,24.902,21.973,0
1486660445.797,95.703,33.691,41.504,81.543,40.527,0
1486660445.801,111.816,38.574,41.992,93.262,48.828,0
1486660445.805,43.457,36.621,45.898,47.852,51.270,0
1486660445.808,-36.621,31.250,51.758,0.000,8.301,0
1486660445.812,-22.461,31.250,50.781,19.531,17.090,0
1486660445.816,79.590,36.133,40.527,84.961,46.875,0
1486660445.820,116.211,38.086,38.574,111.816,63.965,0
1486660445.824,55.176,37.598,47.363,61.035,39.062,0
1486660445.828,-35.156,32.227,53.711,6.836,34.668,0
1486660445.832,-30.762,27.832,51.270,19.043,56.152,0
1486660445.836,77.637,35.156,41.992,66.406,54.688,0
1486660445.840,126.953,39.551,41.504,104.492,94.727,0
1486660445.844,67.383,39.062,45.410,71.777,104.004,0
1486660445.847,-27.344,35.645,54.199,11.230,55.176,0
1486660445.851,-30.762,29.785,59.082,19.043,43.457,0
1486660445.855,64.941,34.180,41.992,61.523,82.520,0
1486660445.859,118.652,39.551,37.109,103.516,65.918,0
1486660445.863,75.195,34.668,47.852,79.102,17.090,0
1486660445.867,-16.602,30.273,52.734,10.742,23.926,0
1486660445.871,-44.434,30.273,54.199,2.441,42.480,0
1486660445.875,50.293,31.738,42.969,53.223,56.641,0
1486660445.879,120.117,36.621,34.668,102.539,70.312,0
1486660445.883,81.543,40.527,41.504,84.961,42.480,0
1486660445.887,-10.254,35.645,49.316,25.879,-8.789,0
1486660445.890,-47.363,29.785,52.246,12.695,-6.348,0
1486660445.894,39.062,33.691,42.969,47.852,10.254,0
1486660445.898,122.070,41.016,39.551,101.562,25.879,0
1486660445.902,96.680,41.504,43.945,91.309,54.199,0
1486660445.906,10.254,38.086,48.340,21.484,14.160,0
1486660445.910,-40.527,32.227,52.734,8.789,1.953,0
1486660445.914,32.227,36.621,45.898,46.387,14.160,0
1486660445.918,121.094,42.480,35.645,101.074,45.410,0
1486660445.922,105.957,38.574,35.156,100.098,87.891,0
1486660445.926,21.973,35.156,44.922,36.621,47.363,0
1486660445.930,-42.969,34.180,51.270,7.812,19.043,0
1486660445.933,6.836,31.250,42.480,31.250,28.809,0
1486660445.937,109.863,34.668,30.762,86.426,48.340,0
1486660445.941,118.164,40.527,36.133,100.098,25.879,0
1486660445.945,30.273,41.016,51.270,46.387,14.648,0
1486660445.949,-45.410,33.203,56.152,2.930,45.410,0
1486660445.953,2.930,30.762,48.828,29.785,46.387,0
1486660445.957,106.445,38.086,42.969,92.285,54.688,0
1486660445.961,125.000,40.527,42.969,105.957,54.199,0
1486660445.965,52.246,40.527,44.434,50.781,85.449,0
1486660445.969,-32.715,38.086,51.270,5.859,61.523,0
1486660445.972,-1.465,34.180,49.316,21.484,24.902,0
1486660445.976,101.562,36.133,39.551,78.125,41.992,0
1486660445.980,128.418,43.457,41.504,113.281,56.152,0
1486660445.984,65.918,41.992,47.852,64.453,72.754,0
1486660445.988,-24.414,33.691,56.152,10.742,31.250,0
1486660445.992,-18.555,31.250,54.688,21.484,23.926,0
1486660445.996,89.355,35.645,41.992,80.566,58.594,0
1486660446.000,126.953,40.527,39.062,115.234,56.641,0
1486660446.004,66.895,39.062,45.898,62.988,8.789,0
1486660446.008,-22.461,32.715,48.828,3.418,5.859,0
1486660446.012,-31.738,28.809,43.457,-0.977,20.508,0
1486660446.015,60.547,30.762,32.715,56.152,3.906,0
1486660446.019,117.188,35.645,32.227,105.957,71.289,0
1486660446.023,69.336,34.668,40.039,63.477,95.215,0
1486660446.027,-24.902,30.273,44.922,12.207,60.059,0
1486660446.031,-46.875,26.367,45.410,3.418,40.527,0
1486660446.035,52.246,31.738,36.133,49.316,51.270,0
1486660446.039,115.234,36.133,34.180,107.910,105.469,0
1486660446.043,75.684,36.621,38.574,72.754,96.680,0
1486660446.047,-12.207,30.762,44.434,8.789,47.363,0
1486660446.051,-51.758,23.438,50.781,-1.953,38.574,0
1486660446.054,32.715,27.832,41.016,40.527,40.527,0
1486660446.058,107.422,35.156,33.691,92.773,65.918,0
1486660446.062,81.055,33.691,40.527,74.707,54.199,0
1486660446.066,-5.859,29.297,48.828,26.855,26.855,1
1486660446.070,-51.758,23.438,49.805,1.953,41.504,0
1486660446.074,24.902,26.367,42.480,33.691,30.273,0
1486660446.078,112.793,33.203,39.551,97.168,72.754,0
1486660446.082,91.797,34.668,40.039,78.125,116.211,0
1486660446.086,1.465,31.250,48.828,29.297,91.797,0
1486660446.090,-58.105,23.438,51.758,1.953,83.008,0
1486660446.094,5.859,23.926,40.527,26.855,58.105,0
1486660446.097,102.539,31.250,32.227,94.727,46.875,0
1486660446.101,106.445,33.203,32.715,94.238,62.012,0
1486660446.105,26.855,33.203,43.945,37.598,28.320,0
1486660446.109,-45.898,32.227,51.758,3.418,36.133,0
1486660446.113,2.930,28.320,45.410,27.832,24.414,0
1486660446.117,109.863,32.227,39.551,92.773,18.555,0
1486660446.121,122.070,37.109,43.457,103.516,53.711,0
1486660446.125,45.410,36.133,51.270,50.293,36.621,0
1486660446.129,-34.180,29.785,53.711,10.254,23.926,0
1486660446.133,-10.254,29.785,48.340,31.250,10.254,0
1486660446.137,90.332,36.133,38.574,97.656,28.809,0
1486660446.140,113.281,37.109,36.133,113.281,57.617,0
1486660446.144,42.969,35.645,45.898,54.688,31.738,0
1486660446.148,-45.898,31.738,55.664,12.207,22.949,0
1486660446.152,-35.645,27.832,52.734,23.438,13.184,0
1486660446.156,74.219,31.738,41.992,80.566,29.785,0
1486660446.160,109.863,33.691,41.504,111.328,75.195,0
1486660446.164,50.293,31.250,46.875,62.988,77.637,0
1486660446.168,-36.133,27.344,53.223,17.090,62.012,0
1486660446.172,-32.715,27.344,51.270,23.438,46.387,0
1486660446.176,68.848,31.738,40.039,85.938,56.641,0
1486660446.179,117.676,36.621,38.574,124.023,83.496,0
1486660446.183,64.941,36.133,43.457,75.195,63.477,0
1486660446.187,-33.691,29.297,51.758,16.113,37.598,0
1486660446.191,-44.922,24.902,51.270,16.113,35.645,0
1486660446.195,62.500,33.691,36.133,69.824,46.387,0
1486660446.199,119.629,39.551,35.645,111.816,97.168,0
1486660446.203,80.078,38.086,44.434,83.984,69.824,0
1486660446.207,-8.789,33.691,49.805,28.809,45.410,0
1486660446.211,-47.363,27.344,54.199,15.625,48.340,0
1486660446.215,46.875,30.762,46.875,67.383,21.973,0
1486660446.219,126.465,36.621,37.598,122.559,57.129,0
1486660446.222,92.773,40.039,42.969,90.332,62.500,0
1486660446.226,10.254,38.574,57.129,35.645,37.598,0
1486660446.230,-31.738,31.738,62.012,20.020,69.336,0
1486660446.234,34.668,30.762,48.828,52.246,44.922,0
1486660446.238,109.863,35.645,34.180,109.863,35.156,0
1486660446.242,93.262,36.133,37.598,96.680,60.547,0
1486660446.246,17.090,34.180,51.758,32.715,36.621,0
1486660446.250,-44.434,29.785,53.711,10.254,34.180,0
1486660446.254,18.066,31.250,46.387,43.945,8.789,0
1486660446.258,112.793,39.551,41.992,104.004,22.949,0
1486660446.262,97.656,37.598,44.434,96.680,57.129,0
1486660446.265,16.602,34.180,45.410,28.320,31.250,0
1486660446.269,-47.363,28.320,47.852,-1.465,23.438,0
1486660446.273,0.000,25.879,46.875,31.250,36.621,0
1486660446.277,103.516,33.691,34.668,94.238,61.035,0
1486660446.281,110.352,37.109,33.691,100.098,63.965,0
1486660446.285,34.180,34.668,41.016,39.551,47.363,0
1486660446.289,-40.039,29.297,49.316,5.859,53.223,0
1486660446.293,-4.883,27.344,49.805,29.297,29.297,0
1486660446.297,94.727,32.227,38.086,88.867,25.391,0
1486660446.301,117.188,38.086,42.480,107.422,73.242,0
1486660446.304,55.176,35.156,50.293,49.805,49.805,0
1486660446.308,-26.855,30.273,52.246,5.371,27.344,0
1486660446.312,-15.137,28.809,44.434,23.438,55.664,0
1486660446.316,91.309,32.715,36.133,83.008,34.668,0
1486660446.320,128.418,37.109,36.133,114.746,59.082,0
1486660446.324,69.824,37.598,43.945,62.988,63.965,0
1486660446.328,-18.555,33.203,55.176,11.230,42.480,0
1486660446.332,-21.484,31.250,48.828,20.020,53.223,0
1486660446.336,83.496,39.551,39.551,75.195,55.176,0
1486660446.340,127.441,44.922,33.203,115.234,75.195,0
1486660446.344,74.219,41.992,38.086,63.965,53.223,0
1486660446.347,-15.137,35.645,47.852,7.812,42.480,0
1486660446.351,-34.668,29.785,44.434,8.301,18.066,0
1486660446.355,61.035,33.203,35.645,61.523,5.859,0
1486660446.359,127.930,41.504,36.133,111.328,69.336,0
1486660446.363,84.473,41.504,40.039,74.707,75.195,0
1486660446.367,-9.766,34.180,49.316,10.254,42.480,0
1486660446.371,-40.527,31.250,53.711,6.348,36.621,0
1486660446.375,53.711,35.645,40.039,51.270,56.641,0
1486660446.379,126.953,39.062,32.227,98.633,71.289,0
1486660446.383,90.820,36.133,40.527,75.684,45.898,0
1486660446.386,-0.488,35.156,51.270,12.207,57.617,0
1486660446.390,-44.434,32.715,56.152,2.441,75.195,0
1486660446.394,35.645,32.227,49.805,45.898,65.430,0
1486660446.398,116.699,40.527,39.551,98.145,81.055,0
1486660446.402,91.797,42.969,41.016,82.520,58.594,0
1486660446.406,12.207,37.109,53.223,23.926,65.918,0
1486660446.410,-44.434,31.738,57.129,5.371,79.102,0
1486660446.414,12.695,30.273,45.410,38.086,58.105,0
1486660446.418,114.258,35.645,36.621,92.773,72.266,0
1486660446.422,104.492,38.086,41.016,91.797,55.176,0
1486660446.426,17.090,32.715,50.781,27.832,38.574,0
1486660446.429,-43.945,28.809,55.664,-8.301,58.594,0
1486660446.433,6.836,31.738,47.852,26.855,61.523,0
1486660446.437,101.074,34.180,41.016,95.215,87.891,0
1486660446.441,105.957,32.715,43.945,99.609,108.887,0
1486660446.445,32.227,33.203,50.293,38.086,62.500,0
1486660446.449,-42.969,31.738,56.152,9.766,50.781,0
1486660446.453,-8.301,29.297,50.293,30.762,20.020,0
1486660446.457,97.168,32.227,37.598,88.867,54.688,0
1486660446.461,113.281,35.645,39.551,104.980,82.031,0
1486660446.465,40.527,36.133,50.293,43.945,26.367,0
1486660446.469,-42.969,31.738,55.176,3.418,19.043,0
1486660446.472,-22.949,28.320,52.246,20.508,17.090,0
1486660446.476,82.031,34.668,44.922,88.867,31.738,0
1486660446.480,115.723,37.598,41.504,114.258,35.645,0
1486660446.484,50.781,38.086,44.434,54.688,17.090,0
1486660446.488,-28.320,36.621,56.641,14.160,38.086,0
1486660446.492,-19.531,33.203,54.688,25.879,26.855,0
1486660446.496,81.543,34.180,41.992,86.914,20.020,0
1486660446.500,127.930,40.527,40.527,121.094,57.129,0
1486660446.504,69.336,42.969,49.805,72.266,59.082,0
1486660446.508,-21.973,36.133,56.641,21.484,36.133,0
1486660446.511,-34.668,30.273,54.688,18.066,55.176,0
1486660446.515,65.918,36.621,46.387,62.500,35.645,0
1486660446.519,124.023,43.945,41.016,102.539,56.152,0
1486660446.523,81.543,41.504,45.898,59.082,62.012,0
1486660446.527,-12.207,34.180,52.246,0.000,51.270,0
1486660446.531,-45.410,26.367,49.805,7.812,31.738,0
1486660446.535,51.758,30.273,40.527,55.664,6.836,0
1486660446.539,116.699,36.621,39.062,107.910,73.242,0
1486660446.543,84.473,35.645,40.527,76.172,99.609,0
1486660446.547,-2.441,32.227,49.805,15.137,55.176,0
1486660446.551,-52.246,25.391,52.734,7.324,47.363,0
1486660446.554,32.715,26.855,38.086,37.598,78.613,0
1486660446.558,118.164,37.598,32.715,96.680,88.379,0
1486660446.562,90.820,36.621,44.434,80.566,82.520,0
1486660446.566,-6.348,27.344,50.781,8.301,60.059,0
1486660446.570,-61.035,21.973,45.898,-3.906,50.781,0
1486660446.574,12.207,23.438,41.016,35.645,41.504,0
1486660446.578,104.492,32.227,40.039,97.168,50.293,0
1486660446.582,90.820,36.621,42.969,86.914,109.375,0
1486660446.586,11.230,31.250,46.875,21.973,71.289,0
1486660446.590,-45.410,27.832,50.293,10.742,7.324,0
1486660446.594,8.789,32.715,43.457,40.039,6.836,0
1486660446.597,101.562,37.598,35.156,92.773,29.785,0
1486660446.601,103.516,39.551,43.457,101.562,37.109,0
1486660446.605,34.668,37.109,53.711,37.598,13.184,0
1486660446.609,-43.945,30.762,55.664,2.441,45.410,0
1486660446.613,-6.836,27.344,46.387,32.227,37.109,0
1486660446.617,101.074,33.203,39.551,97.168,32.715,0
1486660446.621,114.258,38.086,47.363,102.051,82.031,0
1486660446.625,37.109,31.738,54.688,43.457,62.012,0
1486660446.629,-42.969,29.297,54.199,14.160,32.227,0
1486660446.633,-19.531,28.320,51.270,26.855,5.371,0
1486660446.636,83.496,32.227,41.504,95.215,22.461,0
1486660446.640,115.234,39.062,36.621,102.539,81.543,0
1486660446.644,48.828,36.133,44.922,38.574,44.434,0
1486660446.648,-37.109,30.273,50.781,14.160,37.598,0
1486660446.652,-30.762,27.344,47.363,18.066,17.090,0
1486660446.656,72.266,32.715,41.504,75.684,25.879,2
1486660446.660,117.188,39.551,37.598,103.516,73.242,0
1486660446.664,67.871,35.645,41.016,57.129,27.832,0
1486660446.668,-24.414,33.691,48.828,12.695,10.254,0
1486660446.672,-36.133,30.762,47.363,20.020,11.719,0
1486660446.676,63.477,32.715,41.016,81.543,20.020,0
1486660446.679,116.699,38.086,43.945,105.469,74.219,0
1486660446.683,72.266,38.086,45.898,62.988,80.078,0
1486660446.687,-21.973,34.668,50.293,22.949,50.293,0
1486660446.691,-49.316,27.832,54.199,11.719,46.387,0
1486660446.695,51.758,29.785,44.922,59.570,44.434,0
1486660446.699,114.258,33.691,36.621,96.191,67.383,0
1486660446.703,66.895,35.156,39.062,57.617,70.312,0
1486660446.707,-18.555,34.180,48.340,9.766,58.105,0
1486660446.711,-52.734,26.367,48.340,4.395,39.551,0
1486660446.715,36.621,28.320,42.480,53.711,26.367,0
1486660446.719,118.164,36.621,34.668,98.633,55.664,0
1486660446.722,95.215,38.574,38.086,80.566,85.449,0
1486660446.726,4.883,35.645,51.270,32.715,71.289,0
1486660446.730,-52.246,30.273,51.270,14.160,58.105,0
1486660446.734,24.902,30.762,38.574,51.758,46.387,0
1486660446.738,111.328,37.598,36.133,107.910,48.828,0
1486660446.742,98.145,39.062,45.410,91.797,51.270,0
1486660446.746,14.648,38.574,51.270,23.926,35.645,0
1486660446.750,-54.688,31.250,53.223,-3.418,17.578,0
1486660446.754,-0.488,28.809,47.852,41.016,28.320,0
1486660446.758,101.562,37.598,41.504,99.121,62.012,0
1486660446.761,104.980,38.086,44.922,90.332,49.316,0
1486660446.765,25.391,35.645,50.293,36.133,26.855,0
1486660446.769,-43.457,31.250,54.688,6.836,17.090,0
1486660446.773,-4.395,29.785,48.828,30.762,38.574,0
1486660446.777,93.262,38.086,38.086,90.332,58.105,0
1486660446.781,110.352,40.527,42.480,102.539,37.109,0
1486660446.785,32.715,36.621,51.758,43.457,38.086,0
1486660446.789,-44.922,31.738,55.664,1.953,20.020,0
1486660446.793,-14.648,29.297,50.293,33.691,13.184,0
1486660446.797,83.008,35.156,38.574,82.520,54.688,0
1486660446.801,110.352,39.062,39.551,105.957,70.801,0
1486660446.804,49.316,35.645,50.781,67.383,43.945,0
1486660446.808,-36.133,30.762,55.176,9.277,31.738,0
1486660446.812,-20.996,29.785,52.246,23.926,52.246,0
1486660446.816,75.684,33.203,41.992,70.312,58.105,0
1486660446.820,112.305,38.086,38.086,101.074,42.480,0
1486660446.824,61.523,39.062,46.387,62.012,10.254,0
1486660446.828,-27.344,34.668,56.152,15.625,-6.348,0
1486660446.832,-26.367,29.297,56.152,29.785,0.488,0
1486660446.836,72.754,32.227,46.875,84.473,36.133,0
1486660446.840,123.047,40.039,46.387,127.441,67.383,0
1486660446.843,70.801,42.480,51.270,88.867,40.039,0
1486660446.847,-27.832,34.180,56.152,25.879,8.789,0
1486660446.851,-44.922,30.762,56.641,23.926,9.766,0
1486660446.855,48.828,31.738,45.898,75.195,2.441,0
1486660446.859,113.770,35.156,41.992,121.582,49.316,0
1486660446.863,76.660,36.621,46.387,84.473,39.062,0
1486660446.867,-7.812,33.203,49.805,21.484,33.203,0
1486660446.871,-34.180,27.832,51.758,12.207,28.809,0
1486660446.875,51.758,28.320,44.434,54.199,22.949,0
1486660446.879,126.953,39.551,41.504,105.469,84.961,0
1486660446.883,99.609,41.016,41.992,87.891,83.496,0
1486660446.886,9.766,34.668,46.387,24.414,39.551,0
1486660446.890,-42.480,29.785,48.828,10.254,14.160,0
1486660446.894,33.203,30.762,40.039,54.199,10.254,0
1486660446.898,120.605,35.645,33.691,111.816,45.898,0
1486660446.902,101.074,37.109,39.062,106.445,75.684,0
1486660446.906,16.113,36.621,50.293,46.875,51.270,0
1486660446.910,-46.875,29.785,54.199,22.461,48.828,0
1486660446.914,10.254,30.273,47.852,52.734,67.871,0
1486660446.918,110.840,38.086,42.480,111.816,77.148,0
1486660446.922,109.375,39.062,43.457,105.469,53.711,0
1486660446.926,25.879,36.621,49.316,43.457,18.555,0
1486660446.929,-43.945,31.738,52.734,18.555,46.875,0
1486660446.933,9.277,28.320,43.945,49.805,25.391,0
1486660446.937,107.910,34.180,35.645,109.863,25.391,0
1486660446.941,119.141,40.527,37.598,118.164,31.738,0
1486660446.945,44.434,38.086,47.363,59.082,-11.719,0
1486660446.949,-38.086,35.645,57.617,21.484,21.484,0
1486660446.953,-6.348,33.691,51.758,43.945,56.641,0
1486660446.957,94.238,33.691,40.527,97.656,49.805,0
1486660446.961,113.770,39.062,40.527,117.188,55.664,0
1486660446.965,48.828,43.945,47.852,59.570,71.289,0
1486660446.968,-32.715,36.133,54.688,9.766,63.965,0
1486660446.972,-22.949,29.297,52.246,23.438,85.938,0
1486660446.976,81.543,33.691,41.992,78.613,96.680,0
1486660446.980,123.047,39.551,41.016,109.863,108.887,0
1486660446.984,58.105,40.527,49.316,55.664,111.328,0
1486660446.988,-30.762,36.621,60.059,2.441,115.234,0
1486660446.992,-23.438,35.645,55.664,15.625,114.258,0
1486660446.996,71.777,36.133,39.551,64.453,85.938,0
1486660447.000,115.723,38.086,36.133,103.516,86.914,0
1486660447.004,70.312,40.039,44.922,69.336,75.684,0
1486660447.008,-17.578,36.133,54.199,15.137,30.273,0
1486660447.011,-37.598,28.809,54.688,14.648,17.090,0
1486660447.015,63.477,29.785,44.434,68.359,26.367,0
1486660447.019,117.188,36.621,41.016,104.492,40.527,0
1486660447.023,65.430,37.109,45.410,63.477,77.148,0
1486660447.027,-20.508,35.156,51.758,3.906,87.891,0
1486660447.031,-51.270,28.809,57.129,-6.348,50.293,0
1486660447.035,35.156,27.832,45.410,31.738,15.625,0
1486660447.039,114.746,34.668,35.156,83.984,61.035,0
1486660447.043,88.867,34.668,41.504,62.500,20.508,0
1486660447.047,-9.277,27.832,47.363,-3.906,-30.762,0
1486660447.051,-58.594,25.391,52.734,-14.648,5.371,0
1486660447.054,34.180,30.762,51.270,40.527,-11.719,0
1486660447.058,121.094,39.062,42.969,92.773,-1.953,0
1486660447.062,91.309,38.574,41.016,69.824,50.781,0
1486660447.066,3.906,32.227,47.363,10.742,27.832,0
1486660447.070,-51.270,24.902,52.246,-6.836,0.000,0
1486660447.074,10.254,20.996,45.410,34.180,-3.906,0
1486660447.078,105.469,29.297,36.133,88.867,1.465,0
1486660447.082,101.074,33.203,38.574,76.660,35.645,0
1486660447.086,16.113,27.344,46.387,15.625,21.484,0
1486660447.090,-46.875,26.855,51.270,-14.160,4.883,0
1486660447.093,1.465,30.273,47.852,20.508,2.930,0
1486660447.097,104.980,33.691,38.574,92.773,4.395,0
1486660447.101,111.328,36.621,41.016,100.098,44.434,0
1486660447.105,32.715,35.156,49.805,46.387,40.527,0
1486660447.109,-36.621,27.832,52.734,14.160,18.555,0
1486660447.113,-2.441,26.855,47.363,27.832,9.766,0
1486660447.117,95.703,33.691,40.039,92.285,32.227,0
1486660447.121,111.816,36.133,35.156,108.398,65.430,0
1486660447.125,38.574,31.250,41.016,49.805,29.297,0
1486660447.129,-43.945,25.391,51.758,10.742,12.207,0
1486660447.133,-23.438,23.438,50.781,28.809,-5.371,0
1486660447.136,81.055,30.273,41.016,96.191,13.672,0
1486660447.140,113.770,37.109,39.551,117.676,41.016,0
1486660447.144,54.688,36.133,48.828,59.570,11.230,0
1486660447.148,-34.180,26.855,54.688,6.836,-8.789,0
1486660447.152,-37.598,20.996,47.852,14.648,19.531,0
1486660447.156,72.266,26.855,40.039,80.078,48.828,0
1486660447.160,127.930,35.645,44.434,114.746,66.895,0
1486660447.164,63.477,36.133,48.828,62.988,57.129,0
1486660447.168,-26.367,33.203,51.758,11.719,55.664,0
1486660447.172,-30.273,29.297,50.293,13.184,70.312,0
1486660447.176,67.383,33.691,39.551,64.941,41.016,0
1486660447.179,116.211,41.504,34.180,108.398,78.613,0
1486660447.183,75.684,41.504,41.016,72.754,87.891,0
1486660447.187,-10.254,38.086,55.176,17.578,44.434,0
1486660447.191,-36.133,29.785,59.082,10.254,42.969,0
1486660447.195,58.105,33.203,44.434,56.641,29.785,0
1486660447.199,124.512,39.551,41.504,109.375,57.129,0
1486660447.203,86.426,37.598,46.387,83.496,71.289,0
1486660447.207,-6.836,33.203,51.270,23.438,78.125,0
1486660447.211,-40.039,27.832,55.664,6.836,57.129,0
1486660447.215,41.992,31.738,49.316,56.152,28.809,0
1486660447.218,117.676,38.574,40.039,114.746,70.312,0
1486660447.222,95.703,38.086,43.457,90.332,55.176,0
1486660447.226,4.883,30.762,50.293,21.973,21.484,0
1486660447.230,-49.316,23.438,49.805,3.418,56.641,0
1486660447.234,22.461,27.344,44.434,47.852,78.613,0
1486660447.238,111.816,32.715,34.180,102.051,82.520,0
1486660447.242,107.422,37.109,36.621,95.215,101.562,0
1486660447.246,20.508,37.598,47.363,37.598,99.609,0
1486660447.250,-44.434,33.203,51.270,3.906,62.500,0
1486660447.254,13.184,32.227,47.852,45.898,37.109,0
1486660447.258,108.398,37.109,41.992,112.305,46.875,0
1486660447.261,109.375,38.574,41.992,104.980,60.059,0
1486660447.265,20.508,33.691,46.387,39.551,43.945,0
1486660447.269,-55.176,29.297,54.688,1.465,69.336,0
1486660447.273,-11.230,29.297,54.199,33.203,92.773,0
1486660447.277,88.379,32.715,41.016,89.355,117.676,0
1486660447.281,102.539,33.691,34.668,96.191,62.012,0
1486660447.285,32.227,32.715,40.527,49.805,36.133,0
1486660447.289,-50.293,30.762,48.340,4.883,83.008,0
1486660447.293,-25.879,30.273,45.898,26.855,68.359,0
1486660447.297,84.961,32.227,39.062,88.867,45.410,0
1486660447.300,111.816,35.156,39.062,106.934,83.984,0
1486660447.304,38.574,34.180,46.387,59.082,89.844,0
1486660447.308,-40.039,29.297,60.059,6.836,46.875,0
1486660447.312,-30.273,28.809,57.617,14.648,44.434,0
1486660447.316,71.289,32.715,47.852,75.684,34.180,0
1486660447.320,125.977,35.156,44.434,117.188,19.531,0
1486660447.324,57.617,37.109,43.457,66.406,39.551,0
1486660447.328,-37.109,34.668,48.340,0.488,58.105,1
1486660447.332,-37.109,26.855,48.340,18.066,57.129,0
1486660447.336,59.082,28.809,39.062,76.660,72.754,0
1486660447.340,113.281,37.109,37.598,106.934,55.176,0
1486660447.343,69.336,35.156,47.363,70.801,5.859,0
1486660447.347,-23.926,30.273,54.199,10.742,18.555,0
1486660447.351,-41.504,28.809,56.641,11.719,31.250,0
1486660447.355,51.270,29.297,46.387,66.895,20.996,0
1486660447.359,114.258,36.621,37.109,110.352,40.039,0
1486660447.363,78.613,35.645,42.480,78.125,28.320,0
1486660447.367,-10.254,27.832,50.293,8.789,23.926,0
1486660447.371,-45.898,26.855,53.711,9.277,41.504,0
1486660447.375,43.457,31.738,48.340,73.730,16.113,0
1486660447.379,117.676,33.203,44.434,122.559,47.363,0
1486660447.383,83.984,33.691,43.945,96.680,68.848,0
1486660447.386,-2.441,31.738,50.293,27.832,61.035,0
1486660447.390,-52.246,27.832,59.570,4.395,43.945,0
1486660447.394,24.414,29.785,51.758,44.434,6.836,0
1486660447.398,117.188,31.738,38.086,92.285,39.062,0
1486660447.402,102.051,33.203,39.551,85.449,57.129,0
1486660447.406,14.160,29.785,50.293,24.414,41.016,0
1486660447.410,-42.969,24.414,53.711,2.930,44.434,0
1486660447.414,16.602,26.855,48.340,53.223,41.504,0
1486660447.418,111.328,35.156,41.504,113.281,74.707,0
1486660447.422,110.352,37.598,41.992,110.840,89.355,0
1486660447.425,31.738,37.598,49.805,46.387,68.848,0
1486660447.429,-40.039,33.203,55.176,12.695,63.477,0
1486660447.433,0.000,30.762,43.457,53.711,24.414,0
1486660447.437,101.562,37.598,35.156,110.352,36.621,0
1486660447.441,111.328,37.598,41.992,116.211,71.777,0
1486660447.445,40.039,37.598,49.805,50.781,62.012,0
1486660447.449,-32.715,33.691,56.152,-2.930,51.758,0
1486660447.453,-16.602,28.320,48.828,21.484,39.062,0
1486660447.457,80.566,34.668,39.062,86.426,46.387,0
1486660447.461,114.746,39.551,36.133,103.516,51.758,0
1486660447.465,50.293,37.598,43.457,47.852,34.180,0
1486660447.468,-34.668,35.156,53.711,6.836,39.062,0
1486660447.472,-16.602,32.715,50.781,29.785,23.438,0
1486660447.476,84.473,36.621,39.551,88.379,-2.930,0
1486660447.480,122.559,39.551,40.527,124.512,36.621,0
1486660447.484,68.848,39.551,49.805,72.266,54.199,0
1486660447.488,-24.902,37.109,57.617,10.254,41.016,0
1486660447.492,-21.973,31.738,52.734,24.414,25.391,0
1486660447.496,69.824,33.203,35.156,77.148,49.316,0
1486660447.500,112.305,39.551,35.156,111.816,93.262,0
1486660447.504,71.289,39.551,45.410,70.312,74.219,0
1486660447.508,-16.113,33.203,52.734,15.137,71.777,0
1486660447.511,-33.691,26.367,50.293,19.531,71.289,0
1486660447.515,60.059,30.273,36.133,60.547,62.500,0
1486660447.519,120.605,38.574,31.250,109.375,88.379,0
1486660447.523,84.961,38.574,43.945,81.055,75.684,0
1486660447.527,-2.441,33.691,59.570,24.902,71.289,0
1486660447.531,-40.527,29.297,55.176,19.531,79.590,0
1486660447.535,51.758,29.297,42.969,64.453,85.449,0
1486660447.539,130.859,36.133,40.039,118.164,117.188,0
1486660447.543,95.703,39.551,44.434,87.402,112.793,0
1486660447.547,9.766,32.715,49.316,24.414,73.730,0
1486660447.550,-35.645,29.297,51.758,17.578,72.266,0
1486660447.554,36.133,30.273,48.340,53.223,64.453,0
1486660447.558,120.117,35.156,40.527,109.375,72.754,0
1486660447.562,101.074,38.086,42.969,94.238,102.539,0
1486660447.566,16.602,35.645,54.688,29.785,82.031,0
1486660447.570,-42.969,29.785,57.617,14.160,34.668,0
1486660447.574,20.508,28.320,47.852,49.805,12.695,0
1486660447.578,113.770,34.668,36.621,111.328,68.359,0
1486660447.582,106.445,37.598,36.621,102.051,80.566,0
1486660447.586,26.367,36.621,49.316,42.969,43.945,0
1486660447.590,-37.109,31.250,54.688,16.113,58.594,0
1486660447.593,0.977,27.832,50.293,43.457,61.035,0
1486660447.597,96.191,34.668,41.016,96.191,56.641,0
1486660447.601,111.328,36.621,40.039,94.727,68.848,0
1486660447.605,31.738,32.715,47.852,37.598,59.570,0
1486660447.609,-39.551,30.273,57.129,4.395,29.785,0
1486660447.613,-14.648,24.414,52.246,33.691,27.832,0
1486660447.617,81.055,30.273,33.203,83.496,47.363,0
1486660447.621,114.746,39.551,28.320,91.797,82.520,0
1486660447.625,45.898,37.598,41.992,32.227,60.547,0
1486660447.629,-42.480,35.156,54.199,-10.742,55.176,0
1486660447.633,-28.320,32.715,48.828,10.254,39.551,0
1486660447.636,83.496,35.156,38.086,71.289,54.688,0
1486660447.640,122.559,38.574,41.504,103.516,74.219,0
1486660447.644,59.082,38.086,49.316,53.223,41.992,0
1486660447.648,-28.320,35.156,55.176,11.230,47.363,0
1486660447.652,-29.297,31.250,48.340,20.996,49.316,0
1486660447.656,77.637,34.180,36.621,62.500,47.852,0
1486660447.660,122.559,39.062,35.645,90.820,61.035,0
1486660447.664,69.336,41.504,38.086,52.734,24.902,0
1486660447.668,-24.902,32.715,45.898,3.906,38.086,0
1486660447.672,-47.852,25.879,48.340,1.465,55.664,0
1486660447.675,52.734,27.344,40.527,53.711,21.973,0
1486660447.679,111.816,30.273,38.086,102.539,63.965,0
1486660447.683,66.406,33.203,43.457,70.312,58.594,0
1486660447.687,-21.484,30.273,53.711,15.625,17.090,0
1486660447.691,-49.805,26.855,57.129,12.207,25.391,0
1486660447.695,38.574,28.320,46.387,58.594,25.391,0
1486660447.699,111.816,33.691,36.621,98.633,53.223,0
1486660447.703,73.242,32.715,37.109,65.430,34.180,0
1486660447.707,-11.719,30.762,50.781,19.043,9.766,0
1486660447.711,-43.945,30.273,51.270,8.789,24.902,0
1486660447.715,28.320,30.273,37.598,43.945,21.484,0
1486660447.718,108.887,35.156,33.203,97.656,65.430,0
1486660447.722,95.215,40.527,39.062,84.961,61.035,0
1486660447.726,8.789,38.574,48.828,30.273,19.531,0
1486660447.730,-54.199,27.344,54.199,4.395,27.344,0
1486660447.734,8.301,29.785,45.410,34.668,15.137,0
1486660447.738,106.445,39.551,34.668,96.680,52.246,0
1486660447.742,99.609,38.574,40.039,94.238,92.773,0
1486660447.746,13.184,38.086,47.852,39.551,59.082,0
1486660447.750,-51.758,34.180,56.641,15.137,48.340,0
1486660447.754,-1.465,31.250,50.293,41.016,34.668,0
1486660447.757,96.191,40.527,37.109,91.309,45.898,0
1486660447.761,100.098,41.504,42.480,92.285,62.500,0
1486660447.765,25.879,35.156,53.711,35.156,21.484,0
1486660447.769,-47.852,30.762,56.641,0.488,21.973,0
1486660447.773,-10.254,28.809,53.223,25.391,63.965,0
1486660447.777,94.238,33.203,50.293,84.473,60.059,0
1486660447.781,112.793,36.621,46.387,94.238,63.477,0
1486660447.785,46.387,37.109,45.410,35.645,53.223,0
1486660447.789,-38.086,32.227,51.270,0.488,75.684,0
1486660447.793,-16.602,25.391,45.898,23.926,87.891,0
1486660447.797,85.938,29.297,33.691,80.566,96.191,0
1486660447.800,113.281,37.109,34.180,102.539,89.844,0
1486660447.804,61.035,36.621,47.852,56.641,59.570,0
1486660447.808,-21.484,31.738,58.105,12.695,78.613,0
1486660447.812,-22.949,26.855,51.758,17.578,34.668,0
1486660447.816,77.637,31.250,39.062,67.383,43.457,0
1486660447.820,123.047,36.621,36.133,99.121,105.957,0
1486660447.824,69.336,33.691,42.969,53.223,70.801,0
1486660447.828,-19.531,33.203,51.270,5.859,30.762,0
1486660447.832,-26.855,35.156,49.805,15.625,20.508,0
1486660447.836,71.777,37.598,39.062,63.965,-3.418,0
1486660447.840,131.348,43.457,31.250,110.352,25.879,0
1486660447.843,92.285,44.922,43.457,76.660,58.105,0
1486660447.847,-0.488,40.039,63.477,20.508,60.059,0
1486660447.851,-28.320,35.645,58.594,20.020,35.156,0
1486660447.855,55.664,33.691,38.574,61.035,34.668,0
1486660447.859,117.188,38.574,33.203,105.469,112.305,0
1486660447.863,77.148,41.504,39.062,84.961,139.648,0
1486660447.867,-8.301,35.156,48.828,27.344,74.707,0
1486660447.871,-41.992,30.273,52.734,10.254,79.102,0
1486660447.875,40.039,36.133,41.992,50.293,81.543,0
1486660447.879,123.047,41.992,36.133,100.586,63.965,0
1486660447.882,96.191,41.992,45.410,93.262,72.754,0
1486660447.886,10.742,39.062,53.711,30.273,61.035,0
1486660447.890,-41.992,33.203,49.316,-2.441,22.949,1
1486660447.894,30.762,33.203,33.691,28.320,36.621,0
1486660447.898,122.070,41.504,27.344,83.984,77.637,0
1486660447.902,108.398,44.434,34.668,82.031,57.129,0
1486660447.906,18.066,38.086,43.457,25.391,43.945,0
1486660447.910,-51.270,31.738,48.340,7.812,7.324,0
1486660447.914,8.789,29.785,41.992,42.969,-13.672,0
1486660447.918,104.980,33.691,38.086,97.656,51.758,0
1486660447.922,104.004,38.086,44.922,111.328,63.477,0
1486660447.925,27.832,38.086,50.293,54.199,28.320,0
1486660447.929,-48.828,30.273,52.734,11.230,38.086,0
1486660447.933,-10.742,26.855,45.898,34.668,32.715,0
1486660447.937,94.727,35.645,38.086,82.520,38.574,0
1486660447.941,111.328,39.062,42.969,98.145,70.801,0
1486660447.945,39.062,33.203,48.340,46.875,57.129,0
1486660447.949,-42.969,28.320,53.711,4.883,48.828,0
1486660447.953,-17.090,29.297,51.270,26.367,43.945,0
1486660447.957,83.984,32.715,41.504,82.031,56.152,0
1486660447.961,108.398,32.715,43.945,110.840,87.891,0
1486660447.965,49.805,35.156,48.828,66.895,72.754,0
1486660447.968,-35.645,33.691,52.246,13.184,45.898,0
1486660447.972,-27.832,29.785,50.781,28.809,47.852,0
1486660447.976,77.148,33.203,41.016,86.914,87.402,0
1486660447.980,114.258,37.109,40.527,114.746,84.473,0
1486660447.984,55.664,35.156,47.363,75.684,17.090,0
1486660447.988,-34.668,29.785,53.223,16.602,1.465,0
1486660447.992,-41.992,26.855,51.270,21.973,36.133,0
1486660447.996,65.918,30.273,38.086,78.613,50.293,0
1486660448.000,115.234,34.180,36.133,118.164,85.449,0
1486660448.004,65.918,33.203,46.387,93.750,104.980,0
1486660448.007,-19.531,28.320,51.758,36.133,78.125,0
1486660448.011,-43.457,26.855,51.758,33.203,80.566,0
1486660448.015,56.641,29.785,44.434,80.078,86.426,0
1486660448.019,121.582,33.691,40.527,125.977,88.867,0
1486660448.023,83.008,34.668,44.434,103.516,65.918,0
1486660448.027,-4.395,31.738,52.734,41.016,37.598,0
1486660448.031,-49.316,25.391,53.711,35.645,50.293,0
1486660448.035,28.809,22.949,41.992,67.871,85.449,0
