timestamps,TP9,AF7,AF8,TP10,Right AUX,Marker0
120075.936,39.551,33.203,4.395,35.156,51.758,0
120075.940,12.207,31.250,16.113,29.297,-8.301,0
120075.944,7.812,40.527,16.602,20.996,-24.414,0
120075.948,41.504,34.668,13.184,31.738,40.039,0
120075.952,42.969,33.691,8.301,28.809,83.496,0
120075.956,13.672,29.785,0.977,18.066,20.508,0
120075.959,2.930,21.973,4.395,23.438,-39.062,0
120075.963,25.391,33.203,3.906,33.203,-8.789,0
120075.967,53.711,45.410,8.789,50.781,41.992,0
120075.971,37.109,25.391,14.160,42.969,1.953,0
120075.975,6.348,27.832,14.160,17.578,-15.137,0
120075.979,3.418,38.574,-1.465,22.949,26.367,0
120075.980,25.391,39.551,-22.461,37.109,43.945,0
120075.984,32.227,45.410,2.930,29.297,34.668,0
120075.988,9.766,27.344,31.250,24.902,-3.418,0
120075.992,15.137,30.273,30.762,34.668,8.789,0
120075.996,32.715,37.109,14.160,31.738,48.340,0
120076.000,30.762,33.203,5.371,27.344,26.367,0
120076.004,10.742,34.180,6.348,16.602,-41.992,0
120076.008,4.395,33.691,8.301,12.207,-60.059,0
120076.012,28.809,34.180,19.043,26.367,-18.066,0
120076.016,52.246,29.297,30.273,36.133,3.906,0
120076.020,31.738,20.996,32.227,30.762,10.254,0
120076.023,-6.836,29.297,27.344,23.438,14.160,0
120076.026,16.113,30.762,15.137,25.879,49.316,0
120076.029,34.668,25.391,4.395,29.785,87.402,0
120076.033,31.738,29.785,13.184,29.785,72.754,0
120076.037,15.137,28.809,26.855,20.996,44.434,0
120076.041,-6.348,29.785,4.395,20.996,6.348,0
120076.045,21.484,38.086,-21.973,35.156,-3.906,0
120076.049,23.438,41.016,7.324,32.227,29.785,0
120076.053,-8.789,19.043,33.203,15.137,-6.348,0
120076.057,-6.836,9.277,31.250,16.602,-42.480,0
120076.061,27.832,30.273,40.039,33.203,35.156,0
120076.065,38.086,34.180,32.227,30.273,64.941,0
120076.068,2.441,22.461,20.996,16.113,41.992,0
120076.086,0.488,3.418,31.250,22.949,23.926,0
120076.090,33.203,16.602,20.020,37.598,48.340,0
120076.093,39.062,45.898,-1.465,39.062,82.520,0
120076.097,12.695,43.457,13.184,22.949,26.367,0
120076.101,-13.184,31.738,26.367,9.766,-0.977,0
120076.105,20.996,39.551,24.902,21.484,25.391,0
120076.109,52.734,33.203,24.902,38.086,35.645,0
120076.113,27.832,20.020,-1.465,32.715,9.277,0
120076.117,-2.441,16.113,-9.766,22.949,-29.297,0
120076.121,5.859,27.344,11.719,32.227,20.996,0
120076.125,24.414,48.828,-2.441,28.809,79.590,0
120076.129,10.742,41.016,3.906,8.789,43.945,0
120076.115,-12.695,28.809,23.438,5.859,-11.230,0
120076.119,-2.930,22.461,21.973,11.719,-5.859,0
120076.123,24.902,17.090,24.902,22.461,-3.906,0
120076.127,23.926,16.113,26.367,31.250,11.230,0
120076.131,9.277,22.949,11.719,26.367,-3.418,0
120076.135,16.602,29.297,1.465,36.621,-57.129,0
120076.139,35.645,30.762,17.578,39.551,-0.488,0
120076.143,27.832,26.855,21.484,20.508,59.570,0
120076.147,0.000,17.578,11.719,8.789,21.484,0
120076.151,-20.020,13.184,10.742,4.883,-28.809,0
120076.155,8.301,24.902,17.090,17.090,-20.508,0
120076.158,48.340,22.461,21.484,41.016,-14.160,0
120076.161,21.484,18.555,2.930,38.574,-0.977,0
120076.164,-15.625,36.133,-18.555,18.066,0.488,0
120076.168,0.000,37.109,-3.906,20.996,-13.672,0
120076.172,26.367,25.391,21.484,28.320,25.391,0
120076.176,20.020,23.438,33.691,27.344,44.922,0
120076.180,2.441,32.715,34.668,26.367,-12.207,0
120076.184,10.254,32.227,23.438,32.227,-54.688,0
120076.188,35.645,25.879,12.695,37.109,6.348,0
120076.192,39.062,22.949,14.160,32.715,62.500,0
120076.196,15.137,13.672,16.113,21.973,4.395,0
120076.200,5.859,18.066,16.113,20.996,-26.855,0
120076.203,27.344,20.996,12.695,31.738,-4.883,0
120076.207,46.875,16.113,10.742,36.621,0.977,0
120076.211,41.016,38.574,10.254,37.598,-0.488,0
120076.215,14.648,50.781,-20.996,33.203,-36.133,0
120076.219,16.602,40.527,-31.738,26.855,-53.711,0
120076.222,41.992,36.133,22.949,33.691,1.465,0
120076.226,38.086,34.668,52.246,33.691,20.508,0
120076.230,4.395,15.625,38.574,17.090,-48.340,0
120076.234,5.859,12.695,20.996,20.996,-50.781,0
120076.238,25.391,27.344,12.695,32.227,13.672,0
120076.242,16.602,21.484,19.531,30.762,18.555,0
120076.246,4.395,19.531,29.785,29.785,-23.438,0
120076.250,1.465,20.508,26.855,33.691,-11.230,0
120076.266,19.043,21.484,4.883,31.738,28.320,0
120076.269,31.738,28.809,-11.230,26.367,51.270,0
120076.273,8.789,34.668,9.277,13.672,27.832,0
120076.277,-9.277,32.715,4.883,3.418,-19.531,0
120076.281,16.113,33.691,-8.301,18.555,20.508,0
120076.285,49.805,31.250,14.648,24.414,27.344,0
120076.289,31.738,28.320,16.113,12.695,-18.066,0
120076.293,-3.418,25.391,-0.488,12.695,-17.090,0
120076.297,11.719,29.297,-5.371,20.508,-1.465,0
120076.301,30.762,20.508,13.672,21.973,26.367,0
120076.305,23.438,21.973,34.180,21.484,38.574,0
120076.308,5.859,40.039,22.949,21.973,-11.230,0
120076.311,6.348,39.062,6.836,23.438,-28.809,0
120076.315,30.762,34.180,11.230,25.879,2.930,0
120076.319,29.785,28.809,16.113,24.414,5.371,0
120076.322,9.766,26.367,11.230,24.902,-39.062,0
120076.326,14.648,30.273,3.906,37.598,-69.336,0
120076.330,38.574,29.785,-2.441,42.480,9.277,0
120076.334,34.180,19.531,12.695,36.621,51.270,0
120076.338,4.883,18.066,23.926,30.273,-3.418,0
120076.342,-6.348,21.973,21.484,28.809,-43.945,0
120076.346,17.090,20.020,21.484,34.180,-53.711,0
120076.350,45.898,17.578,18.555,41.504,11.719,0
120076.354,49.316,28.809,19.043,42.969,18.066,0
120076.356,30.762,48.340,7.324,43.945,-50.293,0
120076.359,30.273,45.898,-11.230,49.316,-51.270,0
120076.363,56.152,39.551,0.488,50.293,11.230,0
120076.367,56.641,35.645,27.832,42.969,4.395,0
120076.371,28.320,22.949,23.926,35.156,-56.152,0
120076.375,32.227,31.250,1.953,41.504,-59.570,0
120076.379,55.176,38.086,7.812,44.922,3.906,0
120076.383,49.316,34.668,25.391,42.969,51.270,0
120076.387,27.344,38.574,20.020,36.621,0.977,0
120076.391,8.789,39.062,12.695,25.391,-41.992,0
120076.395,30.762,37.109,20.996,35.156,0.488,0
120076.399,47.363,28.809,21.973,40.039,45.898,0
120076.401,18.066,17.090,21.973,22.461,-6.348,0
120076.404,-5.859,17.578,19.531,13.672,-66.895,0
120076.408,18.555,27.344,7.324,32.227,-20.508,0
120076.412,57.129,36.133,5.371,46.875,25.879,0
120076.416,37.109,36.621,17.578,35.645,12.695,0
120076.420,-4.883,32.227,25.391,26.855,-22.461,0
120076.424,9.277,30.273,20.508,32.227,9.766,0
120076.428,44.922,33.203,9.277,40.527,62.988,0
120076.432,36.133,29.297,10.254,38.574,20.508,0
120076.436,9.277,29.297,16.602,32.227,-14.648,0
120076.440,10.742,31.250,15.137,30.273,5.859,0
120076.444,28.809,25.391,20.996,34.668,35.156,0
120076.446,37.598,32.227,20.996,36.133,45.410,0
120076.449,16.113,31.250,13.672,27.344,4.395,0
120076.453,7.324,33.203,14.160,26.855,-28.809,0
120076.457,41.016,40.039,7.812,36.621,-2.441,0
120076.461,41.016,37.598,7.324,40.527,46.875,0
120076.465,19.531,44.434,14.648,38.574,19.531,0
120076.469,6.348,42.480,8.301,30.273,-42.480,0
120076.473,4.883,18.555,14.160,20.996,-31.250,0
120076.477,16.113,12.207,22.949,12.207,61.523,0
120076.481,12.207,20.996,20.508,9.766,97.656,0
120076.485,-11.230,21.484,19.531,5.371,10.254,0
120076.488,-8.789,24.414,15.625,17.090,4.883,0
120076.491,17.578,27.344,6.836,36.133,59.082,0
120076.495,24.902,20.508,5.859,37.109,71.289,0
120076.498,7.812,25.879,6.836,38.574,22.949,0
120076.502,7.324,30.762,15.625,40.527,-8.789,0
120076.506,34.668,17.090,29.785,42.480,41.992,0
120076.510,43.457,30.273,26.367,43.457,77.637,0
120076.514,22.461,53.223,23.926,36.621,37.109,0
120076.518,1.465,45.410,27.832,21.973,-24.902,0
120076.522,9.277,26.855,15.625,18.066,38.574,0
120076.526,33.203,21.484,-2.441,26.855,90.820,0
120076.530,40.527,37.598,18.555,29.297,37.109,0
120076.534,-4.395,35.156,25.391,13.672,1.465,0
120076.536,-20.996,18.066,3.906,5.859,11.230,0
120076.539,24.414,15.625,8.301,19.043,59.082,0
120076.543,34.668,25.879,19.043,20.508,48.340,0
120076.547,0.000,32.227,14.648,13.672,-40.039,0
120076.551,-4.395,35.156,8.789,18.555,-57.617,0
120076.555,26.855,31.250,14.648,28.320,21.484,0
120076.559,30.273,26.855,19.043,21.484,41.504,0
120076.563,6.836,32.715,12.695,15.625,-44.434,0
120076.567,0.977,33.691,7.812,19.043,-61.035,0
120076.571,22.949,27.344,8.301,25.391,29.785,0
120076.575,40.527,28.809,13.672,33.203,85.449,0
120076.578,22.949,25.391,15.137,29.785,54.199,0
120076.581,3.906,27.344,4.395,20.508,16.602,0
120076.585,23.438,43.457,11.719,20.020,20.020,0
120076.589,18.555,36.621,24.414,17.090,36.133,0
120076.593,-2.441,28.320,20.508,7.324,29.297,0
120076.596,-7.324,23.438,14.648,1.465,-21.973,0
120076.600,13.184,24.902,6.348,18.555,-37.109,0
120076.604,41.504,27.344,4.883,29.297,-0.977,0
120076.608,34.180,25.391,6.836,11.230,-2.441,0
120076.612,-4.883,28.809,9.766,4.395,-12.695,0
120076.616,-14.160,29.785,18.066,11.719,-4.883,0
120076.620,23.926,19.043,18.555,22.461,26.367,0
120076.624,34.668,20.996,9.277,26.367,43.945,0
120076.640,16.113,38.086,-3.418,24.902,5.859,0
120076.644,6.836,33.203,-12.207,22.949,-20.508,0
120076.648,22.949,19.043,-4.395,28.320,3.418,0
120076.652,41.016,20.508,23.926,31.250,36.621,0
120076.656,29.785,25.391,40.527,22.461,4.395,0
120076.660,1.953,16.602,41.016,15.625,-46.387,0
120076.664,5.859,22.949,33.203,22.949,-20.020,0
120076.668,29.297,36.133,26.855,32.715,5.859,0
120076.672,16.113,33.203,20.020,27.344,5.859,0
120076.676,4.395,27.344,14.160,23.438,-3.418,0
120076.680,20.508,25.879,14.160,36.621,3.906,0
120076.683,35.645,32.227,6.348,44.922,39.551,0
120076.686,31.738,37.598,-1.953,38.574,66.406,0
120076.689,3.906,31.738,8.789,21.484,15.137,0
120076.693,-5.371,22.461,20.020,11.719,-25.879,0
120076.697,20.508,16.602,22.461,18.555,23.438,0
120076.701,33.691,20.996,22.461,23.438,8.301,0
120076.705,13.184,24.414,7.324,14.160,-64.941,0
120076.709,-10.742,16.113,-13.184,4.883,-85.449,0
120076.713,0.977,12.207,-10.742,9.277,-32.715,0
120076.717,20.996,8.789,-2.441,16.602,33.203,0
120076.721,4.883,11.719,0.977,7.324,-23.926,0
120076.725,-20.508,18.555,-2.930,-3.418,-22.461,0
120076.729,-1.465,18.066,-2.441,11.230,55.176,0
120076.731,27.344,17.578,-2.930,20.996,54.688,0
120076.735,14.648,3.906,-2.930,11.230,78.125,0
120076.738,-7.324,-8.301,6.348,9.766,44.922,0
120076.742,-1.465,14.648,0.000,13.184,29.785,0
120076.746,31.738,33.691,0.000,31.250,61.523,0
120076.750,53.223,36.133,-4.395,48.828,14.648,0
120076.754,14.648,39.062,-12.207,26.367,-62.988,0
120076.758,-29.785,25.391,-7.324,-0.977,-61.523,0
120076.762,-16.602,8.789,-3.906,-5.859,-31.738,0
120076.766,0.488,2.441,5.859,-6.836,-24.414,0
120076.770,-13.184,0.977,10.254,-5.371,1.953,0
120076.774,-20.020,6.836,5.371,0.488,-14.160,0
120076.776,-1.953,11.230,-3.906,14.648,-11.230,0
120076.779,22.461,10.254,-18.066,31.250,13.672,0
120076.783,18.066,5.371,-18.555,29.297,20.508,0
120076.787,-5.859,16.113,5.371,17.578,-8.789,0
120076.791,7.324,23.926,27.344,26.855,-33.691,0
120076.795,37.109,11.230,33.691,39.062,-13.672,0
120076.799,21.973,14.648,28.320,27.344,-5.371,0
120076.803,-11.230,23.926,17.090,9.766,-49.805,0
120076.807,-5.371,24.414,12.207,10.742,-52.246,0
120076.811,29.297,23.926,4.883,20.020,12.207,0
120076.815,40.039,18.555,-2.930,21.484,38.086,0
120076.818,17.090,20.996,1.465,24.414,8.789,0
120076.821,5.859,25.391,10.254,33.203,-33.203,0
120076.824,25.391,11.719,6.836,35.156,19.531,0
120076.828,26.855,6.348,-8.301,20.508,75.195,0
120076.832,2.930,20.996,-14.648,6.836,41.992,0
120076.836,-15.137,21.484,-11.719,2.930,20.020,0
120076.840,7.812,22.949,8.301,11.719,20.996,0
120076.844,35.156,22.949,23.926,22.461,52.246,0
120076.848,20.020,17.090,20.996,14.160,20.020,0
120076.852,-2.441,22.949,18.555,12.207,-60.059,0
120076.856,2.441,26.367,16.602,20.020,-11.230,0
120076.860,32.715,25.391,10.742,32.715,57.617,0
120076.864,35.645,17.578,1.953,33.691,33.203,0
120076.866,7.324,20.508,8.789,22.461,18.066,0
120076.870,8.301,23.926,17.090,26.855,41.016,0
120076.874,39.062,24.414,13.184,36.621,73.242,0
120076.878,49.805,38.574,5.371,37.109,40.039,0
120076.882,23.926,34.180,1.953,34.180,11.230,0
120076.886,3.418,21.973,18.066,30.762,2.441,0
120076.890,22.461,29.785,18.066,32.227,-0.977,0
120076.893,39.062,38.574,14.648,36.621,1.953,0
120076.897,33.691,38.086,15.137,42.480,6.836,0
120076.901,7.812,28.320,-15.137,26.855,16.602,0
120076.905,4.395,11.719,-6.348,12.207,6.836,0
120076.909,32.715,20.508,32.715,27.344,6.836,0
120076.912,24.414,32.715,31.250,27.832,32.227,0
120076.916,-0.977,29.785,21.973,20.508,30.273,0
120076.920,15.625,21.973,26.855,26.855,29.785,0
120076.924,36.133,18.066,11.719,21.973,50.293,0
120076.927,13.672,26.855,-2.930,14.160,32.227,0
120076.931,-11.230,27.344,4.395,9.277,-44.434,0
120076.935,-2.441,25.391,1.465,11.719,-82.031,0
120076.939,25.879,25.391,5.859,23.438,-33.691,0
120076.943,35.156,24.902,23.926,25.879,0.488,0
120076.947,20.020,22.949,28.320,24.414,-44.922,0
120076.951,2.930,23.438,21.484,20.996,-78.613,0
120076.955,21.973,34.180,12.207,29.297,-51.270,0
120076.956,43.457,39.062,1.465,39.551,13.672,0
120076.960,25.879,24.902,-7.324,33.203,34.668,0
120076.964,15.137,18.066,2.441,29.297,-27.344,0
120076.968,30.762,30.273,19.531,35.156,-19.043,0
120076.971,47.363,33.203,18.066,42.969,19.043,0
120076.975,33.691,28.809,13.672,36.621,-23.926,0
120076.979,10.742,32.227,20.996,26.855,-79.590,0
120076.983,19.531,32.227,14.160,28.320,-80.566,0
120076.987,47.363,21.484,-4.883,38.574,28.809,0
120076.991,49.316,31.250,6.348,37.598,94.727,0
120076.995,20.020,39.062,25.879,19.531,35.156,0
120076.999,8.789,25.879,24.902,17.578,16.113,0
120077.015,43.945,26.367,21.973,32.715,67.871,0
120077.019,60.547,34.180,20.996,34.180,113.281,0
120077.023,26.367,33.691,18.066,27.832,69.824,0
120077.027,9.277,26.855,15.625,27.344,-1.953,0
120077.031,30.762,27.832,15.137,39.062,11.230,0
120077.035,40.527,30.273,12.695,44.434,47.363,0
120077.039,31.738,25.879,4.883,43.457,26.367,0
120077.043,25.879,19.043,-9.277,45.898,-11.230,0
120077.047,25.879,28.320,14.648,42.480,18.066,0
120077.051,36.133,34.180,47.852,39.062,76.172,0
120077.055,27.832,29.785,33.691,29.297,65.430,0
120077.058,2.930,34.180,9.766,20.508,19.043,0
120077.060,9.766,29.297,10.254,26.855,3.906,0
120077.064,40.527,23.926,27.832,40.039,46.875,0
120077.068,43.945,26.855,30.273,35.645,78.613,0
120077.072,16.113,33.691,20.996,24.414,34.180,0
120077.076,7.812,36.133,20.020,26.367,-12.695,0
120077.080,34.668,27.832,19.043,39.551,0.977,0
120077.084,51.758,27.832,9.277,47.363,21.973,0
120077.088,27.832,38.574,-14.160,37.109,-9.277,0
120077.092,-3.906,30.273,-6.836,16.602,-38.574,0
120077.096,4.883,22.949,23.926,13.184,-45.898,0
120077.100,31.738,30.273,28.320,22.461,-22.949,0
120077.103,31.738,31.738,24.414,28.320,-4.883,0
120077.105,14.648,31.250,19.531,27.344,-38.574,0
120077.109,24.902,24.902,5.859,31.738,-51.270,0
120077.113,52.246,14.160,4.883,41.504,-8.301,0
120077.117,49.316,34.180,13.184,40.527,6.836,0
120077.121,16.113,46.875,17.578,28.320,-66.406,0
120077.125,8.789,34.180,12.207,28.320,-84.961,0
120077.129,36.621,32.715,7.812,40.527,-6.836,0
120077.133,42.969,29.297,5.371,39.062,32.715,0
120077.137,24.902,28.320,-30.273,26.367,-37.598,0
120077.141,16.602,36.133,-13.672,25.879,-85.938,0
120077.145,33.691,24.902,42.480,36.133,-0.488,0
120077.148,41.504,16.602,48.340,38.086,78.125,0
120077.150,15.137,27.344,41.016,28.809,31.738,0
120077.154,-7.812,24.902,35.156,17.578,-43.457,0
120077.158,7.324,16.113,30.273,20.020,-14.648,0
120077.162,34.668,22.461,20.508,28.809,58.594,0
120077.166,30.273,20.020,12.695,28.320,57.129,0
120077.170,12.695,12.207,18.066,27.344,-23.926,0
120077.174,20.996,31.738,19.531,32.227,-39.062,0
120077.178,39.551,41.504,24.414,33.691,31.250,0
120077.182,26.367,43.945,0.488,28.809,31.250,0
120077.186,8.301,46.875,-36.133,27.832,3.418,0
120077.190,3.906,30.762,8.301,25.879,-2.441,0
120077.193,23.438,21.484,60.547,30.762,1.465,0
120077.195,43.457,28.320,57.129,38.574,0.488,0
120077.199,21.973,27.832,31.738,28.320,-27.832,0
120077.203,6.348,18.066,24.414,23.926,-39.062,0
120077.207,35.156,26.367,24.902,36.621,-26.855,0
120077.211,51.758,32.227,11.719,42.969,10.254,0
120077.215,21.484,26.367,12.207,32.227,11.230,0
120077.219,-4.883,27.344,21.973,21.484,-42.969,0
120077.223,16.602,30.273,15.137,29.297,-44.434,0
120077.227,30.762,31.250,13.672,36.133,3.418,0
120077.231,14.648,23.438,21.973,27.832,40.039,0
120077.235,-11.719,21.484,24.902,19.043,-16.602,0
120077.238,-12.207,21.484,26.855,24.414,-31.738,0
120077.241,18.555,16.602,24.902,34.668,17.578,0
120077.245,28.320,17.578,24.902,32.715,-2.930,0
120077.249,9.277,20.508,10.254,28.809,-55.176,0
120077.253,-0.488,17.578,0.977,31.738,-62.988,0
120077.256,28.320,14.160,31.738,42.969,-9.766,0
120077.260,41.016,11.719,36.621,38.574,8.301,0
120077.264,9.277,22.949,24.902,20.020,-15.625,0
120077.268,-2.930,33.691,28.320,22.949,-72.754,0
120077.272,26.855,21.484,26.367,45.410,-27.344,0
120077.276,50.781,25.879,21.973,51.270,81.543,0
120077.280,19.043,34.180,12.207,16.602,46.875,0
120077.284,-7.812,29.785,-0.488,-0.977,-0.977,0
120077.286,18.066,29.785,-5.859,19.531,17.090,0
120077.290,39.062,25.879,-1.465,30.762,65.918,0
120077.294,33.691,25.391,7.324,25.879,50.293,0
120077.298,22.461,29.785,12.695,28.809,-1.465,0
120077.302,21.484,28.320,11.719,37.109,23.438,0
120077.306,43.457,30.762,13.184,44.434,42.480,0
120077.310,47.363,26.855,22.461,41.504,13.672,0
120077.313,19.531,22.461,16.602,31.738,-12.695,0
120077.317,6.836,24.902,8.789,29.297,-1.465,0
120077.321,31.250,27.344,18.066,34.668,23.438,0
120077.325,45.898,31.738,19.043,36.621,45.410,0
120077.329,22.949,30.762,13.184,29.297,5.859,0
120077.330,4.395,27.344,21.484,29.297,-38.574,0
120077.334,25.391,26.367,32.227,41.016,5.859,0
120077.338,52.734,25.879,29.785,47.852,43.457,0
120077.342,40.527,21.973,7.324,39.551,5.371,0
120077.346,16.113,25.391,-0.488,26.367,-60.059,0
120077.350,20.996,28.809,17.578,26.367,-61.523,0
120077.354,38.574,30.273,20.508,33.691,-35.156,0
120077.358,34.668,22.461,3.906,33.691,-38.086,0
120077.362,17.090,26.367,-4.883,35.156,-48.340,0
120077.366,18.066,35.645,6.348,33.203,-75.195,0
120077.370,32.715,32.715,19.043,32.715,21.484,0
120077.373,39.551,30.273,31.738,30.762,86.914,0
120077.377,16.113,24.414,38.086,21.484,14.648,0
120077.381,3.418,22.949,28.809,23.438,-41.016,0
120077.385,38.086,26.367,19.043,41.504,11.230,0
120077.388,53.223,28.320,19.531,46.387,104.980,0
120077.392,30.762,25.879,27.344,34.180,53.711,0
120077.396,8.301,26.367,23.926,26.855,-17.578,0
120077.400,19.043,20.020,19.043,34.180,3.418,0
120077.404,55.176,23.926,20.020,57.129,25.879,0
120077.408,47.363,30.762,8.789,50.781,3.418,0
120077.412,-3.906,11.719,5.859,18.066,-34.180,0
120077.416,-7.324,20.020,10.742,11.719,-42.480,0
120077.420,26.367,22.949,17.578,23.926,23.438,0
120077.436,32.715,18.066,17.578,30.762,54.199,0
120077.439,12.695,31.250,6.348,24.414,25.391,0
120077.443,19.531,37.109,5.371,32.715,-6.348,0
120077.447,45.898,30.762,17.090,47.363,37.109,0
120077.451,32.715,21.484,23.438,31.250,65.430,0
120077.455,3.418,19.531,25.879,15.137,-17.090,0
120077.459,-1.953,15.137,20.020,18.555,-57.617,0
120077.463,31.250,21.484,3.418,33.203,12.207,0
120077.467,45.898,28.320,7.812,40.039,44.922,0
120077.471,20.020,30.762,16.602,31.250,23.438,0
120077.475,4.395,25.879,12.207,23.438,-24.902,0
120077.479,15.625,17.578,13.184,23.438,-5.859,0
120077.481,39.062,25.879,20.508,27.344,32.715,0
120077.484,37.109,33.203,32.227,33.691,9.277,0
120077.488,5.371,21.484,26.367,20.996,24.414,0
120077.492,1.465,13.672,23.438,13.672,5.371,0
120077.496,28.809,8.789,25.391,26.855,-7.324,0
120077.500,33.691,12.207,24.902,27.832,5.859,0
120077.504,16.113,25.391,29.297,25.391,-26.855,0
120077.508,7.812,30.273,20.996,27.832,-41.504,0
120077.512,29.297,30.762,16.113,35.645,-22.461,0
120077.516,39.551,15.137,20.508,34.668,15.625,0
120077.520,20.996,18.555,14.160,27.832,4.883,0
120077.524,12.695,38.086,12.695,31.250,-2.441,0
120077.526,30.273,35.645,18.555,35.645,41.504,0
120077.529,43.945,24.902,18.555,35.645,60.547,0
120077.533,30.273,20.508,12.695,29.297,36.133,0
120077.537,10.742,31.250,5.859,21.484,-20.508,0
120077.541,13.672,33.203,3.418,21.973,-7.812,0
120077.545,43.945,29.297,5.371,33.691,40.039,0
120077.549,48.340,24.902,5.859,31.250,50.781,0
120077.553,3.906,23.926,16.113,14.160,2.930,0
120077.557,-0.488,18.066,27.344,16.602,-20.020,0
120077.561,34.180,16.113,29.785,30.762,32.715,0
120077.565,40.039,27.344,19.043,28.320,25.879,0
120077.568,17.578,27.344,14.160,21.484,1.465,0
120077.571,4.395,28.809,23.926,21.973,-7.324,0
120077.575,27.344,28.320,18.555,28.809,25.391,0
120077.579,40.039,23.438,12.695,28.809,75.195,0
120077.583,19.531,29.785,14.648,19.531,9.277,0
120077.587,5.371,18.066,15.625,17.090,-75.195,0
120077.591,15.625,12.695,10.742,20.996,-52.734,0
120077.595,35.156,37.598,4.883,27.344,9.766,0
120077.598,26.855,45.898,10.254,26.855,16.602,0
120077.602,3.418,39.551,11.230,23.438,-37.109,0
120077.606,5.371,26.367,4.883,20.508,-24.902,0
120077.610,24.902,24.414,19.531,18.066,33.691,0
120077.614,35.156,24.414,28.320,23.926,28.320,0
120077.617,20.508,25.879,23.438,24.902,-13.184,0
120077.621,7.812,25.391,20.020,23.438,-13.672,0
120077.625,27.832,22.949,21.484,29.785,17.090,0
120077.629,30.762,19.043,19.043,26.855,38.086,0
120077.633,13.672,19.531,23.926,24.414,20.020,0
120077.636,10.254,27.344,28.809,30.273,-27.344,0
120077.640,29.297,31.738,27.832,40.527,2.441,0
120077.644,41.016,26.855,24.902,41.504,3.906,0
120077.648,30.273,23.926,17.578,39.062,-19.043,0
120077.652,16.602,26.855,8.301,39.551,-10.742,0
120077.656,20.996,10.254,6.836,42.480,-10.742,0
120077.660,41.504,21.484,23.438,45.410,49.805,0
120077.661,32.715,46.387,33.691,43.457,43.945,0
120077.664,8.789,40.039,19.043,43.457,-29.297,0
120077.668,2.930,31.738,14.160,37.109,-39.062,0
120077.672,17.578,23.926,29.785,33.691,35.645,0
120077.676,24.414,23.926,34.180,31.738,49.805,0
120077.680,5.371,24.414,25.391,28.320,-51.270,0
120077.684,0.488,26.855,21.484,25.391,-95.703,0
120077.688,24.902,18.555,18.555,26.367,-57.617,0
120077.692,38.574,15.625,19.043,31.250,17.090,0
120077.696,15.625,25.879,25.391,21.484,3.906,0
120077.700,-8.789,25.391,29.297,14.648,-24.902,0
120077.704,19.043,28.320,27.832,35.645,42.480,0
120077.706,46.387,36.133,23.926,48.828,84.961,0
120077.710,25.391,38.086,17.578,30.273,72.266,0
120077.714,-4.395,34.668,12.207,15.137,45.898,0
120077.718,11.230,30.762,7.324,19.531,32.227,0
120077.722,44.434,30.273,6.348,30.273,68.848,0
120077.726,38.574,26.855,15.625,32.715,70.801,0
120077.730,10.742,27.832,20.508,25.879,-20.996,0
120077.733,9.766,27.344,11.230,29.297,-21.484,0
120077.737,47.363,17.578,6.836,39.062,45.410,0
120077.741,43.457,29.785,21.973,39.062,32.227,0
120077.745,6.348,41.016,27.344,30.762,-7.324,0
120077.749,6.836,35.645,25.391,32.227,-23.926,0
120077.765,35.156,32.227,21.484,41.016,3.906,0
120077.769,51.270,25.879,17.090,46.875,33.691,0
120077.773,28.809,27.344,15.137,39.062,9.766,0
120077.777,3.418,21.484,1.465,25.391,-20.020,0
120077.781,23.926,20.996,14.648,33.691,-0.977,0
120077.785,57.129,31.738,15.137,41.016,19.531,0
120077.789,31.738,33.203,-3.906,26.367,7.324,0
120077.793,-9.766,30.273,11.719,13.672,4.395,0
120077.797,2.441,23.438,23.438,14.160,23.438,0
120077.801,23.926,21.484,34.180,26.855,45.898,0
120077.805,20.020,25.879,39.062,29.785,45.410,0
120077.808,-3.906,26.367,24.414,20.020,4.883,0
120077.810,2.441,22.949,19.531,24.414,16.602,0
120077.814,28.809,26.367,15.625,36.133,45.410,0
120077.818,40.527,32.715,8.789,41.504,62.012,0
120077.822,26.855,33.203,15.625,37.598,55.664,0
120077.826,-2.930,28.809,10.254,26.367,-5.859,0
120077.830,13.672,22.461,18.066,27.344,-43.457,0
120077.834,33.691,22.949,26.855,29.297,-16.602,0
120077.838,21.484,19.531,17.578,24.902,9.766,0
120077.842,0.977,15.137,23.926,20.996,-26.855,0
120077.846,18.555,28.320,29.785,26.855,-42.480,0
120077.850,42.969,39.062,33.203,35.156,34.180,0
120077.853,30.273,51.758,37.109,36.621,59.570,0
120077.855,6.836,46.875,21.973,29.785,-28.809,0
120077.859,7.324,28.809,11.719,25.879,-30.273,0
120077.863,38.574,31.738,22.461,35.645,23.438,0
120077.867,37.109,31.250,20.508,35.645,28.320,0
120077.871,5.371,24.902,23.926,24.902,-41.016,0
120077.875,5.859,30.762,33.691,23.438,-101.562,0
120077.879,27.832,37.109,22.461,29.785,-69.336,0
120077.883,33.691,28.320,20.508,27.832,-28.809,0
120077.887,14.160,21.484,22.949,16.113,-82.520,0
120077.891,-3.418,25.879,18.555,17.090,-144.043,0
120077.895,15.625,30.762,12.695,33.203,-89.355,0
120077.898,34.180,25.391,10.254,38.574,-4.883,0
120077.901,23.926,14.648,21.484,33.203,-19.043,0
120077.905,8.301,27.832,32.227,27.832,-42.969,0
120077.909,12.207,37.598,31.738,33.691,11.719,0
120077.912,27.832,25.391,29.297,39.062,59.570,0
120077.916,15.137,27.344,27.344,32.227,42.969,0
120077.920,2.930,41.504,17.090,29.297,-20.508,0
120077.924,18.555,40.527,5.371,30.762,-22.461,0
120077.928,43.945,30.762,5.859,34.668,27.344,0
120077.932,26.367,30.273,11.230,32.715,27.344,0
120077.936,-4.883,31.250,16.113,24.414,6.836,0
120077.940,0.000,23.926,12.695,19.043,24.902,0
120077.944,29.785,22.461,5.371,28.320,58.594,0
120077.946,58.105,39.551,-1.953,47.852,102.051,0
120077.950,42.969,45.898,3.418,40.039,45.898,0
120077.953,0.977,23.926,20.996,13.672,31.250,0
120077.957,4.395,15.625,36.133,4.395,62.012,0
120077.961,31.250,29.785,39.062,13.672,77.148,0
120077.965,25.879,33.691,32.715,20.020,20.996,0
120077.969,3.418,28.320,27.832,13.672,-58.594,0
120077.973,12.207,29.297,22.461,12.207,-57.617,0
120077.977,35.645,31.250,19.531,20.508,-40.039,0
120077.981,30.273,24.902,20.508,25.391,-3.418,0
120077.985,6.348,20.996,19.043,22.461,-6.836,0
120077.989,13.184,25.391,16.602,24.414,-14.648,0
120077.991,44.922,31.738,16.602,35.156,37.109,0
120077.994,35.645,38.574,22.949,33.691,67.871,0
120077.998,10.742,35.156,24.414,28.320,-6.348,0
120078.002,8.789,36.133,18.555,27.832,-35.645,0
120078.006,24.414,37.109,10.254,29.297,29.785,0
120078.010,37.109,33.203,5.371,36.133,27.832,0
120078.014,20.508,30.762,7.812,32.227,-16.113,0
120078.018,4.395,32.227,19.531,27.344,-11.230,0
120078.022,23.926,32.715,25.879,35.156,9.766,0
120078.026,42.480,29.297,25.879,41.016,47.363,0
120078.030,29.297,30.273,29.297,37.109,62.500,0
120078.034,12.695,29.297,25.391,27.344,21.484,0
120078.035,20.996,23.926,22.949,29.785,39.062,0
120078.039,46.875,25.879,20.508,43.457,70.312,0
120078.043,42.480,31.738,15.137,40.039,23.926,0
120078.047,8.301,31.738,25.391,32.227,-23.438,0
120078.051,16.602,14.648,26.855,34.668,-24.414,0
120078.055,38.086,15.625,13.672,32.715,11.230,0
120078.059,35.645,44.922,17.578,30.273,13.672,0
120078.063,15.625,51.758,23.438,23.926,-49.805,0
120078.067,-1.465,41.992,19.531,19.043,-49.316,0
120078.071,28.809,34.180,20.508,33.203,25.391,0
120078.075,46.875,32.227,17.090,39.062,28.809,0
120078.078,19.043,32.715,15.137,30.762,-29.785,0
120078.082,2.930,32.715,16.602,25.879,-21.484,0
120078.086,17.090,28.320,18.066,26.367,37.109,0
120078.090,32.227,27.832,22.461,33.203,96.680,0
120078.094,22.461,21.484,20.508,29.297,48.828,0
120078.097,3.906,20.996,19.531,20.996,-29.297,0
120078.101,13.184,35.645,10.742,25.391,-55.664,0
120078.105,41.504,26.367,4.883,37.109,-33.203,0
120078.109,47.852,11.230,20.996,42.480,11.719,0
120078.113,11.719,17.090,25.391,29.297,-30.762,0
120078.117,-0.977,34.180,19.531,25.879,-58.105,0
120078.121,30.762,41.992,19.043,41.016,16.602,0
120078.125,42.480,36.621,14.648,43.945,76.172,0
120078.141,21.484,36.133,17.578,36.133,46.387,0
120078.145,5.859,35.156,21.484,30.273,3.418,0
120078.148,28.320,32.227,19.043,35.156,-10.742,0
120078.152,53.223,40.039,19.531,38.086,20.020,0
120078.156,21.484,37.598,18.555,24.902,25.391,0
120078.160,-15.137,32.227,12.695,18.066,-27.344,0
120078.164,4.395,30.762,10.254,21.484,-13.184,0
120078.168,33.691,25.391,11.719,29.297,67.383,0
120078.172,44.434,34.180,18.555,39.062,89.355,0
120078.176,27.344,29.297,28.320,34.180,15.625,0
120078.180,26.367,20.996,33.691,38.574,37.109,0
120078.184,39.062,35.156,23.438,35.156,126.953,0
120078.186,30.273,43.945,7.812,20.996,82.031,0
120078.189,3.906,35.645,12.207,15.625,0.000,0
120078.193,-4.395,12.207,17.578,9.277,15.137,0
120078.197,28.809,25.391,24.902,27.344,66.406,0
120078.201,38.086,44.922,23.926,37.109,57.617,0
120078.205,6.348,37.109,6.348,19.531,-52.246,0
120078.209,-12.695,30.762,12.695,14.160,-89.844,0
120078.213,5.371,23.438,25.879,22.461,-28.809,0
120078.217,28.320,20.020,23.438,28.809,3.906,0
120078.221,22.461,25.391,19.531,27.832,-17.090,0
120078.225,7.812,25.391,20.508,26.367,-44.922,0
120078.228,27.344,26.855,25.879,41.992,0.977,0
120078.230,50.293,31.738,33.691,52.246,48.828,0
120078.234,54.199,33.691,42.969,48.340,31.250,0
120078.238,38.086,31.738,42.969,39.551,-37.598,0
120078.242,5.859,31.738,5.859,22.949,-42.480,0
120078.246,18.555,31.738,-16.602,22.949,17.090,0
120078.250,35.645,35.156,7.324,29.785,11.230,0
120078.254,9.766,30.762,31.250,21.484,-31.738,0
120078.258,5.859,22.461,36.133,21.484,-24.902,0
120078.262,36.621,26.855,34.668,36.621,-1.465,0
120078.266,41.016,35.645,31.738,36.133,6.836,0
120078.270,17.090,37.598,30.273,27.344,1.465,0
120078.273,8.301,38.086,35.156,29.297,-39.062,0
120078.275,22.461,30.273,29.785,36.621,2.930,0
120078.279,39.062,23.926,15.625,41.504,58.105,0
120078.283,30.762,24.414,14.648,33.203,44.922,0
120078.287,9.277,27.832,20.996,24.902,0.977,0
120078.291,17.578,38.086,23.926,28.320,-20.508,0
120078.295,40.527,29.785,24.414,39.551,17.578,0
120078.299,39.062,21.484,25.391,42.969,47.363,0
120078.303,19.531,37.598,34.668,33.691,-8.301,0
120078.307,12.695,23.926,35.156,29.785,-82.520,0
120078.311,39.551,19.531,28.809,39.551,-2.930,0
120078.315,51.758,47.363,21.484,42.969,62.012,0
120078.318,21.973,45.898,9.766,28.809,11.230,0
120078.320,6.348,27.344,12.695,20.508,-40.039,0
120078.324,40.039,26.855,23.438,31.250,11.230,0
120078.328,52.734,33.203,17.578,36.133,40.039,0
120078.332,20.020,29.785,16.602,24.414,-22.949,0
120078.336,3.418,32.227,24.414,20.020,-63.477,0
120078.340,16.113,30.273,17.578,26.367,-34.180,0
120078.344,36.133,24.902,14.160,32.715,5.371,0
120078.348,30.762,26.367,22.461,31.738,-33.203,0
120078.352,6.348,28.809,23.926,26.855,-62.500,0
120078.356,13.184,29.297,23.438,33.691,-17.578,0
120078.360,44.922,30.762,16.602,48.828,14.160,0
120078.363,42.969,31.250,-0.488,44.434,2.930,0
120078.365,6.348,30.273,10.742,21.973,-22.461,0
120078.369,0.488,24.414,37.109,22.949,-8.789,0
120078.373,28.809,22.461,41.992,37.598,30.762,0
120078.377,37.109,28.809,36.133,35.645,9.277,0
120078.381,19.043,28.809,31.738,29.297,-30.273,0
120078.385,4.883,21.484,32.715,26.855,-22.461,0
120078.389,30.762,21.484,25.879,33.203,5.371,0
120078.393,56.152,44.434,19.043,50.781,11.230,0
120078.397,26.855,47.852,19.531,46.875,-23.438,0
120078.401,-7.812,28.320,18.555,20.996,-28.320,0
120078.405,4.883,20.508,23.438,19.043,-11.230,0
120078.408,38.574,30.762,26.367,33.203,5.371,0
120078.411,28.320,39.551,22.461,31.250,65.430,0
120078.414,-4.395,25.391,12.207,20.996,42.969,0
120078.418,3.418,18.555,13.184,24.414,9.277,0
120078.422,30.762,30.762,21.484,32.227,39.062,0
120078.426,32.715,41.504,23.438,35.645,70.801,0
120078.430,8.301,36.621,24.902,27.832,25.879,0
120078.434,2.930,27.832,29.297,20.508,-20.996,0
120078.438,22.949,27.344,27.832,27.832,3.418,0
120078.442,29.297,26.367,22.949,30.273,29.297,0
120078.446,8.789,25.879,25.391,20.508,14.648,0
120078.450,-0.488,23.438,20.020,21.973,-29.785,0
120078.454,27.832,23.926,15.137,33.691,-7.324,0
120078.456,39.062,14.160,18.066,33.203,42.480,0
120078.459,15.137,8.789,23.438,28.809,30.762,0
120078.463,-1.953,27.832,22.461,29.297,-15.137,0
120078.467,11.719,38.574,19.531,29.785,-5.859,0
120078.471,36.621,36.621,26.855,33.691,34.180,0
120078.475,35.156,32.227,23.438,27.832,4.395,0
120078.479,5.859,30.762,18.066,13.672,-42.969,0
120078.483,0.977,31.738,20.020,16.113,-36.621,0
120078.487,29.785,26.367,17.578,32.715,-2.930,0
120078.491,33.203,24.414,5.859,31.738,6.348,0
120078.495,9.766,30.273,9.766,21.484,-29.297,0
120078.498,6.836,23.438,24.902,23.926,-24.414,0
120078.515,30.273,18.066,28.320,31.738,32.227,0
120078.519,40.039,22.949,30.273,33.691,58.594,0
120078.523,20.508,28.320,27.344,28.320,51.758,0
120078.527,5.371,31.250,23.438,27.344,-2.930,0
120078.531,27.344,30.273,24.902,34.180,3.418,0
120078.535,48.828,34.180,19.043,41.016,17.578,0
120078.539,32.227,29.297,17.090,32.227,-16.602,0
120078.543,8.789,27.832,19.531,22.949,-9.766,0
120078.547,18.555,24.414,13.672,29.785,17.578,0
120078.551,39.551,20.508,17.090,34.180,45.898,0
120078.555,33.203,37.109,23.926,26.367,5.859,0
120078.558,13.672,46.387,26.367,22.949,-14.648,0
120078.561,12.207,37.109,27.344,24.902,14.160,0
120078.564,35.156,27.832,23.926,29.785,44.434,0
120078.568,42.480,33.691,23.926,28.809,67.871,0
120078.572,15.625,33.203,27.832,19.043,32.227,0
120078.576,0.488,28.320,28.809,18.066,-27.832,0
120078.580,19.531,34.180,32.227,26.367,5.859,0
120078.584,48.828,41.016,29.785,36.621,54.688,0
120078.588,35.645,31.738,24.414,32.715,15.625,0
120078.592,-3.906,28.320,29.785,18.555,-34.180,0
120078.596,9.766,31.738,31.250,23.438,-26.367,0
120078.600,34.668,24.902,35.645,33.203,41.504,0
120078.604,18.555,25.391,29.297,27.344,-18.555,0
120078.606,0.000,30.273,23.438,21.973,-112.793,0
120078.610,8.301,29.785,29.297,22.949,-64.453,0
120078.614,38.086,28.809,36.621,29.785,8.789,0
120078.618,31.250,30.762,39.062,33.691,-15.625,0
120078.622,-4.395,30.273,27.344,22.461,-72.266,0
120078.625,-9.766,26.367,32.227,19.531,-70.801,0
120078.629,16.113,22.949,46.387,28.320,10.254,0
120078.633,27.344,19.043,37.598,27.344,49.805,0
120078.637,4.883,15.137,28.320,19.043,-36.133,0
120078.641,-3.418,24.414,34.668,18.066,-85.938,0
120078.645,12.695,31.738,38.574,19.531,-16.113,0
120078.649,22.461,30.273,35.645,19.043,17.090,0
120078.650,0.488,31.738,31.250,9.766,-14.648,0
120078.654,-20.020,30.762,35.156,5.859,-38.574,0
120078.658,-1.465,26.367,35.645,15.137,-6.836,0
120078.662,23.926,25.391,31.738,19.043,19.531,0
120078.666,15.625,32.715,31.738,13.184,-6.348,0
120078.670,-3.906,33.203,37.598,6.348,-10.742,0
120078.674,-1.465,27.832,41.016,11.230,-9.766,0
120078.678,23.438,31.738,37.109,24.902,7.324,0
120078.682,28.809,33.203,41.016,22.949,-6.836,0
120078.686,3.418,27.344,45.898,15.625,-29.785,0
120078.690,5.371,33.203,46.875,23.438,2.441,0
120078.693,27.344,42.480,42.969,30.762,62.988,0
120078.695,27.344,28.809,38.086,22.949,92.773,0
120078.699,11.719,19.531,40.039,12.695,89.355,0
120078.703,-2.441,33.691,40.527,14.160,45.898,0
120078.707,15.625,33.691,38.574,23.926,66.406,0
120078.711,36.133,24.902,36.133,29.785,141.113,0
120078.715,23.926,32.715,32.227,31.250,57.617,0
120078.719,3.906,33.203,35.645,27.832,-15.625,0
120078.723,14.160,34.180,44.434,33.691,22.461,0
120078.727,41.504,35.156,46.387,36.133,51.270,0
120078.731,30.273,23.438,47.363,30.273,50.781,0
120078.735,9.766,24.414,47.852,25.879,29.297,0
120078.738,12.695,29.785,48.828,30.273,-8.301,0
120078.741,36.133,28.809,51.270,44.434,18.555,0
120078.744,42.480,32.227,47.363,41.016,60.059,0
120078.748,22.461,32.715,44.434,29.785,17.578,0
120078.752,12.207,34.180,46.875,32.715,-29.785,0
120078.756,30.762,38.086,44.922,40.039,21.973,0
120078.760,41.992,31.738,41.992,36.621,9.766,0
120078.764,16.113,26.855,49.805,25.391,-48.828,0
120078.768,-7.812,26.367,59.082,18.066,-71.289,0
120078.772,16.113,22.949,62.012,24.414,-47.363,0
120078.776,42.480,26.855,72.266,33.691,12.695,0
120078.780,18.555,27.344,79.102,26.855,14.648,0
120078.784,0.977,21.973,71.289,17.090,-2.441,0
120078.787,13.184,26.855,67.383,27.344,-19.531,0
120078.791,30.762,28.809,66.895,37.598,16.602,0
120078.795,34.668,29.785,66.406,30.273,3.906,0
120078.799,7.324,17.090,61.523,14.648,-72.754,0
120078.802,-1.953,18.066,52.734,11.230,-45.410,0
120078.806,25.879,41.016,54.688,24.902,-36.621,0
120078.810,26.367,37.598,54.688,21.973,-28.320,0
120078.814,2.441,35.645,54.199,13.672,6.348,0
120078.818,-8.301,30.273,56.152,14.648,-21.484,0
120078.822,5.371,20.020,48.828,17.090,11.230,0
120078.826,28.809,22.949,42.969,25.391,68.359,0
120078.830,22.949,31.738,42.969,29.297,66.406,0
120078.830,15.137,37.598,48.340,19.531,17.578,0
120078.834,18.066,29.785,50.781,19.531,27.832,0
120078.838,24.414,21.484,51.270,30.762,70.801,0
120078.842,16.602,30.273,44.922,26.367,-2.441,0
120078.846,-6.836,36.133,39.551,17.090,-66.406,0
120078.850,7.324,32.715,38.086,21.973,-66.406,2
120078.854,34.180,29.785,39.551,31.738,-2.930,0
120078.858,28.320,27.344,36.133,26.855,25.391,0
120078.862,8.301,27.832,30.273,19.043,-16.602,0
120078.866,5.371,31.738,35.156,22.461,-37.598,0
120078.870,25.391,21.973,47.852,31.738,6.348,0
120078.873,28.320,20.020,54.688,32.715,47.852,0
120078.890,12.207,34.180,51.270,26.367,26.855,0
120078.894,2.441,35.645,46.387,24.414,-24.902,0
120078.898,20.508,24.414,49.316,33.203,-36.621,0
120078.902,41.016,17.090,52.246,38.086,-4.883,0
120078.906,22.949,22.461,47.852,28.320,-10.742,0
120078.910,12.695,30.273,46.875,23.438,-60.547,0
120078.914,32.715,37.598,44.922,36.133,-66.895,0
120078.918,43.457,36.133,34.180,38.574,14.648,0
120078.922,30.273,34.180,31.738,26.855,1.465,0
120078.926,0.000,29.785,39.551,18.555,-58.105,0
120078.930,1.953,20.996,37.109,15.625,-15.625,0
120078.933,26.367,22.461,26.367,16.602,20.020,0
120078.935,26.367,25.879,26.855,17.578,21.484,0
120078.939,5.859,26.855,32.227,15.625,15.625,0
120078.943,1.465,22.949,32.227,17.578,-37.598,0
120078.947,24.902,17.578,32.227,27.344,-31.738,0
120078.951,32.227,24.414,31.250,30.762,4.883,0
120078.955,4.395,29.785,34.180,25.391,-3.906,0
120078.959,-10.254,26.367,41.504,24.902,-46.875,0
120078.963,12.207,27.832,40.039,31.738,1.953,0
120078.967,33.203,33.203,37.598,34.668,83.984,0
120078.971,22.461,31.250,42.969,27.832,24.414,0
120078.975,2.930,25.391,39.551,21.484,-38.086,0
120078.978,18.555,21.484,31.250,26.855,-18.066,0
120078.980,41.016,18.555,30.762,33.203,27.344,0
120078.984,38.574,20.508,27.832,30.273,10.742,0
120078.988,13.184,38.574,26.855,25.879,-25.391,0
120078.992,11.230,40.039,31.738,28.320,-20.996,0
120078.996,44.922,36.621,36.621,40.527,2.441,0
120079.000,53.711,40.039,36.621,41.992,7.324,0
120079.004,23.438,31.738,41.992,32.227,-14.160,0
120079.008,9.277,25.879,46.387,29.785,-33.691,0
120079.012,34.180,28.320,49.316,41.016,2.930,0
120079.016,44.434,33.203,41.992,43.945,4.883,0
120079.020,18.066,32.227,31.738,30.273,-18.066,0
120079.023,5.859,36.133,38.086,24.902,-22.461,0
120079.025,30.762,39.551,38.574,32.715,12.207,0
120079.029,44.434,35.156,30.273,29.785,71.777,0
120079.033,26.855,35.156,34.180,20.508,51.758,0
120079.037,-2.441,25.391,37.109,18.066,14.160,0
120079.041,13.672,26.855,38.086,27.344,37.109,0
120079.045,43.457,31.738,40.039,36.621,74.707,0
120079.049,35.645,22.461,37.109,30.762,44.922,0
120079.053,10.254,20.996,39.551,27.832,14.648,0
120079.057,8.789,25.391,51.758,36.621,8.789,0
120079.061,36.621,27.832,40.527,46.387,20.996,0
120079.064,38.574,37.109,28.809,45.898,73.730,0
120079.068,18.066,40.039,44.922,39.551,24.414,0
120079.071,2.441,31.250,47.363,31.250,-25.391,0
120079.074,22.949,22.949,39.062,31.250,58.594,0
120079.078,43.945,23.926,34.668,36.621,85.449,0
120079.082,22.461,20.996,33.203,29.785,-10.742,0
120079.086,5.371,22.949,38.086,22.461,-15.625,0
120079.090,29.785,37.598,43.945,31.738,39.551,0
120079.094,47.363,37.598,42.969,43.457,54.688,0
120079.098,29.785,23.926,39.062,37.109,22.461,0
120079.102,11.230,27.344,38.086,24.414,-43.457,0
120079.106,20.020,39.551,40.527,34.668,-4.883,0
120079.110,41.016,41.016,29.297,48.828,29.785,0
120079.113,32.227,27.832,1.465,35.156,-3.418,0
120079.115,-0.488,27.832,2.930,21.484,-23.438,0
120079.119,-8.789,20.996,33.203,20.020,-45.898,0
120079.123,17.578,6.348,48.340,22.461,-0.488,0
120079.127,25.391,17.090,49.316,20.020,26.855,0
120079.131,-0.977,27.344,50.781,16.602,-30.762,0
120079.135,-7.812,20.508,50.293,20.020,-28.809,0
120079.139,20.996,22.949,47.363,31.250,20.508,0
120079.143,44.922,31.738,41.504,36.621,20.508,0
120079.147,34.668,35.645,24.902,27.832,-18.555,0
120079.151,4.395,37.598,20.508,25.391,-27.832,0
120079.155,12.695,36.621,30.762,31.738,-15.137,0
120079.158,40.527,31.250,38.086,33.203,19.531,0
120079.160,31.250,23.926,43.945,29.297,37.109,0
120079.164,6.836,24.414,43.945,27.832,-19.531,0
120079.168,11.719,27.344,41.504,30.273,-51.758,0
120079.172,39.062,31.250,42.480,36.621,45.898,0
120079.176,43.457,39.062,17.090,42.969,85.938,0
120079.180,18.555,30.762,-2.441,40.527,9.277,0
120079.184,19.043,31.738,38.086,41.504,-26.855,0
120079.188,40.527,29.785,63.965,41.504,-13.672,0
120079.192,43.945,16.113,59.570,34.180,48.340,0
120079.196,30.762,31.250,60.059,31.738,32.227,0
120079.200,17.578,38.574,52.246,29.785,-25.879,0
120079.203,32.227,25.879,43.945,37.598,35.156,0
120079.206,52.734,20.508,41.016,44.922,65.918,0
120079.209,37.109,27.344,39.062,38.574,2.441,0
120079.213,15.137,29.297,33.691,31.738,-26.367,0
120079.217,24.414,32.715,32.227,37.598,-9.766,0
120079.221,44.434,22.461,46.875,49.316,35.156,0
120079.225,41.992,11.230,49.805,47.852,23.926,0
120079.229,13.184,28.320,45.410,33.203,-47.363,0
120079.233,10.742,37.598,49.316,28.809,-17.578,0
120079.237,39.062,24.414,46.387,35.156,47.852,0
120079.241,38.086,16.602,40.039,34.668,33.691,0
120079.245,7.812,17.578,40.527,27.344,23.926,0
120079.249,2.441,21.484,42.969,24.902,20.996,0
120079.252,22.949,24.902,41.504,29.297,48.340,0
120079.256,35.156,27.832,43.945,36.133,50.781,0
120079.260,17.578,25.879,45.898,31.250,-18.066,0
120079.264,-0.977,16.602,42.480,27.344,-44.434,0
120079.267,20.996,22.461,39.551,36.621,-6.836,0
120079.271,53.223,29.297,38.574,36.621,14.648,0
120079.275,34.668,25.391,39.062,22.461,-5.859,0
120079.279,-8.301,21.484,31.250,11.719,-17.090,0
120079.283,2.930,19.531,30.273,15.625,-19.531,0
120079.287,37.598,34.180,32.715,24.414,27.832,0
120079.291,22.461,36.621,27.832,15.137,67.871,0
120079.295,-9.277,25.391,33.691,-0.977,24.902,0
120079.311,-8.301,26.855,44.922,-1.465,20.508,0
120079.314,15.625,26.855,43.945,7.324,67.383,0
120079.318,24.414,32.715,39.551,13.184,76.660,0
120079.322,7.324,30.762,34.180,13.184,46.387,0
120079.326,-1.465,15.137,24.902,19.531,9.277,0
120079.330,14.160,25.879,28.320,22.461,-8.301,0
120079.334,28.809,33.203,33.691,15.625,-4.883,0
120079.338,14.648,25.879,34.668,12.695,-4.395,0
120079.342,-8.789,25.391,37.109,7.812,-43.457,0
120079.346,14.648,24.414,36.621,11.230,-68.848,0
120079.350,41.504,25.391,36.621,22.949,-14.648,0
120079.354,21.973,29.297,35.645,22.461,28.809,0
120079.355,-18.555,24.902,26.855,11.719,-45.410,0
120079.359,-10.254,26.855,26.367,17.578,-57.617,0
120079.363,26.855,28.809,34.668,32.227,14.648,0
120079.367,29.785,26.855,38.086,35.645,-15.625,0
120079.371,6.836,27.344,40.527,28.320,-56.152,0
120079.375,7.812,24.902,35.645,31.738,-51.270,0
120079.379,47.852,25.391,38.574,43.945,-20.996,0
120079.383,49.316,24.902,42.480,34.180,2.441,0
120079.387,8.301,22.461,33.203,15.137,-71.289,0
120079.391,0.488,25.879,34.180,11.230,-104.004,0
120079.395,28.320,25.391,35.156,17.090,5.859,0
120079.398,49.316,23.926,31.738,22.949,74.707,0
120079.401,25.391,34.668,29.297,17.090,25.879,0
120079.404,-2.930,38.574,21.484,15.137,-8.301,0
120079.408,14.648,35.645,19.531,25.391,0.000,0
120079.412,46.875,35.645,35.645,34.180,45.898,0
120079.416,40.039,33.203,45.898,33.691,23.438,0
120079.420,8.301,26.367,35.156,25.879,-46.875,0
120079.424,14.648,22.461,28.809,27.344,-1.953,0
120079.428,41.504,23.438,34.668,36.133,47.363,0
120079.432,38.086,28.809,37.598,32.715,-20.020,0
120079.436,10.742,26.855,36.621,20.996,-77.637,0
120079.440,0.977,22.461,33.691,17.578,-29.785,0
120079.444,28.809,23.438,32.227,24.902,13.184,0
120079.445,43.457,26.855,31.250,26.367,-14.160,0
120079.449,21.973,26.367,37.109,21.484,-21.484,0
120079.453,9.766,24.902,44.434,22.949,-29.297,0
120079.457,21.973,25.879,37.109,27.344,0.977,0
120079.461,33.203,25.391,25.879,24.414,33.203,0
120079.465,24.902,19.043,31.250,20.020,-15.137,0
120079.469,3.418,12.207,34.668,13.672,-32.227,0
120079.473,18.066,26.367,24.414,11.230,3.906,0
120079.477,50.781,37.598,22.949,16.602,-0.488,0
120079.481,29.785,40.039,24.902,10.254,25.879,0
120079.485,-4.883,42.969,28.320,4.883,9.277,0
120079.488,7.812,38.086,37.109,18.555,11.230,0
120079.492,32.227,30.273,44.922,30.273,81.055,0
120079.496,34.180,23.438,41.504,33.203,70.312,0
120079.500,16.602,23.926,36.133,30.762,-9.766,0
120079.504,6.348,24.902,39.551,27.344,-56.641,0
120079.507,32.715,27.344,42.480,40.527,23.926,0
120079.511,44.922,34.180,37.109,49.805,87.402,0
120079.515,18.066,29.297,30.762,36.621,15.137,0
120079.519,-5.371,22.949,34.180,26.855,-47.852,0
120079.523,12.207,23.438,35.645,29.785,-22.461,0
120079.527,35.156,26.367,43.457,31.250,54.199,0
120079.531,24.902,24.414,56.152,29.297,35.156,0
120079.535,3.418,20.508,58.105,25.391,-55.176,0
120079.536,14.160,25.391,48.340,24.414,-41.016,0
120079.539,35.645,20.996,32.227,33.691,3.418,0
120079.543,31.738,19.043,17.578,33.203,13.184,0
120079.547,21.484,35.156,23.926,22.949,-9.277,0
120079.551,21.484,45.898,39.062,25.879,-15.625,0
120079.555,33.203,45.898,41.992,33.203,42.969,0
120079.559,27.344,34.180,43.945,26.855,56.152,0
120079.563,-3.418,25.391,49.316,14.648,-4.395,0
120079.567,-10.254,22.461,47.363,15.625,-36.133,0
120079.571,17.578,23.926,43.945,28.809,3.906,0
120079.575,38.574,23.926,39.062,34.668,45.898,0
120079.578,15.625,25.391,34.180,27.832,22.461,0
120079.581,-5.859,20.996,37.598,23.438,-15.137,0
120079.584,18.555,20.508,39.062,33.203,24.902,0
120079.588,38.086,29.785,36.621,41.504,65.430,0
120079.592,36.621,25.879,42.480,40.527,56.152,0
120079.596,17.090,22.949,46.387,36.133,35.156,0
120079.600,12.207,25.391,47.363,36.621,19.531,0
120079.604,36.133,28.809,45.898,42.969,-8.789,0
120079.608,39.062,33.691,39.551,40.527,-20.508,0
120079.612,12.207,34.180,39.062,30.762,-12.207,0
120079.616,-1.465,27.344,43.457,29.297,-26.367,0
120079.620,26.855,26.855,40.527,35.156,27.832,0
120079.623,34.668,20.508,43.945,35.156,58.105,0
120079.625,15.137,12.695,51.270,27.344,4.395,0
120079.629,6.348,29.785,36.621,20.020,-32.227,0
120079.633,19.043,41.016,25.391,25.391,-1.953,0
120079.637,37.109,35.645,42.969,29.297,39.551,0
120079.641,26.855,29.297,48.340,21.973,22.461,0
120079.645,0.977,29.785,34.180,18.066,-38.574,0
120079.649,8.789,28.320,33.691,26.367,-44.922,0
120079.653,38.086,20.996,40.039,35.156,26.855,0
120079.657,37.598,21.484,46.387,37.109,25.391,0
120079.661,20.508,26.367,55.664,39.062,-47.852,0
120079.665,22.461,25.879,52.246,37.598,-44.922,0
120079.668,46.387,23.438,47.363,46.387,26.367,0
120079.685,51.270,25.391,42.480,46.387,-8.789,0
120079.689,24.414,32.227,39.062,32.227,-65.918,0
120079.693,16.602,36.621,37.598,38.574,-57.617,0
120079.697,53.223,35.645,34.180,50.293,-4.883,0
120079.701,71.289,33.691,32.715,48.828,30.762,0
120079.705,45.898,40.039,33.691,43.457,-14.160,0
120079.709,21.484,43.457,35.645,41.504,-33.203,0
120079.713,36.133,38.086,32.715,48.828,6.836,0
120079.717,55.664,33.203,31.250,52.734,22.461,0
120079.721,38.086,30.762,37.109,43.945,-21.484,0
120079.725,9.277,31.738,39.062,35.156,-50.781,0
120079.728,27.832,34.668,31.738,36.621,24.414,0
120079.730,53.223,21.484,27.344,35.156,38.574,0
120079.734,26.367,17.578,28.809,26.855,-26.367,0
120079.738,2.441,40.527,27.344,15.137,-41.992,0
120079.742,3.418,40.039,33.203,8.789,-9.766,0
120079.746,17.090,26.855,37.109,8.789,16.602,0
120079.750,33.203,29.297,39.062,21.973,31.738,0
120079.754,19.043,38.086,44.922,26.855,-12.695,0
120079.758,2.441,30.273,30.273,15.625,-21.484,0
120079.762,28.320,23.438,20.020,23.438,24.414,0
120079.766,43.945,26.367,27.344,30.762,48.828,0
120079.770,23.926,26.855,30.762,25.391,23.926,0
120079.773,16.602,33.691,34.180,28.320,-24.414,0
120079.776,42.480,36.621,38.086,42.969,-25.879,0
120079.779,57.617,28.320,37.109,49.805,5.859,0
120079.783,34.668,22.461,34.180,36.133,14.648,0
120079.787,8.789,27.832,30.762,28.320,19.043,0
120079.791,23.438,33.691,33.203,36.621,34.668,0
120079.795,45.410,28.809,33.691,40.527,55.176,0
120079.799,36.133,29.785,32.227,33.203,62.012,0
120079.803,16.113,36.621,28.809,20.508,29.297,0
120079.807,14.648,31.250,25.879,16.602,-5.371,0
120079.811,34.180,20.996,18.555,22.949,9.277,0
120079.815,41.016,34.668,14.160,25.879,66.895,0
120079.818,26.367,48.340,25.879,22.461,38.086,0
120079.821,6.348,37.109,38.574,19.531,-2.930,0
120079.825,2.441,28.320,44.434,20.996,56.641,0
120079.829,25.879,24.414,49.805,23.926,80.078,0
120079.833,11.719,25.391,37.598,17.090,15.625,0
120079.837,-6.348,32.715,27.344,10.742,-61.523,0
120079.841,18.555,30.762,35.645,21.973,-27.832,0
120079.845,32.227,22.949,33.203,27.344,40.527,0
120079.849,22.461,17.578,20.996,27.832,41.992,0
120079.852,7.324,20.996,22.949,28.809,-20.508,0
120079.856,7.812,21.973,26.855,25.879,-35.156,0
120079.860,26.367,21.973,33.203,24.414,62.012,0
120079.864,29.785,28.809,41.016,23.926,85.449,0
120079.865,8.301,29.785,49.316,24.414,30.762,0
120079.869,12.695,30.273,40.527,30.273,10.254,0
120079.873,37.598,27.832,16.113,39.062,50.781,0
120079.877,34.668,25.391,20.996,43.457,83.984,0
120079.881,18.555,26.367,37.109,37.109,26.855,0
120079.885,11.230,23.926,37.598,31.738,-21.484,0
120079.889,27.832,23.926,34.668,38.574,34.668,0
120079.893,55.664,33.203,41.992,40.527,26.367,0
120079.897,39.551,25.391,44.922,29.785,6.348,0
120079.901,0.977,19.043,40.039,21.484,-19.043,0
120079.905,8.789,35.156,25.879,28.320,-12.207,0
120079.908,34.668,38.574,19.531,32.227,41.504,0
120079.910,28.809,36.133,26.367,28.809,9.277,0
120079.914,7.812,33.691,34.180,27.344,-12.695,0
120079.918,15.137,31.250,39.062,30.762,-2.441,0
120079.922,48.828,37.598,31.250,41.504,35.645,0
120079.926,46.875,35.156,16.602,32.715,42.480,0
120079.930,13.672,24.414,9.277,15.137,-30.762,0
120079.934,17.578,33.691,21.484,15.137,-25.879,0
120079.938,43.457,38.086,42.480,24.902,11.230,0
120079.942,49.316,32.715,54.199,34.180,27.832,0
120079.946,30.273,35.645,55.176,31.250,7.812,0
120079.950,16.113,41.016,47.852,28.809,-61.035,0
120079.953,36.133,34.180,31.250,34.668,-50.781,0
120079.957,51.270,27.832,16.113,39.062,29.785,0
120079.961,26.367,25.391,17.090,32.227,10.742,0
120079.965,11.719,30.762,40.527,31.250,-65.918,0
120079.969,34.180,36.621,51.758,37.109,-47.363,0
120079.972,49.805,38.086,45.410,41.016,18.066,0
120079.976,31.250,25.391,37.598,35.156,17.090,0
120079.980,14.160,17.578,31.738,22.461,-54.199,0
120079.984,25.391,37.598,17.578,25.391,-70.312,0
120079.988,39.551,44.922,5.859,34.668,4.395,0
120079.992,38.086,39.062,22.461,30.762,35.156,0
120079.996,19.531,41.016,42.480,22.461,6.836,0
120080.000,5.859,40.527,40.039,20.996,-19.043,0
120080.001,27.832,33.203,34.180,26.367,15.137,0
120080.004,43.945,28.320,39.551,32.227,37.598,0
120080.008,17.090,31.250,38.574,27.832,31.250,0
120080.012,4.883,41.016,37.598,28.320,5.371,0
120080.016,29.785,32.227,34.180,38.574,4.883,0
120080.020,43.945,21.484,27.344,36.621,35.645,0
120080.024,20.996,26.367,28.320,21.973,-12.695,0
120080.028,-0.488,29.297,32.227,16.113,-27.344,0
120080.032,6.348,29.785,33.203,26.855,16.113,0
120080.036,29.785,29.297,37.598,37.109,28.320,0
120080.040,37.598,23.438,37.109,34.668,-7.324,0
120080.044,10.742,25.391,33.203,25.879,-0.977,0
120080.060,4.883,33.691,31.738,26.367,23.438,0
120080.064,33.691,32.227,19.043,33.691,49.316,0
120080.068,37.598,29.297,14.648,27.832,52.246,0
120080.072,16.602,31.250,30.762,25.879,24.902,0
120080.076,4.395,30.762,43.457,27.344,16.113,0
120080.080,18.555,23.926,39.062,24.414,66.406,0
120080.084,33.203,23.926,33.691,28.320,79.590,0
120080.088,21.484,21.484,29.785,19.531,29.785,0
120080.092,4.883,15.137,24.414,8.789,-10.742,0
120080.096,14.648,30.273,31.738,19.043,-20.996,0
120080.100,39.062,42.480,31.250,29.297,21.973,0
120080.103,43.945,40.527,25.391,30.273,16.113,0
120080.106,13.672,38.086,16.602,26.855,-31.250,0
120080.109,4.395,34.180,8.301,28.320,-53.711,0
120080.113,33.691,33.691,24.902,36.621,5.859,0
120080.117,36.621,33.691,36.133,35.156,28.320,0
120080.121,6.836,32.715,34.180,26.367,-41.504,0
120080.125,0.488,30.273,32.227,27.832,-36.133,0
120080.129,34.668,32.715,34.180,36.133,27.832,0
120080.133,37.109,32.715,31.250,37.109,50.293,0
120080.137,3.906,24.902,25.391,26.855,8.789,0
120080.141,-8.789,23.438,24.902,19.043,-72.266,0
120080.145,19.531,29.785,28.320,31.738,-61.035,0
120080.149,42.480,28.809,22.461,37.109,0.977,0
120080.150,15.625,33.203,16.113,22.949,-7.324,0
120080.154,-10.742,40.527,24.902,16.113,-23.926,0
120080.158,13.184,39.551,29.785,23.438,13.672,0
120080.162,39.551,37.109,23.438,30.762,26.367,0
120080.166,30.762,38.086,18.555,24.902,-3.418,0
120080.170,0.000,34.668,19.531,18.066,-71.289,0
120080.174,-2.441,27.344,19.043,23.926,-75.195,0
120080.178,26.855,22.949,20.996,29.297,41.016,0
120080.182,27.832,14.648,38.086,24.902,25.391,0
120080.186,9.277,11.230,41.992,18.555,-20.508,0
120080.190,-8.301,32.227,32.227,18.555,8.789,0
120080.193,15.137,40.527,29.297,25.391,18.555,0
120080.196,33.203,34.180,30.273,32.715,24.902,0
120080.200,12.695,33.203,31.250,26.855,-10.254,0
120080.204,2.930,33.203,31.738,25.879,-46.875,0
120080.208,16.113,30.762,31.738,33.691,-10.254,0
120080.212,34.180,34.180,37.598,33.691,6.348,0
120080.216,31.250,36.621,36.133,31.738,7.812,0
120080.220,1.465,24.414,28.320,25.879,-0.977,0
120080.223,1.465,21.973,28.809,21.973,-33.203,0
120080.227,27.832,30.273,28.809,29.785,8.301,0
120080.231,40.527,31.250,32.227,38.574,64.453,0
120080.235,19.531,32.715,34.180,31.738,18.066,0
120080.239,-8.789,30.762,29.297,21.973,-20.020,0
120080.241,17.090,30.762,31.250,30.762,54.688,0
120080.245,33.203,29.297,27.344,33.203,68.848,0
120080.249,17.090,30.273,20.020,22.949,-7.324,0
120080.253,10.742,33.203,20.996,19.043,-9.277,0
120080.257,24.902,23.926,19.531,27.832,50.293,0
120080.261,40.039,27.832,28.809,37.598,78.613,0
120080.265,27.344,41.992,38.086,28.809,53.711,0
120080.268,5.371,36.133,31.250,18.555,-23.438,0
120080.272,9.766,25.391,31.250,24.902,-19.531,0
120080.276,35.156,28.809,34.668,32.227,67.871,0
120080.280,17.578,31.250,35.645,23.438,40.527,0
120080.284,-7.812,25.391,35.156,15.137,10.254,0
120080.285,10.742,22.949,30.273,21.973,52.246,0
120080.289,34.668,25.391,29.297,32.715,88.867,0
120080.293,37.598,14.160,36.621,36.133,78.125,0
120080.297,15.625,20.508,25.391,32.227,34.180,0
120080.301,10.742,39.062,17.090,34.180,14.648,0
120080.305,34.180,35.645,24.902,41.016,96.191,0
120080.309,40.527,41.016,28.809,41.992,61.035,0
120080.313,22.461,41.016,32.715,40.039,-54.688,0
120080.317,10.742,31.738,28.320,35.156,-53.223,0
120080.321,32.227,21.484,22.949,39.551,-51.758,0
120080.325,44.434,20.996,30.762,46.875,-6.348,0
120080.328,24.902,25.879,36.621,38.086,4.883,0
120080.330,5.371,28.320,27.832,28.320,-44.922,0
120080.334,21.484,35.156,26.855,33.691,-5.371,0
120080.338,41.504,33.203,31.738,39.551,36.133,0
120080.342,28.320,28.809,29.297,33.691,51.758,0
120080.346,5.859,30.273,30.762,21.973,23.926,0
120080.350,15.625,32.227,27.832,19.531,-6.348,0
120080.354,42.480,22.461,28.320,31.738,0.977,0
120080.358,30.762,24.902,24.414,31.738,-1.953,0
120080.362,11.230,37.109,18.066,20.020,45.898,0
120080.366,4.883,34.180,25.879,22.949,20.020,0
120080.370,24.414,27.344,32.227,34.668,15.625,0
120080.373,30.762,20.508,40.527,28.809,65.430,0
120080.391,5.371,26.855,44.434,20.996,22.461,0
120080.394,2.441,37.109,38.574,19.043,-22.461,0
120080.398,25.879,36.621,33.691,29.297,-5.371,0
120080.402,50.781,36.133,33.691,33.691,36.621,0
120080.406,40.527,33.203,33.203,23.438,26.367,0
120080.410,2.930,32.715,32.227,17.578,-2.441,0
120080.414,7.324,25.879,30.762,20.996,-5.371,0
120080.418,36.621,23.438,37.598,32.227,35.645,0
120080.422,36.621,38.574,38.574,34.668,39.551,0
120080.426,7.324,39.062,26.367,21.484,-38.574,0
120080.430,3.418,30.762,22.949,24.414,-42.480,0
120080.434,47.852,27.344,25.879,41.992,5.371,0
120080.435,52.246,31.738,29.785,41.504,-6.836,0
120080.439,5.371,36.133,30.762,30.762,-36.133,0
120080.443,-6.348,32.715,20.996,28.320,-36.621,0
120080.447,25.391,34.180,21.484,36.621,-20.508,0
120080.451,44.434,32.227,32.227,39.551,9.277,0
120080.455,18.555,28.809,37.109,27.832,0.488,0
120080.459,1.953,31.250,34.180,20.996,-61.035,0
120080.463,31.250,24.414,37.109,27.832,-21.973,0
120080.467,42.480,16.602,40.527,31.250,26.855,0
120080.471,20.996,28.809,36.133,20.020,-1.465,0
120080.475,-2.930,34.668,25.391,7.324,-45.410,0
120080.478,9.766,36.621,18.066,10.742,-60.547,0
120080.481,34.180,35.645,23.926,22.949,3.906,0
120080.484,26.855,36.133,33.203,22.949,20.020,0
120080.488,4.395,26.367,33.203,14.160,3.906,0
120080.492,8.301,17.090,21.484,14.648,8.789,0
120080.496,36.133,32.227,19.043,25.391,35.645,0
120080.500,45.410,41.992,29.785,34.180,31.250,0
120080.504,21.484,41.016,32.715,29.297,-4.395,0
120080.508,4.883,31.250,35.156,30.762,-10.742,0
120080.512,23.926,25.391,32.715,43.457,20.020,0
120080.516,40.039,30.273,25.391,45.898,37.109,0
120080.520,17.578,30.273,20.508,40.527,-0.977,0
120080.523,0.977,34.180,23.926,36.621,-5.859,0
120080.526,26.367,38.086,29.785,41.992,48.340,0
120080.529,45.410,34.668,32.715,41.016,54.688,0
120080.533,24.902,34.668,36.621,30.762,34.180,0
120080.537,6.348,36.133,34.668,25.879,-10.254,0
120080.541,25.391,31.738,31.250,34.180,-18.066,0
120080.545,39.551,32.227,30.273,42.969,33.691,0
120080.549,27.832,37.598,26.855,38.086,47.363,0
120080.553,12.695,37.598,22.461,25.879,14.160,0
120080.557,12.695,32.715,23.438,19.043,-25.391,0
120080.561,33.203,30.762,28.809,27.344,25.879,0
120080.565,40.039,30.762,32.715,28.809,96.680,0
120080.568,17.090,36.133,33.691,19.043,62.988,0
120080.570,1.953,41.016,28.809,17.578,19.531,0
120080.574,31.738,40.527,24.902,22.461,53.223,0
120080.578,49.316,37.109,26.367,26.367,73.730,0
120080.582,15.625,31.250,20.020,16.602,9.277,0
120080.586,-8.789,21.484,21.973,10.742,-32.227,0
120080.590,13.672,25.879,27.344,15.137,-8.789,0
120080.594,40.039,37.598,30.273,23.438,56.641,0
120080.598,25.391,35.645,33.691,25.391,53.223,0
120080.602,2.930,37.598,31.250,17.578,-6.836,0
120080.606,16.113,32.227,25.391,22.461,-26.367,0
120080.610,36.133,29.297,24.414,30.273,-10.254,0
120080.613,30.762,35.645,27.832,24.414,-3.906,0
120080.615,6.348,35.645,24.414,21.973,-42.969,0
120080.619,4.395,32.715,20.508,26.855,-53.711,0
120080.623,39.062,29.785,21.484,35.645,-0.488,0
120080.627,45.410,29.785,28.809,39.551,27.344,0
120080.631,17.090,39.551,33.691,31.738,4.395,0
120080.635,13.672,43.945,29.297,28.320,-41.016,0
120080.639,37.109,37.109,28.809,39.062,-16.602,0
120080.643,39.062,29.297,26.855,42.969,25.879,0
120080.647,37.598,30.273,14.648,34.180,-9.766,0
120080.651,20.508,32.227,13.672,25.879,-63.477,0
120080.655,11.230,28.809,22.461,30.273,-60.547,0
120080.658,42.480,27.832,26.855,37.109,51.758,0
120080.663,46.387,38.086,27.832,33.691,55.664,0
120080.666,22.949,46.387,21.484,20.508,2.930,0
120080.670,17.578,43.945,19.531,17.578,0.000,0
120080.674,38.086,41.016,19.531,27.344,17.578,0
120080.678,40.527,32.227,13.672,21.973,27.344,0
120080.682,14.160,26.855,19.531,14.160,8.301,0
120080.686,3.906,30.273,28.809,13.672,15.137,0
120080.690,21.973,37.109,21.973,17.578,14.648,0
120080.694,45.898,37.598,18.555,23.438,31.250,0
120080.698,22.949,31.250,31.250,18.066,25.879,0
120080.702,-9.766,30.762,36.133,16.113,-16.602,0
120080.705,13.184,29.785,25.879,22.949,0.000,0
120080.705,30.273,29.785,20.508,26.855,44.434,0
120080.709,12.695,32.227,21.484,20.020,5.371,0
120080.713,-4.395,31.738,25.879,14.160,-61.523,0
120080.717,15.137,28.320,20.508,20.508,-22.949,0
120080.721,46.875,22.461,18.555,27.344,41.992,0
120080.725,32.715,22.461,33.203,24.414,28.320,0
120080.729,-1.465,21.973,31.738,11.230,-6.348,0
120080.733,8.789,26.855,34.180,12.207,-2.441,0
120080.737,35.645,39.551,39.062,29.785,70.801,0
120080.741,33.203,30.762,31.738,29.785,54.688,0
120080.745,15.625,20.508,31.738,21.973,-29.297,0
120080.748,10.742,40.039,32.227,25.879,-9.766,0
120080.750,29.785,47.852,25.879,36.133,74.219,0
120080.754,47.852,41.016,21.973,41.016,72.266,0
120080.758,31.250,31.738,25.391,32.227,31.738,0
120080.762,15.137,26.367,26.367,32.227,-10.254,0
120080.766,29.785,32.715,26.367,39.062,-4.883,0
120080.770,45.898,39.551,31.738,41.504,33.203,0
120080.774,39.062,34.180,35.156,33.691,-12.695,0
120080.778,17.090,34.668,32.227,23.926,-22.949,0
120080.782,13.184,35.156,33.691,30.273,14.648,0
120080.786,28.320,26.855,34.180,39.062,23.438,0
120080.790,31.738,30.762,26.367,36.133,-4.395,0
120080.793,15.137,33.203,25.879,28.320,-66.895,0
120080.811,9.277,32.715,22.461,24.902,-75.195,0
120080.814,28.809,36.621,28.320,30.762,-14.160,0
120080.818,42.969,35.156,38.574,32.227,-17.578,0
120080.822,20.020,32.715,40.039,26.855,-5.859,0
120080.826,2.930,39.551,35.156,28.320,2.930,0
120080.830,32.227,41.992,26.855,35.156,-1.465,0
120080.834,45.410,29.297,32.715,38.574,12.695,0
120080.838,20.020,26.367,36.133,27.832,10.742,0
120080.842,4.395,33.691,35.156,18.066,-3.418,0
120080.846,24.414,35.645,37.598,27.344,-16.113,0
120080.850,37.109,30.273,29.785,33.691,-18.555,0
120080.853,28.320,28.809,27.832,32.227,-7.324,0
120080.855,-1.465,30.273,30.762,25.391,-28.809,0
120080.859,-7.324,28.320,28.320,27.344,-4.395,0
120080.863,24.414,27.832,24.902,32.715,49.805,0
120080.867,31.250,28.809,21.973,31.738,38.574,0
120080.871,2.441,23.438,24.414,31.250,7.324,0
120080.875,6.836,27.832,36.133,35.156,-5.371,0
120080.879,41.992,37.598,39.551,44.922,26.367,0
120080.883,36.133,36.621,31.738,41.992,59.082,0
120080.887,6.836,41.016,25.879,30.273,-9.766,0
120080.891,4.883,41.016,24.414,28.320,-88.379,0
120080.895,22.461,34.668,29.785,33.691,-35.645,0
120080.898,36.133,35.645,31.250,36.621,3.906,0
120080.900,27.344,38.086,32.227,35.645,-16.113,0
120080.904,7.812,34.180,26.855,23.926,-47.363,0
120080.908,15.137,37.109,22.461,24.902,10.254,0
120080.912,27.344,31.250,24.414,33.691,89.355,0
120080.916,19.531,30.273,29.297,25.879,60.547,0
120080.920,-1.953,34.668,33.203,18.555,-22.461,0
120080.924,4.883,30.273,34.180,26.367,-27.344,0
120080.928,37.598,33.203,29.297,32.715,34.180,0
120080.932,31.250,33.203,26.367,26.367,22.949,0
120080.936,0.977,32.227,29.785,16.113,-17.090,0
120080.940,11.230,27.832,31.250,18.066,7.812,0
120080.943,23.438,23.926,21.973,27.344,41.016,0
120080.946,24.414,27.832,18.555,27.344,44.434,0
120080.949,11.719,21.484,29.297,25.391,22.949,0
120080.953,-5.859,17.578,34.180,22.461,1.953,0
120080.957,16.113,26.367,32.227,30.273,8.789,0
120080.961,41.504,30.762,31.738,39.062,43.457,0
120080.965,27.344,29.785,27.832,27.832,40.039,0
120080.969,1.953,15.137,27.832,20.020,-21.973,0
120080.973,24.902,22.949,25.391,29.785,-17.578,0
120080.977,51.758,38.086,21.484,34.668,38.574,0
120080.981,30.273,34.668,22.949,27.832,60.059,0
120080.985,8.301,36.621,27.344,16.113,15.137,0
120080.989,7.812,33.691,29.297,17.090,-17.090,0
120080.991,25.391,31.250,28.809,30.762,41.504,0
120080.994,36.133,27.344,23.438,31.738,70.312,0
120080.998,16.113,23.926,20.996,24.902,15.625,0
120081.002,4.883,27.832,25.391,25.879,-10.742,0
120081.006,13.184,25.879,23.926,26.855,35.645,0
120081.010,18.555,24.902,28.320,28.809,93.262,0
120081.014,2.930,22.949,31.250,21.484,48.340,0
120081.018,-16.113,16.602,27.832,11.719,-49.805,0
120081.022,-1.465,23.438,24.414,21.484,-5.371,0
120081.026,21.484,28.320,22.461,32.715,53.223,0
120081.030,11.719,27.344,24.414,28.320,9.277,0
120081.034,-2.441,28.320,22.949,20.508,-0.977,0
120081.036,16.113,28.320,28.320,25.879,3.418,0
120081.040,34.180,28.320,29.785,39.062,36.133,0
120081.044,24.902,27.832,20.508,40.039,21.484,0
120081.048,8.789,31.250,24.414,28.809,-10.254,0
120081.051,8.789,36.133,26.855,27.832,-11.719,0
120081.055,35.156,35.156,28.320,39.551,17.090,0
120081.059,47.852,31.250,30.762,41.992,35.645,0
120081.063,23.438,25.879,29.785,31.250,-34.668,0
120081.067,9.277,21.484,28.320,26.367,-52.246,0
120081.071,35.156,19.043,26.367,36.133,-10.742,0
120081.075,43.945,32.715,31.738,38.574,-7.812,0
120081.079,23.438,39.062,35.645,31.738,-47.363,0
120081.081,9.766,30.273,33.691,22.949,-67.383,0
120081.085,16.113,32.227,31.738,27.832,-8.301,0
120081.089,39.551,33.691,27.832,36.133,37.109,0
120081.093,41.992,30.762,28.809,31.738,0.488,0
120081.097,12.695,30.762,29.785,28.320,-46.387,0
120081.101,14.160,31.250,29.297,35.645,-37.109,0
120081.105,43.945,29.785,17.090,41.992,12.695,0
120081.109,48.340,30.762,-1.465,38.086,19.531,0
120081.112,25.391,32.227,7.812,25.879,8.789,0
120081.116,10.254,29.297,28.809,23.926,-25.879,0
120081.120,37.598,24.414,38.086,37.598,0.000,0
120081.124,43.945,26.367,39.062,31.250,27.832,0
120081.127,6.348,32.715,36.133,14.160,-28.320,0
120081.131,-4.395,30.273,30.762,17.090,-47.363,0
120081.135,21.484,24.902,30.762,32.715,-0.488,0
120081.139,41.992,22.949,32.227,39.551,60.547,0
120081.142,22.461,25.391,27.832,30.273,26.367,0
120081.146,-0.488,29.785,23.926,22.949,-42.480,0
120081.150,15.137,21.973,20.020,34.668,-2.930,0
120081.154,39.551,28.320,18.555,43.457,45.410,0
120081.158,34.668,42.969,28.809,36.133,41.016,0
120081.162,11.719,42.969,36.621,29.297,-4.395,0
120081.166,18.555,34.668,30.273,28.809,-10.742,0
120081.170,43.945,31.250,26.367,31.738,58.105,0
120081.186,42.480,34.180,26.367,28.320,88.867,0
120081.189,20.996,36.133,30.762,27.344,38.574,0
120081.193,17.090,32.227,29.785,29.297,-0.488,0
120081.197,32.227,24.902,19.043,29.785,-19.043,0
120081.201,39.062,25.391,21.973,33.691,-9.277,0
120081.205,14.648,27.344,30.273,26.855,-22.949,0
120081.209,-6.348,29.297,26.367,18.066,-57.129,0
120081.213,20.508,31.250,24.902,25.391,4.883,0
120081.217,42.480,31.738,29.297,32.715,51.270,0
120081.221,19.531,28.809,23.926,23.438,-8.301,0
120081.225,-5.371,24.414,23.926,13.672,-51.758,0
120081.228,11.719,23.926,31.250,19.531,-35.156,0
120081.231,43.457,28.320,29.785,25.879,-23.926,0
120081.234,38.574,28.809,24.414,22.949,-17.578,0
120081.238,10.742,24.414,24.902,19.531,-15.137,0
120081.242,8.301,33.203,25.391,20.508,-25.391,0
120081.246,38.574,37.109,20.508,29.785,4.395,0
120081.250,39.551,23.438,23.926,33.691,25.391,0
120081.254,10.254,32.715,25.879,26.855,-33.691,0
120081.258,0.000,44.434,20.508,19.043,-42.969,0
120081.262,19.531,35.156,17.578,21.973,8.301,0
120081.266,38.086,32.715,20.996,25.391,4.395,0
120081.270,18.066,30.762,22.461,19.531,-9.277,0
120081.273,6.348,26.855,21.973,20.020,-3.906,0
120081.276,22.461,26.855,23.438,28.320,-16.113,0
120081.279,40.039,25.391,30.273,34.668,10.742,0
120081.283,29.297,31.250,29.297,30.762,38.086,0
120081.287,0.000,31.250,22.461,22.461,18.555,0
120081.291,10.254,22.949,25.391,27.832,27.832,0
120081.295,39.551,23.438,28.809,41.992,50.293,0
120081.299,44.922,34.180,26.367,45.898,65.918,0
120081.303,17.090,32.227,24.902,35.645,24.414,0
120081.307,2.441,25.879,25.879,30.273,-39.551,0
120081.311,32.227,26.855,25.391,37.598,19.043,0
120081.315,41.504,27.832,28.809,35.156,77.148,0
120081.319,14.648,27.344,29.785,28.809,21.973,0
120081.321,5.859,23.926,30.273,24.414,18.555,0
120081.325,30.273,28.320,31.738,29.785,57.617,0
120081.329,46.387,42.969,23.926,37.109,65.918,0
120081.333,25.879,43.457,15.137,27.344,23.438,0
120081.336,8.301,36.621,7.324,23.926,-17.578,0
120081.340,27.832,41.992,19.531,36.621,24.414,0
120081.344,51.758,35.645,28.809,33.691,64.453,0
120081.348,30.762,31.250,27.344,19.531,37.598,0
120081.352,-9.766,30.273,27.832,11.719,-13.672,0
120081.356,4.883,28.809,25.879,17.578,-33.691,0
120081.360,39.062,35.645,14.648,27.832,19.043,0
120081.364,34.668,37.598,6.836,23.926,15.625,0
120081.367,10.254,33.691,18.555,17.578,-54.688,0
120081.371,13.672,33.691,32.227,25.391,-22.461,0
120081.375,42.480,37.109,33.203,38.574,21.973,0
120081.379,52.734,27.344,27.832,36.621,2.441,0
120081.382,30.273,24.902,30.273,23.926,-47.363,0
120081.386,16.113,27.344,35.156,22.949,-72.754,0
120081.390,34.180,28.320,32.715,34.668,18.066,0
120081.394,39.062,36.133,27.344,36.133,46.875,0
120081.398,18.555,33.691,30.762,28.809,-3.418,0
120081.402,3.906,27.832,32.715,23.438,-5.859,0
120081.406,17.090,34.180,27.832,29.785,10.742,0
120081.410,41.016,41.992,26.367,38.574,42.480,0
120081.411,37.109,41.504,24.902,36.621,56.152,0
120081.414,14.160,35.645,22.949,29.297,14.648,0
120081.418,25.391,34.180,21.484,33.691,8.301,0
120081.422,50.293,32.715,20.508,39.062,37.109,0
120081.426,40.527,28.809,29.297,29.785,53.711,0
120081.430,14.648,34.668,31.738,18.066,8.301,0
120081.434,4.395,29.297,20.508,14.648,-22.949,0
120081.438,27.832,20.508,18.555,19.043,20.508,0
120081.442,55.176,25.391,22.461,23.926,44.434,0
120081.446,37.109,29.297,22.461,23.438,-1.953,0
120081.450,-0.977,34.180,23.438,18.555,-40.527,0
120081.454,14.648,29.785,22.949,25.391,4.883,0
120081.456,39.062,23.438,17.090,31.738,37.109,0
120081.459,15.137,26.855,21.973,25.391,24.902,0
120081.463,1.953,27.832,31.738,19.531,1.953,0
120081.467,21.973,26.367,27.832,31.250,-33.203,0
120081.471,41.016,29.785,24.902,42.969,-10.742,0
120081.475,33.691,28.809,30.762,38.086,21.484,0
120081.479,12.207,15.625,34.180,27.344,-40.527,0
120081.483,14.160,20.020,32.227,25.879,-47.852,0
120081.487,35.645,33.203,26.855,33.203,58.105,0
120081.491,42.969,34.668,20.508,35.156,54.688,0
120081.495,30.762,41.992,20.020,32.227,-13.184,0
120081.499,15.137,32.227,22.949,24.414,-39.062,0
120081.501,32.715,26.367,30.273,28.320,-21.484,0
120081.505,50.781,36.133,33.203,30.762,7.324,0
120081.509,28.809,35.156,35.645,27.344,-19.531,0
120081.513,11.230,31.738,34.180,27.344,-33.203,0
120081.517,30.273,37.598,17.578,27.832,-1.953,0
120081.521,53.223,38.086,13.184,31.250,14.648,0
120081.525,32.715,28.809,22.461,25.879,-38.086,0
120081.529,6.836,25.879,24.902,22.461,-69.336,0
120081.532,17.090,30.273,25.879,26.855,-28.809,0
120081.536,42.969,31.250,28.809,36.621,-13.184,0
120081.540,42.480,26.855,25.879,35.156,-24.414,0
120081.544,14.160,28.809,19.531,30.273,-17.090,0
120081.560,11.230,31.738,20.020,33.691,-32.227,0
120081.564,37.109,33.203,23.926,37.598,4.883,0
120081.568,35.156,32.715,21.973,31.250,30.273,0
120081.572,10.254,29.785,21.484,25.391,-8.789,0
120081.576,5.371,32.715,22.461,32.227,-19.043,0
120081.580,34.180,31.250,22.949,34.180,-23.926,0
120081.584,41.992,12.207,27.344,32.227,25.391,0
120081.588,18.555,16.602,21.973,32.227,39.062,0
120081.592,-2.441,43.945,26.367,27.832,-34.668,0
120081.596,0.977,41.016,33.203,31.250,-22.949,0
120081.600,18.066,32.715,35.645,34.668,37.109,0
120081.603,12.695,27.344,36.133,27.832,-1.465,0
120081.605,-0.977,28.809,32.715,21.973,-49.316,0
120081.609,-4.395,29.785,29.785,20.508,-21.973,0
120081.613,8.789,20.996,26.855,20.020,50.781,0
120081.617,17.578,20.996,32.227,20.020,52.734,0
120081.621,0.000,20.996,29.785,13.184,-37.109,0
120081.625,4.395,25.391,23.438,15.625,-71.289,0
120081.629,30.273,34.180,22.461,25.879,-28.809,0
120081.633,24.414,31.738,19.043,25.391,30.762,0
120081.637,5.371,23.926,20.996,18.555,-32.227,0
120081.641,-12.207,28.320,21.484,12.695,-75.195,0
120081.645,10.742,34.668,17.578,19.531,-23.926,0
120081.648,44.434,32.715,17.578,29.785,34.668,0
120081.651,19.531,23.926,18.555,23.926,13.184,0
120081.654,-10.254,22.461,26.367,20.020,-42.480,0
120081.658,1.953,31.738,33.691,28.809,25.879,0
120081.662,25.391,33.203,30.762,35.156,46.387,0
120081.666,20.508,28.320,26.855,32.227,22.461,0
120081.670,-0.488,29.297,23.438,25.879,32.715,0
120081.674,8.301,36.621,20.020,31.250,29.297,0
120081.678,36.133,35.156,18.066,39.551,60.059,0
120081.682,30.762,31.250,20.508,35.156,36.133,0
120081.686,0.488,31.738,22.949,22.461,-30.273,0
120081.690,3.418,27.832,25.391,20.508,-23.926,0
120081.693,38.574,29.785,25.879,30.273,34.180,0
120081.695,48.340,31.738,24.414,35.156,44.434,0
120081.699,26.367,22.949,25.879,30.273,3.418,0
120081.703,18.066,30.762,25.879,27.832,-14.160,0
120081.707,37.598,39.551,20.996,32.715,21.484,0
120081.711,51.758,39.062,14.160,33.203,55.664,0
120081.715,32.715,40.527,21.973,23.438,32.715,0
120081.719,2.441,33.691,30.762,20.508,-1.465,0
120081.723,16.113,27.832,23.926,33.203,-4.395,0
120081.727,47.363,21.973,22.949,40.527,1.953,0
120081.731,39.551,27.832,27.832,34.668,31.250,0
120081.735,15.137,32.227,20.996,26.855,4.883,0
120081.738,20.508,27.344,20.020,29.785,-1.465,0
120081.740,38.574,33.203,29.297,39.551,67.383,0
120081.744,23.438,36.621,29.297,33.203,71.777,0
120081.748,-7.324,31.250,30.273,23.438,22.461,0
120081.752,-10.742,22.949,31.738,20.020,14.648,0
120081.756,21.484,23.438,25.879,28.809,54.199,0
120081.760,39.551,26.855,27.344,37.598,76.660,0
120081.764,21.973,27.344,28.809,36.133,27.832,0
120081.768,10.254,32.715,25.391,34.668,-45.898,0
120081.772,29.297,29.785,32.227,39.551,-13.672,0
120081.776,39.551,19.531,37.109,42.480,37.109,0
120081.780,25.391,23.438,34.180,37.598,13.184,0
120081.783,9.277,26.855,34.180,31.250,-34.180,0
120081.785,11.230,24.414,32.715,37.109,36.133,0
120081.789,32.715,31.738,31.738,44.434,132.324,0
120081.793,24.902,26.367,28.320,34.180,93.750,0
120081.797,4.883,20.020,28.809,26.367,45.898,0
120081.801,11.230,35.156,24.414,27.832,14.160,0
120081.805,28.320,38.574,16.602,33.691,57.129,0
120081.809,37.109,30.273,24.902,32.715,102.539,0
120081.813,14.648,25.391,32.227,21.973,22.461,0
120081.817,6.348,25.391,33.203,22.461,-10.254,0
120081.821,33.203,31.738,30.762,31.738,66.406,0
120081.825,43.945,38.086,29.297,35.645,80.566,0
120081.828,27.832,35.156,32.715,32.227,32.227,0
120081.832,5.371,29.785,25.879,24.414,-12.207,0
120081.836,23.926,34.668,18.066,30.762,52.246,0
120081.840,53.711,37.109,21.973,38.574,67.871,0
120081.844,37.598,36.133,30.762,28.320,37.109,0
120081.847,7.812,31.250,32.715,16.602,45.410,0
120081.851,15.137,26.367,31.738,24.414,33.691,0
120081.855,41.992,26.855,29.785,30.273,30.273,0
120081.859,34.180,25.879,24.902,20.996,35.156,0
120081.863,-0.977,26.367,23.926,13.184,-0.977,0
120081.867,-6.348,26.367,21.484,15.625,-62.012,0
120081.871,25.879,25.391,21.484,25.879,-24.902,0
120081.875,28.809,24.414,27.344,28.320,18.066,0
120081.876,2.930,19.043,28.809,23.438,-12.695,0
120081.879,-7.324,22.461,22.461,22.461,-27.344,0
120081.883,19.043,24.902,18.555,30.762,16.113,0
120081.887,39.551,19.531,24.414,32.715,26.367,0
120081.891,24.414,36.133,25.391,25.391,-4.395,0
120081.895,-0.488,33.691,19.043,18.555,-37.109,0
120081.899,12.695,22.461,19.043,21.973,-19.043,0
120081.903,34.668,35.645,20.020,26.855,11.719,0
120081.907,19.043,36.621,21.484,20.508,-6.836,0
120081.911,0.977,32.227,26.367,13.672,-61.523,0
120081.915,9.766,28.809,30.273,17.578,-62.500,0
120081.918,39.551,29.785,34.180,28.809,48.828,0
120081.935,53.223,27.344,34.668,30.273,52.246,0
120081.939,19.043,25.879,29.297,21.973,-27.344,0
120081.943,-3.906,32.715,21.973,19.531,-35.156,0
120081.947,26.855,35.645,18.066,29.297,7.324,0
120081.951,45.898,34.668,21.484,31.250,2.441,0
120081.955,24.902,33.691,32.227,22.461,-14.648,0
120081.959,10.254,32.715,35.645,23.438,-23.438,0
120081.963,33.203,34.668,29.785,29.297,3.418,0
120081.967,55.664,37.109,32.715,40.039,26.855,0
120081.971,41.016,35.156,31.250,43.457,-31.738,0
120081.975,5.859,20.508,15.625,25.391,-53.223,0
120081.978,13.672,17.090,20.996,25.391,-1.465,0
120081.981,48.828,12.695,32.715,38.086,6.348,0
120081.985,40.527,17.090,32.715,33.691,13.184,0
120081.989,0.977,24.414,31.250,24.902,-6.836,0
120081.993,2.930,23.438,25.879,23.438,-17.578,0
120081.996,36.621,33.203,22.949,29.297,43.945,0
120082.000,33.203,36.133,27.832,32.227,43.457,0
120082.004,12.207,31.250,34.180,25.879,-9.766,0
120082.008,9.277,27.832,35.156,26.367,-41.992,0
120082.012,30.762,26.367,27.832,29.297,6.836,0
120082.016,55.664,30.273,25.879,36.133,34.668,0
120082.020,47.852,33.203,30.762,35.645,5.371,0
120082.024,25.879,33.203,29.785,34.180,-0.977,0
120082.025,42.969,35.156,26.367,41.992,10.254,0
120082.029,64.941,31.738,29.297,42.969,40.527,0
120082.033,48.828,28.809,28.320,39.062,42.969,0
120082.037,22.949,29.297,27.832,36.133,18.066,0
120082.041,29.297,31.738,31.738,40.527,26.855,0
120082.045,55.664,31.738,33.203,52.246,55.664,0
120082.049,50.293,25.391,31.250,46.875,66.406,0
120082.053,24.902,24.414,23.438,32.715,37.109,0
120082.057,16.113,29.785,24.414,33.203,-15.625,0
120082.061,38.086,34.668,33.691,41.504,48.340,0
120082.065,54.688,32.227,37.109,46.387,107.422,0
120082.068,30.273,30.273,27.832,39.062,19.043,0
120082.072,10.742,31.738,15.625,34.668,-39.551,0
120082.076,37.598,29.297,25.391,47.852,-11.719,0
120082.080,58.594,31.250,38.086,52.246,34.668,0
120082.084,40.527,34.180,38.086,44.434,10.254,0
120082.087,16.602,26.855,36.621,38.574,-41.016,0
120082.091,23.438,21.484,31.738,41.504,-24.902,0
120082.095,42.969,29.297,31.250,50.293,28.320,0
120082.099,33.203,31.738,33.691,41.016,39.551,0
120082.103,13.672,30.273,31.738,30.273,9.766,0
120082.107,12.695,26.855,30.273,34.180,19.043,0
120082.111,26.367,25.391,25.391,38.086,42.480,0
120082.115,26.855,26.367,22.461,31.738,35.645,0
120082.116,7.812,25.879,24.414,23.926,-3.906,0
120082.119,7.324,26.855,26.855,25.879,-15.625,0
120082.123,38.086,28.320,28.809,35.156,11.719,0
120082.127,48.828,25.879,34.668,37.109,19.043,0
120082.131,27.832,24.902,30.273,29.297,-7.324,0
120082.135,19.531,29.297,20.996,25.879,-24.414,0
120082.139,35.645,31.250,22.461,33.691,-11.230,0
120082.143,47.852,28.809,28.320,39.062,-18.555,0
120082.147,31.250,26.367,30.273,34.668,-68.359,0
120082.151,5.371,22.949,27.344,28.809,-84.473,0
120082.155,15.625,24.414,24.902,32.227,-7.812,0
120082.158,39.062,23.438,26.367,41.016,58.594,0
120082.160,31.738,24.414,27.344,40.039,70.312,0
120082.164,6.836,30.762,28.320,32.715,31.738,0
120082.168,14.160,31.250,32.227,33.691,42.480,0
120082.172,41.504,27.832,27.832,41.992,81.055,0
120082.176,34.180,24.414,20.020,36.621,37.598,0
120082.180,9.277,27.344,20.508,25.879,7.812,0
120082.184,12.207,27.344,19.043,25.391,2.930,0
120082.188,39.062,28.809,16.602,30.762,16.113,0
120082.192,39.551,33.691,15.625,34.180,20.996,0
120082.196,19.531,35.156,14.648,28.809,3.906,0
120082.200,10.254,32.227,17.578,22.949,-17.090,0
120082.203,39.062,33.691,19.531,30.273,8.789,0
120082.205,58.105,37.598,18.555,35.156,50.781,0
120082.209,32.227,32.227,14.160,26.367,14.648,0
120082.213,11.719,22.949,19.043,21.973,-41.016,0
120082.217,28.809,26.855,26.855,27.832,-42.480,0
120082.221,51.758,34.180,31.738,33.203,-0.488,0
120082.225,41.016,31.738,33.203,30.273,1.953,0
120082.229,16.113,29.297,28.320,24.414,-90.332,0
120082.233,7.812,27.832,26.367,24.902,-79.102,0
120082.237,34.668,27.832,30.762,35.156,23.438,0
120082.241,47.852,30.273,30.273,33.691,20.996,0
120082.244,13.672,31.250,23.438,20.020,-40.527,0
120082.248,6.348,27.832,20.508,17.578,-51.270,0
120082.266,35.156,24.902,23.926,25.879,1.953,0
120082.269,35.645,19.531,27.344,25.391,10.254,0
120082.273,14.648,16.602,24.902,16.602,-27.344,0
120082.277,1.465,32.227,17.578,16.602,-47.363,0
120082.281,18.066,32.227,15.625,24.902,-12.695,0
120082.285,44.434,25.391,10.254,26.855,23.926,0
120082.289,25.879,35.156,3.906,19.043,-23.438,0
120082.293,-10.742,33.691,12.695,13.672,-55.664,0
120082.297,0.000,27.832,22.461,22.461,-32.715,0
120082.301,25.879,23.926,25.879,32.227,9.277,0
120082.305,25.391,20.996,25.391,24.414,25.879,0
120082.308,8.301,16.602,20.020,16.113,-4.883,0
120082.310,11.230,22.461,11.230,21.973,-31.738,0
120082.314,40.039,32.227,15.625,27.344,-9.766,0
120082.318,36.621,31.738,29.785,23.926,14.160,0
120082.322,7.812,27.344,34.180,17.578,2.930,0
120082.326,5.859,25.391,36.133,17.090,-2.930,0
120082.330,24.414,22.949,36.621,27.344,22.461,0
120082.334,33.691,26.367,34.668,33.691,34.180,0
120082.338,16.602,31.250,33.691,28.320,9.277,0
120082.342,0.977,26.855,28.320,21.484,-3.418,0
120082.346,15.625,22.461,21.973,31.250,24.414,0
120082.350,42.480,22.949,26.367,40.039,29.297,0
120082.353,35.645,26.367,34.668,31.250,5.859,0
120082.355,9.766,32.227,35.645,29.785,-13.672,0
120082.359,20.996,31.250,26.855,37.598,14.648,0
120082.363,46.387,26.855,17.578,41.016,70.801,0
120082.367,47.363,27.832,23.438,38.574,84.473,0
120082.371,22.461,27.832,33.203,28.809,23.926,0
120082.375,14.648,27.832,35.645,31.250,-38.574,0
120082.379,46.875,26.855,29.297,44.434,12.695,0
120082.383,57.617,24.902,24.414,44.922,60.059,0
120082.387,29.785,28.809,32.715,36.133,14.160,0
120082.391,8.301,32.227,38.086,34.180,-23.926,0
120082.395,31.738,28.320,37.109,43.945,-28.320,0
120082.398,54.199,30.762,32.227,48.828,9.766,0
120082.400,35.156,31.738,25.391,40.527,24.902,0
120082.404,11.719,23.438,24.902,32.227,-42.480,0
120082.408,26.367,18.066,22.461,35.645,-46.387,0
120082.412,49.805,22.949,21.484,40.527,-5.859,0
120082.416,30.273,28.320,30.273,33.691,-21.484,0
120082.420,-4.883,24.902,33.203,24.414,-61.035,0
120082.424,7.324,17.090,28.809,27.832,-55.664,0
120082.428,35.645,18.066,30.273,36.621,-10.742,0
120082.432,26.855,24.902,32.227,26.855,-27.344,0
120082.436,13.672,27.344,25.391,16.602,-29.297,0
120082.440,15.625,28.809,22.461,25.879,-17.090,0
120082.443,25.391,32.227,19.043,35.645,23.926,0
120082.446,34.668,30.762,18.066,38.086,57.617,0
120082.449,21.973,27.832,27.344,37.109,18.555,0
120082.453,5.371,27.832,31.738,35.156,-8.301,1
120082.457,23.438,30.273,24.414,38.574,-1.465,0
120082.461,49.316,28.809,20.996,43.945,43.945,0
120082.465,33.203,26.855,24.414,40.527,34.180,0
120082.469,10.742,31.250,29.297,30.762,-12.695,0
120082.473,30.762,33.203,27.344,34.668,5.859,0
120082.477,52.246,30.762,25.391,41.504,31.738,0
120082.481,36.133,27.832,28.320,37.598,58.105,0
120082.485,13.672,25.391,23.926,30.273,33.691,0
120082.489,9.277,26.855,26.367,30.273,6.836,0
120082.490,42.480,27.344,31.250,38.086,39.551,0
120082.494,44.434,27.344,29.297,37.109,54.688,0
120082.498,3.906,32.715,31.738,30.762,-17.578,0
120082.502,-5.859,29.785,28.809,27.832,-50.293,0
120082.506,19.043,26.367,24.414,34.668,16.602,0
120082.510,34.668,16.113,25.391,39.551,53.711,0
120082.514,15.137,12.207,32.227,33.691,53.223,0
120082.518,7.324,29.297,35.645,27.832,-16.602,0
120082.522,30.273,38.086,33.203,33.691,-6.836,0
120082.526,45.898,37.109,27.832,36.621,65.430,0
120082.530,33.203,35.645,23.438,26.367,70.312,0
120082.533,18.555,37.598,26.367,19.531,38.574,0
120082.537,38.086,35.645,24.414,20.996,18.555,0
120082.541,50.781,35.645,24.902,25.391,31.738,0
120082.545,38.574,41.016,20.020,26.367,-3.906,0
120082.549,19.043,39.551,12.207,16.602,-56.152,0
120082.552,20.508,31.250,21.973,16.113,-60.059,0
120082.556,52.734,31.738,28.809,33.691,9.277,0
120082.560,60.059,29.785,26.367,36.133,43.945,0
120082.564,24.414,27.832,26.855,20.996,-10.254,0
120082.568,10.254,31.250,31.738,21.484,22.461,0
120082.572,38.086,27.344,29.785,35.156,69.824,0
120082.576,51.270,28.809,24.902,36.133,76.172,0
120082.580,28.809,33.691,25.879,27.832,54.688,0
120082.581,11.230,33.203,26.855,26.367,19.531,0
120082.584,23.438,32.715,23.926,32.227,27.832,0
120082.588,36.621,31.738,18.555,36.621,36.133,0
120082.592,27.344,32.227,18.066,31.738,4.883,0
120082.596,6.836,34.180,22.949,25.879,-53.711,0
120082.600,21.484,35.156,26.367,33.691,-47.363,0
120082.604,46.875,34.180,26.855,41.504,-27.832,0
120082.608,43.945,32.227,29.297,34.180,-7.324,0
120082.612,24.902,34.668,30.273,33.691,41.016,0
120082.616,16.113,34.180,25.391,40.527,52.734,0
120082.620,44.434,29.785,18.555,45.898,56.641,0
120082.623,55.176,32.227,16.602,42.480,69.336,0
120082.625,27.832,36.133,22.461,31.738,42.969,0
120082.629,17.090,42.480,29.785,31.738,-10.254,0
120082.633,47.852,41.016,28.320,39.062,1.953,0
120082.637,62.988,37.109,25.391,40.039,40.039,0
120082.641,38.086,36.133,29.785,35.645,18.066,0
120082.645,16.113,41.016,30.273,28.320,-21.484,0
120082.649,29.785,44.922,21.484,29.297,-4.883,0
120082.653,58.594,35.645,18.066,40.039,89.844,0
120082.657,51.270,26.855,20.508,35.156,111.328,0
120082.661,26.855,37.598,21.484,25.879,18.066,0
120082.665,23.438,47.852,22.949,33.203,44.434,0
120082.668,39.551,43.457,23.926,36.621,112.793,0
120082.685,45.410,37.598,25.879,34.180,55.176,0
120082.689,22.949,35.645,28.320,30.762,-29.297,0
120082.693,9.766,33.691,22.461,24.414,-25.879,0
120082.697,41.504,30.273,19.531,34.180,66.895,0
120082.701,58.594,29.785,22.949,45.410,96.191,0
120082.705,25.879,30.273,19.531,32.227,24.414,0
120082.709,12.695,35.156,19.043,21.484,-17.578,0
120082.713,40.039,38.086,24.414,34.668,41.016,0
120082.717,65.918,40.039,22.949,38.086,79.102,0
120082.721,43.945,40.527,22.949,24.902,-21.484,0
120082.725,11.230,35.156,25.879,19.043,-80.078,0
120082.728,25.879,36.621,21.484,30.273,-9.766,0
120082.730,57.129,36.621,20.020,37.598,28.809,0
120082.734,53.223,24.902,21.484,33.691,11.230,0
120082.738,25.391,26.367,28.809,29.785,-12.695,0
120082.742,17.090,39.551,34.180,28.809,-26.855,0
120082.746,41.992,36.621,27.832,35.645,27.344,0
120082.750,46.387,36.621,25.879,36.133,-4.395,0
120082.754,17.578,37.109,26.855,24.902,-82.520,0
120082.758,12.207,30.762,26.855,22.949,-64.453,0
120082.762,41.016,23.926,26.855,32.715,-20.020,0
120082.766,55.664,23.438,27.832,35.645,-41.504,0
120082.770,35.156,27.344,22.949,29.785,-37.598,0
120082.773,11.230,32.715,19.531,26.367,-54.199,0
120082.775,17.578,36.133,20.996,31.738,-26.855,0
120082.779,41.016,28.809,19.043,35.645,25.879,0
120082.783,25.391,25.391,23.926,27.344,7.324,0
120082.787,5.371,26.367,33.203,17.578,-41.992,0
120082.791,20.996,25.391,36.621,20.508,-4.395,0
120082.795,33.203,26.855,30.273,27.832,77.148,0
120082.799,23.438,29.297,28.320,22.949,81.055,0
120082.803,-0.488,28.320,27.832,17.578,43.457,0
120082.807,-0.488,29.785,22.949,23.926,-18.555,0
120082.811,32.227,27.832,22.949,36.621,-5.371,0
120082.815,47.852,24.902,28.809,36.621,49.805,0
120082.818,19.043,24.902,35.645,32.227,6.348,0
120082.821,-5.859,22.949,33.203,28.809,-32.227,0
120082.824,17.090,25.879,24.902,33.203,1.465,0
120082.828,35.645,24.902,24.902,41.016,49.805,0
120082.832,20.020,23.438,32.227,32.715,11.230,0
120082.836,6.348,28.809,24.414,28.809,-48.340,0
120082.840,31.738,31.738,21.484,37.598,-24.414,0
120082.844,63.965,31.250,36.621,44.434,23.438,0
120082.848,47.363,29.785,39.062,39.551,-7.812,0
120082.852,20.996,25.879,31.738,26.855,-61.035,0
120082.856,36.133,30.273,26.855,30.762,-31.250,0
120082.860,58.105,32.227,23.438,37.109,19.531,0
120082.864,59.082,31.738,26.367,28.809,20.020,0
120082.865,33.203,33.203,27.832,20.508,1.465,0
120082.869,17.090,24.902,18.066,20.996,-13.184,0
120082.873,40.039,19.531,11.230,30.273,14.648,0
120082.877,45.898,29.785,15.625,32.227,44.434,0
120082.881,19.043,39.551,23.926,21.973,0.000,0
120082.885,15.137,39.062,27.832,20.020,-11.230,0
120082.889,38.574,35.156,26.855,29.297,17.578,0
120082.893,44.922,35.156,20.020,31.250,-9.277,0
120082.897,29.785,34.668,17.578,24.902,-30.762,0
120082.901,24.902,32.715,23.926,20.508,-26.855,0
120082.905,30.762,26.855,24.902,25.391,3.418,0
120082.908,24.414,24.414,22.949,31.738,37.109,0
120082.911,14.160,19.531,23.438,27.832,27.344,0
120082.915,-9.766,20.996,22.949,13.184,-9.766,0
120082.919,-8.301,32.715,26.367,12.695,-36.133,0
120082.923,22.461,34.668,27.344,19.531,4.395,0
120082.927,29.785,31.738,29.297,17.090,3.906,0
120082.931,11.230,29.297,32.715,16.602,-37.109,0
120082.935,3.906,30.273,20.508,19.531,-40.527,0
120082.938,27.832,26.367,12.207,25.879,13.672,0
120082.942,39.551,19.531,18.555,25.879,40.039,0
120082.946,24.414,27.344,25.879,23.438,-30.762,0
120082.950,13.184,32.715,30.273,22.949,-52.734,0
120082.954,33.691,22.949,27.344,25.879,-15.625,0
120082.956,45.410,28.320,29.785,33.691,40.039,0
120082.960,20.996,36.621,30.762,29.297,2.930,0
120082.964,1.465,33.203,27.344,22.461,-46.875,0
120082.968,16.602,33.203,23.926,28.809,-8.301,0
120082.972,45.898,35.156,25.391,41.992,47.363,0
120082.976,38.574,32.227,24.414,37.109,23.926,0
120082.980,8.301,27.344,22.949,20.996,-56.641,0
120082.984,8.789,32.227,30.273,27.832,-62.500,0
120082.988,43.945,31.738,32.227,45.898,3.906,0
120082.991,47.363,26.367,25.879,44.434,20.996,0
120082.995,10.742,28.320,27.344,34.180,-4.395,0
120082.999,-3.418,23.438,33.203,34.668,-1.465,0
120083.002,27.832,23.926,37.598,45.898,38.574,0
120083.006,43.945,31.738,42.480,47.363,19.531,0
120083.010,23.926,31.250,41.016,32.227,-46.387,0
120083.014,9.277,30.273,32.715,23.926,-69.824,0
120083.017,27.344,30.762,32.227,32.227,-26.367,0
120083.021,41.992,27.832,34.180,37.109,-2.441,0
120083.025,31.738,27.344,31.738,31.738,-48.340,0
120083.029,15.137,30.273,33.203,28.320,-36.133,0
120083.033,14.160,27.344,30.273,30.762,-14.648,0
120083.037,39.062,27.344,28.809,35.156,4.395,0
120083.041,45.898,34.180,31.250,36.133,28.809,0
120083.045,14.648,36.621,24.902,24.902,16.113,0
120083.061,7.324,32.715,24.902,18.066,31.250,0
120083.065,28.809,28.320,32.227,29.297,78.613,0
120083.068,34.180,30.762,29.297,30.273,67.383,0
120083.072,10.742,30.273,29.297,20.020,3.906,0
120083.076,-0.977,26.855,30.762,20.508,-20.508,0
120083.080,29.785,27.344,29.297,31.738,-9.766,0
120083.084,49.316,28.809,26.855,36.621,20.996,0
120083.088,29.785,30.762,26.855,28.809,15.137,0
120083.092,7.812,29.297,29.297,23.438,-14.160,0
120083.096,18.555,30.273,22.461,31.738,-1.953,0
120083.100,44.922,33.691,18.066,40.527,48.828,0
120083.104,37.109,32.227,22.949,37.598,34.668,0
120083.106,13.184,28.320,28.809,30.762,-62.012,0
120083.109,22.461,22.461,25.391,33.691,-20.020,0
120083.113,47.363,23.926,20.508,40.039,48.340,0
120083.117,43.457,33.691,21.973,36.621,28.809,0
120083.121,23.438,35.645,18.066,26.367,7.324,0
120083.125,20.020,32.227,16.602,25.879,2.441,0
120083.129,40.039,30.762,23.438,34.668,32.227,0
120083.133,42.480,27.832,29.785,36.133,42.969,0
120083.137,18.066,30.762,28.320,29.297,-1.953,0
120083.141,12.207,31.738,22.949,27.832,-59.570,0
120083.145,29.297,27.832,25.391,36.133,15.137,0
120083.149,40.527,26.367,28.320,38.086,93.262,0
120083.151,25.879,21.484,20.996,30.273,55.176,0
120083.154,9.277,27.832,15.625,26.367,21.484,0
120083.158,26.855,40.039,12.207,30.273,26.855,0
120083.162,49.805,31.250,23.438,35.645,47.363,0
120083.166,36.621,26.367,34.668,32.715,39.062,0
120083.170,19.531,46.387,32.715,31.738,-11.230,0
120083.174,35.645,46.875,30.762,38.574,21.973,0
120083.178,46.387,39.062,26.855,44.922,69.824,0
120083.182,33.203,34.180,24.902,41.016,29.785,0
120083.186,14.160,30.273,21.973,27.832,-10.742,0
120083.190,9.277,30.273,18.555,28.809,29.785,0
120083.193,34.180,33.203,16.113,40.527,85.938,0
120083.195,47.363,36.621,21.973,41.504,74.219,0
120083.199,23.926,34.180,27.344,32.715,31.250,0
120083.203,8.789,36.133,25.879,28.320,1.465,0
120083.207,28.809,37.598,31.250,37.598,6.836,0
120083.211,49.805,32.715,36.133,42.480,32.227,0
120083.215,34.668,34.668,29.297,38.086,3.906,0
120083.219,3.418,36.133,24.414,30.273,-24.902,0
120083.223,6.348,31.250,22.461,31.738,20.996,0
120083.227,40.039,32.715,22.949,38.086,41.992,0
120083.231,38.086,34.180,27.832,32.715,7.812,0
120083.235,9.766,29.785,31.738,25.391,-20.996,0
120083.238,15.137,25.391,30.762,25.879,-5.371,0
120083.242,40.527,21.973,27.832,38.086,20.020,0
120083.246,40.527,24.414,28.320,39.062,8.301,0
120083.250,13.184,25.391,30.273,27.344,-16.602,0
120083.254,4.883,29.297,30.273,22.949,-22.949,0
120083.257,33.203,32.227,25.879,31.250,40.039,0
120083.261,44.922,32.715,21.484,40.039,68.359,0
120083.265,21.973,36.133,21.484,30.762,32.227,0
120083.269,4.883,31.250,22.461,21.484,-22.461,0
120083.273,26.367,29.785,27.832,30.273,-42.969,0
120083.277,51.270,33.691,31.250,44.922,29.297,0
120083.281,34.668,33.691,27.344,38.086,20.020,0
120083.285,2.930,32.227,22.461,25.879,-56.152,0
120083.286,15.625,31.738,22.461,31.738,-25.391,0
120083.290,43.945,27.832,27.832,42.480,21.484,0
120083.294,43.945,30.273,30.762,44.922,3.906,0
120083.298,27.344,39.551,30.273,34.668,-5.371,0
120083.302,22.949,40.527,28.320,33.691,-23.926,0
120083.306,44.434,40.527,29.785,43.457,6.836,0
120083.310,55.664,39.062,28.809,39.062,39.551,0
120083.314,26.855,31.250,29.785,28.320,-15.625,0
120083.317,8.301,31.738,29.297,28.320,-32.227,0
120083.321,35.645,37.109,25.879,35.645,18.555,0
120083.325,49.805,38.574,24.414,33.691,70.801,0
120083.329,19.531,39.551,22.949,21.484,35.645,0
120083.331,-2.930,37.598,25.391,18.066,-24.414,0
120083.334,14.648,35.156,20.508,27.344,15.625,0
120083.338,42.969,30.762,19.043,33.203,70.801,0
120083.342,43.945,33.203,25.391,32.715,53.711,0
120083.346,21.973,30.273,26.367,27.832,6.836,0
120083.350,16.602,29.785,15.625,27.344,-13.184,0
120083.354,36.621,37.109,11.230,35.645,7.812,0
120083.358,36.133,38.086,25.879,34.668,15.137,0
120083.362,21.973,38.574,35.156,28.320,20.508,0
120083.366,14.160,40.527,31.250,24.902,-0.977,0
120083.370,31.250,33.691,29.785,27.344,0.977,0
120083.373,49.316,26.855,27.832,27.344,43.457,0
120083.376,20.020,31.250,24.414,22.949,32.715,0
120083.379,6.348,38.086,20.508,22.461,7.324,0
120083.383,32.715,37.109,16.602,32.227,38.086,0
120083.387,49.805,29.785,21.484,35.645,53.711,0
120083.391,33.691,31.738,26.367,28.320,27.832,0
120083.395,4.395,37.598,26.855,22.461,-19.043,0
120083.399,11.719,37.598,27.344,28.320,-36.621,0
120083.403,42.969,39.062,29.785,39.551,47.852,0
120083.407,41.016,37.598,32.715,34.668,60.547,0
120083.411,6.836,34.180,32.715,24.902,-13.184,0
120083.415,6.836,37.598,32.227,32.227,-31.738,0
120083.418,37.598,36.133,30.273,37.598,17.090,0
120083.436,35.156,33.203,21.484,31.250,62.988,0
120083.439,15.625,34.668,17.090,20.508,26.367,0
120083.443,8.301,32.715,26.367,18.555,0.488,0
120083.447,21.484,31.738,29.785,28.320,34.668,0
120083.451,31.738,33.691,23.926,28.320,38.574,0
120083.455,14.160,30.762,23.438,20.508,0.000,0
120083.459,6.836,31.738,26.367,20.508,-29.785,0
120083.463,25.391,35.156,28.320,26.855,19.043,0
120083.467,36.133,35.645,29.297,31.738,65.430,0
120083.471,24.414,34.668,25.879,28.320,48.340,0
120083.475,3.906,24.414,23.438,16.602,-18.555,0
120083.478,11.719,23.926,26.855,24.414,-18.066,0
120083.480,41.016,37.109,20.020,35.645,31.250,0
120083.484,41.016,44.922,14.160,28.809,-6.348,0
120083.488,12.207,44.434,17.578,20.508,-22.949,0
120083.492,5.371,38.086,24.414,22.949,-11.719,0
120083.496,27.832,32.227,25.879,33.203,-20.020,0
120083.500,37.109,27.344,22.949,38.086,5.371,0
120083.504,21.484,30.273,25.879,32.715,-0.977,0
120083.508,3.906,35.156,27.344,28.809,-10.254,0
120083.512,26.367,33.203,23.926,32.715,8.301,0
120083.516,38.574,28.809,21.484,30.762,22.949,0
120083.520,12.695,24.414,29.785,21.973,66.406,0
120083.523,-7.324,23.438,34.180,16.113,18.555,0
120083.526,17.090,26.367,27.344,25.879,-3.906,0
120083.530,45.898,27.344,29.785,33.203,66.895,0
120083.534,34.180,29.297,25.391,23.926,48.340,0
120083.538,9.766,34.668,20.996,18.066,7.324,0
120083.542,12.695,37.109,24.414,25.391,33.203,0
120083.546,42.480,37.109,23.926,34.180,61.035,0
120083.549,41.504,31.738,23.926,31.250,64.453,0
120083.553,10.254,26.367,27.832,21.973,36.133,0
120083.557,5.859,27.832,27.832,20.996,-9.277,0
120083.561,32.227,30.762,23.438,29.785,25.391,0
120083.565,36.621,31.250,22.949,29.297,58.105,0
120083.569,11.719,32.227,23.926,23.926,27.344,0
120083.570,4.395,30.273,17.578,26.367,-22.461,0
120083.574,22.461,24.902,15.137,28.320,16.602,0
120083.578,35.156,25.391,17.090,31.250,43.945,0
120083.582,25.879,27.344,20.508,31.250,-11.719,0
120083.586,9.277,25.879,20.508,27.832,-62.500,0
120083.590,18.555,25.391,16.602,26.855,-36.133,0
120083.594,48.340,27.344,23.438,32.227,52.246,0
120083.598,34.668,26.367,34.668,30.273,47.852,0
120083.602,1.465,20.996,33.691,20.020,-30.273,0
120083.606,6.836,18.066,27.832,25.391,-21.484,0
120083.610,28.809,25.391,27.832,38.574,77.637,0
120083.613,30.273,31.738,24.414,36.133,69.824,0
120083.616,13.184,27.344,21.973,26.855,-21.484,0
120083.620,9.766,25.391,20.508,27.832,-22.949,0
120083.624,28.809,27.344,23.438,36.621,38.086,0
120083.628,36.621,32.227,28.809,38.086,62.988,0
120083.632,17.090,28.320,27.344,32.227,23.926,0
120083.636,8.301,23.926,25.391,31.250,-14.648,0
120083.640,30.762,27.832,28.320,40.527,13.672,0
120083.643,45.898,29.297,28.809,40.527,58.594,0
120083.647,34.668,19.531,25.391,33.203,61.523,0
120083.651,26.855,22.949,32.227,30.762,33.691,0
120083.655,33.203,38.574,31.738,36.133,3.906,0
120083.659,38.086,37.598,25.879,40.527,31.250,0
120083.660,27.344,33.691,27.344,31.738,41.992,0
120083.664,2.441,30.273,27.832,23.438,-7.812,0
120083.668,5.371,27.344,26.855,26.855,-36.621,0
120083.672,30.762,26.367,22.461,32.715,31.250,0
120083.676,35.156,26.855,21.973,33.203,48.828,0
120083.680,13.184,23.438,21.973,25.879,-36.133,0
120083.684,14.160,24.414,19.043,22.461,-52.246,0
120083.688,41.016,27.344,23.926,31.250,8.789,0
120083.692,43.457,27.832,27.344,33.203,59.082,0
120083.696,26.367,29.297,26.367,26.367,8.789,0
120083.700,15.625,31.738,26.367,24.414,-30.273,0
120083.703,18.066,30.273,20.996,27.832,21.484,0
120083.707,34.180,29.785,22.949,36.133,66.895,0
120083.711,26.855,31.250,29.785,33.203,33.691,0
120083.715,3.906,28.320,27.832,25.391,3.906,0
120083.719,22.949,27.344,28.809,30.762,24.414,0
120083.722,44.434,26.855,25.879,38.574,79.590,0
120083.726,31.250,27.832,20.020,38.086,62.988,0
120083.730,8.301,30.273,28.809,33.691,-42.969,0
120083.734,15.625,32.715,33.203,34.668,-56.152,0
120083.738,55.176,34.668,28.809,47.852,11.719,0
120083.742,55.664,31.250,29.785,46.387,27.832,0
120083.746,20.020,30.273,33.691,33.203,-6.836,0
120083.750,8.301,28.320,32.227,35.645,-24.414,0
120083.751,30.762,29.785,23.438,41.504,18.555,0
120083.754,42.480,33.691,21.484,37.598,52.734,0
120083.758,21.973,33.691,25.879,26.367,25.391,0
120083.762,7.324,27.344,27.832,22.949,-31.250,0
120083.766,29.297,28.809,33.203,35.645,-50.293,0
120083.770,52.734,37.109,34.668,41.504,0.488,0
120083.774,38.086,33.691,18.555,29.297,-0.977,0
120083.778,12.695,29.297,17.090,23.926,-52.246,0
120083.782,27.832,30.273,31.250,35.156,2.441,0
120083.786,59.082,31.250,32.715,47.852,79.590,0
120083.790,42.480,28.320,32.227,45.898,63.965,0
120083.793,5.371,22.949,33.203,34.180,16.602,0
120083.811,8.301,23.926,34.180,30.762,22.461,0
120083.814,38.574,24.414,35.156,38.086,101.074,0
120083.818,44.434,24.902,32.715,39.551,101.074,0
120083.822,20.508,26.855,29.785,30.273,44.434,0
120083.826,8.301,27.344,31.250,27.344,-9.766,0
120083.830,33.203,34.668,32.715,38.574,18.066,0
120083.834,51.270,36.621,26.367,43.457,84.961,0
120083.838,36.133,29.785,19.043,34.180,47.852,0
120083.842,20.508,29.297,21.484,31.250,14.160,0
120083.846,32.227,28.809,34.180,39.062,13.184,0
120083.850,54.688,29.297,39.062,44.922,22.461,0
120083.853,41.016,26.855,31.738,39.062,35.645,0
120083.856,14.160,21.484,30.762,34.180,-10.742,0
120083.860,29.785,27.344,32.227,39.062,-19.531,0
120083.863,51.758,32.227,31.250,44.434,46.387,0
120083.867,40.039,20.020,34.668,41.992,82.520,0
120083.871,8.789,16.602,30.273,30.762,40.527,0
120083.875,6.836,31.250,20.996,26.367,-1.465,0
120083.879,38.574,35.645,26.855,35.645,43.457,0
120083.883,51.758,35.645,30.273,36.133,81.543,0
120083.887,31.250,39.062,23.926,24.902,19.531,0
120083.891,22.461,38.086,22.949,23.438,-7.812,0
120083.895,38.086,26.855,23.438,29.785,58.105,0
120083.899,49.316,20.996,25.391,31.738,87.402,0
120083.900,41.016,31.250,31.738,26.367,43.457,0
120083.904,16.113,30.273,21.973,18.066,-23.438,0
120083.908,19.531,21.484,17.578,18.555,-16.113,0
120083.912,48.340,26.367,24.902,25.879,37.598,0
120083.916,43.945,29.785,22.461,21.484,18.066,0
120083.920,17.090,32.227,12.207,13.184,-21.484,0
120083.924,30.273,35.156,0.488,18.066,-7.324,0
120083.928,51.270,33.203,8.301,26.367,36.621,0
120083.932,39.551,33.691,28.809,24.414,8.789,0
120083.936,14.160,28.809,33.691,14.160,-39.062,0
120083.940,9.766,29.297,27.832,15.625,-24.902,0
120083.943,41.016,36.621,33.203,29.785,32.715,0
120083.947,60.059,33.691,34.180,32.715,70.801,0
120083.951,43.457,32.715,30.273,21.973,20.508,0
120083.955,16.602,35.156,33.691,21.973,-20.020,0
120083.959,41.016,37.109,35.645,37.598,-4.883,0
120083.962,71.289,37.598,30.762,41.992,44.922,0
120083.966,44.434,33.691,26.367,36.133,29.785,0
120083.970,19.531,29.297,26.367,36.621,-39.551,0
120083.974,34.180,34.180,24.414,45.898,-40.039,0
120083.978,56.152,39.551,22.949,52.246,-18.066,0
120083.982,47.363,36.133,25.879,44.434,-10.742,0
120083.986,24.414,37.109,31.250,38.086,-22.461,0
120083.990,26.367,32.227,33.691,43.945,12.207,0
120083.991,43.457,27.832,30.762,51.270,55.664,0
120083.994,45.410,33.203,25.391,45.410,73.242,0
120083.998,26.855,29.297,26.855,31.738,49.805,0
120084.002,9.277,23.926,29.297,27.832,12.695,0
120084.006,34.668,31.738,26.855,37.109,26.855,0
120084.010,53.711,39.062,20.996,37.109,48.340,0
120084.014,21.484,28.320,23.438,28.320,43.945,0
120084.018,-1.953,29.297,26.855,19.531,29.785,0
120084.022,20.020,46.387,30.273,26.367,37.598,0
120084.026,40.527,40.039,32.227,36.133,54.199,0
120084.030,17.578,27.832,24.414,31.250,27.344,0
120084.034,-11.719,27.344,22.461,21.973,-13.184,0
120084.036,2.930,31.250,24.414,26.367,-15.137,0
120084.040,37.109,36.621,17.578,36.621,49.805,0
120084.044,28.809,34.668,15.137,35.645,77.637,0
120084.048,-1.953,27.344,19.531,27.832,8.301,0
120084.052,-2.441,28.320,26.367,27.832,-48.828,0
120084.056,25.879,25.391,24.414,38.574,3.906,0
120084.060,33.203,29.297,13.184,39.551,15.625,0
120084.064,5.859,39.551,16.602,22.949,-67.383,0
120084.067,-8.789,26.855,29.785,13.672,-60.059,0
120084.071,18.555,21.484,30.762,26.855,22.949,0
120084.075,44.922,31.738,25.391,29.297,47.852,0
120084.079,21.973,39.062,24.902,18.555,41.016,0
120084.081,-5.371,38.574,25.391,16.602,-1.465,0
120084.084,14.160,34.180,21.973,23.926,13.672,0
120084.088,41.016,32.227,22.461,28.809,61.035,0
120084.092,34.668,33.203,29.785,27.344,6.836,0
120084.096,9.766,32.227,30.273,23.926,-48.828,0
120084.100,7.812,28.320,25.391,24.902,-36.133,0
120084.104,31.738,29.297,17.578,31.738,-5.859,0
120084.108,37.109,35.645,10.254,28.320,-36.133,0
120084.112,7.812,37.109,16.602,18.066,-47.363,0
120084.116,-0.977,30.273,22.949,19.043,-51.270,0
120084.120,30.273,31.250,22.461,26.855,-31.738,0
120084.123,40.039,35.156,20.020,28.320,-10.742,0
120084.126,16.113,27.832,21.973,25.391,-8.301,0
120084.129,4.883,28.809,22.949,26.367,12.695,0
120084.133,25.879,31.738,24.902,32.715,43.457,0
120084.137,44.922,33.203,23.926,37.598,69.824,0
120084.141,27.344,35.156,18.555,32.227,81.543,0
120084.145,-0.488,34.180,20.508,22.949,12.207,0
120084.149,19.043,35.645,25.391,26.855,-20.020,0
120084.153,49.316,31.738,28.809,37.598,35.645,0
120084.157,30.762,25.391,24.414,37.109,15.625,0
120084.161,0.000,25.879,19.043,30.273,-32.715,0
120084.165,1.953,28.320,26.855,26.367,-20.020,0
120084.168,28.809,29.785,28.809,35.645,44.922,0
120084.186,35.156,28.809,24.414,37.598,32.227,0
120084.189,6.836,24.414,22.949,24.414,-46.875,0
120084.193,4.395,25.879,23.926,23.926,-54.199,0
120084.197,35.645,30.273,26.367,33.691,21.973,0
120084.201,45.898,30.273,31.738,36.133,56.152,0
120084.205,25.879,32.715,24.414,30.273,6.348,0
120084.209,14.160,33.691,19.531,22.949,2.441,0
120084.213,26.855,28.809,19.531,27.832,40.527,0
120084.217,47.852,23.926,22.949,46.875,72.266,0
120084.221,41.992,25.879,24.414,41.504,11.230,0
120084.225,11.719,30.273,14.160,18.555,-35.645,0
120084.228,18.066,35.645,6.348,26.367,-0.488,0
120084.231,41.992,41.016,11.719,37.598,21.973,0
120084.234,36.133,39.551,18.066,28.320,31.250,0
120084.238,18.066,35.156,22.461,21.484,18.555,0
120084.242,11.719,30.273,24.414,29.297,6.348,0
120084.246,33.203,34.668,18.555,38.574,28.809,0
120084.250,41.992,38.574,15.625,35.645,52.246,0
120084.254,22.461,34.180,12.695,29.297,2.441,0
120084.258,14.160,34.180,9.766,32.715,-19.531,0
120084.262,46.387,35.156,12.695,39.551,10.254,0
120084.266,62.012,37.109,23.438,43.945,13.184,0
120084.270,25.879,33.203,23.926,34.668,22.461,0
120084.273,10.254,27.344,17.090,31.250,0.977,0
120084.276,33.691,27.344,14.648,40.527,5.371,0
120084.279,55.664,24.902,18.066,39.551,63.477,0
120084.283,43.945,27.344,23.438,32.227,53.223,0
120084.287,11.719,31.738,22.461,25.879,-4.883,0
120084.291,16.602,29.785,15.137,31.250,-19.531,0
120084.295,46.875,32.227,15.625,43.457,11.719,0
120084.299,44.434,35.156,25.391,37.598,23.438,0
120084.303,16.602,31.250,25.391,26.855,-23.926,0
120084.307,21.484,30.273,27.344,32.227,-41.992,0
120084.311,39.551,32.227,34.180,37.598,10.742,0
120084.315,32.227,30.762,25.391,31.250,43.457,0
120084.319,9.766,30.762,19.043,23.926,-19.043,0
120084.321,5.371,21.973,20.508,25.879,-67.383,0
120084.324,34.668,23.926,18.555,32.227,-21.973,0
120084.328,45.898,35.645,16.602,30.273,40.527,0
120084.332,24.902,35.156,17.090,25.879,15.625,0
120084.336,6.836,33.203,18.066,25.391,-20.508,0
120084.340,27.344,34.668,18.555,35.156,-13.672,0
120084.344,52.734,36.133,25.879,42.480,9.277,0
120084.348,41.504,38.574,37.598,38.086,38.574,0
120084.352,19.043,37.598,33.203,29.785,-14.648,0
120084.356,18.555,33.691,23.438,29.297,-7.812,0
120084.360,40.039,34.668,23.926,36.133,65.918,0
120084.364,45.410,33.691,24.902,34.180,71.289,0
120084.365,22.461,30.273,25.879,24.902,-14.160,0
120084.369,18.066,34.668,27.832,29.297,-30.762,0
120084.373,49.805,36.621,16.602,45.410,30.273,0
120084.377,56.152,33.203,9.766,45.410,35.156,0
120084.381,17.090,28.809,19.531,28.320,-17.090,0
120084.385,4.883,26.367,31.738,28.320,-53.223,0
120084.389,31.738,25.391,35.156,36.621,-2.441,0
120084.393,37.598,25.391,32.715,32.715,47.363,0
120084.397,13.184,27.344,33.691,24.414,10.254,0
120084.401,-4.395,24.414,31.738,23.926,17.578,0
120084.405,11.719,28.320,34.180,32.715,60.059,0
120084.408,44.434,35.645,34.668,40.039,99.609,0
120084.412,41.504,34.180,22.949,33.691,98.633,0
120084.416,9.766,28.809,18.555,23.438,76.660,0
120084.420,10.742,21.484,25.391,24.414,50.781,0
120084.424,38.086,22.461,25.879,34.180,78.613,0
120084.427,36.621,26.855,22.461,38.086,102.539,0
120084.431,18.066,26.855,21.484,29.785,42.969,0
120084.435,19.043,28.809,27.832,31.250,3.906,0
120084.439,29.297,28.320,37.109,45.410,14.648,0
120084.443,39.551,27.344,38.574,46.387,55.176,0
120084.447,24.902,28.809,31.250,35.156,34.180,0
120084.451,10.742,27.832,27.832,33.691,-26.855,0
120084.455,37.598,28.320,25.879,44.434,-2.930,0
120084.456,57.129,29.785,25.879,45.898,37.109,0
120084.460,41.016,30.762,27.832,38.574,8.301,0
120084.464,20.996,29.785,30.762,35.156,-24.414,0
120084.468,30.273,33.203,33.203,39.551,-3.906,0
120084.472,53.223,38.574,31.250,47.852,23.926,0
120084.476,46.387,39.551,23.438,46.387,71.777,0
120084.480,28.320,38.086,14.648,34.180,36.621,0
120084.484,29.297,37.598,12.695,31.250,-22.461,0
120084.487,42.480,38.086,13.184,41.016,33.691,0
120084.491,42.480,35.645,23.438,46.387,61.035,0
120084.495,19.531,32.715,30.273,40.527,20.508,0
120084.499,7.812,32.715,31.738,39.551,20.508,0
120084.501,23.926,31.738,38.086,52.734,55.176,0
120084.504,38.574,26.855,44.434,55.664,53.711,0
120084.508,19.043,27.832,38.574,41.992,25.879,0
120084.512,7.324,29.297,30.762,35.156,-15.625,0
120084.516,27.344,27.832,31.738,43.457,0.000,0
120084.520,41.016,32.715,28.809,51.270,51.270,0
120084.524,27.344,37.109,29.297,38.574,39.062,0
120084.528,8.789,29.297,30.273,30.273,-4.395,0
120084.532,20.996,21.973,29.297,40.527,-14.648,0
120084.536,42.480,34.668,28.320,42.969,17.578,0
120084.540,37.598,48.828,19.531,31.738,2.930,0
120084.543,11.230,50.781,15.625,23.926,-58.594,0
120084.561,4.395,43.457,20.996,24.902,-49.805,0
120084.564,23.926,37.109,24.902,32.715,34.668,0
120084.568,27.832,35.645,23.926,30.273,38.574,0
120084.572,12.207,36.133,16.113,23.926,-14.160,0
120084.576,1.465,36.133,16.113,26.855,-9.277,0
120084.580,17.578,21.484,24.902,35.156,19.043,0
120084.584,31.250,18.555,28.809,36.133,15.137,0
120084.588,15.625,36.621,18.555,24.414,-9.766,0
120084.592,2.441,34.668,12.695,20.996,-33.203,0
120084.596,22.949,32.715,22.949,26.367,-33.691,0
120084.600,40.527,31.738,22.461,28.320,-3.418,0
120084.604,29.785,32.715,23.438,27.832,10.254,0
120084.605,8.301,41.016,32.715,21.973,-27.344,0
120084.609,13.672,39.551,25.391,17.578,-21.973,0
120084.613,36.133,34.180,21.484,26.855,22.461,0
120084.617,36.621,34.668,25.391,29.297,29.297,0
120084.621,12.695,32.227,20.996,22.949,-20.020,0
120084.625,5.859,25.879,18.555,24.414,-57.617,0
120084.629,33.203,28.809,20.996,32.715,7.324,0
120084.633,39.551,31.250,26.855,34.668,28.809,0
120084.637,20.508,31.738,35.156,29.297,-51.270,0
120084.641,13.672,30.273,37.109,27.832,-126.465,0
120084.645,22.461,27.832,32.227,38.086,-54.199,0
120084.648,36.133,30.762,30.273,41.016,35.645,0
120084.650,26.855,30.273,28.320,28.809,24.902,0
120084.654,0.488,28.320,30.273,23.926,-15.625,0
120084.658,15.137,25.879,27.344,32.227,-38.574,0
120084.662,45.410,29.297,20.508,37.109,-4.883,0
120084.666,35.156,32.715,25.391,28.320,9.277,0
120084.670,11.230,27.832,32.227,19.531,-26.855,0
120084.674,15.625,27.832,28.320,23.926,-31.250,0
120084.678,41.016,27.832,20.508,30.762,47.363,0
120084.682,49.316,25.391,16.602,24.414,61.035,0
120084.686,22.949,27.832,11.719,14.648,23.926,0
120084.690,6.348,25.879,14.648,18.555,12.207,0
120084.693,29.785,28.320,17.578,25.879,-1.953,0
120084.696,42.969,30.762,18.066,27.832,9.766,0
120084.699,33.691,28.809,27.344,20.020,30.762,0
120084.703,14.160,33.203,26.855,19.531,22.461,0
120084.707,21.973,29.297,17.578,29.297,37.109,0
120084.711,43.945,28.320,20.020,28.320,79.590,0
120084.715,29.785,27.344,22.461,22.461,55.176,0
120084.719,16.602,23.926,21.484,24.414,-9.277,0
120084.723,36.621,32.227,21.484,29.297,1.465,0
120084.727,49.316,38.574,21.484,29.785,55.176,0
120084.731,37.598,39.551,29.297,24.902,56.152,0
120084.735,14.160,38.086,32.715,20.020,14.160,0
120084.739,9.766,31.738,20.996,20.508,5.859,0
120084.741,35.156,31.250,16.602,30.762,43.945,0
120084.744,52.734,30.273,19.043,31.738,68.359,0
120084.748,32.715,25.879,18.555,20.508,15.137,0
120084.752,4.883,25.879,21.484,20.996,-5.859,0
120084.756,21.484,26.367,25.879,29.297,52.246,0
120084.760,39.062,28.320,28.809,32.715,64.941,0
120084.764,25.391,30.273,33.203,30.762,27.344,0
120084.768,14.648,31.738,31.250,28.320,-21.973,0
120084.772,24.414,34.180,25.879,32.715,-29.785,0
120084.776,41.016,30.273,25.391,39.062,23.438,0
120084.780,30.762,24.902,29.297,34.180,24.902,0
120084.784,6.836,29.297,23.926,25.879,13.184,0
120084.786,15.137,33.203,19.043,36.133,15.625,0
120084.789,41.992,31.738,21.973,43.945,31.738,0
120084.793,37.598,30.762,22.949,30.273,38.574,0
120084.797,7.812,27.344,25.391,21.973,19.531,0
120084.801,7.324,28.320,33.203,27.344,26.855,0
120084.805,36.133,18.555,33.203,36.133,56.152,0
120084.809,36.621,14.648,26.855,30.273,58.594,0
120084.813,12.207,29.297,24.414,20.020,3.418,0
120084.817,10.742,31.250,25.391,23.926,-32.715,0
120084.821,30.762,30.273,27.832,34.180,-9.277,0
120084.825,39.062,27.832,29.785,34.668,-19.043,0
120084.828,23.438,21.484,24.902,25.391,-32.227,0
120084.830,2.930,25.879,22.461,16.602,-46.387,0
120084.834,17.090,29.785,24.902,22.461,-1.465,0
120084.838,37.109,21.973,22.461,29.785,39.551,0
120084.842,28.320,20.508,21.973,21.973,7.812,0
120084.846,5.371,25.879,25.879,16.113,-22.461,0
120084.850,13.672,29.297,25.879,20.020,-39.062,0
120084.854,43.457,31.738,21.484,22.949,-48.340,0
120084.858,37.109,29.297,19.043,19.531,-41.992,0
120084.862,9.277,27.832,24.414,14.160,-28.320,0
120084.866,4.883,30.273,30.273,14.160,-35.156,0
120084.870,34.180,24.902,24.902,23.438,39.551,0
120084.873,53.223,16.113,16.602,24.414,92.773,0
120084.892,20.508,20.996,13.672,13.184,35.645,0
120084.896,-6.348,27.344,13.184,11.230,-24.902,0
120084.900,18.066,20.996,16.602,21.484,12.695,0
120084.904,39.062,19.043,21.973,30.273,72.266,0
120084.908,32.227,24.414,24.902,28.809,26.367,0
120084.912,20.996,25.391,30.273,24.902,-36.133,0
120084.916,24.902,26.367,32.227,25.391,-10.254,0
120084.920,44.434,30.273,25.879,32.227,48.828,0
120084.924,38.086,29.297,22.461,32.715,45.898,0
120084.928,9.277,24.414,29.785,23.438,-11.719,0
120084.932,21.973,21.484,28.320,30.762,0.977,0
120084.935,60.059,19.531,20.508,42.480,72.266,0
120084.935,42.480,22.949,23.926,37.109,22.461,0
120084.939,12.207,27.344,30.273,34.180,-25.879,0
120084.943,19.043,22.461,31.738,34.668,-22.949,0
120084.947,40.527,20.996,29.785,42.480,9.766,0
120084.951,63.477,29.297,33.691,48.340,38.086,0
120084.955,42.969,34.180,36.133,38.086,-23.438,0
120084.959,14.160,33.203,31.250,30.762,-76.172,0
120084.963,38.086,24.414,26.855,37.598,7.324,0
120084.967,59.570,23.438,24.414,42.480,81.055,0
120084.971,48.828,38.574,28.809,36.133,-7.812,0
120084.975,35.645,41.504,29.297,26.855,-73.242,0
120084.978,34.668,35.645,25.879,28.809,-29.297,0
120084.981,42.969,36.621,23.926,33.203,21.484,0
120084.984,38.086,37.598,23.438,30.273,14.160,0
120084.988,12.695,37.598,26.855,23.438,-14.648,0
120084.992,17.578,37.598,26.855,25.391,23.926,0
120084.996,42.480,32.227,27.344,38.086,41.504,0
120085.000,36.133,33.203,29.785,33.203,24.414,0
120085.004,11.230,38.086,29.785,20.020,0.977,0
120085.008,8.301,33.691,25.879,21.484,-19.531,0
120085.012,27.344,31.738,25.879,32.715,13.184,0
120085.016,36.621,35.156,24.902,31.738,47.363,0
120085.020,19.531,29.785,19.043,20.508,42.480,0
120085.024,6.836,26.367,22.949,24.414,-18.066,0
120085.025,25.391,26.367,24.902,35.645,-28.809,0
120085.029,48.828,27.832,22.461,38.086,19.043,0
120085.033,42.480,32.715,22.461,35.645,31.738,0
120085.037,16.113,33.203,23.438,33.691,-8.789,0
120085.041,19.043,35.156,22.461,40.039,23.926,0
120085.045,46.387,32.227,23.926,53.711,87.402,0
120085.049,42.480,25.391,26.855,52.734,81.055,0
120085.053,18.066,30.762,26.855,39.062,8.301,0
120085.057,20.020,33.691,24.902,41.992,-45.898,0
120085.061,33.203,31.250,23.926,51.758,-3.906,0
120085.065,31.250,29.785,23.438,47.852,-1.953,0
120085.068,13.184,28.809,26.855,40.527,-17.578,0
120085.071,5.371,29.297,38.574,36.133,-1.465,0
120085.074,27.344,32.715,35.156,43.457,53.711,0
120085.078,52.246,37.598,20.020,44.434,97.168,0
120085.082,32.227,40.039,21.973,31.738,56.641,0
120085.086,-5.371,37.598,33.203,22.461,7.324,0
120085.090,9.766,31.250,35.645,24.902,-4.883,0
120085.094,35.645,28.320,33.691,29.785,26.367,0
120085.098,29.785,29.785,34.668,26.855,3.418,0
120085.102,11.230,29.785,33.691,20.020,-49.805,0
120085.106,6.348,26.855,29.297,22.461,5.371,0
120085.110,30.273,21.973,26.367,34.668,80.078,0
120085.113,33.691,23.926,26.367,34.180,83.008,0
120085.117,0.488,25.879,31.738,24.414,25.391,0
120085.121,-3.418,26.367,32.715,28.809,2.441,0
120085.125,21.973,28.320,25.391,41.504,62.012,0
120085.129,31.250,23.438,27.344,41.992,43.457,0
120085.132,9.766,20.508,31.250,31.250,-26.855,0
120085.136,-3.906,30.762,31.738,25.879,-60.547,0
120085.140,20.020,39.062,30.273,37.109,-15.137,0
120085.144,48.828,38.086,26.855,38.086,34.668,0
120085.148,29.785,36.133,20.996,21.484,15.625,0
120085.152,-9.277,33.203,19.043,12.207,17.578,0
120085.156,7.812,31.738,22.461,16.602,74.219,0
120085.160,41.504,36.133,27.344,24.414,81.543,0
120085.161,26.855,34.180,26.855,18.066,59.570,0
120085.164,-1.953,30.273,28.809,12.695,40.527,0
120085.168,3.418,24.902,23.438,17.090,16.113,0
120085.172,20.508,21.484,17.090,19.043,38.086,0
120085.176,20.996,27.344,25.879,15.625,42.480,0
120085.180,-3.418,20.508,32.227,6.836,4.395,0
120085.184,-7.812,17.578,30.762,11.230,-23.926,0
120085.188,22.461,36.621,24.414,26.855,-11.719,0
120085.192,37.109,40.039,24.902,28.320,61.523,0
120085.196,26.367,34.180,29.297,23.438,41.992,0
120085.200,7.324,34.180,24.414,23.438,-1.465,0
120085.204,20.996,30.273,23.926,27.344,56.152,0
120085.205,41.504,30.762,25.879,33.203,100.098,0
120085.209,23.438,33.691,30.273,30.273,45.410,0
120085.213,6.836,27.832,36.133,26.855,-32.227,0
120085.217,19.043,26.855,29.297,31.250,6.836,0
120085.221,41.016,33.203,20.508,31.738,84.961,0
120085.225,28.320,33.691,19.531,26.367,46.875,0
120085.229,-7.812,29.297,21.484,17.578,-17.090,0
120085.233,0.000,30.273,22.461,18.066,2.930,0
120085.237,28.809,30.762,14.648,25.879,68.359,0
120085.241,34.180,29.297,13.184,23.926,48.340,0
120085.245,13.672,28.809,20.020,14.648,-16.602,0
120085.248,1.465,29.785,26.367,13.184,-20.508,0
120085.250,25.879,27.832,28.809,23.438,25.879,0
120085.254,48.828,29.785,21.973,24.414,51.758,0
120085.258,18.066,39.551,18.555,18.066,5.859,0
120085.262,-14.160,36.133,19.531,13.184,-55.664,0
120085.266,7.812,26.855,19.531,20.508,-16.602,0
120085.270,38.086,26.855,22.949,27.832,33.203,0
120085.274,20.020,29.785,21.973,14.648,13.672,0
120085.278,-2.930,32.227,25.879,11.719,-4.883,0
120085.282,8.789,33.691,29.785,23.438,13.184,0
120085.286,32.227,34.668,28.809,28.809,42.969,0
120085.290,29.785,33.691,28.809,32.227,44.922,0
120085.293,12.207,32.715,30.273,30.762,11.230,0
120085.311,25.879,26.367,32.227,28.809,3.418,0
120085.314,42.480,22.461,28.320,37.109,26.367,0
120085.318,34.668,29.297,28.320,39.062,31.250,0
120085.322,12.695,29.297,29.297,28.809,11.230,0
120085.326,10.254,28.809,21.484,24.414,11.719,0
120085.330,39.062,34.180,20.996,31.738,11.719,0
120085.334,36.133,37.598,26.367,32.227,20.020,0
120085.338,15.137,39.551,24.414,24.414,13.672,0
120085.342,-2.441,33.203,25.391,19.531,-60.547,0
120085.346,6.836,31.250,34.180,25.879,-55.176,0
120085.350,36.621,29.785,32.227,32.715,30.273,0
120085.354,37.598,26.855,22.949,26.367,44.434,0
120085.356,8.301,26.367,23.926,17.578,-17.578,0
120085.359,-10.742,26.855,22.949,20.996,-19.531,0
120085.363,19.531,13.184,21.973,30.273,44.922,0
120085.367,33.203,10.254,27.832,30.762,33.691,0
120085.371,11.719,35.645,29.297,22.949,-23.438,0
120085.375,3.418,40.039,25.879,19.531,-49.805,0
120085.379,23.926,32.715,22.949,28.320,-5.859,0
120085.383,42.969,36.133,17.090,30.762,3.418,0
120085.387,27.344,39.551,20.020,20.996,-36.621,0
120085.391,4.395,36.133,21.484,19.531,-61.035,0
120085.395,26.855,33.203,15.625,30.273,-15.137,0
120085.398,44.922,30.273,21.973,32.227,28.809,0
120085.401,26.855,27.832,31.738,20.020,31.738,0
120085.404,8.301,27.832,30.762,14.648,-7.324,0
120085.408,14.648,26.367,22.949,20.996,1.953,0
120085.412,39.062,21.484,21.484,25.391,54.199,0
120085.416,37.109,26.855,24.902,22.949,13.184,0
120085.420,8.301,31.250,21.484,17.578,-32.227,0
120085.424,14.160,33.203,24.414,24.902,-18.066,0
120085.428,35.156,29.785,30.273,33.203,46.387,0
120085.432,32.227,29.297,26.367,26.855,55.176,0
120085.436,19.043,32.227,28.320,20.996,-3.418,0
120085.440,11.719,32.227,28.320,26.367,-9.766,0
120085.444,28.809,33.691,23.926,38.574,45.898,0
120085.446,39.551,29.785,24.902,41.992,75.684,0
120085.450,19.531,24.902,27.832,28.809,5.859,0
120085.454,16.113,21.484,26.855,26.855,-27.832,0
120085.458,32.227,25.879,20.020,41.016,39.551,0
120085.462,41.992,29.297,23.438,41.016,58.594,0
120085.465,34.668,23.926,27.832,28.320,8.789,0
120085.469,15.625,26.367,27.832,22.949,-29.785,0
120085.473,14.648,29.785,28.320,27.832,-40.039,0
120085.477,40.527,25.879,21.973,36.133,-3.418,0
120085.481,41.504,22.461,27.344,33.691,17.090,0
120085.485,14.160,26.367,28.809,25.391,-2.930,0
120085.489,6.348,23.438,22.461,28.320,-7.812,0
120085.491,35.645,20.996,27.832,39.062,33.691,0
120085.495,47.363,21.973,26.367,41.992,70.312,0
120085.498,24.414,18.066,18.555,32.715,26.367,0
120085.502,7.812,20.020,19.043,30.273,-21.484,0
120085.506,25.879,22.461,20.996,42.480,4.395,0
120085.510,48.828,20.020,18.066,43.457,62.012,0
120085.514,27.344,21.484,19.531,27.832,70.801,0
120085.518,5.371,20.996,25.879,21.973,-3.418,0
120085.522,38.086,15.137,29.297,31.738,16.113,0
120085.526,52.734,15.625,31.738,33.691,67.871,0
120085.530,17.578,21.973,28.809,23.438,25.391,0
120085.534,-4.395,22.949,18.066,13.184,8.301,0
120085.535,6.836,21.973,6.348,19.531,51.758,0
120085.539,38.574,23.438,5.859,28.320,95.703,0
120085.543,41.016,25.879,18.066,22.949,83.008,0
120085.547,16.602,28.320,33.203,19.531,34.668,0
120085.551,13.184,28.809,36.133,20.996,3.418,0
120085.555,38.574,29.785,30.762,25.879,48.340,0
120085.559,39.551,28.809,25.391,23.926,60.547,0
120085.563,8.789,26.367,22.949,13.672,9.766,0
120085.567,6.836,26.367,23.438,18.066,-26.855,0
120085.571,28.320,26.367,22.949,30.762,18.066,0
120085.575,56.641,19.043,24.414,31.738,90.332,0
120085.578,37.109,25.391,21.484,25.879,46.387,0
120085.582,3.418,39.551,20.020,27.344,-32.227,0
120085.586,18.555,33.203,20.020,31.250,-22.461,0
120085.590,37.598,31.250,17.090,34.668,12.695,0
120085.594,31.738,36.133,20.508,29.785,1.953,0
120085.597,6.348,34.668,24.902,20.996,-39.062,0
120085.601,16.602,33.691,23.438,26.367,-41.504,0
120085.605,41.992,33.203,19.043,37.109,0.488,0
120085.609,39.551,30.273,18.555,33.691,35.156,0
120085.613,19.043,28.809,18.066,25.879,29.297,0
120085.617,12.695,27.344,17.578,26.855,15.625,0
120085.621,31.738,27.344,24.902,29.785,26.855,0
120085.625,41.016,33.203,31.250,30.273,29.785,0
120085.626,28.320,32.715,28.809,27.832,8.301,0
120085.629,11.230,30.762,26.367,25.391,-1.465,0
120085.633,23.438,27.344,23.438,31.738,29.297,0
120085.637,42.480,26.855,13.184,32.715,40.039,0
120085.641,25.391,30.762,8.301,21.973,2.930,0
120085.645,1.953,27.832,14.648,20.996,-17.578,0
120085.649,19.043,28.320,23.926,29.785,13.672,0
120085.653,44.434,28.320,30.273,35.645,75.684,0
120085.657,35.156,30.762,31.738,35.645,90.332,0
120085.661,12.207,33.203,30.762,25.879,41.992,0
120085.665,18.066,36.133,25.391,25.391,72.754,0
120085.668,51.758,38.574,20.020,35.645,58.594,0
120085.686,58.594,33.203,20.020,34.668,22.461,0
120085.690,27.344,28.809,20.020,26.855,2.930,0
120085.694,8.789,34.668,18.555,27.832,-25.391,0
