timestamps,TP9,AF7,AF8,TP10,Right AUX,Marker0
120383.964,31.250,24.414,25.879,37.109,21.484,0
120383.968,55.664,30.273,25.391,46.875,71.289,0
120383.971,41.016,29.785,21.973,27.832,58.105,0
120383.975,14.160,29.785,19.531,17.578,-4.883,0
120383.979,19.043,34.180,15.625,25.391,-20.020,0
120383.983,44.922,35.645,11.230,33.203,24.902,0
120383.987,49.805,33.691,22.949,36.621,23.926,0
120383.991,23.926,33.203,36.133,26.367,-45.410,0
120383.995,16.602,33.691,34.180,20.508,-45.410,0
120383.999,44.922,34.180,24.902,30.273,48.340,0
120384.003,53.223,33.203,21.973,28.809,50.781,0
120384.007,23.926,28.809,27.832,22.949,-12.695,0
120384.007,7.812,27.832,30.273,21.973,-27.344,0
120384.011,37.598,32.715,28.320,29.297,16.602,0
120384.015,53.711,32.715,25.879,37.109,24.902,0
120384.019,33.203,31.738,26.855,22.949,-0.977,0
120384.022,17.578,31.738,30.762,16.113,-5.859,0
120384.026,23.438,28.809,31.250,32.715,28.320,0
120384.030,40.527,30.273,28.320,28.320,50.781,0
120384.034,30.762,31.738,27.344,16.602,26.855,0
120384.038,7.812,32.227,26.367,15.625,2.441,0
120384.042,13.184,29.297,23.926,25.391,30.273,0
120384.046,39.551,25.391,22.949,29.297,92.285,0
120384.050,43.945,27.344,24.902,46.875,94.238,0
120384.053,30.273,21.973,26.367,43.457,32.715,0
120384.057,19.531,23.438,24.902,16.113,-16.113,0
120384.061,29.297,34.668,25.879,23.926,41.504,0
120384.065,42.480,34.180,29.785,27.832,86.914,0
120384.069,23.438,33.691,32.715,20.508,40.527,0
120384.073,16.602,35.156,34.180,28.809,-18.555,0
120384.077,32.227,28.809,31.738,31.738,-4.883,0
120384.080,50.293,31.250,25.391,32.227,69.824,0
120384.084,37.598,39.062,24.414,35.156,60.059,0
120384.088,7.812,38.086,27.344,24.902,-11.719,0
120384.092,41.016,33.691,30.762,40.527,9.277,0
120384.096,67.383,29.297,20.020,57.617,85.938,0
120384.112,38.574,26.367,14.648,40.527,87.891,0
120384.116,11.719,28.320,34.180,28.320,19.531,0
120384.120,17.090,29.297,47.363,35.645,-0.488,0
120384.123,46.387,24.902,45.898,44.434,46.875,0
120384.127,59.082,25.391,36.133,48.340,41.504,0
120384.131,30.762,33.691,25.879,29.785,-6.836,0
120384.135,4.395,36.621,24.902,18.555,-36.133,0
120384.139,22.949,31.738,28.809,28.809,15.137,0
120384.143,39.062,26.367,31.250,31.250,61.523,0
120384.147,20.020,27.832,31.738,26.367,19.531,0
120384.151,11.230,27.832,37.598,36.621,-12.207,0
120384.155,38.086,24.414,41.016,41.992,13.184,0
120384.157,56.641,24.414,36.133,43.457,61.523,0
120384.161,39.062,24.902,29.785,40.039,33.203,0
120384.165,15.137,22.949,31.250,32.715,-21.973,0
120384.169,27.344,24.902,30.762,47.363,-9.277,0
120384.172,53.223,26.367,28.809,56.152,19.043,0
120384.176,53.223,25.391,35.645,41.992,30.273,0
120384.180,25.879,33.691,39.551,33.203,7.324,0
120384.184,19.043,34.180,39.062,39.551,-0.488,0
120384.188,44.434,25.879,39.062,46.387,15.625,0
120384.192,52.734,29.297,34.180,45.898,51.270,0
120384.196,23.926,30.273,24.414,35.645,35.156,0
120384.200,10.742,24.414,23.926,25.391,-29.297,0
120384.202,41.504,31.250,26.367,31.250,19.043,0
120384.206,57.129,31.738,23.926,34.668,58.594,0
120384.210,39.551,31.250,23.926,29.785,17.578,0
120384.213,16.113,34.180,25.391,27.344,8.789,0
120384.217,27.832,34.180,25.391,35.645,20.996,0
120384.221,52.734,35.156,28.320,38.086,43.457,0
120384.225,41.016,33.691,24.902,29.785,14.648,0
120384.229,18.555,36.133,24.414,28.809,-39.551,0
120384.233,25.879,32.227,29.297,34.668,-66.406,0
120384.237,52.246,26.367,32.227,40.039,-13.184,0
120384.241,47.363,30.273,26.367,41.992,52.734,0
120384.245,18.555,34.180,23.438,33.691,22.949,0
120384.247,23.926,30.273,32.715,31.738,11.719,0
120384.251,49.805,34.180,38.086,44.434,62.012,0
120384.255,47.363,36.621,32.715,41.504,83.984,0
120384.258,24.902,35.156,29.785,24.414,32.227,0
120384.262,12.695,36.133,31.738,24.414,-21.484,0
120384.266,32.227,36.621,32.715,38.086,30.273,0
120384.270,41.992,32.715,34.180,36.133,79.102,0
120384.274,21.973,31.250,32.715,22.949,0.977,0
120384.278,9.766,33.203,29.785,21.973,-68.359,0
120384.282,23.438,31.738,28.320,26.367,-9.766,0
120384.286,38.574,26.855,28.320,24.414,63.965,0
120384.290,28.809,26.367,20.508,19.531,2.441,0
120384.292,5.371,31.250,14.160,13.184,-66.406,0
120384.296,3.418,26.855,23.926,12.695,-50.781,0
120384.300,22.949,22.461,28.320,19.531,-10.254,0
120384.304,23.438,22.461,24.902,15.137,-9.766,0
120384.308,0.488,23.438,22.949,7.324,-49.805,0
120384.312,-1.953,28.320,18.066,10.742,-27.344,0
120384.316,27.344,27.832,17.578,23.926,25.879,0
120384.320,43.457,27.344,18.555,25.391,8.301,0
120384.324,23.438,29.785,20.996,14.648,-20.508,0
120384.328,0.000,29.297,30.273,17.090,-3.418,0
120384.332,22.949,26.367,39.551,29.297,19.043,0
120384.335,49.316,26.367,34.668,35.156,33.203,0
120384.337,33.691,29.785,21.973,30.273,9.766,0
120384.341,20.020,30.273,19.531,27.832,-2.930,0
120384.345,33.203,29.297,25.879,32.227,16.113,0
120384.348,44.922,33.203,31.738,35.156,62.012,0
120384.352,36.133,34.180,33.691,26.855,70.312,0
120384.356,17.090,30.273,33.203,18.555,-6.836,0
120384.360,24.414,32.227,29.785,24.902,-34.668,0
120384.364,46.387,34.668,22.949,32.715,31.250,0
120384.368,49.805,37.109,20.508,34.668,65.918,0
120384.372,22.949,34.180,10.742,27.344,39.551,0
120384.376,9.277,27.344,7.812,22.949,2.930,0
120384.380,32.227,29.785,14.160,31.738,60.547,0
120384.382,47.363,36.133,17.090,34.180,86.426,0
120384.386,28.809,37.598,27.344,28.809,31.738,0
120384.390,11.719,33.203,30.273,22.949,18.555,0
120384.394,35.156,31.738,24.414,23.926,46.875,0
120384.398,52.246,32.715,14.648,26.367,107.910,0
120384.402,24.414,30.273,20.508,17.090,59.082,0
120384.406,1.465,30.762,34.180,16.602,-45.898,0
120384.410,18.066,37.109,35.645,23.438,-19.043,0
120384.414,42.969,38.086,32.715,25.879,62.500,0
120384.418,33.691,32.715,26.367,20.996,70.312,0
120384.421,7.324,32.715,22.461,14.648,9.277,0
120384.425,10.254,30.273,21.484,22.949,-6.836,0
120384.427,39.551,29.297,20.020,37.598,54.688,0
120384.431,38.086,31.250,19.531,26.855,96.680,0
120384.435,9.766,29.785,23.926,19.531,45.410,0
120384.438,6.836,34.668,28.320,25.391,15.625,0
120384.442,31.738,37.598,20.020,15.137,64.453,0
120384.446,54.688,40.527,15.625,19.043,96.191,0
120384.450,31.250,42.969,20.996,20.508,47.363,0
120384.454,-2.441,39.551,18.066,8.789,30.273,0
120384.458,16.113,36.621,19.531,15.137,47.852,0
120384.462,41.016,37.109,20.020,22.461,64.941,0
120384.466,32.715,39.062,19.043,21.973,52.246,0
120384.470,8.789,34.180,21.973,18.066,8.301,0
120384.487,17.090,32.227,26.367,19.043,44.434,0
120384.491,48.340,37.598,24.414,29.297,83.984,0
120384.495,56.152,43.457,13.184,35.156,98.633,0
120384.498,21.973,40.039,20.508,28.320,60.547,0
120384.502,2.441,29.297,33.203,23.926,0.000,0
120384.506,31.738,25.391,35.156,32.715,28.809,0
120384.510,38.574,25.879,34.180,30.273,41.016,0
120384.514,14.648,25.391,43.457,17.090,-19.531,0
120384.518,-1.953,20.508,51.758,20.508,-48.340,0
120384.522,18.066,16.113,53.711,32.227,-5.371,0
120384.526,42.969,17.578,48.828,37.598,50.781,0
120384.530,30.762,20.996,39.551,31.250,-2.441,0
120384.532,12.207,20.508,40.527,25.879,-48.340,0
120384.536,24.902,20.508,41.504,35.156,-2.441,0
120384.540,47.363,20.996,36.621,45.410,63.477,0
120384.543,37.109,21.973,32.715,39.551,62.012,0
120384.547,11.719,19.531,34.668,40.527,23.926,0
120384.551,27.832,20.996,42.969,56.641,7.812,0
120384.555,51.270,31.738,37.598,43.457,56.152,0
120384.559,35.156,38.086,24.414,16.113,63.477,0
120384.563,14.648,41.016,17.090,11.719,19.043,0
120384.567,16.113,44.434,10.742,18.066,21.484,0
120384.571,38.574,41.016,11.719,28.809,91.797,0
120384.575,51.270,38.574,16.113,29.297,123.535,0
120384.577,27.832,38.086,16.602,20.020,85.938,0
120384.581,9.277,32.715,19.531,21.484,73.730,0
120384.585,34.668,31.738,20.020,32.715,89.844,0
120384.589,58.105,34.668,13.184,41.504,106.934,0
120384.592,42.969,36.621,9.766,40.527,92.285,0
120384.596,20.508,34.180,18.066,32.715,19.531,0
120384.600,40.039,33.203,27.832,36.621,-10.254,0
120384.604,66.406,34.668,28.809,45.410,28.320,0
120384.608,51.758,36.133,27.832,42.480,22.949,0
120384.612,25.391,36.133,28.809,37.109,-11.719,0
120384.616,29.785,36.133,29.297,41.992,23.438,0
120384.620,56.152,36.621,28.809,50.293,79.102,0
120384.622,54.688,36.621,24.414,43.457,57.617,0
120384.626,26.855,35.156,21.484,33.203,1.465,0
120384.630,21.484,35.156,22.461,32.715,-27.832,0
120384.634,44.922,35.156,17.578,41.992,12.207,0
120384.637,50.781,33.691,15.137,42.969,44.434,0
120384.641,22.949,30.273,16.602,30.762,11.719,0
120384.645,8.789,28.320,25.879,25.391,9.277,0
120384.649,30.762,32.715,34.180,35.156,51.270,0
120384.653,53.223,35.645,30.762,40.039,42.969,0
120384.657,53.223,35.645,26.855,34.668,27.832,0
120384.661,22.949,34.668,11.719,31.738,10.742,0
120384.665,15.625,34.668,6.836,29.297,3.906,0
120384.667,39.551,28.809,30.762,32.227,54.199,0
120384.671,37.598,25.391,45.410,34.180,75.195,0
120384.675,18.555,34.180,41.016,27.344,26.855,0
120384.678,21.973,35.645,36.621,24.414,21.973,0
120384.682,47.363,33.691,35.156,32.715,74.219,0
120384.686,49.805,36.133,32.227,35.645,71.777,0
120384.690,23.438,38.574,26.855,28.809,-17.578,0
120384.694,19.043,38.086,20.996,32.715,-45.898,0
120384.698,51.270,39.062,23.438,44.434,17.090,0
120384.702,54.688,37.598,37.598,39.551,61.035,0
120384.706,16.113,31.250,42.969,22.949,32.227,0
120384.710,-2.930,29.785,38.574,16.113,-46.387,0
120384.712,18.555,32.227,37.109,22.949,-6.348,0
120384.716,40.527,33.691,32.227,24.902,68.359,0
120384.720,26.855,32.227,28.809,16.602,18.555,0
120384.723,6.836,33.203,31.738,18.555,-2.441,0
120384.727,6.348,31.738,37.598,22.949,39.062,0
120384.731,34.668,33.691,34.180,26.855,104.492,0
120384.735,40.039,37.109,27.344,22.949,77.637,0
120384.739,3.418,30.762,23.438,18.555,-14.160,0
120384.743,12.207,31.250,20.996,25.879,41.504,0
120384.747,43.945,35.645,22.949,30.762,107.910,0
120384.751,31.738,34.180,22.461,27.832,88.379,0
120384.755,2.441,29.785,30.273,12.695,52.734,0
120384.758,-2.441,31.250,40.039,13.184,11.230,0
120384.762,24.414,33.691,45.410,34.180,41.016,0
120384.766,38.574,29.785,44.434,29.297,84.473,0
120384.770,12.207,26.855,37.598,12.695,87.891,0
120384.774,-8.789,32.227,29.785,18.555,45.898,0
120384.778,16.113,33.203,28.809,27.832,37.109,0
120384.782,43.945,30.762,41.016,33.203,65.918,0
120384.785,38.086,29.297,39.551,31.738,60.059,0
120384.789,14.648,30.762,22.461,20.020,24.902,0
120384.793,25.391,34.668,24.902,18.066,21.484,0
120384.797,54.688,37.109,40.039,27.344,68.359,0
120384.801,48.828,31.250,44.922,28.809,64.453,0
120384.817,22.461,29.785,37.109,20.996,17.578,0
120384.821,21.973,37.598,27.832,24.414,-13.672,0
120384.825,41.504,37.598,33.203,31.738,29.297,0
120384.828,39.062,35.156,33.691,24.414,66.895,0
120384.832,16.113,33.691,26.855,13.672,17.090,0
120384.836,8.301,36.133,24.414,15.137,1.953,0
120384.840,31.738,37.598,24.414,23.438,44.922,0
120384.844,52.246,35.645,29.297,24.414,58.105,0
120384.848,33.203,36.133,31.738,19.043,26.855,0
120384.852,4.883,36.621,33.203,12.207,-6.348,0
120384.856,22.949,39.551,20.508,18.066,-7.812,0
120384.860,50.781,37.598,6.348,32.227,35.156,0
120384.862,38.574,35.156,20.996,31.738,45.410,0
120384.866,13.184,39.062,39.551,21.484,9.277,0
120384.870,13.672,36.133,46.387,22.461,0.977,0
120384.873,38.086,32.715,43.945,28.320,60.547,0
120384.877,35.156,29.297,39.062,23.926,91.309,0
120384.881,7.324,28.809,38.574,20.020,27.344,0
120384.885,13.672,31.738,27.832,23.926,-4.395,0
120384.889,39.551,32.227,12.695,34.180,35.645,0
120384.893,41.016,36.621,16.602,33.691,62.500,0
120384.897,20.996,36.621,32.715,20.508,33.691,0
120384.901,10.742,30.762,39.062,21.484,18.066,0
120384.905,32.715,29.297,33.203,32.715,33.203,0
120384.907,51.270,30.273,28.809,32.227,51.758,0
120384.911,37.598,26.367,29.297,21.973,37.598,0
120384.915,10.254,23.926,30.762,11.230,-12.695,0
120384.919,21.973,24.414,30.273,18.066,-4.883,0
120384.923,53.223,25.391,22.949,31.738,38.086,0
120384.927,54.199,33.691,18.066,36.133,3.418,0
120384.930,33.691,35.156,23.926,29.785,-36.621,0
120384.934,23.438,29.785,21.484,26.855,5.371,0
120384.938,44.922,29.785,24.414,31.738,32.715,0
120384.942,53.711,29.297,36.133,37.598,4.395,0
120384.946,27.832,28.320,40.039,38.574,-6.836,0
120384.950,20.020,32.227,35.645,38.086,-8.301,0
120384.952,45.898,32.227,32.227,42.969,15.137,0
120384.956,49.805,26.855,36.133,39.062,16.113,0
120384.960,25.391,26.855,35.156,27.832,-25.391,0
120384.963,17.090,30.273,32.715,24.902,-20.020,0
120384.967,37.598,31.738,27.344,35.645,13.672,0
120384.971,51.270,30.273,25.391,41.992,30.762,0
120384.975,25.879,26.367,31.738,25.879,17.578,0
120384.979,2.441,27.832,35.156,22.949,0.000,0
120384.983,16.602,28.809,36.621,26.855,-43.945,0
120384.987,42.480,27.832,37.598,29.785,5.371,0
120384.991,42.969,30.762,32.227,33.691,98.633,0
120384.995,19.043,34.668,25.879,27.832,32.715,0
120384.997,17.578,33.691,24.902,24.414,-9.766,0
120385.001,44.434,32.715,21.973,31.738,56.152,0
120385.005,53.223,32.715,27.832,36.133,84.961,0
120385.008,34.668,33.203,34.180,30.762,27.832,0
120385.012,20.020,35.645,24.414,20.508,-18.066,0
120385.016,36.621,33.691,22.949,29.297,8.789,0
120385.020,49.805,33.691,22.949,29.297,44.922,0
120385.024,34.668,38.574,18.066,18.555,-7.324,0
120385.028,13.184,32.715,24.414,12.207,-28.320,0
120385.032,18.066,29.297,31.250,24.414,15.137,0
120385.036,38.574,36.133,32.227,35.645,58.594,0
120385.040,27.832,39.551,33.203,15.137,55.176,0
120385.042,1.465,33.691,30.273,4.395,5.371,0
120385.046,7.812,30.273,27.344,14.648,-8.789,0
120385.050,32.227,31.738,28.809,26.367,27.832,0
120385.053,33.203,31.738,27.344,24.414,43.945,0
120385.057,12.207,32.715,26.367,18.066,31.250,0
120385.061,6.836,31.738,26.855,18.066,40.039,0
120385.065,24.414,27.832,29.297,24.414,79.102,0
120385.069,33.691,25.879,32.715,29.785,39.551,0
120385.073,14.160,28.809,31.250,22.461,-28.320,0
120385.077,6.836,28.320,28.809,15.625,-29.297,0
120385.081,29.297,26.855,29.785,25.879,9.766,0
120385.085,37.598,28.320,23.926,29.785,59.570,0
120385.087,20.020,29.785,20.020,20.020,44.434,0
120385.091,5.371,34.668,24.414,18.555,-4.883,0
120385.095,23.438,35.645,27.344,35.645,52.246,0
120385.098,43.457,30.762,21.973,36.133,131.836,0
120385.102,29.297,31.250,18.555,17.090,135.254,0
120385.106,5.859,32.715,21.484,10.742,62.988,0
120385.110,17.578,33.691,24.902,17.090,36.133,0
120385.114,34.180,34.668,23.926,26.367,62.012,0
120385.118,31.250,33.203,15.137,26.855,72.266,0
120385.122,14.160,31.250,15.625,18.066,45.410,0
120385.126,6.836,28.320,22.949,16.113,14.648,0
120385.130,33.203,26.855,27.344,29.785,33.691,0
120385.132,45.898,26.855,25.879,37.598,40.039,0
120385.136,21.484,22.949,20.508,25.879,-9.277,0
120385.140,6.348,24.902,22.949,20.996,-52.246,0
120385.144,31.250,34.668,28.809,30.273,7.324,0
120385.147,54.688,39.062,30.762,31.250,62.988,0
120385.151,43.945,39.551,30.762,27.832,0.488,0
120385.155,21.484,40.039,28.809,20.508,-72.754,0
120385.159,26.855,37.598,23.926,26.855,-41.016,0
120385.163,59.570,36.621,21.484,36.133,31.738,0
120385.167,56.152,33.691,20.020,26.367,58.594,0
120385.171,24.902,26.855,20.508,21.484,38.086,0
120385.175,21.973,27.832,20.996,24.902,24.414,0
120385.177,41.016,30.762,23.438,29.297,48.340,0
120385.181,40.527,32.715,20.996,30.762,59.570,0
120385.185,20.020,35.645,17.090,23.438,62.988,0
120385.188,11.230,34.180,21.973,18.066,28.809,0
120385.192,33.203,31.250,21.973,22.949,58.594,0
120385.196,44.922,28.320,16.602,26.367,83.496,0
120385.200,20.508,25.879,20.020,23.438,12.695,0
120385.204,4.883,28.809,26.367,18.555,-17.578,0
120385.208,30.762,34.180,22.949,28.320,21.973,0
120385.212,51.270,32.227,19.043,34.668,45.410,0
120385.216,23.438,28.320,22.949,24.414,-12.207,0
120385.220,-3.418,27.832,29.785,17.578,-59.570,0
120385.224,19.043,30.762,32.227,32.227,-28.320,0
120385.228,52.734,30.273,27.344,38.574,41.016,0
120385.232,47.852,26.855,24.902,30.273,73.730,0
120385.235,17.578,31.738,33.691,24.902,36.133,0
120385.239,15.137,38.086,38.086,24.902,11.230,0
120385.243,43.945,34.668,30.762,30.273,34.668,0
120385.247,49.316,32.227,25.391,32.715,39.551,0
120385.251,19.043,31.250,19.531,23.438,21.484,0
120385.255,8.789,25.391,18.555,15.625,1.465,0
120385.259,36.621,26.855,22.461,22.461,-4.883,0
120385.263,47.363,28.320,26.855,33.691,23.926,0
120385.267,29.297,28.320,30.273,26.855,36.133,0
120385.282,14.648,29.297,21.484,18.555,6.348,0
120385.286,33.203,29.785,17.090,32.715,45.898,0
120385.290,55.176,32.715,25.879,41.016,88.379,0
120385.293,41.016,32.715,32.715,38.086,39.062,0
120385.297,15.625,31.250,33.203,32.715,-28.320,0
120385.301,21.484,30.762,35.156,33.691,-53.223,0
120385.305,45.898,31.250,35.156,47.852,2.441,0
120385.309,46.875,31.250,31.250,40.039,23.438,0
120385.313,19.043,32.227,27.832,18.555,2.930,0
120385.317,8.301,31.250,22.461,18.066,-18.066,0
120385.321,39.062,26.367,19.531,29.785,25.391,0
120385.325,50.781,25.879,25.879,29.785,79.102,0
120385.327,26.855,28.320,30.273,15.137,9.277,0
120385.331,5.859,30.762,28.809,14.160,-63.965,0
120385.335,28.809,30.273,24.902,28.320,-35.156,0
120385.338,53.223,27.344,18.066,36.621,8.789,0
120385.342,34.180,29.785,23.438,34.668,-0.488,0
120385.346,20.508,31.738,35.156,33.691,-33.203,0
120385.350,37.598,29.297,35.645,34.668,-23.438,0
120385.354,45.410,29.297,34.668,34.668,20.996,0
120385.358,30.762,31.738,36.133,29.297,-17.090,0
120385.362,10.254,30.762,31.738,19.531,-85.938,0
120385.366,19.043,28.809,27.832,24.414,-58.105,0
120385.370,53.223,33.691,28.809,40.039,20.996,0
120385.372,55.176,32.715,33.203,43.457,33.691,0
120385.376,22.461,31.250,34.180,30.273,-5.859,0
120385.380,11.719,32.715,27.344,26.367,12.695,0
120385.384,39.062,30.762,26.367,35.645,48.340,0
120385.388,52.246,36.133,28.809,43.457,55.664,0
120385.392,22.461,41.016,28.809,35.156,50.293,0
120385.395,8.789,35.156,24.902,25.391,38.574,0
120385.399,38.574,33.691,25.391,33.691,75.195,0
120385.403,56.152,41.016,22.949,39.551,89.844,0
120385.407,34.180,37.598,10.254,32.715,37.109,0
120385.411,16.113,36.133,11.230,30.273,17.090,0
120385.415,31.738,37.109,28.809,39.551,57.617,0
120385.417,52.246,30.273,40.527,35.156,83.496,0
120385.421,43.457,29.785,38.086,21.973,53.711,0
120385.425,24.414,29.297,34.180,17.578,3.906,0
120385.428,25.879,25.391,31.250,25.879,-0.488,0
120385.432,47.852,28.320,28.809,37.109,62.012,0
120385.436,49.805,31.250,30.762,31.250,65.918,0
120385.440,21.484,32.227,30.762,24.902,5.859,0
120385.444,19.531,32.227,27.344,25.391,-38.086,0
120385.448,40.039,28.809,17.578,29.297,26.367,0
120385.452,44.922,32.227,18.066,33.203,104.004,0
120385.456,31.250,31.738,26.855,28.809,55.176,0
120385.460,12.695,24.902,21.484,22.461,25.391,0
120385.462,26.367,32.715,15.625,29.297,73.242,0
120385.466,48.340,34.180,19.531,35.156,104.492,0
120385.470,31.738,25.391,26.855,25.879,76.172,0
120385.474,1.953,26.367,30.273,21.973,-5.371,0
120385.478,15.137,28.320,28.809,22.949,29.297,0
120385.482,41.992,26.855,26.367,24.902,87.891,0
120385.486,30.762,29.785,25.879,22.949,39.062,0
120385.490,6.348,31.738,22.949,18.066,1.953,0
120385.494,18.066,34.180,21.973,30.762,24.414,0
120385.498,51.270,35.645,24.902,45.410,37.109,0
120385.502,48.828,35.156,24.414,42.480,34.668,0
120385.505,20.508,33.203,21.484,33.691,1.953,0
120385.507,18.066,29.785,24.902,35.645,-25.391,0
120385.511,43.457,30.273,26.855,40.039,-1.953,0
120385.515,49.805,28.809,25.879,39.062,37.109,0
120385.519,32.715,24.414,26.855,30.273,2.441,0
120385.522,15.625,27.832,27.832,18.066,-68.848,0
120385.526,32.715,33.203,25.879,30.273,-23.926,0
120385.530,56.152,29.297,16.602,34.180,16.602,0
120385.534,40.039,30.273,10.254,25.391,-0.977,0
120385.538,21.484,31.250,14.160,27.344,-1.465,0
120385.542,29.785,28.809,19.043,28.809,4.883,0
120385.546,51.758,33.203,18.066,35.645,73.730,0
120385.550,50.293,34.668,17.090,32.715,67.871,0
120385.567,19.531,33.691,23.438,15.625,-1.953,0
120385.571,15.625,36.621,27.344,19.531,-2.930,0
120385.575,47.363,35.156,23.438,30.762,35.156,0
120385.579,48.340,25.879,19.043,29.785,21.484,0
120385.582,17.090,26.367,14.648,23.438,-16.113,0
120385.586,10.742,33.203,19.043,23.438,-23.926,0
120385.590,38.086,34.180,30.273,35.645,0.000,0
120385.594,54.199,33.203,29.297,43.945,36.133,0
120385.598,40.039,33.203,24.414,35.156,7.324,0
120385.602,16.113,28.809,27.832,21.973,-42.969,0
120385.606,16.113,25.879,32.227,25.879,-5.371,0
120385.610,32.715,25.391,27.832,28.809,61.035,0
120385.612,23.926,23.926,27.344,20.508,39.551,0
120385.616,4.883,27.832,28.809,22.461,-25.391,0
120385.620,16.602,35.645,29.297,27.344,-12.695,0
120385.623,45.410,37.109,31.250,31.250,31.738,0
120385.627,40.039,29.297,28.320,29.297,13.184,0
120385.631,16.602,30.273,24.902,19.043,-36.621,0
120385.635,13.672,35.156,14.160,30.762,-51.758,0
120385.639,34.180,32.715,1.953,52.246,24.902,0
120385.643,41.992,29.785,21.973,37.109,47.852,0
120385.647,18.066,30.273,32.715,19.043,20.508,0
120385.651,2.930,31.738,29.297,12.695,-8.789,0
120385.655,24.414,31.250,39.551,28.320,57.129,0
120385.657,41.992,27.344,34.180,38.086,139.648,0
120385.661,28.809,24.414,30.762,27.344,91.309,0
120385.665,7.324,31.738,32.227,17.090,44.434,0
120385.669,19.043,33.203,27.344,22.949,83.008,0
120385.672,44.922,30.273,28.809,32.227,111.816,0
120385.676,31.250,34.180,20.996,25.879,70.312,0
120385.680,8.789,34.180,9.766,23.926,36.621,0
120385.684,13.184,31.250,26.367,23.438,51.270,0
120385.688,39.551,20.508,44.922,27.832,72.754,0
120385.692,40.527,18.555,48.340,26.367,47.852,0
120385.696,13.184,30.273,45.410,19.043,-3.418,0
120385.700,10.254,36.621,35.645,22.461,-8.789,0
120385.702,41.504,36.621,32.227,31.738,27.344,0
120385.706,57.617,33.691,27.344,36.621,53.711,0
120385.710,31.738,32.715,18.066,30.273,35.645,0
120385.713,9.277,32.715,25.879,25.391,32.227,0
120385.717,27.344,32.715,31.738,34.668,76.172,0
120385.721,44.922,30.762,20.508,38.086,68.359,0
120385.725,33.203,29.785,27.344,28.809,24.414,0
120385.729,10.254,31.250,34.180,20.508,-20.020,0
120385.733,17.090,30.762,19.531,21.484,-36.621,0
120385.737,41.992,29.297,20.020,25.879,4.883,0
120385.741,39.062,27.344,31.738,24.902,41.992,0
120385.745,22.949,24.902,45.898,23.438,7.812,0
120385.747,21.973,24.414,45.410,22.949,11.230,0
120385.751,41.504,31.738,33.203,30.762,75.195,0
120385.755,43.945,36.621,22.949,32.715,99.609,0
120385.759,18.555,37.598,26.855,24.902,7.812,0
120385.762,18.555,38.086,32.227,25.879,-16.113,0
120385.766,38.086,35.156,29.785,33.203,39.062,0
120385.770,49.805,34.180,25.879,32.715,61.523,0
120385.774,30.762,31.738,25.391,26.855,43.457,0
120385.778,6.348,29.297,33.691,22.461,-27.344,0
120385.782,29.785,34.180,30.273,29.297,6.348,0
120385.786,52.734,30.273,21.484,35.156,68.359,0
120385.790,34.180,23.438,26.855,29.297,61.035,0
120385.792,12.695,27.832,22.949,23.438,15.137,0
120385.796,23.926,31.738,18.555,27.832,11.230,0
120385.800,45.410,33.203,19.531,33.203,58.105,0
120385.804,42.480,30.273,26.855,31.738,50.293,0
120385.807,18.066,26.855,36.133,24.414,-4.883,0
120385.811,8.789,29.785,31.738,23.926,-25.879,0
120385.815,38.086,32.227,29.297,35.645,31.738,0
120385.819,45.410,33.203,25.391,32.227,43.457,0
120385.823,25.391,32.715,25.391,16.113,-15.625,0
120385.827,12.695,34.668,23.438,19.531,4.883,0
120385.831,26.855,35.156,14.160,34.668,65.430,0
120385.835,45.898,35.156,17.090,42.480,63.477,0
120385.837,24.414,35.156,28.320,32.715,22.949,0
120385.841,0.977,30.762,26.367,19.531,-11.719,0
120385.845,21.973,25.879,24.414,25.391,8.789,0
120385.848,41.016,18.066,32.715,36.133,53.223,0
120385.852,36.133,25.391,26.855,46.875,86.914,0
120385.856,23.926,41.504,15.137,29.785,52.734,0
120385.860,17.578,38.086,19.043,15.137,36.133,0
120385.864,37.109,36.133,22.461,24.902,43.945,0
120385.868,39.551,34.180,18.555,20.508,12.695,0
120385.872,18.555,31.738,26.367,15.625,-12.207,0
120385.876,18.555,31.250,37.109,19.531,-34.180,0
120385.880,40.527,31.738,25.391,27.832,23.438,0
120385.882,48.340,34.668,15.625,31.250,73.730,0
120385.886,27.832,35.156,15.137,23.926,8.301,0
120385.890,20.020,36.133,17.090,24.902,-49.805,0
120385.893,41.016,39.062,21.484,34.668,-3.906,0
120385.897,55.664,39.551,27.344,36.621,36.133,0
120385.901,32.227,38.574,33.691,24.902,24.902,0
120385.905,5.859,36.621,32.715,14.648,-18.066,0
120385.909,22.461,34.180,23.926,22.461,-24.414,0
120385.913,45.898,32.227,21.484,35.645,42.480,0
120385.917,41.504,30.762,29.785,36.621,17.090,0
120385.921,23.438,33.203,28.809,25.391,-14.160,0
120385.925,22.461,33.691,20.020,21.973,17.578,0
120385.943,42.480,27.344,4.395,30.762,60.059,0
120385.947,45.410,28.320,10.742,35.156,44.434,0
120385.951,20.020,31.738,36.133,23.926,-45.898,0
120385.955,9.277,32.227,32.227,17.578,-37.109,0
120385.959,30.762,32.715,23.438,27.344,54.688,0
120385.963,37.598,30.273,28.809,24.414,79.102,0
120385.966,21.973,29.785,22.949,20.020,35.156,0
120385.970,11.230,31.250,9.766,23.926,1.465,0
120385.974,28.809,31.738,8.789,31.250,47.852,0
120385.978,54.199,33.203,15.625,36.621,96.191,0
120385.982,39.062,34.668,27.344,27.832,68.848,0
120385.986,10.254,29.297,41.016,16.602,32.227,0
120385.987,20.020,23.926,49.805,18.066,62.500,0
120385.991,46.387,27.832,45.410,24.902,117.188,0
120385.995,43.945,36.133,41.016,23.438,84.473,0
120385.998,29.785,32.715,33.203,16.602,27.344,0
120386.002,17.578,24.414,23.926,17.578,28.320,0
120386.006,28.320,30.273,17.090,29.297,73.242,0
120386.010,35.156,32.227,21.484,32.715,73.730,0
120386.014,9.766,27.344,35.645,25.391,16.602,0
120386.018,6.348,23.926,27.832,26.855,13.672,0
120386.022,34.668,28.320,9.766,34.668,71.777,0
120386.026,46.387,36.133,20.020,34.668,82.031,0
120386.030,25.879,33.203,34.668,24.414,53.711,0
120386.032,10.742,31.250,34.180,18.066,-9.766,0
120386.036,24.414,35.156,33.203,29.785,5.371,0
120386.040,47.363,35.156,34.668,34.668,83.008,0
120386.043,33.203,30.273,33.203,20.996,62.012,0
120386.047,-0.488,28.320,28.809,13.184,-3.906,0
120386.051,7.812,29.297,26.367,18.555,10.254,0
120386.055,34.668,28.320,20.996,28.320,51.270,0
120386.059,32.715,27.832,0.000,31.738,53.223,0
120386.063,12.695,26.855,-0.488,21.484,42.480,0
120386.067,8.301,27.344,27.344,14.160,7.812,0
120386.071,31.738,30.762,37.598,23.926,49.316,0
120386.075,38.574,36.621,38.574,25.391,68.359,0
120386.077,11.719,42.480,39.062,13.184,14.160,0
120386.081,5.859,42.480,32.715,13.184,5.371,0
120386.085,39.551,38.086,30.273,26.367,46.875,0
120386.089,48.828,36.133,19.531,30.762,64.453,0
120386.092,20.020,35.645,5.859,23.926,32.715,0
120386.096,4.395,34.180,19.531,23.438,-1.465,0
120386.100,21.973,34.180,37.598,34.668,14.648,0
120386.104,44.434,35.156,36.621,38.574,42.969,0
120386.108,30.273,33.203,26.855,22.949,-29.785,0
120386.112,7.324,35.645,28.320,14.648,-59.082,0
120386.116,16.113,36.621,33.203,18.555,-1.953,0
120386.120,41.992,32.227,35.645,21.973,27.344,0
120386.122,38.574,32.715,30.273,16.602,55.176,0
120386.126,11.230,29.297,21.484,14.648,35.156,0
120386.130,7.812,23.926,28.809,19.531,-20.508,0
120386.133,29.297,28.320,28.320,26.367,-34.180,0
120386.137,39.551,31.738,16.113,26.855,15.137,0
120386.141,21.973,32.715,11.719,23.438,0.000,0
120386.145,12.207,34.180,18.066,23.438,-7.812,0
120386.149,32.227,36.133,17.578,25.879,29.297,0
120386.153,49.316,37.109,12.207,25.391,56.152,0
120386.157,36.133,33.203,15.625,22.949,22.949,0
120386.161,14.648,32.715,16.602,23.438,6.348,0
120386.165,30.273,33.691,19.043,33.203,53.711,0
120386.167,59.570,34.180,26.367,42.969,89.355,0
120386.171,47.363,35.156,31.250,31.738,83.008,0
120386.175,13.672,34.180,33.691,16.602,-0.488,0
120386.178,15.625,33.203,30.273,23.438,11.719,0
120386.182,39.551,34.180,20.020,29.785,79.590,0
120386.186,39.551,35.156,27.344,28.320,75.195,0
120386.190,20.508,30.273,32.227,29.297,36.621,0
120386.194,12.695,31.738,27.832,26.855,0.488,0
120386.198,31.738,34.180,23.926,33.203,41.992,0
120386.202,44.434,27.344,22.461,36.621,89.355,0
120386.206,30.762,29.785,20.020,32.227,16.113,0
120386.210,15.625,32.715,23.926,29.297,-29.785,0
120386.212,31.738,29.297,33.691,35.156,20.996,0
120386.216,51.758,31.738,30.762,42.480,103.027,0
120386.220,31.250,30.762,31.738,33.203,59.570,0
120386.223,8.301,29.785,37.598,24.902,-54.688,0
120386.227,26.855,31.738,32.715,31.738,1.465,0
120386.231,57.129,30.273,24.902,42.480,83.008,0
120386.235,50.293,29.785,21.484,40.527,72.754,0
120386.239,20.020,35.156,21.484,29.297,15.137,0
120386.243,23.438,36.621,19.043,29.297,2.930,0
120386.247,46.387,31.738,18.555,40.527,41.504,0
120386.251,43.457,31.250,18.066,41.992,65.918,0
120386.255,22.949,32.715,16.113,30.762,39.062,0
120386.257,16.602,33.691,14.648,25.391,-10.254,0
120386.261,38.086,31.738,19.531,33.203,17.578,0
120386.265,49.805,27.344,30.273,32.715,54.199,0
120386.268,21.484,29.297,33.691,28.320,9.766,0
120386.272,8.789,29.785,29.297,31.738,8.789,0
120386.276,31.250,27.344,28.320,32.227,44.434,0
120386.280,46.387,27.832,28.809,28.809,0.000,0
120386.284,33.691,27.832,22.461,25.391,-30.273,0
120386.288,11.719,29.297,19.531,26.367,-23.926,0
120386.292,24.902,31.738,22.949,36.133,6.836,0
120386.296,61.523,33.203,27.832,50.293,42.480,0
120386.300,61.035,37.109,25.391,40.527,66.895,0
120386.302,23.926,35.645,17.578,25.391,21.484,0
120386.306,22.461,31.738,19.043,36.133,-6.348,0
120386.310,52.246,34.180,24.414,43.457,20.020,0
120386.313,58.594,37.598,30.762,34.180,11.230,0
120386.317,34.180,35.156,34.668,26.367,10.254,0
120386.321,14.648,32.715,32.715,21.973,-0.488,0
120386.325,30.762,34.668,31.250,26.367,-9.766,0
120386.329,44.922,36.133,30.273,28.809,57.129,0
120386.333,29.297,36.621,26.367,26.367,38.574,0
120386.337,12.207,35.645,23.438,23.438,-46.875,0
120386.341,29.297,32.715,21.973,26.855,-0.977,0
120386.345,52.734,32.715,17.090,35.156,72.754,0
120386.362,48.340,37.598,14.160,32.227,62.988,0
120386.366,18.555,38.086,20.508,30.273,-15.625,0
120386.370,22.461,31.250,29.297,32.715,0.488,0
120386.373,53.223,26.855,38.574,38.574,56.152,0
120386.377,49.316,29.297,41.992,35.156,50.293,0
120386.381,22.949,31.250,34.180,20.508,10.254,0
120386.385,13.672,30.762,26.855,22.949,-13.184,0
120386.389,36.133,35.156,29.785,38.086,71.777,0
120386.393,44.922,36.133,29.785,41.016,103.027,0
120386.397,16.113,33.203,17.578,30.762,25.879,0
120386.401,1.953,30.762,24.902,23.438,-8.301,0
120386.405,23.926,29.297,38.086,30.762,41.016,0
120386.407,46.875,30.273,34.668,38.574,61.035,0
120386.411,33.691,31.250,34.180,31.738,4.395,0
120386.415,11.719,34.180,28.320,22.461,-31.250,0
120386.418,27.832,30.762,21.973,28.320,33.691,0
120386.422,51.270,25.391,20.996,34.668,79.102,0
120386.426,39.551,27.832,21.973,28.320,35.645,0
120386.430,17.578,31.738,26.367,22.949,4.883,0
120386.434,22.949,33.691,29.785,32.227,45.898,0
120386.438,51.270,35.156,24.902,41.992,71.777,0
120386.442,50.781,37.109,26.367,38.574,59.082,0
120386.446,16.602,35.645,30.273,29.785,-2.441,0
120386.450,7.812,31.738,27.832,26.855,-7.812,0
120386.467,36.133,30.273,25.879,38.574,41.992,0
120386.471,50.781,33.203,22.461,39.551,70.312,0
120386.475,29.297,34.668,17.090,31.250,31.250,0
120386.479,12.207,31.250,15.625,30.762,-11.230,0
120386.482,30.762,31.250,28.320,34.180,46.875,0
120386.486,48.340,31.738,44.922,36.621,51.758,0
120386.490,33.203,29.297,44.434,28.809,26.367,0
120386.494,12.207,31.250,31.250,21.484,12.207,0
120386.498,20.508,30.762,28.809,22.461,-17.578,0
120386.502,48.340,29.297,28.320,24.414,-11.719,0
120386.506,41.504,33.203,18.555,24.414,20.508,0
120386.510,7.812,33.691,17.090,18.555,-3.906,0
120386.497,9.277,31.250,30.273,21.484,0.977,0
120386.501,37.598,30.762,37.109,31.250,55.176,0
120386.504,36.621,29.297,32.227,29.785,47.852,0
120386.508,9.277,27.832,24.414,20.020,23.926,0
120386.512,13.672,30.273,25.879,20.996,4.395,0
120386.516,40.527,30.273,26.855,31.250,14.648,0
120386.520,37.598,30.762,17.090,32.227,56.641,0
120386.524,15.137,32.227,18.555,21.484,4.395,0
120386.528,4.395,29.297,23.438,15.137,-59.082,0
120386.532,21.973,29.297,26.855,22.949,9.277,0
120386.536,44.434,30.762,32.227,27.832,88.867,0
120386.540,28.320,28.809,30.273,21.484,40.527,0
120386.542,-0.488,29.785,27.832,12.207,-41.504,0
120386.546,16.113,29.785,30.273,19.043,-16.113,0
120386.550,47.363,28.320,33.691,28.809,25.391,0
120386.554,31.738,26.855,25.879,25.391,3.906,0
120386.557,1.465,28.809,10.254,18.555,-48.340,0
120386.561,5.859,33.203,6.836,20.508,-46.875,0
120386.565,34.668,31.250,28.320,30.273,20.020,0
120386.569,41.992,29.297,43.945,25.391,23.438,0
120386.573,16.113,32.227,36.133,15.137,-43.945,0
120386.577,6.348,31.250,28.809,18.066,-46.387,0
120386.581,37.109,30.273,31.738,29.785,22.461,0
120386.585,58.105,31.738,33.203,35.645,29.785,0
120386.587,33.203,31.250,27.832,27.832,45.410,0
120386.591,7.812,27.832,26.367,25.879,42.480,0
120386.595,24.414,27.344,21.484,29.297,6.836,0
120386.598,49.805,29.297,20.020,31.738,38.574,0
120386.602,33.203,27.344,16.602,24.902,12.207,0
120386.606,-0.488,26.855,0.000,12.207,-29.297,0
120386.610,8.301,26.855,5.859,11.719,-28.320,0
120386.614,35.645,27.344,32.227,18.066,-17.578,0
120386.618,35.156,25.879,42.969,20.020,11.719,0
120386.622,11.230,24.902,40.527,18.066,2.441,0
120386.626,15.137,31.250,38.086,23.926,-22.949,0
120386.630,46.387,31.250,30.762,29.297,38.574,0
120386.633,46.875,27.344,21.484,26.367,92.285,0
120386.637,17.578,26.367,20.996,19.531,29.785,0
120386.641,7.324,26.367,24.902,20.020,-1.953,0
120386.645,37.598,27.832,31.250,31.738,44.434,0
120386.649,43.945,30.762,36.133,32.227,82.031,0
120386.653,17.090,32.715,36.133,22.461,68.848,0
120386.657,3.418,32.227,33.691,20.020,2.441,0
120386.660,20.996,33.691,25.391,23.438,6.348,0
120386.664,48.340,35.645,30.273,34.180,84.961,0
120386.668,32.227,35.156,38.086,37.109,50.293,0
120386.672,0.977,34.668,29.297,26.367,-0.977,2
120386.676,11.719,32.715,18.066,28.320,25.879,0
120386.677,41.992,34.668,20.020,40.527,94.727,0
120386.681,41.504,35.645,30.762,42.480,83.496,0
120386.685,17.578,36.621,31.250,30.273,10.254,0
120386.688,12.207,31.738,33.691,28.809,36.621,0
120386.692,39.551,30.762,34.668,41.504,87.402,0
120386.696,55.176,35.156,33.691,41.504,85.449,0
120386.700,29.297,35.645,28.809,30.273,39.062,0
120386.704,16.113,34.668,18.066,24.414,-35.645,0
120386.708,35.156,34.180,17.578,30.762,44.434,0
120386.712,45.898,34.668,21.484,38.574,89.844,0
120386.716,34.668,37.109,22.461,31.738,53.223,0
120386.720,18.066,36.133,28.809,20.508,10.254,0
120386.737,22.949,33.203,28.320,23.438,-5.859,0
120386.741,38.086,29.785,20.020,29.297,41.504,0
120386.745,29.785,29.297,22.461,24.414,14.648,0
120386.748,4.395,29.785,31.250,15.137,-32.715,0
120386.752,14.648,29.785,32.715,20.020,-9.277,0
120386.756,45.410,31.250,22.461,33.203,26.367,0
120386.760,45.410,33.691,16.113,36.621,22.949,0
120386.764,21.484,35.156,25.879,28.320,11.719,0
120386.768,14.160,33.691,28.320,23.926,-25.391,0
120386.772,34.668,33.691,25.879,29.297,13.184,0
120386.776,45.898,31.250,26.855,28.320,51.758,0
120386.780,33.203,30.762,21.973,23.438,20.996,0
120386.782,18.555,34.668,14.160,24.902,-2.441,0
120386.786,31.738,33.691,11.719,34.668,23.438,0
120386.790,45.410,32.227,20.508,35.156,50.293,0
120386.793,32.227,34.180,33.691,27.832,16.602,0
120386.797,6.348,35.645,38.086,24.414,-14.648,0
120386.801,16.113,30.762,32.715,30.762,2.930,0
120386.805,45.410,33.203,29.297,41.992,37.598,0
120386.809,49.805,37.109,29.297,39.551,62.012,0
120386.813,25.879,32.715,18.066,26.855,44.922,0
120386.817,9.766,30.762,7.812,22.461,3.418,0
120386.821,32.227,29.297,24.902,29.297,41.992,0
120386.825,45.410,31.250,38.574,29.785,92.773,0
120386.827,20.020,35.156,36.133,20.020,26.367,0
120386.831,3.906,33.203,30.273,15.625,-34.180,0
120386.835,34.180,34.180,21.484,26.855,38.574,0
120386.838,53.223,36.621,21.484,35.645,94.727,0
120386.842,28.809,36.621,29.297,28.809,70.312,0
120386.846,5.371,36.621,27.344,23.438,16.113,0
120386.850,23.438,33.691,17.090,30.762,39.062,0
120386.854,51.270,33.203,23.438,41.992,93.262,0
120386.858,37.598,36.133,31.738,38.086,21.973,0
120386.862,10.742,36.133,35.156,28.809,-44.434,0
120386.866,20.020,31.738,21.484,32.715,3.418,0
120386.870,41.992,30.273,14.648,42.480,14.648,0
120386.872,41.504,33.203,39.551,38.574,-2.441,0
120386.876,15.137,30.273,45.410,20.996,-36.621,0
120386.880,5.859,30.762,29.785,19.043,-35.156,0
120386.883,41.992,34.180,27.344,31.250,37.598,0
120386.887,51.758,32.227,30.273,34.668,24.902,0
120386.891,28.320,33.203,27.344,24.414,-26.855,0
120386.895,20.996,37.598,25.879,20.996,-18.066,0
120386.899,35.156,34.668,27.832,29.785,-12.207,0
120386.903,49.805,32.715,21.973,32.227,13.184,0
120386.907,34.668,33.203,18.555,25.391,56.152,0
120386.911,9.277,28.809,19.531,21.973,52.246,0
120386.915,24.414,26.855,17.578,28.809,41.992,0
120386.917,56.641,27.344,18.555,38.574,54.199,0
120386.921,39.551,26.855,23.438,27.832,76.660,0
120386.925,5.859,31.738,36.133,17.090,31.250,0
120386.929,15.137,31.250,48.340,27.832,9.277,0
120386.933,45.410,28.809,51.758,41.504,45.410,0
120386.937,47.363,33.203,38.574,37.109,9.277,0
120386.941,21.484,36.133,26.855,21.973,-15.625,0
120386.945,11.719,31.738,23.438,19.043,-40.527,0
120386.949,43.457,30.762,22.461,24.414,-13.184,0
120386.953,51.270,32.715,26.367,22.949,43.457,0
120386.957,16.602,31.250,30.762,16.602,21.973,0
120386.960,1.465,26.855,30.273,13.672,-24.414,0
120386.962,21.973,25.879,23.926,21.973,-2.930,0
120386.966,43.457,33.691,19.531,30.273,56.641,0
120386.970,28.320,34.668,18.555,22.949,36.621,0
120386.973,5.371,33.203,19.043,17.578,-20.020,0
120386.977,20.996,34.180,22.461,26.367,5.859,0
120386.981,43.457,31.250,26.855,32.715,62.988,0
120386.985,42.969,31.250,31.250,23.438,24.414,0
120386.989,18.066,32.715,30.273,13.184,-40.039,0
120386.993,8.301,31.250,25.391,15.625,6.836,0
120386.997,41.016,29.297,25.879,33.203,86.914,0
120387.001,51.758,31.250,27.832,37.598,62.988,0
120387.005,20.508,37.109,23.438,19.531,4.883,0
120387.007,17.578,39.062,21.484,16.602,11.230,0
120387.011,43.945,35.156,24.414,25.879,77.637,0
120387.015,39.551,32.227,25.879,21.973,130.859,0
120387.018,16.113,29.297,29.785,14.648,74.219,0
120387.022,8.789,31.250,32.227,19.043,19.043,0
120387.026,30.762,33.203,26.367,25.879,34.180,0
120387.030,44.434,30.273,22.461,27.344,44.922,0
120387.034,30.762,29.297,20.508,23.438,19.043,0
120387.038,13.672,33.203,21.484,21.484,-9.766,0
120387.042,22.949,30.762,21.973,31.250,-7.324,0
120387.046,47.852,25.879,21.484,38.086,56.152,0
120387.050,44.434,29.785,20.020,31.250,67.383,0
120387.052,20.020,34.180,17.578,26.367,46.387,0
120387.056,18.555,34.668,22.461,28.809,59.082,0
120387.060,49.805,33.691,26.855,35.156,72.266,0
120387.063,51.270,34.180,24.902,36.621,72.266,0
120387.067,22.949,33.203,23.926,33.691,41.504,0
120387.071,16.602,33.203,26.855,31.738,17.090,0
120387.075,45.898,35.645,27.344,40.039,45.898,0
120387.079,63.965,36.621,20.996,43.945,63.477,0
120387.083,46.387,31.738,24.414,34.668,1.953,0
120387.087,21.973,32.715,28.809,32.227,-34.668,0
120387.091,30.762,34.180,25.879,41.016,1.465,0
120387.095,53.223,31.738,30.273,43.457,21.484,0
120387.098,41.016,32.715,30.273,36.133,23.438,0
120387.102,17.578,34.180,28.809,32.227,-2.930,0
120387.106,28.320,33.203,35.156,37.109,-17.090,0
120387.110,52.246,33.203,30.273,37.598,49.805,0
120387.114,36.621,30.273,25.391,24.414,22.461,0
120387.118,11.719,26.367,29.297,17.578,-52.734,0
120387.122,10.254,25.879,27.832,22.461,-32.715,0
120387.125,28.809,30.273,30.273,28.320,66.895,0
120387.129,40.527,32.227,31.738,28.320,85.449,0
120387.133,19.531,32.715,33.203,20.996,-7.324,0
120387.137,-2.441,33.203,35.645,18.066,-39.551,0
120387.141,22.949,32.715,36.621,28.809,12.695,0
120387.157,42.480,35.645,35.645,33.691,68.848,0
120387.161,18.555,37.109,31.738,25.391,24.902,0
120387.165,-3.418,35.156,29.785,21.484,-16.113,0
120387.169,16.113,33.203,25.391,28.809,15.137,0
120387.172,38.574,33.203,24.414,32.227,27.344,0
120387.176,23.926,31.738,31.250,20.508,10.254,0
120387.180,0.000,29.785,31.738,12.207,-47.852,0
120387.184,6.348,28.809,27.832,16.113,-34.668,0
120387.188,39.551,25.879,28.809,24.902,44.434,0
120387.192,33.691,28.809,36.133,19.043,59.082,0
120387.196,-5.859,31.250,35.645,3.418,13.672,0
120387.200,-6.348,28.809,30.762,0.977,5.859,0
120387.202,18.555,28.320,26.855,7.812,86.914,0
120387.206,22.461,30.762,23.926,13.672,83.496,0
120387.210,7.812,33.691,21.484,12.207,37.109,0
120387.213,4.395,29.297,20.996,10.742,33.691,0
120387.217,24.902,31.250,24.902,21.484,61.035,0
120387.221,38.574,37.598,22.949,26.855,104.492,0
120387.225,23.926,35.645,22.949,20.996,70.312,0
120387.229,3.418,31.738,32.715,15.625,-3.906,0
120387.233,13.672,27.832,35.645,24.414,-5.859,0
120387.237,39.551,28.320,33.203,34.668,50.781,0
120387.241,42.480,31.738,33.691,29.297,82.031,0
120387.245,7.324,30.762,32.715,17.090,22.461,0
120387.247,4.883,30.273,26.367,15.625,7.324,0
120387.251,42.969,30.762,29.297,26.855,55.176,0
120387.255,39.062,29.297,30.762,28.320,71.777,0
120387.258,13.672,27.832,30.762,24.902,34.180,0
120387.262,13.184,29.297,39.551,29.785,11.719,0
120387.266,36.621,29.785,35.156,38.086,69.824,0
120387.270,48.828,33.203,24.902,41.504,107.422,0
120387.274,30.762,37.598,27.344,37.109,64.453,0
120387.278,18.066,36.133,13.672,33.691,6.836,0
120387.282,41.504,36.133,-2.441,38.086,26.367,0
120387.286,62.988,33.691,22.461,39.062,84.473,0
120387.290,53.223,30.762,46.387,30.762,87.891,0
120387.292,25.391,30.762,42.969,23.926,-0.488,0
120387.296,23.438,34.180,33.691,27.344,4.395,0
120387.300,47.363,36.133,31.250,36.621,108.887,0
120387.303,38.086,38.086,28.320,30.762,102.539,0
120387.307,8.301,36.133,24.902,18.555,45.898,0
120387.311,17.090,35.156,23.926,21.484,15.625,0
120387.315,43.945,38.086,22.949,30.762,45.410,0
120387.319,36.133,37.109,26.855,28.320,49.316,0
120387.323,12.695,34.668,28.809,22.949,18.066,0
120387.327,14.160,34.668,22.949,28.809,48.340,0
120387.331,48.828,34.180,24.414,37.598,61.035,0
120387.335,58.105,33.203,31.738,38.574,56.152,0
120387.339,32.227,32.227,34.180,31.738,33.203,0
120387.343,18.066,31.250,34.180,28.320,15.625,0
120387.347,35.645,33.203,25.879,34.668,74.707,0
120387.350,52.734,36.621,15.137,36.621,111.328,0
120387.354,34.668,35.645,22.949,29.785,82.520,0
120387.358,10.742,31.250,25.879,24.414,28.320,0
120387.362,25.879,33.691,24.414,26.367,11.719,0
120387.366,44.434,35.645,33.203,27.832,59.082,0
120387.370,31.250,35.645,38.086,27.832,53.223,0
120387.374,12.695,35.645,31.250,26.367,15.137,0
120387.378,13.672,32.227,29.297,27.832,12.207,0
120387.382,42.969,28.809,32.227,36.621,56.641,0
120387.382,54.688,30.762,27.344,40.527,74.707,0
120387.386,36.621,33.203,29.297,34.668,34.668,0
120387.390,17.090,30.273,35.645,33.203,24.902,0
120387.393,37.109,33.691,29.785,43.457,28.320,0
120387.397,57.617,38.086,22.461,44.922,57.129,0
120387.401,36.133,36.133,20.020,37.109,38.574,0
120387.405,16.113,32.227,12.695,32.227,-0.977,0
120387.409,32.227,29.785,8.789,32.715,17.578,0
120387.413,54.199,30.273,11.719,36.621,59.082,0
120387.417,39.062,31.738,14.648,35.645,23.438,0
120387.421,21.973,31.250,25.879,32.227,-17.090,0
120387.425,38.086,31.738,34.180,39.551,41.992,0
120387.427,52.246,32.227,36.621,49.805,119.141,0
120387.431,48.340,34.668,31.250,46.387,117.188,0
120387.435,34.180,35.156,25.879,37.109,54.199,0
120387.438,32.715,34.180,25.391,37.109,7.812,0
120387.442,54.688,32.715,19.043,43.945,45.410,0
120387.446,60.059,32.227,15.625,42.480,84.473,0
120387.450,36.133,32.227,22.461,30.762,7.324,0
120387.454,23.438,31.250,30.762,30.762,5.859,0
120387.458,48.340,37.598,27.832,43.945,84.961,0
120387.462,65.430,36.133,28.320,44.434,81.055,0
120387.466,36.621,28.320,35.156,30.762,39.062,0
120387.470,19.043,29.785,35.156,25.391,-17.090,0
120387.487,40.527,32.715,26.367,31.738,-29.297,0
120387.491,51.270,31.250,17.090,35.156,3.418,0
120387.495,38.086,32.715,21.973,30.273,20.020,0
120387.499,16.602,36.621,26.855,24.414,-3.906,0
120387.502,16.602,36.621,27.344,26.367,-7.324,0
120387.506,49.316,35.645,26.367,32.715,18.555,0
120387.510,47.852,33.203,24.414,34.180,1.465,0
120387.514,16.602,28.320,27.344,30.762,-6.836,0
120387.518,14.648,32.227,22.949,28.809,-21.973,0
120387.522,41.504,36.621,18.555,35.156,-13.672,0
120387.526,53.711,36.621,31.738,41.504,61.035,0
120387.530,24.902,36.621,33.203,33.203,51.758,0
120387.532,10.254,36.621,28.320,26.367,-3.418,0
120387.536,35.645,35.645,28.320,33.203,8.301,0
120387.540,56.152,34.668,26.367,37.109,44.922,0
120387.544,36.133,35.156,30.273,29.785,49.316,0
120387.547,7.324,35.156,30.273,23.438,-8.301,0
120387.551,17.090,31.250,25.879,28.320,1.953,0
120387.555,43.457,27.832,28.320,34.668,46.387,0
120387.559,41.016,30.273,36.133,33.203,17.578,0
120387.563,8.789,34.180,36.133,30.273,-18.066,0
120387.567,5.371,32.715,27.832,35.645,-14.648,0
120387.571,43.945,31.250,31.250,45.898,62.500,0
120387.575,54.688,32.715,39.551,52.734,103.516,0
120387.577,22.949,34.668,43.945,42.480,20.996,0
120387.581,14.648,33.203,43.945,34.180,-19.531,0
120387.585,45.898,33.203,44.922,44.922,32.227,0
120387.588,62.988,37.598,42.480,47.852,67.871,0
120387.592,49.316,39.062,30.273,35.156,41.016,0
120387.596,25.391,36.133,27.344,26.855,6.836,0
120387.600,33.691,34.180,31.738,29.297,6.348,0
120387.604,49.805,33.691,36.621,28.320,30.273,0
120387.608,28.320,29.785,24.902,14.648,20.508,0
120387.612,5.371,31.250,2.930,9.766,-25.879,0
120387.616,13.184,38.574,19.531,22.461,1.953,0
120387.620,39.062,37.109,37.598,29.785,32.227,0
120387.622,37.109,35.156,41.016,26.855,30.762,0
120387.626,-3.418,32.715,43.945,22.949,25.879,0
120387.630,-11.230,27.344,39.062,26.855,59.082,0
120387.633,15.625,24.902,36.621,36.133,96.191,0
120387.637,27.344,24.414,36.133,33.203,89.355,0
120387.641,11.719,24.902,34.668,22.949,55.176,0
120387.645,3.418,23.438,34.180,20.508,41.016,0
120387.649,27.832,27.832,32.715,30.762,62.988,0
120387.653,35.156,29.297,34.668,36.621,65.918,0
120387.657,12.207,22.461,34.668,23.926,45.410,0
120387.661,0.488,21.973,21.973,19.043,2.441,0
120387.665,23.438,23.926,18.555,26.855,8.789,0
120387.667,47.363,23.438,25.391,27.344,59.570,0
120387.671,29.785,20.996,30.273,16.113,68.848,0
120387.675,6.348,23.926,29.785,8.789,19.531,0
120387.678,23.438,30.273,23.926,15.137,8.301,0
120387.682,46.875,31.738,25.391,23.438,59.570,0
120387.686,43.945,33.203,31.738,19.043,35.156,0
120387.690,21.484,30.273,38.086,12.695,-33.203,0
120387.694,16.602,32.227,35.645,16.602,-73.242,0
120387.698,47.363,35.156,24.414,22.949,-37.598,0
120387.702,51.270,31.738,19.043,26.367,36.133,0
120387.706,25.391,31.738,21.973,23.438,29.785,0
120387.710,9.277,29.297,18.066,20.508,1.465,0
120387.712,23.438,28.320,19.043,26.367,27.832,0
120387.716,43.457,30.273,29.785,32.227,67.383,0
120387.720,23.926,29.785,30.273,24.414,67.383,0
120387.723,7.812,26.855,25.391,22.949,13.672,0
120387.727,32.715,29.297,27.344,37.598,-2.441,0
120387.731,43.457,32.715,33.203,48.828,46.875,0
120387.735,25.879,33.203,33.691,43.457,19.531,0
120387.739,5.859,33.691,29.297,31.250,-61.035,0
120387.743,13.672,29.297,28.320,33.203,-44.434,0
120387.747,42.969,24.902,30.273,42.969,44.922,0
120387.751,47.852,30.273,32.227,41.016,47.852,0
120387.755,30.273,36.133,27.344,31.250,1.465,0
120387.757,28.320,37.109,25.879,29.297,34.180,0
120387.761,49.805,38.086,28.809,35.156,77.637,0
120387.765,55.176,38.086,24.414,34.180,103.516,0
120387.769,36.133,36.133,21.484,24.902,79.590,0
120387.773,27.344,35.645,22.949,20.996,21.484,0
120387.777,38.574,35.156,20.996,28.809,37.598,0
120387.781,48.828,35.156,20.020,36.133,63.477,0
120387.785,31.250,34.668,17.578,28.320,61.035,0
120387.789,4.395,29.785,4.883,19.531,54.688,0
120387.793,10.742,26.855,7.324,24.902,34.668,0
120387.796,33.691,28.320,22.949,28.320,64.941,0
120387.800,28.320,31.738,26.367,24.414,34.180,0
120387.803,4.883,29.785,22.949,19.043,-0.488,0
120387.807,5.371,25.391,21.484,19.043,-3.906,0
120387.811,29.297,26.855,20.996,24.414,54.688,0
120387.815,33.203,27.344,20.020,22.461,103.027,0
120387.819,9.277,29.297,20.508,15.137,54.199,0
120387.823,4.883,31.738,22.949,20.020,20.020,0
120387.827,34.668,32.227,28.809,32.227,25.879,0
120387.831,50.781,34.668,25.391,35.156,76.172,0
120387.834,30.762,35.645,18.066,27.344,66.406,0
120387.838,7.812,38.086,16.602,18.066,1.953,0
120387.842,26.855,39.062,13.672,20.508,41.992,0
120387.846,42.969,37.109,9.766,24.902,115.723,0
120387.862,23.926,30.762,14.648,17.578,99.609,0
120387.866,-2.930,29.297,17.578,5.859,33.691,0
120387.870,5.859,30.273,17.090,9.766,34.668,0
120387.874,34.668,26.855,18.066,21.973,58.594,0
120387.877,27.832,25.879,18.066,20.996,26.855,0
120387.881,-0.977,22.949,18.555,9.766,-9.766,0
120387.885,-0.977,21.484,15.137,11.230,-12.207,0
120387.889,29.785,23.926,10.254,27.832,69.824,0
120387.893,33.691,21.484,17.090,29.785,100.098,0
120387.897,11.719,24.902,29.785,17.090,49.805,0
120387.901,-4.883,26.855,35.156,13.672,27.344,0
120387.905,11.230,24.414,32.227,22.949,69.336,0
120387.907,31.250,27.344,25.391,30.273,75.684,0
120387.911,10.742,26.855,26.367,25.391,18.066,0
120387.915,-18.066,23.926,29.297,23.438,-5.371,0
120387.918,2.441,24.414,26.367,32.715,38.574,0
120387.922,30.273,26.855,23.926,38.574,71.289,0
120387.926,21.484,29.785,21.973,31.250,35.645,0
120387.930,13.672,32.715,21.484,24.414,2.930,0
120387.934,29.297,33.691,15.137,29.785,6.348,0
120387.938,47.852,32.715,4.395,35.156,21.973,0
120387.942,47.363,33.691,-2.441,29.297,33.691,0
120387.946,25.879,32.227,6.348,21.484,-5.371,0
120387.950,26.367,29.785,28.320,21.973,-28.809,0
120387.952,48.828,29.297,30.273,30.762,-9.277,0
120387.956,48.340,29.785,20.508,34.180,-6.836,0
120387.960,22.461,29.785,29.297,23.438,-26.855,0
120387.963,13.672,26.367,38.574,20.996,-36.621,0
120387.967,35.156,24.414,38.086,30.762,21.484,0
120387.971,44.922,24.902,34.180,30.273,65.430,0
120387.975,26.855,23.438,35.645,25.391,30.762,0
120387.979,7.812,25.391,32.715,22.461,1.953,0
120387.983,19.531,25.879,26.855,28.320,-7.812,0
120387.987,44.434,24.902,32.715,40.039,23.926,0
120387.991,36.621,24.902,35.645,38.086,55.664,0
120387.995,9.766,20.996,30.273,26.367,9.766,0
120387.997,17.578,20.508,31.738,29.297,31.250,0
120388.001,46.875,24.902,27.344,39.062,82.520,0
120388.005,55.664,27.344,20.508,37.109,102.539,0
120388.008,24.902,30.273,27.832,27.832,83.008,0
120388.012,6.836,31.738,31.738,23.926,53.711,0
120388.016,38.086,30.762,30.273,32.227,59.570,0
120388.020,47.852,29.297,28.809,33.691,77.148,0
120388.024,20.508,27.832,25.879,20.508,45.898,0
120388.028,4.395,25.879,30.762,11.230,-3.906,0
120388.032,26.367,24.414,30.762,17.578,41.016,0
120388.036,53.223,26.855,27.344,27.832,85.449,0
120388.040,37.109,30.273,25.391,20.508,38.574,0
120388.042,11.230,31.738,26.855,11.230,-49.316,0
120388.046,21.973,27.344,27.832,19.043,-35.156,0
120388.050,41.992,23.438,20.020,26.367,17.578,0
120388.053,35.156,24.902,14.160,21.973,3.418,0
120388.057,14.160,22.949,16.113,15.625,-26.855,0
120388.061,11.230,23.438,20.508,20.996,-34.668,0
120388.065,30.273,26.855,22.461,28.809,15.137,0
120388.069,30.762,24.902,26.367,29.297,9.766,0
120388.073,6.348,25.879,39.062,25.879,-32.715,0
120388.077,5.371,30.273,41.992,24.902,-31.250,0
120388.081,37.598,26.855,31.250,33.691,15.137,0
120388.085,54.688,29.785,27.344,39.062,42.480,0
120388.087,30.762,29.785,33.203,25.879,-4.395,0
120388.091,13.672,28.320,34.180,18.555,3.418,0
120388.095,35.156,33.691,26.855,28.809,2.930,0
120388.099,54.688,35.645,16.602,32.227,13.672,0
120388.102,42.969,30.273,22.949,28.320,9.766,0
120388.106,21.973,29.785,33.203,26.855,-44.434,0
120388.110,28.320,32.227,31.250,28.809,10.254,0
120388.114,51.270,29.297,29.785,34.668,74.707,0
120388.118,42.480,31.738,22.949,30.273,50.293,0
120388.122,11.719,32.227,18.555,23.438,20.996,0
120388.126,16.602,28.809,19.043,30.762,19.531,0
120388.130,42.969,29.785,26.855,42.480,71.777,0
120388.132,41.992,29.785,33.203,38.574,69.336,0
120388.136,17.090,29.297,20.996,25.879,11.719,0
120388.140,0.000,30.273,11.230,23.438,-15.137,0
120388.143,26.855,27.832,26.855,31.250,19.531,0
120388.147,45.898,27.344,31.250,34.180,69.336,0
120388.151,20.508,28.809,21.484,20.996,0.488,0
120388.155,1.465,29.297,28.809,12.207,-50.781,0
120388.159,25.391,29.297,34.668,17.090,-25.391,0
120388.163,47.363,28.320,31.250,20.508,39.551,0
120388.167,31.738,28.809,24.414,14.160,41.992,0
120388.171,15.625,31.738,20.996,12.207,3.906,0
120388.175,30.273,33.691,24.902,20.996,0.000,0
120388.177,58.105,35.645,18.555,32.227,56.641,0
120388.181,55.664,35.156,18.555,32.227,38.086,0
120388.185,24.414,32.715,30.762,20.020,-47.852,0
120388.189,16.113,31.738,35.156,21.484,-43.945,0
120388.193,44.434,30.762,30.762,28.809,7.324,0
120388.197,55.176,31.738,25.879,29.785,9.766,0
120388.201,30.762,31.738,26.367,23.926,-63.965,0
120388.205,19.531,31.250,20.996,27.344,-77.637,0
120388.209,47.363,30.273,12.207,39.062,-42.969,0
120388.213,65.430,31.250,11.230,35.156,-6.836,0
120388.217,38.086,34.668,10.254,24.414,13.184,0
120388.220,10.742,34.180,14.160,21.973,-29.297,0
120388.237,28.809,32.715,18.555,28.809,-30.762,0
120388.241,58.594,31.738,23.438,33.203,6.836,0
120388.245,44.922,30.273,32.715,27.832,-15.137,0
120388.248,18.555,26.855,36.133,22.461,-29.297,0
120388.252,23.438,25.879,31.250,27.344,20.508,0
120388.256,45.898,29.785,20.020,35.156,33.691,0
120388.260,50.781,32.227,20.996,32.227,56.641,0
120388.264,28.320,29.297,26.855,21.484,69.824,0
120388.268,20.020,30.273,32.227,24.414,42.480,0
120388.272,41.016,28.809,32.227,34.668,54.688,0
120388.276,46.387,24.902,28.809,34.180,67.871,0
120388.280,26.367,27.832,20.508,22.949,53.711,0
120388.282,16.113,29.297,21.973,19.043,35.645,0
120388.286,43.457,25.391,32.715,33.691,36.133,0
120388.290,55.664,25.391,35.645,40.527,54.199,0
120388.294,27.832,29.785,32.715,26.367,56.641,0
120388.297,10.254,30.762,26.855,18.555,-13.672,0
120388.301,25.879,28.809,26.367,29.297,-40.527,0
120388.305,46.387,27.832,19.531,36.621,33.203,0
120388.309,41.016,29.785,9.277,31.250,23.438,0
120388.313,19.043,30.273,21.484,23.926,-41.992,0
120388.317,17.578,27.832,31.250,23.926,-50.781,0
120388.321,41.504,26.367,19.531,36.621,62.988,0
120388.325,38.086,29.297,13.672,37.109,115.234,0
120388.327,17.090,30.273,13.184,26.367,38.574,0
120388.331,15.137,25.879,20.996,27.344,-20.508,0
120388.335,35.156,24.902,37.598,33.203,14.160,0
120388.339,47.363,27.832,41.016,37.598,41.504,0
120388.342,24.414,33.691,38.574,30.273,-31.250,0
120388.346,12.207,37.109,33.691,24.414,-22.461,0
120388.350,43.945,34.668,29.297,31.250,53.223,0
120388.354,55.176,35.645,26.367,33.203,64.941,0
120388.358,27.832,34.668,17.578,24.414,43.945,0
120388.362,6.836,29.785,13.672,17.090,12.207,0
120388.366,25.391,30.273,17.090,21.973,48.828,0
120388.370,49.316,29.297,24.414,31.250,82.031,0
120388.372,35.645,27.832,34.668,31.250,65.430,0
120388.376,13.184,33.691,32.715,28.809,37.598,0
120388.380,19.043,31.738,28.809,30.762,35.645,0
120388.384,44.922,28.320,28.320,36.621,79.102,0
120388.387,50.781,34.180,20.996,39.062,71.289,0
120388.391,25.879,38.086,17.578,29.297,19.043,0
120388.395,5.859,32.715,25.879,21.484,-14.648,0
120388.399,26.367,26.367,32.227,25.879,34.668,0
120388.403,45.410,29.297,29.297,26.855,52.246,0
120388.407,22.949,32.227,26.367,20.020,3.906,0
120388.411,3.906,29.785,20.996,18.555,-12.207,0
120388.415,24.902,28.809,11.230,26.367,-17.578,0
120388.417,43.945,31.250,15.625,31.250,-7.812,0
120388.421,41.016,32.227,22.461,28.809,-10.742,0
120388.425,23.926,27.344,14.160,22.949,-75.195,0
120388.428,16.113,27.832,17.578,26.855,-38.574,0
120388.432,37.109,30.273,26.855,34.668,60.547,0
120388.436,38.086,29.785,28.320,28.809,58.594,0
120388.440,8.789,30.762,26.855,19.043,25.879,0
120388.444,5.371,31.250,20.996,20.508,-13.184,0
120388.448,40.527,28.809,21.973,37.598,10.742,0
120388.452,48.828,31.738,27.344,39.551,45.410,0
120388.456,15.625,37.598,20.996,15.625,-0.488,0
120388.460,13.672,41.504,15.137,10.254,-40.039,0
120388.462,34.180,40.527,15.625,20.996,24.414,0
120388.466,29.297,33.203,17.578,20.508,79.102,0
120388.470,10.254,29.785,16.113,17.090,35.645,0
120388.474,1.465,30.762,10.742,19.043,-9.277,0
120388.478,22.949,30.762,8.789,30.273,2.930,0
120388.482,46.875,29.785,22.461,39.551,47.852,0
120388.485,40.039,32.227,31.250,31.738,50.781,0
120388.489,21.973,33.691,30.273,25.879,-21.973,0
120388.493,28.320,30.273,29.785,32.227,-3.906,0
120388.497,52.246,26.855,25.879,32.715,40.527,0
120388.501,48.828,22.461,21.973,28.809,42.969,0
120388.505,14.648,20.508,23.438,25.879,24.902,0
120388.508,7.812,21.484,27.832,29.785,-19.531,0
120388.512,42.969,22.949,37.598,38.086,14.648,0
120388.516,59.570,27.832,47.363,39.062,19.531,0
120388.520,28.320,29.785,45.410,26.367,-15.137,0
120388.524,12.695,26.367,41.504,24.414,0.000,0
120388.528,36.133,26.367,31.738,39.551,-0.488,0
120388.532,50.293,27.344,28.809,44.434,36.621,0
120388.535,33.691,29.297,34.180,37.109,48.340,0
120388.539,13.672,27.832,32.227,34.180,26.367,0
120388.543,26.855,25.391,35.156,39.062,65.430,0
120388.547,46.875,23.438,27.344,45.898,82.031,0
120388.551,34.180,23.438,17.578,44.922,54.199,0
120388.552,12.695,28.809,29.785,36.133,30.762,0
120388.556,24.414,35.645,36.621,29.297,48.340,0
120388.560,43.945,36.621,31.738,32.227,64.941,0
120388.564,40.039,32.715,31.738,34.180,64.453,0
120388.567,24.414,34.668,35.156,29.297,28.809,0
120388.571,15.625,38.086,29.297,32.715,-2.930,0
120388.575,37.109,36.133,19.043,41.504,37.109,0
120388.579,54.199,33.691,23.926,39.551,84.961,0
120388.583,34.180,32.715,31.738,30.762,50.293,0
120388.587,15.137,32.227,32.227,24.902,-29.297,0
120388.591,33.691,31.250,26.367,28.809,2.930,0
120388.595,56.152,30.273,26.855,39.062,71.289,0
120388.612,37.598,29.297,12.695,39.551,42.969,0
120388.616,17.578,29.785,-7.324,40.527,-34.180,0
120388.620,38.086,31.738,9.277,44.434,-46.875,0
120388.623,54.688,34.180,38.574,45.898,26.855,0
120388.627,34.180,34.668,55.176,37.109,27.832,0
120388.631,8.301,32.715,50.781,27.344,-33.691,0
120388.635,15.137,28.320,41.992,35.156,-15.625,0
120388.639,48.340,26.855,38.574,45.898,38.086,0
120388.643,55.176,28.320,34.668,41.504,53.223,0
120388.647,27.832,27.832,29.297,28.320,4.395,0
120388.651,20.508,27.832,30.273,29.785,-29.785,0
120388.655,49.316,26.367,32.715,38.086,51.758,0
120388.657,51.270,25.879,21.484,36.133,83.496,0
120388.661,27.344,27.832,19.043,32.227,27.344,0
120388.665,16.113,27.832,22.461,27.344,4.395,0
120388.668,40.039,28.320,17.090,29.297,48.340,0
120388.672,54.688,25.391,17.090,30.762,99.609,0
120388.676,30.762,24.414,23.438,22.461,58.594,0
120388.680,12.207,29.785,29.785,17.578,18.066,0
120388.684,21.973,29.785,33.203,22.949,49.316,0
120388.688,43.457,27.344,34.668,35.156,99.121,0
120388.692,38.574,29.297,32.227,28.320,78.125,0
120388.696,15.625,29.297,24.414,15.137,33.691,0
120388.700,15.625,28.320,22.949,20.996,17.578,0
120388.702,45.898,28.320,24.902,27.344,29.785,0
120388.706,51.758,27.832,21.973,28.320,45.410,0
120388.710,20.996,26.855,24.414,26.367,1.465,0
120388.713,12.695,28.320,25.879,25.879,4.395,0
120388.717,41.504,29.297,22.461,34.180,59.570,0
120388.721,53.711,28.320,22.949,37.598,66.895,0
120388.725,24.414,27.832,31.738,27.832,49.805,0
120388.729,7.324,31.738,37.598,29.297,31.250,0
120388.733,28.809,34.668,28.320,32.715,19.043,0
120388.737,52.246,33.203,22.461,32.715,19.531,0
120388.741,47.363,34.180,28.320,29.785,14.648,0
120388.745,16.113,32.227,27.832,19.531,-23.438,0
120388.747,15.625,26.367,31.738,20.020,-43.457,0
120388.751,44.434,28.809,40.039,27.344,-12.207,0
120388.755,43.945,32.227,40.039,25.391,6.348,0
120388.758,11.230,30.273,32.715,18.555,-16.113,0
120388.762,3.418,29.297,28.320,15.137,-9.766,0
120388.766,29.297,30.762,28.320,22.461,31.738,0
120388.770,37.598,29.785,18.066,25.391,63.477,0
120388.774,11.230,31.250,18.066,14.648,36.621,0
120388.778,5.371,33.691,30.273,15.625,1.465,0
120388.782,39.062,32.227,38.574,25.391,76.172,0
120388.786,53.711,33.691,36.621,30.762,76.172,0
120388.790,29.785,35.645,27.344,22.461,-13.184,0
120388.792,6.836,34.180,26.367,14.648,13.672,0
120388.796,22.949,29.297,31.250,23.438,72.754,0
120388.800,45.898,29.785,28.320,32.715,55.176,0
120388.803,33.691,35.645,23.926,28.809,44.922,0
120388.807,4.883,37.598,31.738,22.461,2.930,0
120388.811,8.789,36.621,38.086,28.320,11.719,0
120388.815,39.062,35.645,37.598,37.598,96.680,0
120388.819,37.598,33.203,34.668,33.691,76.660,0
120388.823,6.348,29.297,30.273,20.508,-5.859,0
120388.827,-0.977,26.367,29.297,19.043,6.836,0
120388.831,25.879,24.902,21.484,31.738,70.312,0
120388.835,45.898,28.809,11.230,35.645,83.496,0
120388.837,22.949,30.762,20.508,29.297,69.336,0
120388.841,-6.348,27.832,33.691,25.879,21.484,0
120388.845,13.184,26.367,36.621,32.715,5.371,0
120388.848,39.062,25.879,34.180,39.062,44.434,0
120388.852,27.344,27.832,32.227,30.762,15.137,0
120388.856,6.836,30.273,32.715,23.438,-42.480,0
120388.860,16.113,29.297,31.738,30.273,12.207,0
120388.864,38.574,30.762,16.113,37.109,32.715,0
120388.868,39.062,36.133,5.859,34.180,12.207,0
120388.872,19.043,34.668,22.461,25.879,23.926,0
120388.876,20.996,32.715,38.086,27.832,-2.441,0
120388.880,41.504,31.738,41.016,35.645,28.320,0
120388.882,45.898,30.273,37.598,32.227,69.824,0
120388.886,25.879,32.715,31.250,23.438,13.672,0
120388.890,9.277,32.715,25.391,21.484,-7.324,0
120388.893,26.367,31.738,25.879,29.785,31.738,0
120388.897,42.969,31.738,27.344,32.227,51.758,0
120388.901,27.832,36.133,23.926,23.438,26.367,0
120388.905,8.301,34.180,22.949,17.578,-5.371,0
120388.909,20.508,27.344,21.484,21.973,12.207,0
120388.913,39.062,28.320,19.531,26.855,50.781,0
120388.917,30.273,29.785,15.137,21.484,42.969,0
120388.921,15.625,26.855,12.207,18.555,-13.672,0
120388.925,22.461,26.855,22.461,24.414,8.789,0
120388.927,42.480,30.762,27.344,33.691,94.238,0
120388.931,37.109,32.715,21.973,30.762,53.711,0
120388.935,10.742,34.180,23.926,23.438,-1.465,0
120388.938,12.207,32.715,26.367,26.367,2.441,0
120388.942,36.133,29.785,20.508,32.715,44.434,0
120388.946,40.527,28.809,20.020,33.203,43.945,0
120388.950,19.043,29.297,21.484,24.902,1.465,0
120388.954,7.812,28.809,19.531,20.508,-16.113,0
120388.958,33.203,26.855,21.484,27.344,12.207,0
120388.962,49.805,26.367,14.648,30.762,67.871,0
120388.966,25.391,25.879,9.277,22.949,47.852,0
120388.970,13.184,23.926,17.578,24.902,20.020,0
120388.973,34.180,25.391,25.391,34.668,55.664,0
120388.977,47.363,26.367,26.855,37.598,79.102,0
120388.981,41.992,27.344,25.391,32.715,35.645,0
120388.985,20.020,28.320,27.344,26.855,-5.859,0
120388.989,16.602,27.344,31.250,32.715,-9.766,0
120388.993,41.504,25.879,29.785,41.504,18.066,0
120388.997,41.992,22.461,25.391,38.574,26.855,0
120389.000,16.113,22.461,25.879,32.715,-8.789,0
120389.004,11.719,30.273,28.809,33.203,2.930,0
120389.008,39.551,33.203,30.273,39.551,44.434,0
120389.012,45.898,28.320,23.438,39.062,70.801,0
120389.016,21.973,28.809,14.648,31.738,59.082,0
120389.032,14.160,31.738,18.555,30.762,34.668,0
120389.036,37.109,29.297,27.344,36.133,76.172,0
120389.040,52.734,26.855,27.832,40.527,83.984,0
120389.043,33.691,27.832,21.973,32.227,22.461,0
120389.047,13.184,26.855,20.996,24.414,-32.227,0
120389.051,31.250,27.832,23.926,34.668,-47.852,0
120389.055,56.641,27.832,23.438,43.945,37.598,0
120389.059,41.504,28.809,21.484,39.551,84.961,0
120389.063,9.277,29.297,20.508,32.227,14.648,0
120389.067,18.555,29.297,20.508,35.156,2.441,0
120389.071,47.852,30.762,27.832,40.039,59.570,0
120389.075,49.805,30.762,36.133,38.086,69.336,0
120389.077,21.973,31.250,29.785,31.738,26.855,0
120389.081,13.184,33.203,20.996,29.297,23.926,0
120389.085,45.898,32.227,26.855,42.480,90.820,0
120389.088,58.105,27.344,35.156,42.969,77.148,0
120389.092,33.691,30.762,34.180,29.297,19.043,0
120389.096,16.602,35.645,28.809,25.879,-14.160,0
120389.100,35.645,34.668,23.438,31.250,16.113,0
120389.104,54.688,34.180,20.020,36.621,63.477,0
120389.108,37.109,36.621,19.531,30.762,12.695,0
120389.112,12.207,37.109,26.855,20.020,-14.648,0
120389.116,27.832,39.062,30.273,24.414,37.109,0
120389.120,50.293,38.574,32.227,32.227,64.941,0
120389.122,40.527,31.738,33.691,29.297,49.316,0
120389.126,19.531,32.715,30.762,22.949,13.184,0
120389.130,17.578,33.691,32.227,27.832,-5.371,0
120389.134,40.039,33.691,30.273,38.574,31.738,0
120389.137,47.852,37.598,28.320,35.156,14.648,0
120389.141,26.855,38.086,28.320,20.996,-36.621,0
120389.145,17.090,35.156,23.438,23.926,-14.160,0
120389.149,42.480,35.156,26.855,36.621,47.852,0
120389.153,58.105,36.133,34.668,35.645,33.691,0
120389.157,36.133,36.621,33.203,27.832,-12.695,0
120389.161,19.043,34.668,35.645,30.273,-11.719,0
120389.165,41.016,36.621,34.668,37.109,-7.324,0
120389.167,66.895,39.551,34.180,40.527,20.996,0
120389.171,47.363,39.062,30.273,36.133,23.926,0
120389.175,10.254,39.062,24.902,28.809,-13.184,0
120389.178,22.461,35.645,29.297,34.180,-5.859,0
120389.182,50.293,36.133,26.855,42.969,40.527,0
120389.186,45.410,38.086,32.715,36.133,54.199,0
120389.190,26.367,36.621,43.945,30.762,15.137,0
120389.194,23.438,36.621,43.945,35.645,-41.504,0
120389.198,48.340,39.062,33.691,40.039,14.648,0
120389.202,50.293,40.039,34.668,40.527,88.867,0
120389.206,19.043,36.621,48.828,34.180,21.973,0
120389.210,13.672,37.109,54.199,30.273,-40.039,0
120389.213,43.945,41.504,50.293,41.504,27.832,0
120389.217,55.664,40.527,50.781,44.434,117.676,0
120389.221,36.621,38.086,46.875,35.645,60.547,0
120389.225,12.695,39.551,31.738,31.738,-11.719,0
120389.229,20.020,39.062,34.668,38.086,38.086,0
120389.233,39.062,33.203,48.340,44.922,96.191,0
120389.237,27.832,32.715,52.246,42.480,36.133,0
120389.240,5.859,36.621,48.340,34.668,-30.762,0
120389.244,15.625,37.598,40.527,35.645,4.395,0
120389.248,39.551,37.598,38.086,41.992,52.734,0
120389.252,35.645,36.133,39.062,38.086,45.410,0
120389.256,13.184,36.133,38.086,28.809,17.578,0
120389.257,16.113,42.480,30.273,28.320,-9.766,0
120389.261,42.480,44.922,24.902,37.109,53.223,0
120389.265,43.945,40.527,34.668,35.156,84.473,0
120389.269,20.508,37.109,45.898,24.414,20.020,0
120389.272,10.742,37.109,49.316,20.508,-0.488,0
120389.276,42.969,38.574,48.828,30.273,62.500,0
120389.280,57.617,41.504,46.875,35.645,81.055,0
120389.284,27.832,42.969,43.457,25.391,18.555,0
120389.288,8.301,43.945,41.992,21.973,5.371,0
120389.292,26.855,42.969,41.016,28.320,-14.160,0
120389.296,52.734,42.969,35.645,36.133,28.809,0
120389.300,39.551,44.434,34.668,32.227,26.367,0
120389.302,11.230,39.551,39.551,25.879,-21.973,0
120389.306,20.996,35.645,42.969,33.691,0.977,0
120389.310,52.734,39.551,42.969,42.969,41.992,0
120389.314,48.340,40.527,36.133,37.109,47.852,0
120389.318,26.855,37.598,34.668,26.367,-15.137,0
120389.321,20.508,37.598,44.922,22.461,-58.105,0
120389.325,34.668,39.551,48.340,29.785,-61.035,0
120389.329,49.316,42.969,43.945,34.668,-5.371,0
120389.333,32.227,38.086,38.086,25.879,10.742,0
120389.337,11.719,34.668,37.109,22.461,-35.156,0
120389.341,22.461,33.203,41.504,30.273,43.945,0
120389.345,39.551,32.227,41.016,33.203,113.281,0
120389.362,29.297,37.109,36.621,29.785,63.477,0
120389.366,11.230,40.527,35.645,23.926,11.230,0
120389.370,28.809,40.527,36.621,29.297,28.809,0
120389.374,54.199,41.016,38.574,40.039,77.637,0
120389.377,43.945,42.480,35.645,34.180,62.988,0
120389.381,18.555,40.039,37.598,20.996,-25.391,0
120389.385,21.973,37.598,48.828,23.926,-45.898,0
120389.389,45.898,38.086,54.199,33.691,49.316,0
120389.393,45.898,39.062,45.410,32.227,82.031,0
120389.397,17.090,38.086,42.480,22.461,9.277,0
120389.401,11.230,39.551,44.922,20.508,-14.160,0
120389.405,37.109,41.992,41.504,29.785,41.992,0
120389.407,41.504,40.527,41.016,27.832,79.102,0
120389.411,20.996,39.062,39.551,19.043,39.551,0
120389.415,9.766,39.551,36.133,21.484,-28.320,0
120389.419,38.086,40.527,31.738,29.785,32.227,0
120389.422,51.270,40.039,36.621,30.273,88.867,0
120389.426,27.344,41.504,40.527,24.414,1.465,0
120389.430,8.789,42.480,34.668,20.996,-9.766,0
120389.434,21.484,39.062,35.156,23.926,50.293,0
120389.438,45.898,35.645,41.992,31.738,40.039,0
120389.442,33.203,35.156,41.992,25.391,11.230,0
120389.446,3.418,35.645,36.621,11.719,14.160,0
120389.450,6.348,37.598,39.062,15.137,33.691,0
120389.452,33.203,39.062,42.480,25.879,54.199,0
120389.456,36.133,39.062,33.691,25.879,62.988,0
120389.460,7.324,36.621,23.926,17.090,11.719,0
120389.463,-1.465,35.645,22.949,11.719,-2.441,0
120389.467,27.344,36.621,29.297,20.996,81.055,0
120389.471,41.992,35.156,36.133,28.320,107.910,0
120389.475,26.855,34.180,37.109,21.484,21.484,0
120389.479,10.254,38.574,41.016,17.090,-49.805,0
120389.483,27.832,41.504,42.480,23.438,-31.250,0
120389.487,59.570,43.945,36.621,31.250,6.348,0
120389.491,53.711,42.969,37.109,30.273,27.344,0
120389.495,20.996,38.574,35.645,27.832,4.883,0
120389.497,21.973,37.598,35.645,33.203,26.367,0
120389.501,48.828,36.133,42.480,35.645,95.215,0
120389.505,40.527,35.645,39.551,28.320,52.734,0
120389.509,14.160,39.062,36.133,23.926,-19.531,0
120389.512,18.066,40.039,41.504,27.832,-37.598,0
120389.516,41.992,39.551,40.527,38.574,33.203,0
120389.520,44.434,38.574,35.156,39.062,79.102,0
120389.524,21.973,40.039,36.621,28.320,26.367,0
120389.528,13.184,40.527,41.992,25.391,-11.230,0
120389.532,38.086,40.039,41.992,35.156,60.059,0
120389.536,53.711,38.574,35.645,44.922,128.906,0
120389.540,28.320,37.598,37.109,39.062,22.949,0
120389.542,6.836,37.598,32.227,29.785,-36.621,0
120389.546,32.715,36.621,32.715,41.016,12.695,0
120389.550,54.199,37.109,45.410,50.293,41.992,0
120389.554,34.180,36.133,52.246,42.480,43.945,0
120389.558,15.625,35.645,53.711,38.086,9.277,0
120389.561,29.785,41.016,45.410,42.969,0.000,0
120389.565,49.316,43.945,41.016,41.504,69.824,0
120389.569,46.387,45.410,43.457,31.738,90.820,0
120389.573,18.555,46.387,40.039,21.484,8.789,0
120389.577,11.719,41.992,38.086,23.438,24.414,0
120389.581,40.039,41.016,41.504,34.180,75.195,0
120389.585,55.664,45.898,42.480,38.574,75.195,0
120389.587,38.574,47.363,37.598,34.668,44.922,0
120389.591,16.602,47.363,33.203,29.785,15.137,0
120389.595,35.156,46.387,30.273,36.133,41.992,0
120389.598,57.617,46.875,32.715,41.992,94.238,0
120389.602,38.574,46.387,43.457,34.668,70.801,0
120389.606,16.602,44.922,45.898,25.391,14.160,0
120389.610,33.691,47.363,31.738,31.250,23.926,0
120389.614,55.176,46.875,24.414,37.109,40.527,0
120389.618,46.875,45.898,25.879,30.273,14.160,0
120389.622,23.438,44.922,33.691,23.926,-5.859,0
120389.626,21.973,44.922,41.504,24.902,13.184,0
120389.630,49.805,44.922,45.410,33.203,29.297,0
120389.632,52.246,41.016,49.316,35.645,13.184,0
120389.636,21.973,41.504,47.363,25.391,-6.348,0
120389.640,12.207,44.434,41.504,20.020,13.184,0
120389.644,38.574,42.969,47.363,30.762,37.598,0
120389.647,49.316,42.480,43.457,39.062,65.430,0
120389.651,26.367,43.457,34.180,32.715,24.414,0
120389.655,10.254,42.480,39.551,26.855,-55.664,0
120389.659,31.738,43.457,43.945,35.156,-23.438,0
120389.663,49.805,46.875,41.992,39.062,46.875,0
120389.667,33.691,44.434,41.504,30.273,32.227,0
120389.671,16.113,42.480,43.945,24.902,13.672,0
120389.675,26.855,42.480,46.875,31.250,24.902,0
120389.678,49.316,43.945,46.387,41.016,54.688,0
120389.682,44.434,43.457,44.434,38.086,45.410,0
120389.686,15.137,39.551,36.621,26.855,-0.488,0
120389.690,17.090,43.457,28.320,29.785,-24.414,0
120389.694,46.875,45.410,43.457,37.109,-1.465,0
120389.698,47.363,42.480,56.641,32.227,19.043,0
120389.702,21.973,42.969,56.152,26.367,-22.461,0
120389.705,14.648,44.434,53.711,26.855,-36.133,0
120389.709,41.504,45.410,49.316,32.227,46.875,0
120389.713,51.758,43.457,43.945,31.250,82.520,0
120389.717,25.879,42.969,41.504,24.414,41.992,0
120389.721,11.719,46.875,35.645,21.484,50.293,0
120389.737,35.645,46.875,35.645,33.203,64.453,0
120389.741,51.270,40.527,46.875,38.086,90.332,0
120389.745,29.785,38.086,53.223,24.902,41.992,0
120389.749,7.812,37.109,51.270,19.531,-14.648,0
120389.753,19.043,37.109,43.945,24.902,-2.930,0
120389.757,44.434,39.551,37.109,30.273,26.367,0
120389.761,39.062,37.598,34.668,23.926,16.113,0
120389.765,13.184,37.598,30.762,19.531,-20.996,0
120389.768,15.137,40.527,35.645,25.391,-55.176,0
120389.772,36.133,38.086,43.457,30.273,11.230,0
120389.776,31.738,37.109,38.574,29.785,62.988,0
120389.780,4.883,40.039,34.668,23.438,26.367,0
120389.782,-5.859,39.551,39.551,20.508,16.602,0
120389.786,19.043,39.062,31.738,29.297,20.996,0
120389.790,35.156,40.039,31.738,34.180,72.266,0
120389.793,18.066,40.527,35.645,25.391,33.203,0
120389.797,2.930,40.039,30.762,16.602,-24.902,0
120389.801,24.902,39.551,28.809,23.438,19.531,0
120389.805,47.363,37.598,31.738,32.227,64.941,0
120389.809,31.738,38.086,37.109,25.391,53.711,0
120389.813,4.395,37.109,37.109,18.066,-13.184,0
120389.817,11.230,37.109,35.645,22.949,-21.973,0
120389.821,38.086,36.621,34.180,30.762,47.852,0
120389.825,36.133,37.598,30.762,30.273,65.918,0
120389.827,8.301,39.062,23.926,23.926,51.270,0
120389.831,1.953,36.133,17.090,23.926,49.805,0
120389.835,30.273,33.203,24.902,33.691,100.586,0
120389.839,40.527,33.203,35.645,36.133,130.859,0
120389.842,13.672,35.156,34.668,24.414,59.082,0
120389.846,2.930,35.645,34.180,20.508,21.973,0
120389.850,28.809,39.062,38.086,30.273,45.410,0
120389.854,40.039,41.992,37.598,34.180,58.594,0
120389.858,22.949,41.992,33.691,25.879,23.438,0
120389.862,4.883,43.457,25.391,16.602,-16.113,0
120389.866,20.020,42.480,24.902,23.438,15.625,0
120389.870,46.875,41.992,10.254,39.062,72.754,0
120389.872,33.203,42.969,-0.488,31.250,57.617,0
120389.876,3.906,42.480,23.926,20.508,0.000,0
120389.880,12.207,41.992,40.039,23.438,33.691,0
120389.883,34.668,41.016,42.969,26.855,82.031,0
120389.887,26.855,39.062,42.969,23.438,83.984,0
120389.891,2.441,37.109,38.574,14.648,29.785,0
120389.895,5.371,37.598,29.785,14.648,9.277,0
120389.899,31.250,37.109,23.438,24.902,62.012,0
120389.903,34.180,36.621,20.996,26.367,68.848,0
120389.907,14.648,39.062,21.484,21.484,29.785,0
120389.911,6.348,39.062,23.926,21.973,27.832,0
120389.915,32.227,37.598,25.879,30.762,49.805,0
120389.917,52.734,38.574,24.902,35.156,54.688,0
120389.921,36.621,40.039,25.879,28.320,36.133,0
120389.925,19.531,42.969,24.414,20.508,-13.184,0
120389.928,32.715,40.039,17.090,23.926,5.371,0
120389.932,52.246,40.527,7.812,33.203,36.621,0
120389.936,41.992,44.922,8.789,28.809,25.391,0
120389.940,11.719,44.922,21.484,15.625,-12.207,0
120389.944,9.766,41.992,28.320,17.578,-62.012,0
120389.948,37.598,41.016,29.297,28.809,3.418,0
120389.952,39.062,49.805,18.555,22.461,74.219,0
120389.956,5.859,49.805,6.836,8.789,35.645,0
120389.960,-3.906,43.945,9.766,8.301,15.137,0
120389.963,27.344,43.945,18.555,18.066,49.316,0
120389.967,31.738,41.504,20.508,23.438,99.609,0
120389.970,2.930,40.039,15.137,19.531,39.551,0
120389.974,-5.859,39.062,11.719,16.113,-37.109,0
120389.978,19.043,38.086,11.230,24.414,11.230,0
120389.982,41.992,40.527,5.371,35.645,39.551,0
120389.986,30.762,43.457,8.301,32.227,-14.648,0
120389.990,10.254,45.898,13.672,22.949,-62.988,0
120389.994,27.832,47.363,16.602,31.250,-31.250,0
120389.998,60.059,48.828,15.625,44.922,33.691,0
120390.002,57.617,51.270,12.207,40.039,31.738,0
120390.006,33.691,50.781,9.766,27.344,-21.484,0
120390.007,40.527,50.781,2.930,29.785,-19.043,0
120390.011,59.570,51.758,5.371,36.133,27.344,0
120390.015,54.199,53.223,8.301,30.273,28.809,0
120390.018,32.227,54.199,9.766,22.949,23.926,0
120390.022,20.020,52.246,4.395,20.508,17.578,0
120390.026,38.574,47.852,0.000,27.832,33.203,0
120390.030,47.363,47.852,13.184,29.297,40.527,0
120390.034,24.902,48.340,21.484,20.020,12.695,0
120390.038,5.859,43.945,14.160,14.648,14.160,0
120390.042,20.020,41.992,10.254,22.949,35.156,0
120390.046,46.875,46.387,13.672,35.645,88.379,0
120390.050,39.551,45.898,14.648,30.762,97.168,0
120390.052,6.836,41.992,16.602,24.902,33.691,0
120390.056,11.719,41.016,19.531,35.645,12.207,0
120390.060,46.387,41.992,18.066,47.852,51.758,0
120390.063,45.898,43.457,22.461,44.922,59.082,0
120390.067,22.461,43.457,20.508,38.086,46.387,0
120390.071,19.043,41.992,13.184,40.039,29.297,0
120390.075,43.945,39.551,10.254,44.922,55.176,0
120390.079,55.176,41.504,9.766,46.875,102.539,0
120390.083,32.227,43.457,9.277,39.551,63.965,0
120390.087,23.438,43.945,4.395,33.203,13.672,0
120390.091,46.875,45.898,0.000,35.645,3.906,0
120390.095,57.617,47.363,3.906,35.645,50.781,0
120390.112,34.668,48.828,10.254,21.973,48.340,0
120390.116,8.789,48.340,12.207,14.160,-35.645,0
120390.120,20.996,44.434,9.277,18.555,-24.414,0
120390.123,45.898,45.410,5.371,20.996,44.922,0
120390.127,33.691,42.969,6.348,16.602,25.879,0
120390.131,-3.906,36.621,6.348,6.348,-59.082,0
120390.135,-1.953,36.133,4.883,4.883,-40.527,0
120390.139,25.391,35.645,6.836,18.066,67.871,0
120390.143,24.414,33.203,6.836,22.461,71.777,0
120390.147,-0.977,30.762,15.625,14.160,-10.742,0
120390.151,-7.324,31.250,25.391,17.090,-1.465,0
120390.155,21.973,33.203,21.484,28.320,58.594,0
120390.157,32.227,32.715,19.043,30.273,44.434,0
120390.161,3.906,28.320,18.066,18.066,-3.906,0
120390.165,-9.277,25.391,14.648,13.672,-12.207,0
120390.169,13.672,29.297,13.184,24.902,41.016,0
120390.172,28.320,30.762,11.230,28.809,63.477,0
120390.176,16.602,28.809,13.184,26.855,22.461,0
120390.180,0.488,30.273,17.578,23.926,-16.113,0
120390.184,12.207,32.227,19.043,26.855,1.465,0
120390.188,41.016,30.273,17.578,31.738,48.828,0
120390.192,38.086,29.785,18.066,24.414,49.805,0
120390.196,6.348,29.785,16.113,12.695,11.719,0
120390.200,5.371,27.832,10.254,14.160,3.906,0
120390.202,36.133,28.320,4.883,23.926,69.336,0
120390.206,37.109,30.273,6.836,19.531,79.590,0
120390.210,6.836,32.227,13.184,6.836,12.207,0
120390.213,0.000,29.785,7.324,7.324,14.160,0
120390.217,22.461,26.855,6.836,13.672,36.133,0
120390.221,32.227,26.367,12.207,16.113,37.598,0
120390.225,14.160,27.344,6.836,14.160,35.645,0
120390.229,-3.906,27.344,4.395,12.207,8.301,0
120390.233,20.020,26.855,15.625,21.484,21.973,0
120390.237,47.852,32.715,20.508,31.250,85.938,0
120390.241,24.414,33.691,13.672,23.438,78.613,0
120390.245,-4.883,28.809,11.719,14.648,38.574,0
120390.247,11.719,29.297,15.625,22.461,57.617,0
120390.251,39.551,31.738,13.184,27.344,50.781,0
120390.255,30.762,31.250,12.207,22.949,36.621,0
120390.258,4.395,35.156,15.625,20.020,-0.488,0
120390.262,3.906,37.598,13.672,20.020,-9.277,0
120390.266,35.156,35.645,12.695,25.879,53.711,0
120390.270,41.504,35.645,11.719,27.344,27.344,0
120390.274,13.672,36.133,4.883,18.555,-34.180,0
120390.278,5.371,35.156,2.441,18.555,-54.688,0
120390.282,30.273,33.691,7.324,29.785,-1.465,0
120390.286,42.480,33.691,9.277,31.738,74.219,0
120390.290,22.461,35.645,5.371,18.555,26.367,0
120390.293,3.418,35.645,2.441,9.766,-22.461,0
120390.296,16.113,32.227,3.906,15.625,52.246,0
120390.300,37.109,29.297,4.883,20.996,81.543,0
120390.304,24.902,28.320,4.883,15.625,28.809,0
120390.308,2.930,30.762,5.859,11.719,1.953,0
120390.312,17.578,32.715,5.371,21.484,20.020,0
120390.316,42.969,31.738,-4.395,31.738,69.824,0
120390.320,36.621,30.762,-9.277,24.414,58.594,0
120390.324,16.602,31.738,6.348,16.602,-11.230,0
120390.328,13.184,30.762,9.766,18.555,30.762,0
120390.332,30.273,30.273,1.465,23.926,98.145,0
120390.335,37.109,33.203,4.395,27.344,51.270,1
120390.337,11.719,34.668,15.137,16.113,35.156,0
120390.341,-2.441,34.180,17.578,11.719,23.438,0
120390.345,24.414,32.715,15.137,23.926,18.066,0
120390.348,42.969,32.227,17.090,34.668,49.316,0
120390.352,24.902,31.250,17.090,25.391,24.414,0
120390.356,14.160,30.273,10.742,15.625,13.184,0
120390.360,34.180,32.715,4.883,25.879,32.227,0
120390.364,48.340,37.109,3.418,33.691,8.789,0
120390.368,41.016,37.109,-3.906,27.344,14.648,0
120390.372,15.625,34.180,-5.371,18.555,45.410,0
120390.376,11.719,33.691,7.324,18.555,71.777,0
120390.380,39.551,33.691,12.207,24.414,114.746,0
120390.383,38.086,34.180,10.254,26.855,96.680,0
120390.387,12.695,34.180,10.254,22.949,22.949,0
120390.391,6.836,31.250,14.648,21.973,5.371,0
120390.395,29.297,31.738,7.324,29.785,72.266,0
120390.399,38.574,35.645,1.465,26.855,106.934,0
120390.403,10.742,34.668,5.859,17.090,62.500,0
120390.407,-8.301,31.250,12.695,17.090,28.320,0
120390.410,16.602,28.809,18.066,25.391,54.199,0
120390.414,40.039,31.738,7.812,35.645,100.586,0
120390.418,23.926,35.156,7.324,34.668,78.613,0
120390.422,0.488,31.738,13.672,28.809,25.391,0
120390.426,12.207,29.297,16.602,30.762,23.926,0
120390.427,34.668,27.344,19.043,32.715,85.938,0
120390.431,26.367,25.879,19.043,23.926,83.984,0
120390.435,9.766,27.344,20.508,14.648,7.324,0
120390.439,10.742,28.809,17.578,14.648,-4.883,0
120390.442,27.344,28.320,17.090,25.391,85.449,0
120390.446,32.715,29.785,18.066,28.320,104.004,0
120390.450,10.742,29.785,17.578,20.508,-11.230,0
120390.454,3.418,28.320,16.113,19.531,-30.762,0
120390.458,23.438,26.855,9.277,26.855,64.941,0
120390.462,34.180,25.879,5.859,29.785,54.199,0
120390.466,13.672,26.855,12.207,20.508,13.672,0
120390.470,-7.324,25.391,17.090,13.184,29.785,0
120390.487,9.766,23.438,17.090,20.020,58.594,0
120390.491,34.180,25.879,17.578,26.855,108.887,0
120390.495,20.996,27.832,18.555,21.484,42.969,0
120390.499,-0.977,28.320,15.625,15.137,-24.902,0
120390.502,10.254,27.832,12.695,19.531,11.719,0
120390.506,34.180,25.879,15.625,22.949,8.789,0
120390.510,29.297,25.391,20.996,21.484,-27.344,0
120390.514,2.930,25.391,21.973,17.090,-72.266,0
120390.518,3.418,26.855,20.996,17.090,-68.359,0
120390.522,30.762,26.855,20.020,26.855,-23.926,0
120390.526,38.574,28.320,14.648,30.273,-8.301,0
120390.530,16.602,29.297,8.301,21.484,-36.133,0
120390.532,7.812,26.855,12.207,20.020,-47.363,0
120390.536,32.715,28.320,19.531,30.762,3.418,0
120390.540,45.898,32.227,19.531,32.715,24.414,0
120390.543,32.715,33.203,14.160,26.367,5.371,0
120390.547,15.625,33.203,12.207,22.461,-19.531,0
120390.551,23.926,32.227,12.695,25.879,-18.555,0
120390.555,43.457,30.762,16.602,31.250,32.715,0
120390.559,30.762,31.738,18.555,26.367,50.293,0
120390.563,6.836,33.691,20.996,19.531,-14.648,0
120390.567,18.555,32.715,17.090,25.391,-40.039,0
120390.571,50.293,32.227,9.766,33.691,32.227,0
120390.575,48.340,32.227,13.672,31.250,59.570,0
120390.577,21.484,32.715,15.625,24.414,0.000,0
120390.581,19.531,35.156,14.648,24.902,-1.953,0
120390.585,42.480,33.691,14.160,30.273,51.758,0
120390.588,43.945,32.715,15.137,32.715,86.914,0
120390.592,16.602,32.227,20.996,27.832,24.414,0
120390.596,4.395,28.320,22.461,21.484,-37.109,0
120390.600,26.367,26.855,18.555,24.902,0.000,0
120390.604,41.504,27.832,11.719,27.344,54.688,0
120390.608,18.555,28.809,11.230,16.602,40.039,0
120390.612,0.000,31.250,14.160,10.254,-42.480,0
120390.616,20.508,31.738,16.602,16.602,13.672,0
120390.620,38.574,28.809,14.160,21.973,70.312,0
120390.622,26.855,27.344,5.859,17.090,26.367,0
120390.626,3.418,29.785,8.301,11.719,23.438,0
120390.630,11.719,28.809,17.090,19.043,38.086,0
120390.633,39.062,24.902,15.625,29.785,67.383,0
120390.637,38.574,28.809,12.695,28.809,98.145,0
120390.641,15.625,32.715,20.020,21.484,32.227,0
120390.645,13.184,30.762,22.949,24.414,-14.648,0
120390.649,42.480,32.227,14.160,37.598,24.414,0
120390.653,49.805,33.691,0.000,40.039,45.898,0
120390.657,21.973,31.250,-0.977,29.297,26.367,0
120390.661,11.230,28.809,16.602,27.344,3.906,0
120390.665,29.785,27.344,27.344,33.691,45.898,0
120390.667,47.852,25.879,29.785,34.180,88.867,0
120390.671,34.668,25.879,28.320,26.367,57.617,0
120390.675,12.207,26.855,20.996,19.531,-39.551,0
120390.679,24.414,28.320,24.902,26.367,-53.711,0
120390.683,53.223,29.297,22.461,36.133,39.062,0
120390.687,49.316,28.809,6.836,33.203,41.504,0
120390.691,20.508,26.855,11.230,22.949,-19.043,0
120390.694,26.855,25.879,23.926,24.414,-0.488,0
120390.698,59.570,27.344,25.879,34.668,53.711,0
120390.702,61.035,26.367,23.438,36.133,95.215,0
120390.706,31.250,25.391,21.484,28.320,37.598,0
120390.710,24.414,26.367,21.973,31.250,-22.949,0
120390.712,48.828,26.367,21.484,44.434,57.617,0
120390.716,55.664,24.414,15.137,41.016,69.336,0
120390.720,35.156,21.973,15.625,33.203,20.996,0
120390.724,22.949,24.902,22.461,33.691,-1.953,0
120390.728,43.945,29.785,12.695,41.016,13.184,0
120390.732,65.430,30.273,-0.488,47.852,46.875,0
120390.736,48.340,30.762,11.230,42.480,36.621,0
120390.740,19.043,34.668,26.367,31.250,-9.277,0
120390.744,28.809,34.668,31.250,32.715,-19.531,0
120390.748,51.270,32.227,29.785,38.574,27.344,0
120390.751,45.410,33.203,29.785,30.762,46.387,0
120390.755,22.949,33.203,27.344,22.461,23.926,0
120390.757,20.996,28.809,20.508,25.391,5.371,0
120390.761,42.480,25.879,12.695,27.832,36.621,0
120390.765,43.457,25.879,2.441,21.484,40.527,0
120390.768,16.113,26.855,4.395,9.277,-24.414,0
120390.772,6.836,27.832,12.207,9.766,-40.039,0
120390.776,29.297,27.344,13.184,21.484,2.441,0
120390.780,41.016,28.320,15.137,21.973,22.461,0
120390.784,20.020,28.320,19.531,14.160,-1.465,0
120390.788,-5.371,28.320,19.531,13.184,-19.043,0
120390.792,10.742,27.832,20.508,25.391,-7.812,0
120390.796,37.598,29.297,20.020,30.762,32.715,0
120390.800,27.344,31.738,15.137,22.461,15.625,0
120390.802,5.859,31.250,14.160,17.090,4.395,0
120390.806,18.066,30.273,10.254,21.973,-4.883,0
120390.810,38.574,29.785,10.254,26.855,12.695,0
120390.813,22.949,26.855,16.113,20.020,36.621,0
120390.817,-2.930,21.973,16.602,10.742,-14.160,0
120390.821,3.906,23.438,18.066,13.184,-12.207,0
120390.825,31.250,26.367,19.531,20.020,35.645,0
120390.829,40.039,28.809,20.508,18.066,41.504,0
120390.833,22.949,31.250,18.555,10.254,20.996,0
120390.837,19.043,31.250,13.672,7.812,-14.648,0
120390.841,40.527,30.762,13.184,15.625,18.555,0
120390.845,51.758,31.738,13.184,20.996,56.152,0
120390.848,33.691,35.156,9.766,15.625,14.160,0
120390.852,13.184,34.180,11.230,8.789,-16.602,0
120390.856,29.297,30.273,4.883,14.160,-18.066,0
120390.860,47.852,29.297,7.324,20.996,-12.695,0
120390.864,33.203,28.320,25.391,20.020,-14.160,0
120390.868,8.789,29.297,28.809,18.066,-44.434,0
120390.872,18.066,30.273,23.926,24.414,-15.137,0
120390.875,40.039,28.320,24.902,33.691,50.293,0
120390.879,29.297,23.438,30.762,27.832,48.828,0
120390.883,0.977,22.461,31.250,17.090,8.301,0
120390.887,-4.395,22.949,26.367,18.066,-9.277,0
120390.891,22.949,22.949,22.949,24.902,49.805,0
120390.907,34.180,22.461,24.414,23.438,85.449,0
120390.911,10.254,22.949,27.344,19.043,48.340,0
120390.915,-0.977,23.926,30.273,20.020,22.461,0
120390.918,30.762,25.391,26.855,27.344,59.082,0
120390.922,51.270,26.367,25.879,29.785,81.543,0
120390.926,22.949,27.344,30.273,20.996,46.875,0
120390.930,-2.441,27.344,25.879,12.207,0.977,0
120390.934,12.695,24.902,13.672,17.090,10.254,0
120390.938,37.109,24.414,11.230,22.949,64.941,0
120390.942,26.367,23.438,21.484,20.020,83.984,0
120390.946,1.465,24.414,27.344,17.090,27.344,0
120390.950,9.766,24.902,27.832,22.461,10.254,0
120390.952,40.527,24.902,27.344,35.645,60.059,0
120390.956,40.527,23.438,24.414,35.645,62.988,0
120390.960,8.301,21.484,23.926,27.832,26.367,0
120390.964,3.906,24.414,26.855,27.832,10.254,0
120390.968,29.297,26.367,24.902,35.156,63.477,0
120390.972,38.574,28.809,20.508,37.598,94.727,0
120390.975,20.508,29.297,15.137,27.832,25.391,0
120390.979,2.441,28.809,8.789,18.555,-0.488,0
120390.983,24.414,30.762,10.254,26.367,0.000,0
120390.987,56.152,29.785,18.555,34.180,-6.348,0
120390.991,43.945,30.762,18.066,26.855,5.859,0
120390.995,14.648,32.227,16.602,19.531,-13.672,0
120390.997,24.902,31.250,19.531,23.926,1.465,0
120391.001,49.805,32.227,12.695,28.809,20.508,0
120391.005,43.457,31.738,12.695,25.391,23.438,0
120391.008,18.066,27.832,20.508,20.508,22.461,0
120391.012,18.066,24.414,18.555,20.996,0.977,0
120391.016,40.527,25.879,7.324,27.344,-2.441,0
120391.020,41.016,25.879,1.953,28.809,45.410,0
120391.024,26.367,25.391,13.184,20.508,30.762,0
120391.028,17.090,24.414,20.996,19.043,-12.695,0
120391.032,30.762,23.438,21.973,30.762,39.551,0
120391.036,45.898,24.414,23.438,34.668,100.586,0
120391.040,28.320,25.879,23.438,23.438,68.359,0
120391.042,1.953,25.879,19.531,15.625,8.301,0
120391.046,13.672,22.949,18.066,25.391,30.762,0
120391.050,41.016,22.949,15.625,35.645,113.281,0
120391.053,31.250,25.391,12.207,26.855,89.355,0
120391.057,4.883,22.461,11.230,17.578,22.949,0
120391.061,15.625,24.414,6.348,25.391,43.457,0
120391.065,52.246,30.762,5.859,36.133,73.242,0
120391.069,46.387,25.391,18.066,35.156,12.207,0
120391.073,14.648,27.832,22.949,27.344,-65.430,0
120391.077,13.184,37.598,11.719,18.066,-33.691,0
120391.081,40.039,41.016,5.371,22.949,40.039,0
120391.085,43.945,38.574,6.348,25.391,64.453,0
120391.088,12.207,34.668,7.812,13.672,8.789,0
120391.092,-0.977,29.785,9.277,11.719,-20.020,0
120391.096,28.320,28.320,11.230,20.020,14.648,0
120391.100,47.363,33.203,10.742,23.438,36.621,0
120391.104,19.531,31.250,9.277,12.207,13.672,0
120391.108,-3.906,27.832,12.207,6.836,-16.602,0
120391.112,20.508,27.832,16.602,19.043,-4.395,0
120391.115,44.922,29.785,15.625,25.879,-1.465,0
120391.119,25.879,33.691,14.160,19.531,1.465,0
120391.123,0.977,33.203,10.254,12.207,-0.977,0
120391.127,14.160,32.715,0.977,22.461,-1.953,0
120391.131,47.852,36.133,1.953,41.504,41.504,0
120391.132,40.527,33.691,14.648,38.086,68.848,0
120391.136,-1.953,27.344,21.484,18.066,13.184,0
120391.140,-5.371,21.973,20.020,18.066,-23.926,0
120391.144,28.809,16.602,29.297,33.203,38.574,0
120391.148,36.133,16.602,34.668,31.250,62.500,0
120391.152,14.648,18.555,24.902,21.973,-7.812,0
120391.156,10.742,20.508,22.461,20.996,-12.695,0
120391.160,34.668,20.996,22.461,24.902,21.973,0
120391.164,44.922,20.508,19.043,26.855,32.227,0
120391.168,23.926,23.438,17.578,19.531,12.695,0
120391.171,2.441,21.484,15.137,15.137,-5.859,0
120391.175,15.625,17.090,12.695,20.508,20.996,0
120391.177,42.480,18.555,18.066,27.344,75.684,0
120391.181,34.668,20.996,18.555,25.391,59.082,0
120391.185,9.766,20.508,11.719,19.531,2.930,0
120391.189,16.602,21.484,8.789,24.414,14.160,0
120391.192,44.922,19.531,12.207,34.668,84.961,0
120391.196,48.340,14.160,18.555,44.434,63.477,0
120391.200,23.438,23.926,10.254,29.785,-44.434,0
120391.204,7.812,37.598,-0.488,4.883,-29.785,0
120391.208,42.969,37.109,-3.906,15.625,76.172,0
120391.212,63.477,36.621,-0.488,28.320,84.473,0
120391.216,25.391,36.621,7.812,19.531,32.715,0
120391.220,5.371,31.738,9.766,18.555,6.348,0
120391.237,30.762,29.297,11.230,29.785,31.250,0
120391.241,56.152,31.250,16.113,37.109,88.867,0
120391.245,42.480,32.227,13.184,30.762,77.148,0
120391.248,17.578,32.227,12.207,22.461,8.301,0
120391.252,35.156,30.762,13.184,31.738,-1.465,0
120391.256,62.988,32.715,11.230,40.039,33.203,0
120391.260,55.176,33.203,7.812,30.273,20.508,0
120391.264,27.832,30.273,9.766,24.902,-10.742,0
120391.268,28.809,29.785,13.184,32.715,9.277,0
120391.272,55.664,31.250,7.812,41.016,51.270,0
120391.276,55.176,33.691,6.836,39.551,65.918,0
120391.280,32.227,35.645,4.883,33.691,32.715,0
120391.282,26.367,32.715,5.371,34.668,-24.902,0
120391.286,43.457,29.785,15.625,41.992,-11.719,0
120391.290,48.828,29.297,16.602,41.504,49.316,0
120391.293,25.391,27.344,14.160,30.762,62.988,0
120391.297,5.371,25.391,18.066,31.738,51.758,0
120391.301,24.902,28.809,25.391,39.062,61.035,0
120391.305,42.480,30.762,24.414,37.109,49.316,0
120391.309,28.320,27.344,22.461,27.832,27.832,0
120391.313,4.883,25.391,24.902,19.531,9.277,0
120391.317,17.090,29.297,21.484,26.367,19.043,0
120391.321,48.340,32.715,15.625,40.039,55.176,0
120391.325,44.922,33.203,13.672,35.156,75.195,0
120391.327,24.902,33.691,19.531,25.391,52.246,0
120391.331,20.020,31.250,23.926,26.855,19.043,0
120391.335,41.992,31.250,19.043,33.691,47.363,0
120391.339,51.758,35.645,13.672,33.691,33.691,0
120391.343,24.902,33.691,10.254,27.832,-23.926,0
120391.347,10.254,32.715,8.301,24.414,-19.043,0
120391.351,32.715,36.133,12.207,34.180,22.949,0
120391.354,48.828,35.645,20.020,42.480,74.707,0
120391.358,21.484,33.203,16.113,32.227,32.227,0
120391.362,-3.418,30.273,3.906,23.926,21.484,0
120391.366,18.066,29.297,10.254,34.668,102.539,0
120391.370,44.922,32.715,27.832,39.062,103.027,0
120391.372,35.645,34.180,30.762,29.297,48.828,0
120391.376,12.207,34.180,26.855,21.973,-1.953,0
120391.380,23.438,33.203,29.297,27.832,-9.277,0
120391.384,55.176,31.250,26.367,41.504,43.945,0
120391.387,57.129,34.668,23.438,41.992,62.012,0
120391.391,39.551,41.992,21.973,36.621,5.371,0
120391.395,33.691,43.945,20.020,39.551,-18.066,0
120391.399,53.223,42.969,17.578,50.293,11.230,0
120391.403,63.477,43.945,11.230,51.758,-10.254,0
120391.407,39.551,41.992,4.395,42.969,-26.855,0
120391.411,27.344,39.062,11.719,41.504,-6.348,0
120391.415,47.363,38.574,20.508,48.340,-8.789,0
120391.417,58.105,39.062,21.484,45.410,23.926,0
120391.421,42.969,41.016,23.438,31.738,13.184,0
120391.425,25.879,39.551,22.949,26.855,-40.527,0
120391.428,42.969,37.598,21.484,32.227,-2.441,0
120391.432,66.406,37.109,21.484,34.668,28.320,0
120391.436,49.316,37.598,21.973,26.367,12.695,0
120391.440,21.484,37.109,19.531,17.578,22.949,0
120391.444,28.809,34.180,19.043,24.902,12.207,0
120391.448,57.129,33.203,21.484,39.551,13.672,0
120391.452,57.129,35.156,21.484,40.039,67.383,0
120391.456,29.297,33.203,24.414,30.762,42.480,0
120391.460,19.531,32.715,24.414,25.879,6.348,0
120391.462,42.480,32.227,22.461,34.668,34.180,0
120391.466,52.734,31.250,21.484,40.039,80.566,0
120391.470,30.273,30.273,19.531,30.762,51.758,0
120391.474,17.578,28.809,20.996,26.367,-2.930,0
120391.477,37.109,28.320,17.578,33.203,52.246,0
120391.481,53.223,24.414,21.484,37.598,105.469,0
120391.485,29.297,21.484,33.691,29.297,56.641,0
120391.489,-0.488,23.438,36.621,19.531,0.000,0
120391.493,15.625,23.438,35.156,23.926,19.531,0
120391.497,43.457,23.438,33.691,39.551,63.477,0
120391.501,36.621,27.832,27.344,31.250,36.621,0
120391.505,9.277,28.320,21.484,12.207,-28.320,0
120391.507,14.648,26.367,25.391,17.090,12.207,0
120391.511,40.039,24.414,33.691,23.926,46.387,0
120391.515,45.410,24.414,28.320,22.461,38.086,0
120391.519,24.902,31.738,20.020,17.090,30.762,0
120391.522,9.277,32.227,24.414,17.578,36.133,0
120391.526,32.715,28.809,24.902,27.832,78.613,0
120391.530,45.410,29.297,26.855,25.879,97.168,0
120391.534,25.391,30.273,33.203,19.531,56.152,0
120391.538,16.113,31.738,34.668,22.461,44.434,0
120391.542,35.156,28.809,35.645,28.320,62.500,0
120391.546,46.387,24.414,35.156,33.203,62.012,0
120391.550,26.367,25.391,22.461,27.832,4.395,0
120391.554,0.000,24.414,17.090,19.043,-48.340,0
120391.558,11.719,21.973,31.250,22.461,-31.738,0
120391.562,39.062,22.949,29.297,32.715,9.766,0
120391.565,26.367,22.461,24.902,30.273,35.156,0
120391.569,4.883,23.926,31.250,23.438,-15.625,0
120391.573,9.277,25.391,35.156,25.391,-8.789,0
120391.577,34.180,26.367,38.086,31.738,33.691,0
120391.581,45.410,24.414,36.133,30.762,23.926,0
120391.585,23.926,22.461,27.832,20.996,-3.418,0
120391.589,11.719,23.926,26.855,16.113,-22.461,0
120391.593,36.133,25.879,25.879,24.414,56.152,0
120391.597,49.316,29.297,17.578,27.832,98.633,0
120391.612,31.738,30.273,15.137,19.043,33.691,0
120391.616,23.926,29.297,13.184,16.113,-2.930,0
120391.620,34.668,31.250,19.531,23.926,13.672,0
120391.624,45.410,33.691,29.785,31.738,35.645,0
120391.627,34.668,33.691,33.203,28.809,31.738,0
120391.631,13.672,35.156,26.855,20.996,-43.945,0
120391.635,22.949,31.250,16.602,25.879,-55.176,0
120391.639,46.875,26.855,13.672,31.250,38.086,0
120391.643,38.574,29.297,22.949,25.391,74.219,0
120391.647,11.230,29.297,26.855,18.066,33.691,0
120391.651,12.207,26.855,20.996,23.926,-24.902,0
120391.655,43.945,27.344,16.113,34.668,27.832,0
120391.657,39.551,27.832,23.926,32.715,80.566,0
120391.661,8.789,25.879,35.156,23.926,14.160,0
120391.665,4.883,24.902,28.320,20.996,-11.719,0
120391.668,27.344,26.367,19.531,24.902,64.941,0
120391.672,44.922,29.785,21.484,24.902,114.746,0
120391.676,24.414,29.785,22.949,14.648,58.594,0
120391.680,1.953,29.297,18.066,12.207,10.254,0
120391.684,17.578,30.762,10.742,23.438,62.988,0
120391.688,39.062,31.250,9.277,29.785,114.746,0
120391.692,22.461,30.273,14.160,22.949,20.020,0
120391.696,-6.348,29.297,22.461,18.066,-36.133,0
120391.700,5.371,26.367,26.367,23.926,33.203,0
120391.702,37.109,23.926,25.879,30.762,82.031,0
120391.706,29.297,23.926,27.344,29.785,76.660,0
120391.710,0.000,23.926,26.855,22.949,39.062,0
120391.713,-2.441,21.484,19.043,22.461,20.996,0
120391.717,26.367,20.996,14.648,33.203,45.410,0
120391.721,38.086,25.879,19.531,35.156,54.688,0
120391.725,17.578,29.785,22.461,25.391,27.344,0
120391.729,4.395,28.320,25.391,19.531,8.301,0
120391.733,20.508,22.949,30.762,20.996,41.016,0
120391.737,37.598,23.926,30.762,21.484,73.730,0
120391.741,27.832,28.320,23.438,14.648,58.594,0
120391.745,4.883,26.367,19.043,9.766,11.719,0
120391.747,12.695,22.949,17.090,22.461,33.691,0
120391.751,37.598,21.484,11.719,32.227,83.008,0
120391.755,31.250,21.973,18.066,25.879,49.316,0
120391.758,8.301,24.414,25.879,20.508,1.465,0
120391.762,14.160,24.902,25.391,25.391,20.020,0
120391.766,41.504,23.438,21.973,35.645,57.129,0
120391.770,37.109,25.391,14.160,34.668,43.457,0
120391.774,8.789,28.320,16.602,22.949,-9.277,0
120391.778,2.930,27.344,23.926,20.020,-18.066,0
120391.782,27.832,27.832,26.855,28.320,38.574,0
120391.786,41.504,28.809,30.273,27.832,65.430,0
120391.790,27.832,27.344,30.762,17.578,24.414,0
120391.792,11.719,29.785,26.367,16.113,1.465,0
120391.796,23.926,32.227,21.973,22.461,53.223,0
120391.800,46.875,31.738,20.508,23.926,89.844,0
120391.804,35.156,25.391,23.438,15.137,-2.441,0
120391.808,16.602,23.438,15.625,10.742,-64.453,0
120391.812,32.227,30.273,17.578,24.902,8.301,0
120391.816,58.594,31.738,24.414,34.668,74.219,0
120391.820,45.898,30.273,22.949,27.344,51.270,0
120391.824,13.672,30.762,30.273,19.043,-24.902,0
120391.828,18.066,32.227,36.133,28.320,-8.789,0
120391.831,48.828,33.691,31.738,40.039,56.641,0
120391.835,51.758,32.715,25.391,39.062,69.824,0
120391.837,21.484,31.250,26.855,30.762,22.461,0
120391.841,12.207,30.762,29.297,30.273,-10.742,0
120391.845,36.621,28.320,28.809,37.109,42.969,0
120391.848,46.875,26.367,27.344,35.156,51.758,0
120391.852,23.438,25.879,21.973,28.809,8.301,0
120391.856,0.488,26.367,21.973,24.414,-7.324,0
120391.860,20.508,28.320,30.273,30.762,-9.766,0
120391.864,46.875,26.855,34.180,31.250,11.719,0
120391.868,27.832,25.391,34.668,23.926,49.316,0
120391.872,3.906,24.902,28.809,22.461,31.738,0
120391.876,23.926,25.391,23.926,27.344,1.465,0
120391.880,51.270,27.832,27.344,35.645,50.293,0
120391.882,43.945,30.273,24.414,36.133,69.336,0
120391.886,18.555,31.250,16.113,33.203,22.949,0
120391.890,14.160,32.715,16.113,34.180,15.137,0
120391.894,42.480,32.715,22.949,41.016,68.848,0
120391.898,50.293,30.762,33.203,37.598,103.027,0
120391.902,21.973,28.320,36.133,21.973,54.199,0
120391.906,8.301,29.785,32.715,18.555,0.977,0
120391.910,29.785,30.273,31.738,25.391,15.625,0
120391.913,49.316,26.855,26.855,32.227,40.039,0
120391.917,37.109,29.297,23.438,29.785,33.691,0
120391.921,10.742,31.738,20.996,19.043,23.438,0
120391.925,19.531,28.320,18.066,23.438,60.547,0
120391.927,46.387,27.344,23.438,33.203,137.695,0
120391.931,37.598,29.785,28.320,25.391,100.098,0
120391.935,11.719,32.715,25.391,16.113,42.969,0
120391.939,17.090,30.762,25.391,20.996,88.867,0
120391.942,42.480,28.320,27.832,32.227,99.609,0
120391.946,39.551,31.250,25.391,30.273,66.406,0
120391.950,12.207,30.762,21.973,20.508,13.672,0
120391.954,12.695,29.297,21.484,24.414,-8.789,0
120391.958,44.434,31.250,20.508,33.203,13.672,0
120391.962,48.828,32.715,23.438,32.227,19.531,0
120391.966,20.996,32.227,21.484,29.297,-7.324,0
120391.970,8.789,32.715,12.695,27.832,-10.742,0
120391.987,32.227,34.180,20.996,36.621,20.020,0
120391.991,50.781,34.180,25.879,39.062,25.391,0
120391.995,32.227,33.691,20.020,28.809,4.883,0
120391.999,2.441,31.738,21.973,23.926,-26.367,0
120392.002,14.648,30.273,23.438,30.762,8.789,0
120392.006,42.480,27.832,24.902,40.039,72.754,0
120392.010,34.180,29.785,29.297,37.598,22.461,0
120392.014,11.230,29.785,13.184,30.273,-4.395,0
120392.018,16.602,29.785,10.742,28.320,12.207,0
120392.022,41.016,31.738,28.320,33.203,45.410,0
120392.026,37.598,31.738,28.809,28.809,68.848,0
120392.030,11.719,30.273,26.367,21.973,28.809,0
120392.032,10.254,26.855,30.762,23.438,7.812,0
120392.036,41.992,28.320,22.949,33.691,55.664,0
120392.040,51.270,31.250,16.113,35.645,59.082,0
120392.043,23.438,32.715,24.414,25.879,10.254,0
120392.047,15.625,32.227,29.297,22.949,-23.438,0
120392.051,42.480,33.691,31.250,35.645,-29.785,0
120392.055,50.781,35.645,23.438,41.016,-4.883,0
120392.059,32.227,31.738,17.090,32.227,46.875,0
120392.063,14.648,28.809,24.902,25.391,3.906,0
120392.067,25.879,30.273,29.297,27.832,-28.809,0
120392.071,52.734,32.715,26.367,38.574,81.543,0
120392.075,45.410,31.738,25.879,36.133,78.613,0
120392.077,20.508,31.250,19.043,24.414,11.719,0
120392.081,25.879,31.738,14.160,27.832,41.504,0
120392.085,52.734,30.273,20.508,36.133,93.750,0
120392.089,55.176,30.273,25.879,35.645,85.938,0
120392.092,27.344,35.156,22.461,36.133,31.738,0
120392.096,18.555,36.133,20.996,34.668,22.461,0
120392.100,50.293,33.691,24.414,36.133,90.820,0
120392.104,62.500,31.738,25.391,37.109,114.746,0
120392.108,30.273,31.738,20.020,27.344,23.926,0
120392.112,11.719,30.762,11.230,22.949,-47.852,0
120392.116,33.203,30.273,15.625,33.203,25.391,0
120392.120,54.688,32.227,20.508,41.504,86.914,0
120392.122,42.480,32.715,18.555,34.180,35.645,0
120392.126,18.555,30.762,20.020,27.344,-12.207,0
120392.130,26.855,30.273,26.855,30.762,19.531,0
120392.134,49.316,29.785,28.809,36.133,70.801,0
120392.137,51.758,31.738,25.879,36.621,64.453,0
120392.141,32.715,32.227,23.926,25.879,0.488,0
120392.145,32.227,32.227,20.020,26.855,-25.879,0
120392.149,57.617,36.133,19.531,41.992,37.109,0
120392.153,60.547,37.598,20.996,39.062,18.555,0
120392.157,34.180,34.668,19.043,26.367,-6.348,0
120392.161,20.508,33.203,13.184,30.762,-5.859,0
120392.165,44.922,31.738,15.625,41.504,20.996,0
120392.167,59.082,29.785,21.484,37.598,62.012,0
120392.171,33.203,32.227,23.438,24.414,41.992,0
120392.175,9.766,31.738,22.949,19.043,-11.719,0
120392.179,28.809,26.855,16.602,23.438,7.812,0
120392.182,54.199,29.297,14.160,26.367,63.477,0
120392.186,45.898,28.809,21.973,18.555,42.969,0
120392.190,22.949,25.879,25.391,13.672,-33.691,0
120392.194,21.973,25.391,23.926,21.973,-51.758,0
120392.198,46.387,23.926,23.926,33.691,-1.953,0
120392.202,45.410,25.879,26.367,37.598,5.371,0
120392.206,14.160,28.320,28.320,31.738,-27.832,0
120392.210,13.184,30.273,30.762,33.691,-47.852,0
120392.212,39.062,31.250,27.832,40.527,1.953,0
120392.216,38.086,29.785,18.555,36.133,52.246,0
120392.220,15.137,29.785,15.137,27.344,11.719,0
120392.223,3.906,30.273,16.602,26.855,-13.672,0
120392.227,28.809,28.320,15.625,34.668,34.180,0
120392.231,49.805,26.367,18.555,40.039,77.148,0
120392.235,39.062,28.320,22.461,30.273,50.293,0
120392.239,16.602,30.273,28.809,19.531,-23.438,0
120392.243,23.438,28.320,27.344,26.855,-16.113,0
120392.247,47.363,24.902,21.973,35.156,47.852,0
120392.251,40.527,25.879,28.809,29.297,28.809,0
120392.255,19.531,29.297,33.691,21.484,-36.133,0
120392.259,22.949,28.809,28.320,23.926,-39.551,0
120392.263,44.922,28.809,22.461,34.668,22.949,0
120392.266,46.875,30.273,22.461,33.691,34.668,0
120392.270,25.879,30.273,24.902,24.414,16.602,0
120392.274,20.996,31.250,26.367,25.879,20.020,0
120392.278,45.410,30.273,25.879,33.691,25.879,0
120392.282,56.641,27.832,26.367,34.180,37.598,0
120392.286,30.762,29.297,27.344,26.367,17.578,0
120392.290,10.254,29.297,29.785,23.438,7.812,0
120392.294,31.250,27.832,29.297,30.273,29.785,0
120392.298,50.293,28.809,24.414,31.738,50.781,0
120392.302,35.645,31.250,17.578,23.438,32.715,0
120392.302,13.672,29.785,17.578,18.555,10.254,0
120392.306,26.855,28.320,28.320,24.902,29.785,0
120392.310,52.734,29.297,33.691,34.180,77.637,0
120392.314,48.340,26.855,25.879,32.227,71.777,0
120392.317,30.273,29.785,24.902,25.879,22.949,0
120392.321,32.227,33.203,17.090,30.273,38.574,0
120392.325,49.316,28.809,8.301,42.480,100.586,0
120392.329,52.734,25.391,26.855,42.969,107.910,0
120392.333,30.273,28.809,42.480,31.738,67.871,0
120392.337,20.996,33.203,41.016,29.785,38.574,0
120392.341,46.875,31.738,38.574,40.527,61.035,0
120392.345,55.176,27.344,42.969,41.992,95.703,0
120392.362,33.203,30.273,39.062,32.227,54.199,0
120392.366,16.113,32.227,31.738,29.785,9.277,0
120392.370,35.645,31.250,28.320,38.574,4.395,0
120392.374,59.082,31.738,29.785,40.527,31.738,0
120392.377,34.668,30.762,33.691,30.762,66.406,0
120392.381,2.441,29.297,31.250,18.555,27.344,0
120392.385,11.230,23.926,26.855,18.066,12.207,0
120392.389,38.574,20.996,23.926,27.832,62.012,0
120392.393,37.109,25.879,27.344,27.344,95.215,0
120392.397,11.230,29.785,26.855,17.578,16.113,0
120392.401,11.230,29.785,13.184,20.996,-20.508,0
120392.405,39.551,28.809,15.625,37.598,62.988,0
120392.407,42.969,27.344,40.527,38.086,80.566,0
120392.411,19.043,25.391,52.734,26.367,5.859,0
120392.415,14.648,24.414,46.387,24.414,-21.484,0
120392.418,34.180,25.879,39.062,34.180,61.035,0
120392.422,42.969,27.344,35.156,38.574,66.895,0
120392.426,21.484,25.391,34.180,29.297,-12.207,0
120392.430,-1.953,23.438,31.738,19.531,0.977,0
120392.434,21.484,24.902,28.809,27.344,65.430,0
120392.438,50.293,26.367,25.391,34.668,100.098,0
120392.442,34.668,25.879,25.879,24.902,33.203,0
120392.446,7.812,26.367,32.715,18.066,1.953,0
120392.450,15.625,26.367,33.203,25.391,65.918,0
120392.452,44.434,23.926,24.902,36.621,104.492,0
120392.456,43.457,23.438,17.578,35.156,93.262,0
120392.460,17.090,25.391,20.996,27.832,24.902,0
120392.463,16.602,25.879,31.738,31.250,-11.230,0
120392.467,41.504,26.855,33.691,38.086,28.809,0
120392.471,51.270,30.762,32.715,34.180,72.266,0
120392.475,23.926,35.645,37.109,25.879,24.414,0
120392.479,11.230,35.156,33.691,24.414,-10.254,0
120392.483,35.645,32.715,25.391,28.809,32.227,0
120392.487,42.969,30.762,25.391,29.297,48.340,0
120392.491,23.926,28.809,25.879,23.926,43.945,0
120392.495,4.883,26.855,23.438,19.043,0.977,0
120392.497,22.461,31.738,24.414,27.344,8.301,0
120392.501,54.199,35.645,24.414,35.156,68.359,0
120392.505,48.340,34.180,26.855,26.367,35.645,0
120392.508,15.137,35.156,29.785,18.555,-25.391,0
120392.512,11.719,33.691,27.344,21.973,-15.137,0
120392.516,39.062,29.785,22.949,30.762,21.973,0
120392.520,40.039,30.762,17.578,31.738,45.898,0
120392.524,14.160,31.250,21.973,23.438,11.230,0
120392.528,4.395,28.320,25.391,20.996,-14.160,0
120392.532,28.809,31.250,22.949,30.273,51.758,0
120392.536,40.527,34.668,19.043,29.785,89.355,0
120392.540,18.066,33.203,21.973,27.832,49.805,0
120392.542,14.648,28.809,27.344,27.832,-33.691,0
120392.546,35.645,27.832,27.832,28.320,21.484,0
120392.550,37.109,29.297,23.438,28.809,102.051,0
120392.554,19.531,29.785,22.949,17.578,48.340,0
120392.558,7.812,33.691,26.367,16.113,31.738,0
120392.561,25.391,34.668,21.484,26.855,58.105,0
120392.565,50.781,32.227,16.602,34.180,57.129,0
120392.569,44.434,33.691,21.484,35.645,17.578,0
120392.573,15.137,32.227,30.762,29.785,-20.020,0
120392.577,13.672,30.273,34.668,27.832,34.668,0
120392.581,40.527,28.320,36.621,40.039,119.629,0
120392.585,43.945,29.785,35.645,40.039,98.633,0
120392.587,14.648,28.320,32.227,28.809,22.949,0
120392.591,5.371,24.414,25.391,31.250,20.020,0
120392.595,34.668,26.367,18.555,39.551,36.621,0
120392.598,43.457,28.809,20.508,37.598,49.316,0
120392.602,18.555,28.320,20.508,26.367,54.688,0
120392.606,9.277,28.809,22.949,24.902,18.555,0
120392.610,30.762,29.297,33.203,34.180,30.762,0
120392.614,41.016,29.297,30.762,31.250,58.594,0
120392.618,22.949,30.762,23.438,22.461,23.438,0
120392.622,4.395,27.832,23.926,21.973,64.941,0
120392.626,19.531,28.809,23.926,28.809,85.938,0
120392.630,46.387,30.273,25.879,37.598,84.473,0
120392.632,37.109,26.855,29.785,37.109,91.797,0
120392.636,13.184,25.879,29.785,24.902,27.832,0
120392.640,15.137,27.832,26.367,27.344,0.000,0
120392.643,40.039,27.832,32.227,41.504,84.473,0
120392.647,52.734,27.832,40.039,44.922,118.164,0
120392.651,25.391,25.879,33.691,34.668,20.508,0
120392.655,5.371,23.438,30.273,27.344,-20.508,0
120392.659,29.785,25.879,28.320,35.156,47.363,0
120392.663,43.457,28.809,23.438,36.133,108.398,0
120392.667,26.855,26.855,24.414,27.344,33.203,0
120392.671,11.230,26.367,27.832,22.461,-26.367,0
120392.675,31.250,28.809,28.809,28.320,23.438,0
120392.677,51.270,29.297,22.461,34.668,83.984,0
120392.681,35.645,30.273,19.043,28.809,52.246,0
120392.685,13.672,29.785,26.855,22.461,-21.973,0
120392.688,21.484,30.762,35.645,27.344,-9.766,0
120392.692,46.387,29.297,31.250,39.062,46.875,0
120392.696,45.410,27.832,27.344,31.250,53.223,0
120392.700,10.254,27.344,29.785,16.113,-47.852,0
120392.704,1.465,28.320,29.297,18.555,-75.684,0
120392.708,30.762,31.738,28.809,28.809,19.043,0
120392.712,40.527,32.715,27.344,33.691,44.434,0
120392.716,19.531,29.297,23.926,29.785,65.918,0
120392.720,5.859,29.785,23.438,24.414,68.359,0
120392.723,25.879,31.738,28.320,30.762,37.598,0
120392.727,42.969,30.273,26.855,32.715,19.043,0
120392.731,29.297,29.785,24.414,24.902,-1.465,0
120392.735,16.113,26.367,22.949,22.461,-7.324,0
120392.739,32.227,25.879,17.090,27.832,47.852,0
120392.743,48.340,28.320,21.484,29.297,39.551,0
120392.747,37.109,29.785,24.902,24.414,11.719,0
120392.750,20.508,30.273,25.391,22.461,9.766,0
120392.754,26.367,30.762,22.949,22.949,-7.812,0
120392.758,45.898,32.715,19.531,31.738,31.738,0
120392.762,41.992,30.273,24.414,31.250,77.148,0
120392.766,18.066,28.320,25.879,23.926,17.090,0
120392.782,15.625,31.250,22.461,26.367,3.906,0
120392.786,40.039,32.715,22.949,34.180,125.000,0
120392.790,51.758,31.738,23.438,37.109,139.648,0
120392.794,27.344,29.785,24.902,28.320,48.340,0
120392.797,6.348,29.297,26.855,22.461,-16.602,0
120392.801,24.902,29.297,27.832,31.250,22.461,0
120392.805,44.434,27.832,28.320,36.621,38.574,0
120392.809,31.250,27.832,23.926,28.320,15.137,0
120392.813,10.742,25.879,23.438,18.555,-10.742,0
120392.817,15.625,27.344,31.738,25.879,-11.230,0
120392.821,32.227,30.273,34.668,33.691,58.105,0
120392.825,25.391,29.785,27.832,28.809,51.270,0
120392.827,10.254,32.715,28.320,26.367,14.648,0
120392.831,19.531,35.645,26.367,31.250,34.180,0
120392.835,46.387,34.180,22.461,38.086,72.266,0
120392.838,48.828,31.250,27.344,36.621,94.238,0
120392.842,24.414,30.762,27.344,27.832,13.672,0
120392.846,14.648,32.715,24.902,27.344,-15.625,0
120392.850,31.250,31.250,24.902,34.180,54.199,0
120392.854,41.504,27.832,25.391,37.109,67.383,0
120392.858,21.973,30.273,30.762,23.926,20.020,0
120392.862,2.930,31.250,33.203,12.207,-22.461,0
120392.866,28.320,30.273,27.344,22.461,35.156,0
120392.870,52.246,29.785,27.832,31.738,68.359,0
120392.872,31.250,29.785,31.738,27.344,25.391,0
120392.876,3.906,27.832,26.855,17.578,0.488,0
120392.880,13.184,24.902,21.484,18.555,46.875,0
120392.884,41.992,24.902,21.973,30.762,86.426,0
120392.887,31.738,27.344,24.902,29.297,52.734,0
120392.891,2.441,28.809,28.320,17.090,3.906,0
120392.895,8.301,26.367,30.762,20.020,30.273,0
120392.899,37.109,25.391,26.855,33.691,65.918,0
120392.903,43.457,26.855,26.367,31.250,27.344,0
120392.907,20.020,29.785,28.809,23.926,6.348,0
120392.911,9.277,30.273,25.391,27.832,37.109,0
120392.915,36.133,28.320,22.949,35.156,74.219,0
120392.917,48.340,28.809,26.367,35.156,82.520,0
120392.921,22.461,26.855,24.414,26.855,71.289,0
120392.925,7.812,24.902,21.484,24.414,45.898,0
120392.929,23.438,23.438,24.414,26.855,62.012,0
120392.933,35.156,22.461,28.809,30.762,69.336,0
120392.936,24.414,25.391,30.273,26.367,70.312,0
120392.940,3.418,26.855,27.832,19.531,66.406,0
120392.944,14.160,28.320,23.926,24.414,29.785,0
120392.948,45.410,29.297,27.344,33.203,38.574,0
120392.952,42.969,29.785,32.227,31.250,91.309,0
120392.956,16.602,28.320,26.855,22.461,93.262,0
120392.960,17.090,25.391,22.949,27.344,46.875,0
120392.963,46.875,26.855,22.461,35.156,62.500,0
120392.967,54.199,28.320,20.996,32.227,78.613,0
120392.971,26.367,27.344,24.902,26.855,34.668,0
120392.975,21.484,30.762,29.785,29.297,7.324,0
120392.979,52.734,30.762,33.691,41.992,77.148,0
120392.983,55.176,31.250,33.691,49.805,112.793,0
120392.987,28.809,29.785,31.738,42.480,40.039,0
120392.990,11.719,24.902,29.785,33.691,13.184,0
120392.994,23.926,25.879,27.344,35.645,68.359,0
120392.998,44.434,25.879,25.391,42.480,135.254,0
120393.002,30.762,25.391,25.879,36.133,123.535,0
120393.006,6.836,27.344,30.273,30.762,72.754,0
120393.007,20.508,27.832,30.762,37.598,71.289,0
120393.011,44.922,26.855,26.855,47.363,99.609,0
120393.015,41.504,26.855,20.020,38.574,62.988,0
120393.019,17.578,25.879,18.555,24.902,-20.020,0
120393.022,12.695,25.391,24.414,28.809,-27.832,0
120393.026,43.457,25.391,29.297,43.945,33.691,0
120393.030,48.828,25.391,30.273,41.016,48.828,0
120393.034,15.625,25.391,26.855,24.902,2.441,0
120393.038,3.906,19.531,24.414,22.949,12.207,0
120393.042,31.738,20.020,24.414,31.738,42.969,0
120393.046,48.828,24.414,25.879,32.227,36.621,0
120393.050,31.250,25.879,28.320,23.438,26.855,0
120393.052,8.789,26.367,21.484,19.531,26.855,0
120393.056,20.996,27.344,19.043,26.855,16.113,0
120393.060,46.875,27.344,20.996,33.691,37.109,0
120393.063,37.598,23.926,16.113,26.367,41.992,0
120393.067,16.113,23.438,20.020,20.508,10.254,0
120393.071,25.391,24.414,26.367,26.855,9.766,0
120393.075,43.945,23.438,23.926,30.762,11.719,0
120393.079,43.457,26.855,24.414,21.973,51.758,0
120393.083,24.902,29.785,26.367,19.043,66.406,0
120393.087,22.461,32.227,24.902,21.484,0.977,0
120393.091,51.270,33.203,23.926,30.762,29.297,0
120393.095,59.082,31.250,22.461,35.645,71.289,0
120393.112,28.320,30.273,24.414,29.297,60.547,0
120393.116,8.789,28.809,24.902,22.949,24.414,0
120393.120,26.367,25.391,24.414,29.785,16.602,0
120393.124,45.410,25.391,24.902,36.621,65.430,0
120393.127,29.785,27.344,23.438,31.738,49.316,0
120393.131,5.859,26.855,25.879,23.438,-24.902,0
120393.135,19.043,25.879,26.367,26.855,-17.090,0
120393.139,48.340,25.879,23.438,33.691,59.082,0
120393.143,44.434,24.414,24.902,27.344,60.059,0
120393.147,20.020,25.879,23.438,23.438,20.996,0
120393.151,22.461,31.738,20.508,22.461,23.438,0
120393.155,52.246,32.715,25.879,21.484,93.262,0
120393.157,56.152,31.250,29.785,23.926,106.934,0
120393.161,27.344,31.250,29.297,20.508,39.551,0
120393.165,14.648,30.273,25.879,20.508,24.902,0
120393.168,40.039,30.762,20.020,32.715,75.195,0
120393.172,54.199,28.809,21.484,38.086,136.230,0
120393.176,28.320,25.391,28.809,28.320,108.887,0
120393.180,11.719,26.855,27.344,21.484,37.109,0
120393.184,33.203,26.367,24.902,30.762,34.180,0
120393.188,53.711,25.391,28.320,36.621,70.312,0
120393.192,41.504,29.785,29.785,27.344,49.805,0
120393.196,20.508,33.691,25.879,21.484,12.695,0
120393.200,27.832,32.715,27.344,25.391,50.293,0
120393.202,53.223,31.738,29.785,33.691,75.684,0
120393.206,50.293,34.668,25.391,29.297,40.527,0
120393.210,25.879,32.715,21.973,20.996,21.973,0
120393.213,26.855,31.250,19.531,26.367,5.859,0
120393.217,53.711,32.227,20.996,38.574,49.316,0
120393.221,61.035,32.715,27.344,40.039,49.805,0
120393.225,38.086,32.715,32.227,34.668,8.301,0
120393.229,28.320,29.785,31.250,31.738,-5.371,0
120393.233,46.387,26.367,32.715,39.062,23.438,0
120393.237,52.734,26.367,33.691,39.551,87.891,0
120393.241,33.203,27.832,26.855,31.738,85.938,0
120393.245,13.184,29.785,27.344,25.879,11.719,0
120393.247,23.926,27.832,28.320,24.902,28.809,0
120393.251,47.852,26.855,20.996,32.227,86.426,0
120393.255,33.691,28.809,19.043,27.832,87.402,0
120393.258,6.348,32.227,24.414,14.648,46.875,0
120393.262,13.672,31.250,23.926,23.438,43.457,0
120393.266,39.551,26.855,24.414,35.645,84.473,0
120393.270,37.109,25.879,25.391,27.344,76.172,0
120393.274,13.184,25.879,20.020,24.902,38.574,0
120393.278,13.672,28.320,18.555,28.809,17.090,0
120393.282,38.574,31.738,25.391,33.691,57.129,0
120393.286,39.062,29.785,30.273,32.227,117.676,0
120393.290,13.184,26.855,26.855,26.855,71.289,0
120393.292,3.418,26.367,18.555,23.926,17.578,0
120393.296,15.625,23.438,16.602,32.227,86.426,0
120393.300,31.738,22.949,25.879,38.574,130.859,0
120393.304,20.996,27.344,31.738,26.367,88.867,0
120393.308,-2.930,29.297,29.785,15.137,30.273,0
120393.312,12.207,30.273,28.809,23.926,34.180,0
120393.316,40.527,31.738,26.855,36.621,85.449,0
120393.320,33.203,33.691,23.926,34.180,38.574,0
120393.324,8.301,32.227,21.973,24.414,-46.875,0
120393.328,12.207,30.762,21.484,31.250,12.207,0
120393.332,42.969,29.785,22.461,42.480,62.500,0
120393.335,46.875,28.320,25.391,38.086,58.594,0
120393.337,17.578,27.832,27.832,31.250,36.621,0
120393.341,13.672,28.809,28.320,34.180,25.391,0
120393.345,39.062,28.320,30.273,41.016,44.922,0
120393.348,45.410,25.391,31.738,36.621,47.363,0
120393.352,25.391,26.367,27.344,27.832,20.508,0
120393.356,8.301,26.855,22.949,26.855,0.488,0
120393.360,33.691,26.855,20.996,38.574,22.461,0
120393.364,59.570,27.832,24.902,45.898,40.039,0
120393.368,36.621,28.809,30.762,36.133,37.598,0
120393.372,15.625,26.367,31.250,30.273,8.789,0
120393.376,34.180,27.344,31.250,39.062,36.133,0
120393.380,58.105,31.250,29.785,48.828,56.152,0
120393.382,52.246,29.297,28.320,43.945,57.617,0
120393.386,27.832,27.344,30.273,29.785,37.598,0
120393.390,18.066,27.832,27.344,30.273,16.113,0
120393.393,35.645,28.320,22.461,38.574,71.777,0
120393.397,37.598,27.344,23.438,37.109,111.328,0
120393.401,14.160,25.879,28.809,31.738,34.180,0
120393.405,7.324,25.391,25.879,27.832,-36.133,0
120393.409,30.273,24.414,25.391,34.180,23.926,0
120393.413,42.969,26.367,33.203,41.016,92.285,0
120393.417,20.020,26.855,38.086,31.738,82.520,0
120393.421,1.953,23.438,36.133,23.438,10.254,0
120393.425,23.438,22.461,34.180,30.762,15.625,0
120393.428,44.922,22.461,32.227,34.180,64.941,0
120393.432,31.738,21.973,29.785,25.391,22.461,0
120393.436,6.348,24.414,24.414,20.020,-40.527,0
120393.440,14.160,21.973,20.020,25.391,-8.789,0
120393.444,43.945,19.531,26.367,34.668,71.289,0
120393.448,36.621,22.949,28.809,33.691,68.848,0
120393.452,9.766,24.902,29.297,21.973,4.883,0
120393.455,7.812,27.832,32.715,17.578,-7.812,0
120393.459,38.574,27.832,31.738,26.855,72.266,0
120393.463,49.316,25.391,27.344,27.832,86.914,0
120393.467,13.184,26.367,20.508,18.555,37.598,0
120393.471,0.000,26.367,20.996,14.648,-7.324,0
120393.487,27.344,26.855,27.832,22.949,-9.277,0
120393.491,38.086,27.344,21.484,24.414,33.203,0
120393.495,17.578,27.344,13.672,16.113,24.414,0
120393.499,1.465,29.297,20.020,10.254,-17.090,0
120393.502,21.484,31.250,31.250,20.508,20.996,0
120393.506,47.852,30.762,31.250,32.227,48.340,0
120393.510,34.668,28.320,28.320,27.344,0.000,0
120393.514,9.766,26.855,28.320,20.020,-20.508,0
120393.518,16.113,29.297,28.320,25.391,-2.441,0
120393.522,42.480,32.715,24.902,31.738,23.438,0
120393.526,41.504,32.227,26.367,26.855,62.988,0
120393.530,15.625,30.762,28.809,19.043,38.574,0
120393.532,16.113,29.785,25.879,20.020,18.066,0
120393.536,42.480,28.320,28.320,28.809,65.918,0
120393.540,45.898,28.320,28.809,27.344,69.824,0
120393.543,21.484,29.297,23.926,17.578,31.738,0
120393.547,9.277,23.926,19.043,16.113,4.883,0
120393.551,31.738,22.949,18.555,25.879,64.941,0
120393.555,44.434,28.320,19.531,29.297,98.145,0
120393.559,21.484,28.809,15.625,20.508,61.523,0
120393.563,5.371,30.273,15.137,19.531,27.344,0
120393.567,22.949,27.832,18.066,29.297,19.531,0
120393.571,46.875,27.344,27.832,35.645,64.941,0
120393.575,37.109,30.762,36.621,34.180,58.594,0
120393.577,17.090,29.785,33.203,24.902,16.602,0
120393.581,21.484,27.832,23.926,24.902,8.301,0
120393.585,41.992,26.367,20.996,39.062,53.711,0
120393.589,44.922,24.902,22.461,31.250,98.145,0
120393.592,20.020,26.367,23.926,18.555,51.758,0
120393.596,10.742,26.855,23.438,22.949,20.020,0
120393.600,33.203,23.926,20.996,29.785,54.199,0
120393.604,45.410,25.879,21.484,30.762,92.773,0
120393.608,24.902,29.785,24.902,24.414,71.289,0
120393.612,7.812,27.832,31.250,20.508,28.809,0
120393.616,29.297,26.367,32.715,32.715,93.750,0
120393.620,43.457,25.879,29.785,38.574,127.930,0
120393.622,20.996,26.367,25.879,29.297,59.082,0
120393.626,4.883,25.879,25.391,25.879,22.461,0
120393.630,20.020,24.902,26.855,33.203,37.109,0
120393.634,42.969,26.367,24.414,37.598,65.918,0
120393.637,40.039,31.738,20.020,33.203,98.633,0
120393.641,13.184,34.180,21.973,25.879,66.406,0
120393.645,15.625,31.738,26.367,29.297,61.035,0
120393.649,44.434,28.809,30.273,41.992,88.379,0
120393.653,45.410,25.879,30.273,38.574,75.684,0
120393.657,23.926,26.855,24.414,29.785,62.988,0
120393.661,20.996,27.832,22.461,34.180,44.922,0
120393.665,44.434,29.297,26.367,41.992,92.285,0
120393.669,52.734,30.762,27.344,39.551,90.820,0
120393.673,29.785,32.227,22.949,35.645,41.992,0
120393.677,7.812,32.227,26.855,35.645,41.016,0
120393.681,24.414,32.227,34.180,38.574,64.941,0
120393.684,43.945,31.738,29.785,40.527,86.914,0
120393.688,27.832,27.832,27.344,32.715,52.734,0
120393.692,3.418,30.273,29.297,26.367,-11.230,0
120393.696,16.602,35.156,27.344,29.785,20.508,0
120393.700,44.922,35.156,26.855,35.645,67.871,0
120393.704,45.410,36.621,27.832,36.621,82.031,0
120393.708,21.973,38.086,23.926,30.273,52.734,0
120393.712,17.090,38.574,23.438,28.320,55.176,0
120393.712,45.898,32.227,30.273,41.504,108.398,0
120393.716,55.664,31.250,34.668,44.434,114.258,0
120393.720,30.762,37.598,28.809,23.438,68.359,0
120393.723,17.578,41.504,19.531,11.719,21.484,0
120393.727,37.109,42.969,16.113,22.461,53.711,0
120393.731,48.340,42.480,16.113,24.414,80.566,0
