timestamps,TP9,AF7,AF8,TP10,Right AUX,Marker0
119607.785,81.543,46.875,32.227,35.156,-45.410,0
119607.789,96.680,41.016,29.785,36.133,-12.695,0
119607.792,98.145,41.504,36.133,34.668,-1.465,0
119607.796,67.871,42.969,37.598,21.973,-14.160,0
119607.800,62.988,40.039,32.715,19.043,-77.637,0
119607.804,82.520,37.598,30.762,30.762,-36.621,0
119607.808,80.566,42.969,34.668,27.344,29.785,0
119607.812,72.754,52.246,32.227,15.137,-32.227,0
119607.816,65.430,56.152,29.297,18.066,-46.875,0
119607.820,81.543,53.711,26.855,20.508,-5.371,0
119607.824,104.980,47.363,20.996,20.996,31.738,0
119607.828,90.332,44.434,19.531,8.789,12.695,0
119607.829,59.082,44.434,23.926,-1.465,2.441,0
119607.833,73.242,44.922,15.137,12.207,37.109,0
119607.837,98.633,48.340,8.301,21.973,88.379,0
119607.840,94.727,48.340,17.090,25.391,81.543,0
119607.844,74.219,44.434,20.996,17.090,-0.488,0
119607.848,69.824,43.945,22.461,18.066,-2.441,0
119607.852,90.820,51.758,29.785,27.344,65.918,0
119607.856,88.867,51.758,24.902,31.250,46.387,0
119607.860,62.500,48.828,16.602,37.109,19.043,0
119607.864,55.176,42.969,16.113,23.438,5.371,0
119607.868,75.195,32.715,20.508,16.113,40.527,0
119607.872,91.797,34.668,21.484,17.090,71.289,0
119607.875,65.918,43.457,20.508,15.625,23.438,0
119607.879,35.156,44.922,21.973,16.602,-11.230,0
119607.883,61.523,41.504,22.461,20.020,0.000,0
119607.887,91.797,36.621,17.578,30.762,22.461,0
119607.891,76.660,31.250,17.578,39.062,62.500,0
119607.894,54.199,36.621,24.902,22.461,9.277,0
119607.898,62.500,41.992,25.879,19.531,-35.645,0
119607.902,94.238,39.062,23.926,35.156,10.254,0
119607.906,95.215,34.668,24.414,32.227,15.137,0
119607.910,59.082,31.250,21.973,25.879,-16.602,0
119607.914,50.781,27.832,20.508,21.973,-17.578,0
119607.918,77.148,28.809,21.973,17.090,32.715,0
119607.919,83.008,24.414,24.414,19.043,24.414,0
119607.923,59.082,21.484,21.973,16.113,-34.668,0
119607.926,42.969,31.250,22.949,20.996,-40.039,0
119607.930,61.035,39.062,25.879,34.180,0.488,0
119607.934,80.566,41.016,22.949,26.367,7.324,0
119607.938,62.988,35.645,22.461,19.043,-46.875,0
119607.942,53.711,37.598,21.484,23.438,-104.492,0
119607.946,70.312,39.062,22.949,29.785,-53.223,0
119607.950,80.078,38.086,23.926,20.996,35.156,0
119607.954,81.543,40.527,19.531,22.949,9.277,0
119607.958,62.988,43.945,20.508,26.855,-14.160,0
119607.962,56.152,42.480,23.926,14.648,-1.465,0
119607.979,84.961,41.504,23.926,22.949,29.297,0
119607.983,86.914,40.039,20.020,29.297,39.062,0
119607.987,64.941,35.156,20.508,19.531,-10.254,0
119607.990,59.570,33.691,20.996,15.137,-44.922,0
119607.994,81.055,34.668,18.555,23.438,14.648,0
119607.998,93.262,31.738,20.508,32.715,36.133,0
119608.002,72.754,35.156,32.227,28.809,-32.227,0
119608.006,64.941,36.621,26.367,22.461,-33.691,0
119608.010,76.660,31.738,14.648,29.297,41.504,0
119608.014,87.891,30.762,11.230,32.715,49.316,0
119608.018,81.543,33.691,13.184,26.855,6.348,0
119608.022,60.059,37.109,20.996,18.555,-13.184,0
119608.024,72.266,33.691,17.090,30.273,3.418,0
119608.028,111.328,27.832,15.137,41.016,51.758,0
119608.031,96.191,25.879,18.066,23.926,80.566,0
119608.035,58.594,36.133,25.879,17.578,27.344,0
119608.039,69.824,38.574,30.273,36.133,5.859,0
119608.043,88.379,31.738,24.414,38.086,34.668,0
119608.047,83.008,28.809,14.648,21.973,38.086,0
119608.051,59.082,22.949,8.301,22.461,23.438,0
119608.055,57.617,17.090,11.230,17.578,4.395,0
119608.059,86.914,18.066,16.602,23.926,16.602,0
119608.063,100.098,26.855,21.973,33.691,39.062,0
119608.067,81.543,35.645,18.555,19.043,14.648,0
119608.069,57.617,35.156,17.578,14.160,-14.160,0
119608.073,70.801,29.297,20.020,26.367,-10.742,0
119608.077,96.191,30.273,20.996,32.715,29.785,0
119608.081,75.684,27.344,20.020,25.391,35.645,0
119608.085,45.410,21.973,17.090,19.531,-3.906,0
119608.088,65.918,25.879,20.020,32.227,13.672,0
119608.092,103.027,29.785,12.207,36.621,48.828,0
119608.096,91.797,27.832,7.324,25.879,19.531,0
119608.100,54.199,30.762,20.020,23.926,-87.891,0
119608.104,50.293,33.203,21.484,18.555,-93.262,0
119608.108,80.566,37.598,24.902,30.273,-10.254,0
119608.112,98.633,38.086,26.367,36.621,5.859,0
119608.114,72.754,33.691,19.043,20.020,-19.531,0
119608.118,52.246,34.668,14.648,22.949,-39.551,0
119608.121,77.637,34.668,17.090,36.621,-36.621,0
119608.125,85.938,32.715,16.602,36.621,-20.508,0
119608.129,65.430,23.926,17.578,35.645,-41.504,0
119608.133,44.922,22.949,25.391,35.156,-65.918,0
119608.137,64.453,29.297,27.832,32.715,-18.066,0
119608.141,83.008,25.879,22.461,29.785,-8.301,0
119608.145,66.406,30.762,23.926,24.414,-55.664,0
119608.149,43.457,36.621,25.391,16.113,-70.312,0
119608.153,47.852,30.762,21.973,17.578,-32.227,0
119608.157,79.102,35.156,26.367,28.320,-12.695,0
119608.159,72.266,38.086,24.902,20.996,-21.484,0
119608.163,38.086,35.156,17.578,14.160,-7.812,0
119608.166,40.039,36.133,22.461,15.625,-19.043,0
119608.170,69.336,36.133,26.367,25.879,-34.668,0
119608.174,78.125,31.738,18.066,31.738,9.277,0
119608.178,55.176,29.785,7.812,31.738,-10.742,0
119608.182,54.688,37.109,17.090,37.598,-42.480,0
119608.186,85.449,35.645,29.785,33.691,-36.621,0
119608.190,84.473,28.809,14.160,16.113,-33.691,0
119608.194,59.570,32.227,7.324,13.184,-50.781,0
119608.198,52.734,27.832,18.555,17.090,-68.848,0
119608.202,79.590,23.926,19.531,32.715,-27.832,0
119608.204,94.238,24.414,19.043,37.109,6.836,0
119608.208,74.219,27.832,19.043,23.926,3.418,0
119608.212,51.758,26.367,17.578,19.531,-33.691,0
119608.216,59.082,18.555,19.043,23.438,-16.602,0
119608.220,85.938,11.230,22.461,38.574,88.379,0
119608.224,88.379,20.508,20.020,48.828,69.336,0
119608.228,62.012,32.715,18.066,31.250,-39.551,0
119608.232,62.500,32.715,23.438,23.438,-58.105,0
119608.236,99.121,38.574,20.020,39.551,21.973,0
119608.239,99.609,32.715,10.742,42.969,68.359,0
119608.243,76.660,29.297,14.648,35.645,16.113,0
119608.247,70.801,32.715,21.973,36.133,-32.227,0
119608.249,73.730,29.297,22.949,35.156,12.695,0
119608.253,82.520,32.715,21.484,24.414,60.059,0
119608.256,72.754,36.133,21.484,17.578,20.020,0
119608.260,57.617,34.668,29.785,20.508,-47.852,0
119608.264,79.102,36.133,25.879,33.203,-22.461,0
119608.268,97.656,38.086,12.695,41.992,-1.465,0
119608.272,83.984,36.621,15.137,36.621,-16.113,0
119608.276,62.988,32.715,19.531,33.691,-44.922,0
119608.280,58.105,30.273,17.578,37.598,-14.160,0
119608.284,81.543,29.297,22.949,40.527,37.109,0
119608.288,92.773,26.367,25.391,39.062,21.973,0
119608.292,66.406,29.297,25.391,29.785,3.906,0
119608.294,57.617,34.180,22.949,31.250,17.090,0
119608.298,85.449,33.691,18.555,41.504,38.574,0
119608.301,104.492,36.621,15.625,48.828,30.762,0
119608.305,86.914,36.621,16.602,41.016,-9.277,0
119608.309,58.594,33.691,21.973,30.762,-36.133,0
119608.313,74.707,27.832,20.020,36.621,-0.977,0
119608.317,103.516,27.344,15.625,41.992,6.836,0
119608.321,81.055,36.133,16.602,37.109,3.418,0
119608.325,54.688,34.180,19.531,43.457,-30.273,0
119608.329,69.336,25.391,19.043,47.363,-53.223,0
119608.333,93.750,22.949,22.949,36.133,9.277,0
119608.337,86.914,27.832,27.832,34.668,-26.367,0
119608.340,58.594,33.203,23.438,29.297,-55.664,0
119608.344,48.828,33.691,18.555,22.949,-19.043,0
119608.348,82.520,29.785,16.113,31.738,63.477,0
119608.352,91.309,27.344,12.207,32.715,75.684,0
119608.356,62.500,27.344,14.648,19.531,-25.391,0
119608.359,52.246,25.391,21.484,17.090,-47.363,0
119608.363,71.289,27.344,21.973,27.832,2.930,0
119608.367,92.773,27.832,25.391,34.668,26.367,0
119608.371,79.102,24.902,22.461,33.203,-0.977,0
119608.375,54.688,22.461,17.578,38.086,-62.988,0
119608.379,66.895,18.066,21.973,46.387,-38.574,0
119608.383,90.332,21.973,27.344,51.758,30.273,0
119608.399,78.613,27.832,30.762,49.805,11.230,0
119608.403,52.734,23.926,23.438,32.715,-62.012,0
119608.407,68.848,25.391,20.508,20.020,-62.500,0
119608.410,87.891,28.809,17.578,21.484,16.113,0
119608.414,69.336,24.414,13.672,17.090,24.902,0
119608.418,54.199,20.996,16.602,12.207,-45.410,0
119608.422,54.199,21.484,19.531,16.113,-66.406,0
119608.426,72.754,20.996,20.996,36.133,-8.789,0
119608.430,98.633,26.855,22.949,48.340,5.371,0
119608.434,71.777,25.879,19.043,28.809,-73.242,0
119608.438,40.039,22.461,9.277,12.207,-67.871,0
119608.442,67.383,29.297,9.766,20.996,-7.324,0
119608.444,98.145,32.227,10.254,36.133,7.812,0
119608.448,81.055,35.156,9.277,35.645,-12.695,0
119608.451,48.828,33.203,8.301,26.855,-46.875,0
119608.455,61.523,25.391,15.625,23.926,-20.020,0
119608.459,86.426,29.785,21.973,22.949,51.270,0
119608.463,77.637,36.621,18.555,26.855,14.648,0
119608.467,51.270,31.738,14.648,21.484,-68.359,0
119608.471,61.523,30.273,17.090,25.391,-49.316,0
119608.475,84.961,36.621,19.531,35.645,16.602,0
119608.479,75.195,37.109,12.207,19.531,19.043,0
119608.483,46.875,32.227,0.488,0.488,-20.996,0
119608.487,38.574,29.297,1.465,8.301,-15.137,0
119608.489,72.754,32.227,9.277,24.414,47.363,0
119608.493,87.891,37.109,13.672,28.320,75.684,0
119608.497,62.012,33.691,18.555,22.461,45.898,0
119608.500,48.340,27.344,20.508,23.438,-5.859,0
119608.504,75.195,25.879,19.531,29.785,12.695,0
119608.508,86.426,28.320,16.113,33.691,34.180,0
119608.512,64.453,29.297,14.160,31.250,-20.996,0
119608.516,55.664,31.738,16.602,23.438,-86.914,0
119608.520,62.012,32.715,17.090,24.902,-87.402,0
119608.524,83.496,32.715,16.113,30.762,0.000,0
119608.528,78.613,36.133,21.484,24.902,17.090,0
119608.532,62.012,41.016,20.508,13.672,-44.922,0
119608.534,69.824,48.340,19.531,14.648,-47.852,0
119608.538,75.195,42.480,15.625,20.020,33.691,0
119608.542,79.102,34.180,11.230,26.367,57.617,0
119608.545,72.266,36.621,11.719,19.043,-10.742,0
119608.549,52.734,31.250,15.625,13.672,-37.109,0
119608.553,71.777,27.832,19.531,18.555,-16.602,0
119608.557,104.492,32.227,20.020,27.344,1.953,0
119608.561,80.078,35.156,24.902,34.668,-25.391,0
119608.565,56.641,34.180,26.367,32.715,-81.543,0
119608.569,85.938,32.227,27.832,38.086,-47.363,0
119608.573,108.398,27.344,35.156,47.363,14.648,0
119608.577,89.844,28.320,29.785,47.852,-7.324,0
119608.580,62.500,31.738,18.555,30.273,-42.480,0
119608.584,70.801,26.855,19.531,24.902,-14.648,0
119608.588,96.680,29.297,20.996,41.504,23.438,0
119608.592,92.285,39.062,24.414,44.922,0.488,0
119608.596,57.617,37.109,28.320,33.691,-22.949,0
119608.599,58.105,33.203,25.391,31.738,-39.551,0
119608.603,82.520,36.621,23.926,44.922,-1.953,0
119608.607,79.102,38.574,25.879,39.551,50.781,0
119608.611,61.523,37.598,31.738,31.250,43.457,0
119608.615,63.965,35.645,27.832,40.039,16.602,0
119608.619,86.426,33.691,20.508,53.223,29.297,0
119608.623,95.215,34.180,18.555,44.922,65.430,0
119608.625,80.078,38.086,17.090,30.762,69.336,0
119608.629,62.012,36.621,19.531,32.715,45.410,0
119608.632,81.543,35.156,22.461,28.320,40.527,0
119608.636,112.305,38.086,24.414,33.691,54.688,0
119608.640,84.473,36.621,24.902,39.062,25.391,0
119608.644,43.945,33.203,27.832,35.645,3.418,0
119608.648,57.129,37.598,26.367,38.574,23.926,0
119608.652,94.238,41.992,20.508,43.457,46.875,0
119608.656,97.168,41.016,15.625,38.086,37.109,0
119608.660,55.664,39.062,19.531,29.785,-0.977,0
119608.664,49.805,38.574,23.926,41.504,-3.418,0
119608.668,73.242,40.527,22.461,48.340,21.484,0
119608.669,77.637,41.016,26.367,28.809,28.320,0
119608.673,61.523,39.062,28.320,9.766,-28.809,0
119608.676,42.480,40.527,27.344,19.531,-41.504,0
119608.680,70.312,44.434,25.391,35.645,17.578,0
119608.684,95.703,43.457,20.996,30.273,35.645,0
119608.688,73.242,36.133,23.926,33.691,-1.953,0
119608.692,45.410,28.320,28.809,34.180,-67.383,0
119608.696,55.176,30.273,30.273,33.691,-31.738,0
119608.700,75.684,37.598,29.785,40.039,44.434,0
119608.704,75.195,38.574,24.902,49.316,24.902,0
119608.708,67.383,38.086,22.949,41.992,-24.414,0
119608.712,71.777,41.504,21.973,31.250,1.953,0
119608.729,83.496,37.598,25.879,38.086,26.367,0
119608.733,80.078,36.621,24.902,30.762,21.973,0
119608.736,59.082,40.039,13.672,20.508,-38.574,0
119608.740,63.965,33.203,17.578,31.250,-66.895,0
119608.744,89.844,34.180,24.414,39.062,0.000,0
119608.748,87.891,37.598,22.949,34.180,0.488,0
119608.752,67.871,33.203,21.484,34.668,-28.809,0
119608.756,57.129,24.902,23.926,29.785,-46.875,0
119608.760,76.660,18.066,18.555,29.297,4.883,0
119608.764,91.797,23.438,10.742,28.809,28.320,0
119608.768,71.289,36.133,11.230,21.484,-24.902,0
119608.772,54.688,33.203,14.648,15.625,-48.340,0
119608.774,72.266,24.414,22.949,22.949,-15.137,0
119608.778,95.703,25.391,29.297,33.691,41.504,0
119608.781,80.566,27.344,25.391,29.297,-0.977,0
119608.785,51.270,29.297,26.367,28.809,-46.875,0
119608.789,63.477,35.156,28.809,37.109,11.719,0
119608.793,93.750,33.203,30.273,44.434,79.102,0
119608.797,89.355,33.203,27.344,44.922,69.824,0
119608.801,67.383,38.086,26.855,37.109,2.930,0
119608.805,54.688,35.156,34.180,36.621,-10.742,0
119608.809,68.359,29.785,31.738,41.504,10.254,0
119608.813,81.055,27.344,24.902,33.203,27.832,0
119608.817,57.617,29.297,24.902,20.996,27.832,0
119608.819,42.969,32.715,21.484,15.625,-36.133,0
119608.823,76.660,32.715,15.625,29.297,-21.973,0
119608.826,115.723,29.785,19.043,40.039,52.734,0
119608.830,89.355,33.691,16.602,33.203,16.602,0
119608.834,45.410,40.527,18.066,23.926,-31.738,0
119608.838,52.246,42.969,23.926,24.902,-19.043,0
119608.842,91.797,43.457,30.762,28.320,-20.508,0
119608.846,87.402,38.574,28.320,33.203,-25.879,0
119608.850,55.176,33.691,23.438,25.879,-72.266,0
119608.854,51.270,34.668,26.367,17.578,-75.195,0
119608.858,81.543,40.527,26.855,23.438,31.250,0
119608.862,88.867,36.621,23.926,26.855,61.523,0
119608.864,58.594,33.203,25.879,28.809,-17.578,0
119608.868,56.152,35.156,23.438,28.809,-31.250,0
119608.871,77.637,32.227,13.184,30.273,44.434,0
119608.875,91.309,33.203,15.137,37.109,48.340,0
119608.879,62.500,34.668,24.414,29.785,-8.301,0
119608.883,29.297,34.180,27.832,22.949,-30.273,0
119608.887,55.664,34.668,23.926,25.879,5.859,0
119608.891,88.867,33.691,20.508,30.273,29.785,0
119608.895,72.266,34.180,21.484,23.438,3.906,0
119608.899,44.434,34.668,23.438,13.672,-6.836,0
119608.903,57.617,30.762,23.926,30.762,-12.695,0
119608.907,83.984,28.809,23.926,33.203,-23.926,0
119608.909,76.660,31.250,21.484,24.414,-5.859,0
119608.913,53.711,33.691,22.461,24.902,1.465,0
119608.916,56.641,32.227,26.855,19.043,20.020,0
119608.920,82.031,32.227,22.461,28.320,37.109,0
119608.924,88.867,32.227,17.090,33.691,37.598,0
119608.928,61.035,27.344,19.531,35.645,4.883,0
119608.932,51.270,20.996,26.855,36.621,-4.883,0
119608.936,76.660,24.902,27.344,38.086,0.977,0
119608.940,73.730,25.391,26.855,36.621,3.906,0
119608.944,53.711,20.508,27.344,28.320,-11.230,0
119608.948,42.969,24.414,24.414,32.227,-42.480,0
119608.952,68.359,30.273,24.902,44.434,-16.113,0
119608.954,93.750,31.250,26.367,50.781,4.395,0
119608.958,83.496,30.273,30.273,45.410,-19.531,0
119608.962,62.500,30.273,28.809,42.480,-62.988,0
119608.965,66.895,36.621,23.926,45.410,-50.781,0
119608.969,96.191,34.668,27.344,39.551,19.531,0
119608.973,96.191,32.715,29.297,34.180,23.926,0
119608.977,65.918,33.691,26.367,28.809,-21.973,0
119608.981,60.547,30.273,22.949,21.973,-38.086,0
119608.985,98.145,30.762,22.949,35.156,3.906,0
119608.989,103.027,36.133,22.461,37.598,14.160,0
119608.993,62.500,34.668,19.531,22.461,-23.926,0
119608.997,55.176,34.668,18.066,27.832,-28.809,0
119608.999,76.660,38.574,20.020,42.480,10.742,0
119609.003,79.102,38.086,24.414,44.922,52.246,0
119609.006,58.105,34.668,23.438,32.227,6.836,0
119609.010,40.527,33.691,20.508,13.672,-57.617,0
119609.014,56.641,34.180,23.438,22.949,-6.836,0
119609.018,86.914,32.227,27.832,41.992,55.176,0
119609.022,80.566,36.133,23.926,41.992,-12.695,0
119609.026,55.176,35.645,16.113,27.344,-46.387,0
119609.030,63.965,31.250,15.137,21.973,12.695,0
119609.034,94.238,33.203,15.625,28.809,20.508,0
119609.038,86.914,37.109,16.113,32.227,9.277,0
119609.042,54.688,36.621,18.555,24.902,-8.789,0
119609.046,51.758,38.086,24.414,14.160,-20.996,0
119609.050,75.684,39.062,27.344,22.949,20.020,0
119609.053,79.102,36.621,16.602,29.297,70.801,0
119609.057,54.199,30.273,8.789,15.137,61.035,0
119609.061,42.969,27.344,13.184,12.695,21.973,0
119609.065,68.848,28.320,19.043,23.438,20.508,0
119609.069,92.773,32.227,22.461,34.180,29.785,0
119609.073,76.172,34.180,26.367,36.133,33.203,0
119609.077,45.410,32.227,27.344,38.574,48.340,0
119609.081,71.289,29.297,21.973,46.387,49.805,0
119609.085,105.469,25.879,17.578,50.781,67.871,0
119609.089,80.078,22.461,20.996,41.016,67.383,0
119609.104,54.199,19.531,30.273,31.738,-3.418,0
119609.108,56.152,20.020,28.809,38.086,-16.602,0
119609.112,73.242,27.344,23.438,43.945,27.832,0
119609.115,80.566,28.320,24.414,41.992,37.109,0
119609.119,61.523,26.367,23.438,32.227,19.531,0
119609.123,44.434,28.320,22.461,24.902,-33.691,0
119609.127,62.012,28.809,20.508,40.039,-10.742,0
119609.131,86.426,27.832,20.020,42.969,65.430,0
119609.135,71.289,28.320,22.949,18.066,29.785,0
119609.139,49.316,27.832,16.602,14.648,-17.578,0
119609.143,55.664,29.297,12.695,23.438,-17.090,0
119609.147,70.312,31.250,18.066,19.531,-1.953,0
119609.149,59.082,28.809,19.531,12.695,2.441,0
119609.153,38.574,30.273,15.137,6.836,-45.410,0
119609.156,48.340,35.645,10.742,6.348,-52.246,0
119609.160,75.195,33.203,8.789,11.719,30.273,0
119609.164,62.500,25.391,14.160,13.672,39.551,0
119609.168,27.832,27.832,20.996,18.066,-21.484,0
119609.172,38.086,33.691,20.508,30.273,-7.812,0
119609.176,73.730,36.621,17.578,31.738,31.250,0
119609.180,82.520,40.039,16.602,23.926,28.809,0
119609.184,55.664,37.109,20.508,12.207,-34.668,0
119609.188,44.434,36.621,22.949,11.230,-42.969,0
119609.192,62.988,40.039,23.438,21.973,28.320,0
119609.194,72.266,39.551,22.461,28.320,46.387,0
119609.198,61.035,34.668,18.066,18.066,5.371,0
119609.202,44.434,29.297,15.625,20.508,-18.555,0
119609.205,67.871,32.715,16.602,33.691,22.949,0
119609.209,100.098,39.551,15.625,33.691,39.551,0
119609.213,81.055,37.109,12.207,32.227,-5.371,0
119609.217,50.293,31.250,15.137,21.973,-41.504,0
119609.221,64.453,30.273,20.508,13.672,-16.113,0
119609.225,89.844,32.715,20.996,25.879,-7.812,0
119609.229,98.633,38.086,20.020,25.879,-16.602,0
119609.233,75.195,38.574,20.996,18.555,-7.812,0
119609.237,62.988,37.109,18.555,24.414,-36.621,0
119609.239,95.703,41.504,17.090,34.180,-24.414,0
119609.243,107.422,40.039,16.602,38.574,25.391,0
119609.246,88.379,36.621,18.066,37.109,26.367,0
119609.250,61.523,33.203,25.391,31.738,-39.062,0
119609.254,72.266,32.715,29.785,29.785,-7.812,0
119609.258,98.145,34.668,24.414,35.156,39.551,0
119609.262,76.172,36.133,27.832,29.297,17.090,0
119609.266,57.617,30.762,24.902,20.996,2.441,0
119609.270,76.172,27.344,13.672,23.926,-1.465,0
119609.274,92.773,28.320,10.254,24.414,33.203,0
119609.278,82.031,26.855,11.230,19.531,40.527,0
119609.282,56.152,27.832,21.484,21.484,-5.859,0
119609.285,61.523,27.832,26.367,21.484,4.395,0
119609.289,81.055,28.320,27.344,29.785,44.922,0
119609.293,83.496,27.832,32.227,37.109,63.965,0
119609.297,63.477,32.715,31.738,27.344,9.277,0
119609.301,61.035,38.086,27.832,19.043,-20.508,0
119609.305,85.449,34.180,19.531,23.926,35.645,0
119609.308,85.449,30.273,12.207,21.484,45.898,0
119609.312,65.430,36.133,14.648,15.137,4.883,0
119609.316,55.176,40.527,18.066,15.625,-29.785,0
119609.320,75.684,38.574,19.043,21.973,3.906,0
119609.324,95.215,37.598,19.531,27.832,41.992,0
119609.328,82.031,39.551,23.438,22.949,-5.859,0
119609.329,60.059,38.574,28.809,21.484,-43.457,0
119609.333,77.148,41.992,22.461,32.227,11.719,0
119609.337,108.887,49.316,17.090,37.109,65.918,0
119609.340,102.539,48.340,20.508,25.391,38.086,0
119609.344,65.430,41.016,24.414,17.578,-15.625,0
119609.348,60.547,36.133,23.438,20.996,10.254,0
119609.352,88.867,36.133,26.367,36.133,36.133,0
119609.356,95.215,40.527,30.273,45.898,-6.348,0
119609.360,63.477,41.016,26.855,33.691,-41.504,0
119609.364,45.410,41.992,23.926,24.414,-19.043,0
119609.368,76.660,38.086,23.926,33.691,20.020,0
119609.372,96.680,36.133,22.461,39.551,42.969,0
119609.374,79.102,42.480,22.461,29.297,-8.301,0
119609.378,62.012,39.062,20.996,23.438,-30.762,0
119609.382,71.289,35.645,21.484,30.762,14.648,0
119609.386,85.938,37.598,28.809,33.203,37.109,0
119609.390,79.102,39.551,28.809,28.320,21.484,0
119609.393,55.664,38.574,23.438,26.367,-15.625,0
119609.397,57.617,30.762,21.973,37.109,-36.133,0
119609.401,88.379,32.715,23.926,38.574,6.348,0
119609.405,87.891,40.527,22.461,25.879,14.648,0
119609.409,49.316,38.574,20.996,25.391,-35.645,0
119609.413,37.109,30.762,19.043,27.832,-82.031,0
119609.417,71.777,28.320,22.949,31.738,-29.297,0
119609.419,88.379,29.785,32.715,31.250,33.203,0
119609.423,62.988,28.809,31.738,15.625,6.836,0
119609.426,46.875,28.809,24.414,12.207,-66.895,0
119609.430,63.965,25.879,21.484,29.785,-32.715,0
119609.434,77.637,22.949,22.949,35.645,41.992,0
119609.438,64.941,27.832,21.484,31.738,-12.207,0
119609.442,67.871,30.273,22.949,37.598,-83.008,0
119609.446,76.172,25.391,21.973,41.504,-50.293,0
119609.450,82.031,22.949,20.996,42.969,13.184,0
119609.454,78.613,24.902,28.320,48.340,6.836,0
119609.458,46.875,23.926,28.320,41.504,-38.086,0
119609.462,51.270,26.855,16.602,34.180,-27.344,0
119609.479,80.078,33.203,12.207,43.945,-2.930,0
119609.483,79.102,33.203,18.555,44.434,7.324,0
119609.486,50.293,30.762,25.879,34.668,-2.441,0
119609.490,49.805,36.621,24.414,32.227,-25.879,0
119609.494,79.590,36.621,23.438,37.109,5.859,0
119609.498,86.914,32.715,28.320,32.715,49.805,0
119609.502,61.035,33.691,23.926,18.066,11.230,0
119609.506,46.875,40.039,21.484,21.484,-22.949,0
119609.510,69.824,41.992,21.973,30.762,20.508,0
119609.514,81.543,36.133,20.508,27.344,41.016,0
119609.518,73.242,33.203,17.090,21.484,26.367,0
119609.522,68.359,33.691,14.648,21.484,5.859,0
119609.524,61.523,29.785,17.578,30.273,23.438,0
119609.528,76.172,32.227,23.438,45.410,61.523,0
119609.531,78.613,38.086,30.273,56.152,40.527,0
119609.535,49.316,35.645,27.832,39.551,10.254,0
119609.539,58.594,31.250,20.020,21.973,3.418,0
119609.543,91.309,30.273,18.066,36.621,25.391,0
119609.547,81.543,32.227,20.996,38.574,71.289,0
119609.551,43.945,32.227,20.020,24.902,25.879,0
119609.555,41.992,32.227,16.602,21.484,-9.277,0
119609.559,73.242,31.250,17.090,35.156,24.902,0
119609.563,87.402,33.691,22.949,36.133,73.242,0
119609.567,65.918,34.668,24.414,27.344,51.270,0
119609.569,53.711,30.273,22.949,26.367,1.465,0
119609.573,69.824,31.250,20.020,29.785,8.789,0
119609.576,78.613,37.598,19.043,35.645,78.125,0
119609.580,65.430,35.645,23.438,33.203,48.828,0
119609.584,48.828,34.668,27.344,30.273,-18.555,0
119609.588,62.012,41.504,25.879,33.203,8.301,0
119609.592,83.496,36.133,22.949,36.133,22.949,0
119609.596,72.754,30.273,21.484,26.367,24.902,0
119609.600,50.293,30.273,22.461,23.926,-24.414,0
119609.604,60.547,32.227,22.461,35.156,-82.031,0
119609.608,84.473,35.645,20.996,34.668,-1.465,0
119609.612,87.402,39.062,22.461,28.320,47.363,0
119609.614,73.242,34.668,21.484,28.320,-8.789,0
119609.618,54.688,26.367,18.066,22.461,-39.551,0
119609.622,57.617,21.973,14.648,29.785,-1.953,0
119609.625,71.289,23.438,15.137,42.969,24.414,0
119609.629,58.594,26.367,21.973,29.297,6.836,0
119609.633,51.270,23.438,25.391,15.625,-41.992,0
119609.637,70.801,20.020,26.855,29.297,-14.648,0
119609.641,90.820,28.320,27.344,40.527,18.555,0
119609.645,86.426,35.156,26.855,41.992,-49.805,0
119609.649,53.711,32.715,25.879,28.809,-76.660,0
119609.653,56.152,28.320,23.926,27.344,-6.348,0
119609.657,98.633,26.855,23.438,35.645,8.301,0
119609.659,80.078,27.832,23.438,20.996,12.207,0
119609.663,38.574,28.809,20.508,7.324,-26.855,0
119609.667,41.016,30.762,19.043,11.230,-71.289,0
119609.671,65.918,35.645,25.391,28.809,3.418,0
119609.675,83.496,40.039,26.855,33.203,47.363,0
119609.679,65.918,35.645,23.926,19.531,-9.766,0
119609.682,35.645,28.809,19.531,19.043,-23.438,0
119609.686,55.664,31.250,15.625,35.156,6.348,0
119609.690,81.055,35.645,17.578,34.180,37.109,0
119609.694,57.129,35.156,17.578,18.555,37.109,0
119609.698,36.621,35.156,12.695,18.066,-13.672,0
119609.702,63.477,36.133,10.742,29.297,-19.531,0
119609.704,95.703,32.227,19.043,35.156,27.344,0
119609.708,85.938,30.762,25.879,34.668,25.879,0
119609.711,44.922,33.691,23.438,26.367,-34.180,0
119609.715,41.992,30.273,20.996,20.508,-47.363,0
119609.719,78.125,28.809,21.484,27.344,-11.719,0
119609.723,83.008,28.320,20.508,29.297,-31.738,0
119609.727,62.012,28.320,21.484,34.180,-79.102,0
119609.731,47.363,29.297,20.996,37.109,-95.215,0
119609.735,64.453,28.809,15.625,28.320,-11.230,0
119609.739,79.590,31.738,15.137,26.367,38.086,0
119609.743,62.988,35.645,17.090,17.578,3.906,0
119609.747,52.246,35.156,15.625,20.508,-16.113,0
119609.750,71.289,32.715,16.113,37.598,30.273,0
119609.754,92.285,32.715,18.066,43.457,49.805,0
119609.758,77.637,31.738,19.043,35.645,-5.371,0
119609.762,49.805,33.203,21.484,26.855,-29.297,0
119609.766,64.453,34.668,22.461,25.879,-19.043,0
119609.770,89.844,32.715,20.508,30.762,5.371,0
119609.774,83.496,37.109,21.484,27.832,-21.973,0
119609.777,60.059,38.574,22.461,17.090,-71.777,0
119609.781,65.918,33.203,17.578,19.531,-27.832,0
119609.785,93.262,29.297,20.996,36.621,40.039,0
119609.789,84.961,30.273,21.484,30.762,41.504,0
119609.793,49.805,27.832,18.555,16.113,-14.648,0
119609.794,38.574,26.367,21.484,23.926,-26.367,0
119609.798,76.660,28.809,19.531,43.457,39.551,0
119609.802,94.238,28.320,18.555,46.875,48.340,0
119609.806,64.941,33.203,22.949,38.086,6.836,0
119609.810,46.875,32.715,21.484,41.504,-15.137,0
119609.813,65.918,25.391,17.578,38.086,-14.648,0
119609.817,83.008,24.414,23.438,27.344,-14.160,0
119609.821,64.453,27.344,28.320,23.926,-22.949,0
119609.825,40.039,30.762,28.320,19.531,-35.645,0
119609.829,46.875,28.809,27.344,22.949,-4.395,0
119609.833,75.195,27.344,26.367,25.879,59.082,0
119609.837,76.660,35.645,25.879,28.320,23.926,0
119609.854,48.828,38.574,29.785,36.621,-27.344,0
119609.858,54.199,31.250,28.320,31.738,-24.414,0
119609.861,89.355,28.809,23.438,29.297,20.508,0
119609.865,92.773,31.250,25.391,36.621,64.941,0
119609.869,55.664,36.133,23.438,33.203,9.766,0
119609.873,43.945,37.598,20.020,34.668,-25.391,0
119609.877,76.660,35.645,23.926,41.504,30.762,0
119609.881,92.285,40.039,26.855,39.062,40.527,0
119609.885,71.289,41.016,28.809,33.203,3.418,0
119609.889,52.246,39.062,26.855,23.438,-30.762,0
119609.893,65.430,35.645,25.391,30.273,-7.812,0
119609.897,85.449,30.273,24.902,43.457,41.016,0
119609.899,69.824,34.180,25.391,37.109,18.066,0
119609.903,43.945,34.180,27.344,28.320,-38.086,0
119609.906,53.223,27.344,21.973,37.109,-9.277,0
119609.910,88.379,30.273,20.996,45.410,69.824,0
119609.914,94.238,34.180,20.508,40.527,53.711,0
119609.918,67.871,30.273,19.531,29.785,-3.906,0
119609.922,48.828,28.320,24.902,34.668,-19.043,0
119609.926,67.383,32.715,32.715,42.969,-4.883,0
119609.930,84.473,32.227,37.109,34.668,23.926,0
119609.934,59.082,31.738,30.762,32.227,-9.277,0
119609.938,55.664,31.250,24.414,31.250,-35.156,0
119609.942,75.684,33.203,25.879,38.086,-2.441,0
119609.944,80.566,34.668,23.926,43.945,-3.418,0
119609.948,75.684,33.691,17.090,40.527,-17.578,0
119609.952,54.199,32.227,17.090,27.832,-7.812,0
119609.955,62.988,31.250,20.508,35.645,23.438,0
119609.959,92.285,33.691,22.461,56.641,59.082,0
119609.963,82.520,38.086,28.809,39.551,34.180,0
119609.967,59.570,38.574,30.273,19.531,11.230,0
119609.971,73.242,34.668,20.508,31.250,22.949,0
119609.975,97.168,28.320,16.602,40.039,4.883,0
119609.979,90.820,30.273,22.461,37.598,23.438,0
119609.983,78.125,38.574,25.391,41.504,26.855,0
119609.987,74.707,32.715,20.996,40.527,-0.488,0
119609.989,88.379,26.367,24.414,45.410,34.180,0
119609.993,102.539,34.668,24.414,50.781,14.648,0
119609.997,71.289,36.621,16.113,35.645,-31.738,0
119610.001,52.734,34.180,20.020,30.762,-36.133,0
119610.005,87.402,34.668,30.762,46.875,-8.301,0
119610.009,92.773,35.156,34.668,48.340,-11.719,0
119610.013,65.918,36.133,30.762,31.250,-49.316,0
119610.016,49.805,35.645,25.879,20.508,-59.570,0
119610.020,71.289,35.645,26.367,26.367,-41.016,0
119610.024,97.168,39.062,31.738,40.527,31.738,0
119610.028,84.473,43.945,34.180,34.180,56.152,0
119610.032,58.594,42.480,33.203,23.926,-22.461,0
119610.034,57.129,41.992,32.715,29.297,-23.926,0
119610.038,76.172,42.969,28.809,33.203,34.668,0
119610.042,80.078,43.945,31.738,39.551,45.898,0
119610.045,56.641,42.969,30.762,36.133,-1.465,0
119610.049,47.363,40.527,20.020,24.902,-25.391,0
119610.053,74.707,40.527,17.578,34.668,19.531,0
119610.057,94.238,43.457,26.367,46.387,43.457,0
119610.061,77.637,45.898,34.668,38.574,-10.254,0
119610.065,54.199,38.086,34.668,23.438,-62.012,0
119610.069,73.242,33.203,34.668,32.715,-9.277,0
119610.073,98.633,35.645,27.832,46.875,49.805,0
119610.077,76.660,42.480,24.902,29.297,42.480,0
119610.079,49.316,45.410,30.273,19.531,10.254,0
119610.083,67.383,45.410,28.809,29.785,-1.465,0
119610.087,102.539,41.992,26.367,33.691,41.992,0
119610.090,87.891,40.527,25.391,29.785,22.461,0
119610.094,50.293,42.480,21.484,22.461,-15.137,0
119610.098,50.781,35.156,25.879,24.902,1.465,0
119610.102,77.148,29.785,29.297,35.156,24.902,0
119610.106,83.496,29.785,26.367,39.062,21.484,0
119610.110,58.594,30.273,27.344,32.227,-15.625,0
119610.114,51.270,33.691,29.297,32.227,4.883,0
119610.118,79.102,35.156,30.273,41.992,45.898,0
119610.122,81.543,36.133,28.320,47.852,50.781,0
119610.124,61.035,39.551,27.832,41.992,41.016,0
119610.128,51.758,32.715,29.785,28.809,3.906,0
119610.131,63.477,31.738,30.762,25.391,7.812,0
119610.135,83.008,32.715,28.320,22.949,54.199,0
119610.139,69.336,27.832,23.926,25.879,55.664,0
119610.143,45.410,31.250,30.762,35.156,-7.812,0
119610.147,55.664,29.785,33.203,32.227,-36.133,0
119610.151,82.520,26.367,23.926,28.320,15.137,0
119610.155,92.773,26.855,22.461,32.715,51.270,0
119610.159,65.430,23.926,28.320,31.250,-2.441,0
119610.163,51.758,23.438,32.227,38.574,-39.062,0
119610.167,80.078,29.297,36.133,44.922,32.715,0
119610.169,90.820,33.691,34.668,42.969,66.895,0
119610.173,69.824,34.668,28.809,36.621,7.324,0
119610.176,59.082,34.668,27.832,34.668,4.883,0
119610.180,84.961,37.109,25.391,38.574,34.668,0
119610.184,104.004,36.621,21.484,35.645,41.504,0
119610.188,78.125,31.738,25.391,33.691,30.273,0
119610.192,52.246,30.762,31.738,28.809,-14.648,0
119610.196,67.871,33.203,31.250,37.598,5.859,0
119610.200,97.168,35.645,28.320,43.457,59.082,0
119610.204,83.984,34.668,28.809,38.086,34.668,0
119610.208,60.059,32.227,36.133,46.875,-20.508,0
119610.212,75.195,33.691,34.668,54.199,-18.555,0
119610.215,89.844,37.598,22.461,36.133,28.809,0
119610.219,82.031,43.945,18.066,15.137,11.719,0
119610.223,51.758,44.434,20.020,16.113,-10.742,0
119610.227,40.527,40.527,18.066,14.648,21.973,0
119610.231,67.871,36.133,17.090,17.578,76.172,0
119610.235,84.473,35.156,19.043,31.250,62.988,0
119610.239,76.172,43.457,23.438,27.832,6.836,0
119610.242,65.430,46.875,30.273,22.949,-15.137,0
119610.246,74.707,42.480,29.297,21.484,-16.113,0
119610.250,78.613,40.039,27.344,26.855,-22.461,0
119610.254,55.176,36.621,29.785,30.762,-50.293,0
119610.258,43.945,32.715,28.320,18.555,-24.902,0
119610.274,69.824,36.621,29.297,21.484,0.488,0
119610.278,95.215,41.504,28.809,26.855,13.672,0
119610.282,84.473,41.016,23.926,23.438,34.668,0
119610.285,57.617,37.598,20.508,20.996,6.836,0
119610.289,59.082,31.250,22.949,24.414,-13.184,0
119610.293,86.914,27.832,26.367,30.273,17.090,0
119610.297,88.867,30.273,30.762,32.227,57.129,0
119610.301,57.617,35.156,36.621,32.715,40.527,0
119610.305,52.734,39.551,35.645,34.180,7.812,0
119610.309,83.984,41.992,31.250,44.434,30.762,0
119610.313,96.191,40.039,35.156,49.805,49.316,0
119610.317,73.730,35.645,33.691,43.457,-12.695,0
119610.319,63.477,35.156,29.785,34.668,-38.574,0
119610.323,87.891,35.645,29.297,38.086,0.977,0
119610.326,101.562,36.621,29.785,50.293,27.832,0
119610.330,79.102,37.109,36.133,46.387,16.602,0
119610.334,58.594,36.133,35.645,41.992,0.000,0
119610.338,76.660,35.645,34.180,54.688,17.090,0
119610.342,105.469,36.621,31.738,57.617,33.691,0
119610.346,92.773,32.715,26.367,41.992,29.297,0
119610.350,60.059,31.250,29.297,31.250,-20.508,0
119610.354,64.941,28.809,35.645,33.691,-35.645,0
119610.358,98.633,25.879,36.133,41.992,41.016,0
119610.362,104.492,32.715,28.809,41.504,62.012,0
119610.364,89.355,40.039,24.414,38.574,-16.602,0
119610.368,78.125,39.062,27.832,38.574,-43.457,0
119610.372,83.008,34.180,29.297,37.109,-5.859,0
119610.375,101.562,32.227,28.809,30.762,2.441,0
119610.379,85.449,34.180,23.926,41.504,-27.344,0
119610.383,47.363,32.227,26.367,33.691,-59.082,0
119610.387,48.828,26.855,36.133,12.207,-43.457,0
119610.391,72.754,23.926,34.180,24.414,-12.207,0
119610.395,64.941,25.879,31.738,24.902,-47.363,0
119610.399,41.992,30.762,36.621,13.184,-73.242,0
119610.403,55.664,33.203,31.738,20.996,-63.477,0
119610.407,84.961,35.645,22.949,25.391,-36.621,0
119610.409,88.379,33.203,22.949,21.484,-6.348,0
119610.412,65.430,27.832,24.414,18.066,-24.414,0
119610.416,46.875,26.855,23.926,18.066,-56.152,0
119610.420,65.918,24.902,24.902,35.156,-16.113,0
119610.424,85.938,26.855,28.809,46.875,10.742,0
119610.428,67.871,32.227,31.738,28.320,-40.039,0
119610.432,41.992,28.809,27.832,20.508,-49.805,0
119610.436,68.359,27.832,23.926,36.621,-5.371,0
119610.440,88.379,35.645,15.625,28.320,39.551,0
119610.444,71.289,37.598,12.207,20.020,48.340,0
119610.448,54.688,35.156,17.578,22.461,-5.859,0
119610.452,66.895,33.691,20.508,27.344,-6.348,0
119610.455,90.332,35.645,29.297,40.527,42.969,0
119610.459,97.656,40.039,32.227,41.504,38.574,0
119610.463,73.730,39.551,24.414,31.250,-3.906,0
119610.467,65.430,35.645,20.020,27.344,17.090,0
119610.471,91.797,35.645,17.578,34.668,54.199,0
119610.474,98.633,36.621,20.508,38.086,33.203,0
119610.478,76.172,37.109,24.414,35.645,-24.414,0
119610.482,60.547,37.598,23.926,36.133,-48.340,0
119610.486,84.961,33.691,24.902,40.039,-5.859,0
119610.490,101.562,33.691,26.367,42.480,12.695,0
119610.494,77.148,36.133,25.391,35.156,-10.254,0
119610.498,64.941,35.645,23.926,39.551,-39.551,0
119610.499,87.402,34.180,22.461,42.480,-10.742,0
119610.503,99.609,32.715,21.973,39.551,23.438,0
119610.506,83.984,35.645,19.531,40.527,34.668,0
119610.510,68.359,39.551,18.066,42.480,25.391,0
119610.514,84.961,34.180,25.391,35.645,39.551,0
119610.518,101.562,33.691,30.762,36.621,66.406,0
119610.522,91.797,35.156,21.484,43.457,51.758,0
119610.526,69.336,32.227,13.672,39.062,23.438,0
119610.530,65.918,37.598,21.973,36.621,35.156,0
119610.534,93.750,37.598,32.227,40.039,94.727,0
119610.538,97.168,27.832,32.227,42.480,91.797,0
119610.542,70.801,23.926,31.250,41.504,40.039,0
119610.544,62.012,26.367,30.273,44.922,41.992,0
119610.548,77.148,28.809,29.785,39.062,66.406,0
119610.551,91.309,28.809,32.227,39.551,69.336,0
119610.555,75.195,33.203,30.762,33.203,26.367,0
119610.559,56.152,34.668,27.832,25.879,3.418,0
119610.563,76.660,33.691,25.879,35.156,18.555,0
119610.567,104.980,32.227,21.973,40.039,53.223,0
119610.571,91.309,35.645,19.531,30.273,49.316,0
119610.575,79.102,41.016,22.461,30.762,26.855,0
119610.579,75.684,35.156,22.949,32.227,22.461,0
119610.583,78.125,27.832,21.484,32.227,34.668,0
119610.587,83.008,27.832,33.691,40.527,51.758,0
119610.604,60.547,33.691,38.086,34.180,16.602,0
119610.608,53.223,32.227,32.715,27.832,-11.230,0
119610.611,78.125,27.832,33.203,48.340,48.340,0
119610.615,90.332,30.762,31.738,44.922,97.656,0
119610.619,68.359,32.715,25.879,22.461,33.691,0
119610.623,52.734,32.227,26.367,26.367,-19.043,0
119610.627,71.289,36.133,27.832,32.715,30.273,0
119610.631,89.355,37.109,29.297,31.738,76.172,0
119610.635,65.918,32.227,29.297,24.902,69.824,0
119610.639,46.875,27.832,27.344,17.090,14.648,0
119610.643,67.871,29.297,29.785,21.973,4.395,0
119610.647,84.961,32.227,29.785,27.344,58.594,0
119610.649,69.336,31.250,29.785,26.367,58.594,0
119610.653,38.086,30.762,30.273,22.949,23.438,0
119610.657,58.105,31.738,29.297,30.762,34.668,0
119610.660,92.285,34.668,30.273,37.598,96.191,2
119610.664,83.496,37.598,30.273,34.180,70.312,0
119610.668,56.152,33.203,26.367,28.809,-0.977,0
119610.672,68.359,34.668,28.809,27.344,41.992,0
119610.676,90.332,39.551,25.879,27.344,102.539,0
119610.680,82.031,35.645,17.090,28.320,82.520,0
119610.684,67.383,36.621,22.461,24.414,-13.672,0
119610.688,60.547,37.598,27.832,23.926,-6.348,0
119610.692,78.613,36.621,25.879,33.691,59.570,0
119610.694,92.773,41.504,25.391,37.598,32.715,0
119610.698,79.590,44.434,28.320,30.762,-2.441,0
119610.701,62.988,42.969,25.879,26.367,-38.574,0
119610.705,77.148,39.062,21.973,52.246,-40.039,0
119610.709,93.262,35.156,25.879,48.828,-20.996,0
119610.713,77.637,37.598,23.926,19.531,-41.992,0
119610.717,55.176,40.039,24.902,23.926,-48.340,0
119610.721,62.988,40.527,27.832,31.250,-18.555,0
119610.725,94.727,41.016,27.344,40.527,16.602,0
119610.729,92.773,43.457,28.809,41.016,37.109,0
119610.733,64.453,49.805,28.320,33.203,30.762,0
119610.737,59.570,45.898,29.785,27.832,-2.441,0
119610.739,78.613,33.203,28.320,31.250,34.180,0
119610.743,90.332,31.250,23.926,36.133,60.547,0
119610.746,66.406,34.180,24.902,27.344,68.359,0
119610.750,42.969,34.180,25.391,21.973,41.016,0
119610.754,68.848,34.180,33.691,35.645,32.227,0
119610.758,88.867,37.109,37.109,39.062,57.129,0
119610.762,67.871,41.016,27.832,19.531,19.043,0
119610.766,43.945,33.203,26.855,18.066,-20.020,0
119610.770,55.176,26.855,30.762,29.785,-20.020,0
119610.774,82.031,31.738,35.156,33.203,46.875,0
119610.778,76.660,33.203,34.180,25.879,45.898,0
119610.782,56.152,34.180,32.227,19.531,-23.438,0
119610.784,60.059,40.527,38.574,35.156,0.977,0
119610.788,73.242,40.527,38.574,42.969,31.250,0
119610.791,71.777,41.016,31.738,43.945,2.930,0
119610.795,58.105,42.480,30.762,34.180,-14.160,0
119610.799,57.617,42.969,31.250,19.531,-20.020,0
119610.803,87.402,41.992,30.273,26.367,-1.465,0
119610.807,98.633,39.551,28.320,37.109,24.902,0
119610.811,78.613,40.527,32.715,43.457,-12.207,0
119610.815,72.754,46.387,32.227,43.945,-47.363,0
119610.819,86.426,55.664,28.809,46.875,15.137,0
119610.823,99.121,59.570,31.250,38.574,52.246,0
119610.827,86.914,57.129,29.297,24.902,8.789,0
119610.829,50.781,48.340,26.855,17.090,-38.574,0
119610.833,62.012,38.574,25.391,20.020,-0.488,0
119610.836,97.168,38.086,25.879,37.598,48.340,0
119610.840,82.520,40.039,29.785,36.133,16.602,0
119610.844,50.293,40.527,29.297,25.879,-1.953,0
119610.848,57.129,42.480,26.855,39.551,16.113,0
119610.852,92.285,46.387,31.250,51.270,27.344,0
119610.856,93.750,44.434,33.203,33.691,24.414,0
119610.860,65.430,38.574,26.367,22.461,5.859,0
119610.864,57.617,36.133,24.414,30.762,2.441,0
119610.868,73.730,36.621,19.531,40.039,35.645,0
119610.872,88.379,29.297,17.090,46.387,69.336,0
119610.874,69.824,28.320,24.902,32.715,61.035,0
119610.878,52.246,37.109,27.832,28.320,20.020,0
119610.881,75.195,38.574,24.414,41.016,34.668,0
119610.885,88.867,39.551,24.414,36.621,38.574,0
119610.889,72.754,41.992,23.438,28.809,30.762,0
119610.893,53.223,38.574,20.996,30.273,-1.953,0
119610.897,54.199,36.133,23.438,28.809,-31.738,0
119610.901,82.520,36.621,28.809,35.156,14.648,0
119610.905,85.449,37.109,28.809,40.527,-0.488,0
119610.909,59.082,40.039,20.020,34.180,-51.758,0
119610.913,62.500,39.062,17.578,29.785,-69.336,0
119610.917,88.867,35.156,24.414,29.785,-16.602,0
119610.920,93.750,38.574,27.832,34.668,31.250,0
119610.924,71.289,40.527,23.926,32.715,-28.809,0
119610.928,63.965,34.668,21.973,34.668,-56.641,0
119610.932,91.797,29.785,23.438,40.527,7.324,0
119610.936,101.074,29.297,24.902,34.180,64.453,0
119610.939,64.941,29.785,27.344,30.273,57.129,0
119610.943,42.969,30.762,30.762,29.297,27.832,0
119610.947,73.730,32.227,31.738,30.762,20.508,0
119610.951,98.633,37.109,29.785,41.504,73.242,0
119610.955,76.660,39.062,28.320,37.598,52.246,0
119610.959,48.828,35.156,25.879,22.949,25.879,0
119610.963,53.223,32.227,21.484,23.438,64.941,0
119610.979,85.938,33.203,21.484,39.062,70.312,0
119610.983,88.379,34.180,24.414,41.016,57.617,0
119610.987,58.594,37.109,21.973,36.133,6.348,0
119610.990,57.617,40.527,20.020,39.551,28.320,0
119610.994,84.961,39.062,23.926,39.062,98.145,0
119610.998,86.914,38.574,28.320,36.621,66.895,0
119611.002,61.035,42.480,25.879,31.738,2.930,0
119611.006,52.246,43.457,23.926,36.621,-26.855,0
119611.010,76.660,39.551,23.438,41.992,10.742,0
119611.014,99.121,39.062,18.555,33.203,38.086,0
119611.018,85.449,41.992,19.043,27.344,-24.414,0
119611.022,47.852,40.527,28.320,21.484,-45.898,0
119611.024,61.523,36.133,35.156,28.320,29.297,0
119611.028,92.285,36.621,32.227,41.016,72.754,0
119611.032,82.031,41.504,27.344,32.227,44.434,0
119611.035,60.059,40.039,23.926,25.879,-0.977,0
119611.039,71.777,34.668,22.461,34.668,2.441,0
119611.043,99.609,36.133,20.508,44.922,17.090,0
119611.047,93.750,41.504,19.043,45.898,27.344,0
119611.051,77.148,43.457,20.996,39.062,-27.344,0
119611.055,75.195,41.504,24.414,40.039,-44.922,0
119611.059,91.309,37.109,23.926,46.875,-4.883,0
119611.063,102.051,35.645,25.391,43.945,24.902,0
119611.067,84.473,36.621,25.879,36.621,13.184,0
119611.069,65.918,31.738,25.391,28.809,-17.578,0
119611.073,89.355,30.273,25.879,42.480,27.832,0
119611.077,111.328,33.203,20.996,56.641,57.617,0
119611.080,90.820,36.621,23.438,50.293,33.691,0
119611.084,62.988,39.062,28.809,42.969,-6.836,0
119611.088,75.684,34.668,24.902,43.945,-13.672,0
119611.092,105.957,31.738,25.879,47.363,28.809,0
119611.096,92.285,34.180,27.832,46.387,20.020,0
119611.100,60.059,35.645,26.855,37.598,-41.504,0
119611.104,64.453,35.156,32.715,40.039,-57.129,0
119611.108,96.680,40.527,36.621,49.316,5.859,0
119611.112,92.773,44.434,36.133,51.270,20.508,0
119611.114,64.453,38.574,36.133,44.434,-23.438,0
119611.118,58.594,36.133,35.645,32.715,-42.480,0
119611.121,82.520,38.574,36.133,39.062,17.090,0
119611.125,92.285,31.738,28.809,44.434,21.484,0
119611.129,71.289,29.297,26.367,35.645,-36.133,0
119611.133,53.223,30.762,29.785,29.297,-57.617,0
119611.137,66.406,31.250,23.926,30.273,-0.488,0
119611.141,90.332,31.250,25.879,36.621,34.668,0
119611.145,74.707,30.273,33.691,32.715,-43.457,0
119611.149,48.828,35.156,27.832,21.484,-68.359,0
119611.153,60.059,33.691,20.508,24.902,-41.992,0
119611.157,80.078,29.785,22.949,33.203,-13.672,0
119611.161,73.242,33.203,23.926,28.320,-10.254,0
119611.165,46.875,31.738,20.508,15.625,-33.203,0
119611.168,43.457,30.762,21.484,9.766,-8.301,0
119611.172,70.312,36.133,24.414,16.602,12.695,0
119611.176,84.473,38.086,23.926,20.508,12.695,0
119611.180,57.129,38.574,24.902,16.113,-9.277,0
119611.184,33.203,38.086,27.344,15.625,-51.270,0
119611.188,55.664,37.598,26.855,32.227,14.160,0
119611.192,73.730,37.598,26.367,39.062,75.684,0
119611.196,58.594,41.992,30.273,40.039,53.711,0
119611.200,40.039,38.086,31.738,46.875,31.738,0
119611.204,55.664,34.668,28.320,39.062,45.410,0
119611.204,92.773,39.551,28.320,34.180,95.215,0
119611.208,88.379,37.109,31.738,38.574,88.867,0
119611.212,50.293,35.156,33.691,32.715,28.320,0
119611.215,53.223,33.691,36.621,31.738,-15.137,0
119611.219,87.891,32.227,35.645,39.551,20.020,0
119611.223,88.379,33.203,26.855,39.062,53.223,0
119611.227,56.641,32.227,17.578,23.926,5.371,0
119611.231,53.223,31.250,21.484,20.996,-21.973,0
119611.235,84.473,33.203,24.902,34.668,9.277,0
119611.239,94.727,35.156,27.832,37.598,41.992,0
119611.243,66.406,35.156,30.273,34.180,3.418,0
119611.247,56.641,33.203,26.855,30.273,-66.406,0
119611.249,82.520,32.715,22.949,36.621,-9.766,0
119611.253,92.773,34.668,20.020,57.617,72.266,0
119611.257,72.266,36.133,16.602,52.246,26.855,0
119611.261,55.176,34.180,18.066,34.668,6.836,0
119611.265,72.754,31.250,22.461,41.016,26.367,0
119611.269,94.727,32.227,21.973,49.805,41.504,0
119611.272,88.379,31.250,17.578,48.828,2.441,0
119611.276,75.684,33.691,17.578,43.457,-63.477,0
119611.280,82.031,36.621,20.996,47.852,-25.879,0
119611.284,101.074,40.527,23.438,61.523,33.691,0
119611.288,102.051,47.852,22.949,57.617,28.809,0
119611.292,78.613,49.805,20.020,45.410,2.930,0
119611.294,77.637,47.363,20.996,51.758,0.488,0
119611.298,96.680,42.480,21.484,62.500,26.855,0
119611.301,89.355,38.086,21.484,53.223,43.457,0
119611.305,60.059,33.691,22.949,39.551,25.391,0
119611.309,42.480,27.344,20.996,37.109,-17.578,0
119611.313,71.289,30.273,19.531,40.039,-31.738,0
119611.317,94.727,35.645,16.113,43.457,-25.391,0
119611.321,85.449,39.062,15.137,38.574,-30.762,0
119611.325,68.359,40.527,20.020,35.645,-9.277,0
119611.329,74.219,35.156,16.113,36.621,12.695,0
119611.333,96.680,33.691,6.348,31.738,53.223,0
119611.337,81.543,40.527,2.441,29.785,50.781,0
119611.354,55.176,43.457,5.859,22.461,-14.160,0
119611.358,58.594,42.969,10.742,25.879,21.973,0
119611.361,85.449,42.480,12.695,35.156,79.590,0
119611.365,84.961,40.527,12.695,35.645,70.801,0
119611.369,68.359,39.551,12.695,33.691,40.527,0
119611.373,64.453,43.457,15.625,35.156,10.742,0
119611.377,83.008,44.434,17.090,44.922,52.734,0
119611.381,112.793,46.387,20.508,51.270,97.656,0
119611.385,90.332,43.945,26.855,46.875,42.480,0
119611.389,61.035,40.527,25.391,49.805,6.348,0
119611.393,90.332,42.969,23.438,51.758,44.922,0
119611.397,114.258,40.039,27.344,46.387,114.746,0
119611.399,99.609,39.551,27.344,44.434,120.605,0
119611.403,70.312,42.480,22.949,36.133,39.551,0
119611.406,67.871,43.945,20.996,29.785,70.801,0
119611.410,88.867,42.480,25.391,32.715,123.535,0
119611.414,91.797,45.898,27.344,31.250,48.340,0
119611.418,68.848,49.316,19.043,20.508,-23.438,0
119611.422,65.430,48.828,21.484,23.438,-7.812,0
119611.426,89.844,47.852,26.367,35.156,29.785,0
119611.430,94.727,43.457,24.414,38.086,3.418,0
119611.434,73.242,44.922,28.809,41.016,-48.828,0
119611.438,65.918,44.922,31.250,41.992,-32.715,0
119611.442,89.355,39.062,28.809,38.086,7.324,0
119611.444,99.609,38.086,27.832,33.691,29.297,0
119611.448,92.773,43.457,29.297,33.203,40.527,0
119611.451,82.520,46.387,31.738,34.668,10.254,0
119611.455,90.820,47.363,34.668,58.594,20.508,0
119611.459,117.188,53.223,35.645,70.312,61.035,0
119611.463,102.051,51.270,31.738,51.270,30.762,0
119611.467,64.941,42.969,30.762,36.621,16.113,0
119611.471,81.543,39.551,32.227,41.504,60.547,0
119611.475,120.117,40.039,32.715,57.129,88.867,0
119611.479,106.445,39.062,33.203,54.688,55.664,0
119611.483,74.707,42.480,34.668,52.246,18.555,0
119611.487,74.707,45.410,38.574,48.340,7.324,0
119611.489,99.121,44.922,35.156,50.293,10.742,0
119611.493,103.516,45.898,30.273,49.805,30.273,0
119611.496,68.359,42.969,25.391,32.227,26.855,0
119611.500,47.363,38.086,25.879,26.855,-40.039,0
119611.504,72.266,31.250,31.738,34.180,-9.766,0
119611.508,88.867,27.832,33.691,27.344,63.965,0
119611.512,65.430,27.344,32.715,17.090,13.184,0
119611.516,38.086,25.879,31.738,13.184,-54.199,0
119611.520,47.852,26.367,34.668,21.973,-49.316,0
119611.524,76.660,27.832,36.621,29.297,12.695,0
119611.528,74.219,29.297,38.086,26.367,25.391,0
119611.532,49.316,34.180,34.180,23.438,-49.805,0
119611.534,58.594,36.133,28.320,32.715,-41.504,0
119611.538,91.309,40.039,32.227,41.016,25.391,0
119611.541,90.820,41.016,36.621,40.527,33.203,0
119611.545,60.059,38.574,36.621,33.203,-27.344,0
119611.549,47.363,38.086,35.645,25.879,-61.035,0
119611.553,76.172,37.598,31.250,34.180,-0.977,0
119611.557,85.938,41.016,29.785,43.945,34.668,0
119611.561,62.012,41.992,33.203,31.738,-12.695,0
119611.565,43.457,40.527,34.180,14.648,-46.387,0
119611.569,58.594,42.480,35.645,27.344,-10.254,0
119611.573,77.637,42.969,31.250,41.992,33.203,0
119611.577,62.012,40.039,26.855,38.574,-1.465,0
119611.579,42.969,37.598,30.762,22.461,-53.223,0
119611.583,59.570,36.621,33.691,21.484,8.301,0
119611.587,85.938,35.156,34.668,39.062,76.660,0
119611.591,76.660,34.180,32.715,36.133,59.570,0
119611.595,48.340,35.156,28.320,22.949,18.555,0
119611.599,48.340,39.551,26.367,31.738,10.254,0
119611.603,76.172,37.598,24.902,46.875,45.898,0
119611.607,82.520,33.203,24.414,41.016,51.758,0
119611.611,62.500,42.969,24.414,22.949,29.297,0
119611.614,50.781,51.758,24.902,23.926,16.113,0
119611.618,72.266,42.480,22.461,31.738,32.715,0
119611.622,89.844,37.109,22.949,38.086,49.805,0
119611.625,72.266,38.574,26.367,39.062,8.301,0
119611.629,56.641,39.062,28.809,35.156,-24.414,0
119611.633,74.707,39.062,30.762,45.898,-0.488,0
119611.637,88.379,39.551,32.715,56.152,25.391,0
119611.641,77.637,42.969,35.156,43.457,13.184,0
119611.644,61.523,45.410,29.785,29.785,-20.508,0
119611.648,62.500,45.898,24.902,30.273,-14.160,0
119611.652,85.449,42.969,28.320,34.668,12.207,0
119611.656,92.285,38.574,31.738,35.156,33.691,0
119611.660,68.359,38.574,32.227,31.250,7.324,0
119611.664,47.852,36.133,28.809,30.273,-41.016,0
119611.668,65.918,32.715,25.391,36.133,-5.859,0
119611.669,77.148,36.133,23.926,35.645,9.277,0
119611.673,62.988,39.551,24.414,27.832,-32.227,0
119611.677,54.199,39.551,27.344,30.762,-27.832,0
119611.680,70.801,39.551,25.879,41.504,23.438,0
119611.684,87.402,41.016,25.879,41.992,39.062,0
119611.688,73.730,38.574,31.738,35.156,-6.348,0
119611.692,52.734,34.668,33.691,37.109,-66.406,0
119611.696,67.871,34.180,30.273,38.574,-31.250,0
119611.700,89.844,31.738,32.715,50.293,77.637,0
119611.704,82.520,32.227,33.203,48.340,74.707,0
119611.708,57.129,35.156,28.809,23.926,-22.949,0
119611.712,58.594,36.621,28.320,26.367,-33.691,0
119611.729,79.102,40.039,30.273,38.086,41.016,0
119611.733,85.938,39.551,28.320,37.598,51.758,0
119611.736,68.359,38.574,26.855,35.645,20.996,0
119611.740,55.176,44.922,29.785,35.156,5.859,0
119611.744,83.496,44.922,31.738,42.969,46.387,0
119611.748,94.238,42.480,32.227,45.410,56.152,0
119611.752,67.871,42.969,29.785,34.180,14.160,0
119611.756,59.570,44.922,32.227,34.180,17.090,0
119611.760,91.797,50.293,34.180,48.828,62.988,0
119611.764,112.793,50.781,27.344,52.246,55.664,0
119611.768,87.402,49.805,23.438,33.691,32.715,0
119611.772,56.152,47.363,28.320,20.508,37.109,0
119611.774,67.871,44.434,27.344,26.855,39.062,0
119611.778,90.820,49.316,27.344,41.992,84.961,0
119611.781,80.566,54.199,31.738,39.062,65.430,0
119611.785,59.082,52.734,33.203,27.344,6.836,0
119611.789,63.965,47.363,28.809,35.156,-12.207,0
119611.793,85.938,42.480,22.461,45.898,25.391,0
119611.797,83.008,39.551,25.391,34.668,34.180,0
119611.801,59.082,42.480,27.344,27.344,-5.859,0
119611.805,57.129,45.410,25.879,29.785,-20.996,0
119611.809,74.219,40.039,27.344,38.574,-33.691,0
119611.813,81.055,38.086,27.832,40.039,-1.953,0
119611.817,60.059,40.527,30.273,33.691,10.742,0
119611.819,51.758,43.457,30.273,32.715,-56.152,0
119611.823,76.172,43.945,27.344,31.738,-4.395,0
119611.826,95.703,41.992,27.344,28.320,75.195,0
119611.830,96.680,46.875,28.320,27.832,41.504,0
119611.834,82.031,49.316,30.273,33.203,19.531,0
119611.838,75.195,41.992,27.344,34.180,34.180,0
119611.842,88.379,39.062,23.438,36.133,51.758,0
119611.846,78.125,44.922,24.902,30.273,68.848,0
119611.850,46.875,47.363,29.785,20.508,28.809,0
119611.854,48.828,40.039,28.809,30.762,-13.184,0
119611.858,68.848,35.645,27.832,41.504,56.152,0
119611.862,77.148,38.086,29.785,27.832,63.965,0
119611.864,57.129,37.109,28.809,17.090,-31.738,0
119611.868,34.668,38.086,25.879,20.020,-62.988,0
119611.872,65.430,41.016,26.367,34.668,-14.648,0
119611.876,91.797,47.363,29.297,42.969,32.715,0
119611.880,67.383,45.898,25.391,27.832,-5.371,0
119611.884,48.340,38.086,23.438,16.602,-42.969,0
119611.888,70.312,35.645,22.461,18.066,-11.719,0
119611.892,85.449,33.691,24.414,26.367,3.418,0
119611.896,74.219,37.598,29.785,25.879,-57.617,0
119611.899,54.199,39.062,31.738,26.855,-76.660,0
119611.903,69.824,38.574,37.598,36.621,5.371,0
119611.907,101.562,41.504,36.133,38.086,65.430,0
119611.909,100.098,39.551,27.832,35.156,38.086,0
119611.913,59.570,38.086,29.297,32.715,-0.488,0
119611.917,35.645,42.480,33.203,35.156,-16.113,0
119611.920,65.918,38.574,33.691,35.156,28.320,0
119611.924,74.707,31.738,29.297,32.715,58.105,0
119611.928,48.828,35.156,24.414,28.320,-18.066,0
119611.932,44.434,40.039,26.855,28.320,-51.758,0
119611.936,73.242,42.480,27.344,36.621,3.906,0
119611.940,92.285,41.016,25.391,39.062,51.270,0
119611.944,75.195,40.039,26.367,41.992,58.594,0
119611.948,56.641,40.527,34.180,48.828,20.020,0
119611.952,77.148,41.016,37.109,51.270,23.926,0
119611.954,101.074,41.504,34.180,46.387,62.988,0
119611.958,92.773,41.992,31.250,45.410,35.645,0
119611.961,54.199,42.480,30.762,41.992,-35.156,0
119611.965,54.688,44.434,32.715,40.039,-21.484,0
119611.969,91.797,42.480,30.762,39.062,31.250,0
119611.973,90.332,37.109,27.832,29.297,41.992,0
119611.977,61.523,40.039,31.738,28.809,-22.949,0
119611.981,60.547,41.504,32.227,27.832,-82.520,0
119611.985,91.309,37.109,28.320,30.273,-40.039,0
119611.989,91.797,37.598,28.320,33.203,44.922,0
119611.993,61.523,40.527,30.762,35.645,13.184,0
119611.997,50.293,41.016,34.180,31.738,-42.969,0
119611.999,76.172,40.527,29.785,35.156,19.043,0
119612.003,102.539,41.504,28.320,48.828,52.246,0
119612.007,86.426,41.016,37.109,43.457,20.020,0
119612.011,59.570,45.898,37.598,32.227,-5.371,0
119612.015,67.383,46.387,27.832,38.086,13.184,0
119612.019,87.402,40.039,25.879,42.969,24.902,0
119612.023,74.707,39.551,26.855,37.109,-5.371,0
119612.027,54.199,37.109,25.879,30.273,-21.484,0
119612.031,64.453,37.109,25.879,28.320,-1.953,0
119612.034,83.984,36.621,25.879,33.203,26.367,0
119612.038,91.309,38.574,29.785,34.668,19.531,0
119612.042,64.453,42.969,28.320,24.414,3.906,0
119612.044,42.480,42.969,31.738,23.926,6.836,0
119612.048,72.754,39.062,31.738,33.691,37.598,0
119612.052,86.914,39.062,23.926,36.621,59.570,0
119612.055,62.012,48.828,20.508,24.902,6.836,0
119612.059,52.246,50.293,17.090,18.555,-23.926,0
119612.063,80.566,38.086,16.113,31.250,9.766,0
119612.067,104.980,34.668,17.090,28.320,30.762,0
119612.071,83.496,34.668,17.578,18.555,37.598,0
119612.075,49.316,31.250,22.949,24.414,13.672,0
119612.079,52.734,31.250,25.879,35.156,9.766,0
119612.083,85.938,35.156,27.344,33.203,39.062,0
119612.087,86.914,37.598,28.320,24.414,41.016,0
119612.090,58.594,33.203,21.973,11.230,11.719,0
119612.094,60.547,34.180,19.043,18.066,7.812,0
119612.098,82.520,37.598,20.508,34.668,56.641,0
119612.102,83.008,32.715,20.508,29.297,96.191,0
119612.106,61.523,31.738,20.996,18.555,13.184,0
119612.109,60.547,35.645,23.438,22.949,-65.918,0
119612.113,83.496,38.574,29.785,31.250,-20.020,0
119612.117,93.750,42.969,32.715,35.156,31.250,0
119612.121,75.684,41.016,30.762,37.109,24.902,0
119612.125,65.430,38.574,26.367,31.250,10.254,0
119612.129,83.496,38.574,23.926,35.156,2.930,0
119612.133,83.008,37.598,23.438,44.434,36.621,0
119612.149,66.406,41.016,24.902,41.016,59.082,0
119612.153,52.734,42.969,27.832,33.203,24.902,0
119612.157,65.430,43.457,27.832,38.574,36.621,0
119612.161,92.773,42.480,26.855,44.434,62.988,0
119612.165,79.590,36.621,26.855,41.992,54.199,0
119612.169,54.688,34.668,28.320,36.621,-0.488,0
119612.173,68.848,33.691,34.180,26.855,6.836,0
119612.177,83.496,35.156,34.668,41.016,78.613,0
119612.181,74.219,37.109,28.809,44.922,61.523,0
119612.185,66.895,38.086,28.320,40.527,3.418,0
119612.188,67.871,41.504,30.762,37.598,-24.902,0
119612.192,86.914,44.922,29.785,40.039,-3.906,0
119612.194,95.703,49.805,29.297,37.109,32.715,0
119612.198,85.449,50.781,30.273,36.621,22.461,0
119612.202,76.172,44.434,29.297,37.109,-16.602,0
119612.205,82.031,41.992,33.203,39.062,16.113,0
119612.209,104.980,44.922,34.668,49.805,54.199,0
119612.213,90.820,46.387,28.320,49.316,12.207,0
119612.217,56.152,47.363,25.879,35.645,-4.395,0
119612.221,64.453,46.875,27.344,37.598,20.020,0
119612.225,99.609,49.316,32.715,46.387,44.922,0
119612.229,96.191,51.270,34.180,41.016,34.668,0
119612.233,67.871,52.734,31.250,39.551,28.809,0
119612.237,71.777,49.805,34.668,44.434,20.508,0
119612.239,94.238,41.992,34.180,37.109,35.156,0
119612.243,103.516,39.551,30.762,30.762,49.316,0
119612.246,87.402,45.410,32.227,32.227,-16.602,0
119612.250,73.730,48.828,33.691,39.551,-54.199,0
119612.254,87.402,49.316,30.762,38.574,-1.953,0
119612.258,108.398,50.293,32.227,41.016,25.391,0
119612.262,99.121,54.199,34.668,41.504,-12.695,0
119612.266,70.801,49.805,32.715,33.203,-31.738,0
119612.270,82.520,42.480,30.762,35.156,11.719,0
119612.274,105.469,41.504,32.227,46.387,32.227,0
119612.278,92.285,40.527,35.156,47.852,51.758,0
119612.282,68.359,40.039,35.645,39.551,27.832,0
119612.284,68.359,36.133,37.109,37.109,13.672,0
119612.288,90.332,35.645,36.133,37.598,62.988,0
119612.291,94.238,38.574,33.203,35.156,56.641,0
119612.295,65.918,40.039,31.738,28.809,4.395,0
119612.299,56.641,40.039,33.691,36.621,-14.648,0
119612.303,96.680,41.504,36.133,46.875,26.855,0
119612.307,113.770,44.922,35.156,47.363,42.969,0
119612.311,75.684,44.434,33.203,41.016,21.484,0
119612.315,53.223,42.480,34.180,38.086,4.883,0
119612.319,82.520,45.410,37.109,51.270,41.992,0
119612.323,102.539,48.340,36.621,53.711,28.320,0
119612.327,89.355,46.875,30.762,44.434,-16.602,0
119612.330,64.453,39.062,32.715,31.250,-17.090,0
119612.334,69.824,39.551,36.621,35.156,24.414,0
119612.338,101.074,47.852,35.156,45.898,56.152,0
119612.342,100.586,45.898,33.203,34.668,14.648,0
119612.346,67.871,44.434,34.668,30.762,-46.387,0
119612.350,57.617,43.457,35.156,34.180,-27.832,0
119612.353,83.008,41.504,36.621,48.340,20.508,0
119612.357,90.820,45.898,40.527,57.129,11.230,0
119612.361,65.918,43.457,39.551,37.109,-18.555,0
119612.365,69.336,39.551,37.598,41.504,-21.484,0
119612.369,101.074,41.992,39.551,54.688,33.203,0
119612.373,91.309,40.039,41.016,38.574,97.168,0
119612.374,52.734,37.109,41.016,31.738,55.664,0
119612.378,49.805,38.574,42.969,34.180,4.883,0
119612.382,77.148,41.016,47.363,46.875,50.293,0
119612.385,86.426,40.527,44.922,48.828,76.660,0
119612.389,70.312,40.527,37.109,30.273,11.719,0
119612.393,55.664,45.410,31.738,31.738,-55.664,0
119612.397,63.965,46.387,28.320,39.062,-52.246,0
119612.401,99.609,44.434,32.715,49.316,-2.441,0
119612.405,97.656,43.457,35.156,63.477,11.230,0
119612.409,55.664,47.363,35.645,49.805,-5.371,0
119612.413,60.059,44.922,37.598,41.016,-8.789,0
119612.417,91.797,38.574,39.062,60.059,-2.441,0
119612.419,89.844,40.527,40.527,57.617,16.113,0
119612.423,67.383,40.527,41.992,43.457,11.719,0
119612.427,61.035,38.574,41.016,42.480,-11.719,0
119612.431,81.055,38.086,38.574,55.664,45.410,0
119612.435,98.145,37.598,37.598,58.105,117.676,0
119612.439,76.172,37.109,39.551,40.527,42.480,0
119612.443,47.852,35.156,41.016,30.273,-53.223,0
119612.447,74.219,34.668,40.527,38.574,-11.230,0
119612.451,103.027,38.086,41.016,46.875,47.363,0
119612.454,75.684,45.898,39.062,39.551,31.250,0
119612.458,43.945,42.969,36.133,33.203,-36.621,0
119612.462,55.664,35.156,31.738,33.691,-8.789,0
119612.479,85.938,32.715,27.344,39.551,47.852,0
119612.483,88.379,31.738,30.273,48.340,34.668,0
119612.487,60.059,32.227,31.250,44.922,-9.277,0
119612.490,55.664,30.762,30.762,36.621,2.441,0
119612.494,84.473,31.738,35.156,34.180,43.457,0
119612.498,92.285,36.133,35.156,36.621,11.719,0
119612.502,63.477,37.109,31.738,31.250,-31.250,0
119612.506,43.945,37.109,29.297,27.344,-46.875,0
119612.510,68.848,36.133,33.691,43.945,-13.184,0
119612.514,83.984,36.621,36.621,48.340,21.484,0
119612.518,67.383,40.527,33.691,34.668,0.977,0
119612.522,52.246,38.574,30.273,32.715,-60.547,0
119612.524,74.707,40.527,26.855,38.574,-63.477,0
119612.528,101.562,41.016,26.855,41.016,15.625,0
119612.531,92.285,41.016,32.227,34.180,33.203,0
119612.535,60.059,43.945,36.133,26.855,-4.395,0
119612.539,60.547,44.434,38.086,32.715,-29.297,0
119612.543,89.355,43.457,38.574,47.852,16.113,0
119612.547,84.961,41.992,36.621,41.016,49.316,0
119612.551,53.223,43.457,35.645,33.691,-1.953,0
119612.555,49.805,42.969,33.203,34.180,-21.973,0
119612.559,79.102,43.945,36.133,30.273,0.488,0
119612.563,90.820,45.898,37.598,38.574,21.973,0
119612.567,69.336,42.480,36.621,38.574,0.977,0
119612.569,52.246,36.621,37.598,36.133,-9.277,0
119612.573,79.102,34.668,37.109,46.387,25.879,0
119612.576,102.051,39.551,35.156,51.758,48.340,0
119612.580,83.008,41.504,34.668,40.039,33.203,0
119612.584,54.688,39.551,35.156,30.273,24.414,0
119612.588,48.828,39.062,31.250,37.109,20.508,0
119612.592,73.730,39.062,31.738,49.805,49.316,0
119612.596,74.219,37.109,36.133,45.410,58.105,0
119612.600,46.875,36.133,34.180,29.785,-19.531,0
119612.604,53.711,37.109,36.133,27.344,-28.809,0
119612.608,83.984,41.992,37.598,35.645,77.148,0
119612.612,96.191,43.457,31.738,41.016,116.699,0
119612.614,79.102,39.062,27.832,30.762,65.918,0
119612.618,60.547,35.156,28.809,24.414,-0.977,0
119612.621,73.242,33.691,27.832,29.297,47.363,0
119612.625,76.660,33.203,25.879,24.902,73.242,0
119612.629,59.082,31.250,30.273,30.273,-17.090,0
119612.633,55.176,31.738,34.180,54.688,-63.965,0
119612.637,68.848,36.133,28.809,33.203,-31.738,0
119612.641,79.590,42.969,19.531,9.277,30.273,0
119612.645,57.129,44.922,20.508,12.207,-3.418,0
119612.649,27.344,40.527,29.785,3.906,-33.691,0
119612.653,43.457,38.574,36.133,13.672,-4.883,0
119612.657,90.332,44.922,36.133,31.738,-5.371,0
119612.659,88.379,45.898,30.762,21.484,-24.414,0
119612.663,49.805,37.109,24.902,12.207,-46.875,0
119612.666,52.734,36.621,24.414,20.996,-47.852,0
119612.670,86.426,34.180,27.832,31.250,7.812,0
119612.674,76.660,25.879,29.785,38.086,47.363,0
119612.678,42.969,25.391,33.691,35.645,27.832,0
119612.682,46.387,30.762,35.645,28.809,-30.273,0
119612.686,70.801,32.715,31.738,41.992,-26.367,0
119612.690,81.055,33.203,30.762,45.410,-7.812,0
119612.694,56.152,32.715,35.156,23.926,-16.113,0
119612.698,44.434,31.738,36.133,20.996,0.977,0
119612.702,70.312,30.273,37.109,33.203,5.859,0
119612.704,80.566,32.227,34.668,36.133,51.758,0
119612.708,77.637,36.621,31.738,31.250,71.777,0
119612.711,65.430,38.574,32.227,24.414,21.484,0
119612.715,57.617,39.062,31.250,25.879,25.391,0
119612.719,79.590,35.645,30.273,33.691,74.219,0
119612.723,74.707,32.715,29.297,28.809,70.801,0
119612.727,52.734,31.250,29.297,21.484,34.180,0
119612.731,62.500,31.250,28.809,26.367,-3.906,0
119612.735,79.102,31.250,25.391,33.691,19.531,0
119612.739,82.031,31.250,24.414,34.180,57.617,0
119612.743,54.199,32.227,28.320,32.227,28.320,0
119612.747,36.133,38.574,31.250,26.855,1.465,0
119612.749,66.895,38.574,30.273,35.156,34.668,0
119612.753,96.680,32.227,28.320,49.316,90.820,0
119612.756,73.242,29.785,29.297,34.180,43.945,0
119612.760,47.852,30.762,30.273,21.973,-15.625,0
119612.764,66.406,32.227,30.273,37.109,7.812,0
119612.768,91.309,29.785,30.762,45.410,31.250,0
119612.772,81.543,29.297,34.180,40.527,15.625,0
119612.776,54.199,31.738,37.109,40.039,0.488,0
119612.780,63.477,34.180,28.320,43.945,14.648,0
119612.784,85.449,36.621,22.949,47.852,50.781,0
119612.788,71.777,33.691,29.785,45.410,70.801,0
119612.792,49.316,33.691,32.715,26.367,31.738,0
119612.795,53.223,37.598,33.203,30.762,30.762,0
119612.799,91.309,37.598,37.109,50.293,84.961,0
119612.803,97.656,36.621,31.738,44.922,105.957,0
119612.807,62.988,37.598,25.391,30.762,49.316,0
119612.811,50.781,37.598,26.367,24.414,8.789,0
119612.814,66.895,35.156,26.367,22.461,0.488,0
119612.818,79.102,37.109,23.438,20.020,1.953,0
119612.822,67.871,38.574,24.902,21.484,33.203,0
119612.826,50.781,39.551,24.902,19.531,0.488,0
119612.830,63.965,41.016,22.461,24.902,-13.672,0
119612.834,91.309,39.062,24.414,32.715,50.781,0
119612.838,78.125,37.109,25.391,29.785,92.285,0
119612.854,56.641,36.621,24.902,20.020,36.133,0
119612.858,49.316,36.621,26.855,21.973,-30.273,0
119612.861,63.477,39.062,32.715,35.645,31.250,0
119612.865,83.984,39.551,32.227,35.156,33.203,0
119612.869,61.035,36.133,28.320,28.809,1.465,0
119612.873,39.551,35.156,26.367,32.715,21.484,0
119612.877,65.918,36.133,19.043,39.062,2.441,0
119612.881,90.820,38.086,19.531,38.086,28.320,0
119612.885,69.336,34.668,27.832,29.297,39.551,0
119612.889,59.570,28.809,31.738,29.297,-0.977,0
119612.893,72.754,28.320,34.180,42.480,34.180,0
119612.897,85.449,30.762,34.668,38.574,68.359,0
119612.899,78.613,31.738,36.133,26.367,16.602,0
119612.903,49.805,30.273,37.109,21.973,-9.766,0
119612.906,76.172,34.180,34.668,27.832,25.391,0
119612.910,108.887,39.062,32.227,41.016,47.363,0
119612.914,94.238,36.621,28.809,35.645,21.973,0
119612.918,69.824,36.133,25.879,20.508,-3.418,0
119612.922,66.406,33.691,22.461,27.832,-2.441,0
119612.926,86.426,31.738,20.508,38.574,20.508,0
119612.930,95.215,35.156,22.949,32.715,19.531,0
119612.934,69.336,34.668,27.344,30.762,-24.902,0
119612.938,54.688,34.668,29.785,24.414,-8.789,0
119612.942,87.402,33.203,26.855,29.785,54.199,0
119612.944,92.285,36.133,25.391,37.109,73.730,0
119612.948,75.195,43.457,27.344,28.320,57.617,0
119612.951,57.617,38.574,28.809,22.949,23.438,0
119612.955,65.918,36.133,31.250,34.180,35.645,0
119612.959,87.891,40.039,32.227,50.293,92.773,0
119612.963,69.824,42.480,26.855,47.852,59.570,0
119612.967,53.711,41.016,24.902,18.555,-28.320,0
119612.971,67.871,39.551,28.320,21.484,14.160,0
119612.975,86.426,41.504,32.715,37.598,73.242,0
119612.979,86.914,42.480,31.738,33.691,49.316,0
119612.983,65.918,42.480,29.785,38.086,3.418,0
119612.987,74.219,45.410,33.691,35.645,-12.695,0
119612.989,97.656,47.363,33.691,34.668,39.062,0
119612.993,89.355,43.945,30.762,38.574,53.711,0
119612.997,61.035,41.992,30.762,30.762,5.859,0
119613.000,50.293,40.527,31.250,34.180,-2.441,0
119613.004,76.660,39.551,29.785,49.805,17.090,0
119613.008,92.773,41.992,29.297,44.922,32.715,0
119613.012,72.754,44.922,32.227,38.574,22.461,0
119613.016,57.617,46.387,34.180,37.109,-40.039,0
119613.020,80.566,46.387,37.109,35.156,-27.832,0
119613.024,95.703,45.898,41.992,46.875,80.078,0
119613.028,85.449,48.828,35.645,52.246,52.734,0
119613.032,74.707,48.340,31.250,42.969,-35.156,0
119613.035,70.312,42.969,37.109,41.504,-18.555,0
119613.039,78.125,37.598,33.691,50.293,20.508,0
119613.043,84.961,41.992,27.344,50.781,42.969,0
119613.047,71.777,48.828,33.203,37.598,0.000,0
119613.051,57.129,49.805,37.598,28.809,-45.410,0
119613.055,88.379,50.293,38.086,42.480,9.766,0
119613.058,107.910,49.805,37.109,50.293,37.109,0
119613.062,68.359,46.875,31.250,38.574,-13.184,0
119613.066,50.293,42.480,33.691,41.504,-16.113,0
119613.070,82.031,38.086,37.598,52.246,16.602,0
119613.074,95.215,35.156,34.180,59.082,46.875,0
119613.078,72.266,36.621,29.297,41.504,63.965,0
119613.079,51.270,38.086,25.391,15.625,-3.418,0
119613.083,70.312,36.133,26.367,28.809,24.414,0
119613.087,95.703,35.645,32.227,34.668,100.586,0
119613.091,87.402,37.109,36.621,31.250,51.758,0
119613.095,64.941,40.527,38.574,26.367,-20.996,0
119613.098,66.406,37.109,39.062,23.926,-14.648,0
119613.102,114.746,32.227,35.156,42.969,32.227,0
119613.106,117.188,38.086,35.156,50.781,22.461,0
119613.110,48.828,39.551,37.598,28.809,-3.418,0
119613.114,39.551,41.016,34.668,20.020,-37.598,0
119613.118,70.801,39.062,31.250,30.762,-18.066,0
119613.122,80.566,35.645,28.809,34.180,72.754,0
119613.139,70.312,40.527,27.344,39.062,55.664,0
119613.143,51.758,41.504,28.320,38.086,-1.465,0
119613.147,65.918,39.062,31.738,39.551,27.832,0
119613.150,90.820,41.992,32.715,44.922,48.340,0
119613.154,73.730,42.480,32.227,39.551,18.066,0
119613.158,49.316,42.969,35.156,23.926,-20.996,0
119613.162,62.988,41.992,39.062,22.949,-40.527,0
119613.166,91.309,34.668,41.016,35.645,13.184,0
119613.170,95.703,37.598,39.062,38.574,65.430,0
119613.174,62.988,43.945,31.250,30.762,34.668,0
119613.178,49.316,42.969,26.367,24.902,14.160,0
119613.182,84.961,44.922,24.902,31.738,67.383,0
119613.169,101.074,42.969,26.367,33.691,37.109,0
119613.173,69.336,42.969,32.227,30.273,-34.180,0
119613.176,52.246,45.410,32.227,31.250,-30.273,0
119613.180,67.383,37.598,30.273,34.668,24.414,0
119613.184,81.055,33.691,34.180,34.180,75.195,0
119613.188,60.059,34.180,36.133,31.250,30.762,0
119613.192,44.922,35.156,35.645,24.414,0.977,0
119613.196,72.266,35.156,35.156,28.320,4.883,0
119613.200,87.891,37.598,32.227,41.016,40.039,0
119613.204,74.219,39.062,23.438,42.969,46.875,0
119613.208,46.387,41.992,20.020,33.203,-14.160,0
119613.212,52.734,42.969,24.902,37.598,-12.207,0
119613.229,90.820,42.969,27.344,45.898,55.664,0
119613.233,96.680,41.992,26.367,34.668,60.059,0
119613.237,73.730,37.109,27.344,24.902,-35.156,0
119613.240,68.848,38.574,26.855,27.344,-41.016,0
119613.244,87.891,40.527,27.344,32.227,48.828,0
119613.248,97.656,38.086,28.809,30.762,65.430,0
119613.252,73.242,36.133,24.902,19.531,21.973,0
119613.256,64.453,40.527,25.391,22.461,4.883,0
119613.260,95.215,44.434,30.762,41.504,-5.859,0
119613.264,105.957,40.527,27.344,43.457,0.488,0
119613.268,80.078,39.551,24.414,31.738,-20.996,0
119613.272,56.152,37.109,31.250,22.461,-70.312,0
119613.274,61.035,30.762,32.715,26.855,-45.410,0
119613.278,81.543,26.855,29.297,35.156,3.906,0
119613.281,82.520,27.344,25.391,32.227,4.395,0
119613.285,57.129,27.832,25.879,27.832,-22.949,0
119613.289,55.664,29.297,29.785,33.203,-31.738,0
119613.293,84.961,31.738,31.250,47.852,-7.812,0
119613.297,88.379,32.715,33.203,50.293,6.348,0
119613.301,59.570,36.133,34.180,41.016,-14.648,0
119613.305,60.547,38.086,30.762,36.621,-32.227,0
119613.309,92.285,33.691,30.273,44.922,7.324,0
119613.313,105.469,30.273,36.621,44.922,26.367,0
119613.317,75.195,33.203,27.344,34.180,-8.301,0
119613.319,48.828,33.203,14.160,41.016,-38.574,0
119613.323,71.777,29.297,20.020,47.363,5.371,0
119613.326,90.332,32.227,30.762,34.668,51.758,0
119613.330,79.102,37.598,38.086,23.926,36.133,0
119613.334,70.801,37.109,36.133,23.438,-4.395,0
119613.338,69.336,35.156,30.762,31.738,-15.137,0
119613.342,74.707,32.715,27.832,28.320,33.691,0
119613.346,67.871,31.738,21.973,25.391,41.016,0
119613.350,40.527,34.180,23.438,19.043,-34.668,0
119613.354,44.922,34.180,28.809,23.438,-55.176,0
119613.358,86.426,36.133,29.297,37.598,-15.137,0
119613.362,97.656,36.621,29.785,36.133,20.508,0
119613.364,58.594,35.156,32.227,33.203,-6.836,0
119613.368,45.410,37.109,33.203,41.992,-54.199,0
119613.371,80.078,35.645,32.715,52.734,24.414,0
119613.375,104.980,33.691,30.762,48.828,75.684,0
119613.379,88.867,39.062,30.762,34.668,43.457,0
119613.383,60.547,41.016,32.227,35.156,15.137,0
119613.387,86.426,38.086,29.785,34.180,20.508,0
119613.391,96.191,33.203,24.414,32.715,63.965,0
119613.395,68.359,31.250,25.391,38.574,2.441,0
119613.399,58.594,32.715,26.367,25.879,0.977,0
119613.403,72.754,33.203,23.438,21.973,90.332,0
119613.407,92.285,31.250,21.484,38.574,73.730,0
119613.409,91.797,33.203,22.949,33.691,60.547,0
119613.413,62.012,35.156,28.320,20.020,7.812,0
119613.416,51.758,34.180,31.250,25.879,-13.184,0
119613.420,90.332,37.109,30.273,42.480,53.223,0
119613.424,95.703,39.062,26.855,45.898,64.941,0
119613.428,71.777,35.156,22.461,38.574,-7.812,0
119613.432,75.195,31.250,20.508,37.109,-31.738,0
119613.436,80.566,28.809,24.902,44.434,11.719,0
119613.440,75.684,31.250,30.273,36.133,54.688,0
119613.444,56.152,36.621,30.273,34.180,31.250,0
119613.448,41.504,36.133,29.785,34.180,9.277,0
119613.452,70.801,28.809,24.414,29.297,22.949,0
119613.454,88.867,28.320,18.555,40.039,33.203,0
119613.458,71.777,31.738,19.531,37.598,28.320,0
119613.461,49.805,30.762,21.484,21.484,-20.020,0
119613.465,52.734,30.762,28.320,28.809,20.508,0
119613.469,85.938,28.320,27.344,45.410,97.656,0
119613.473,82.031,26.367,28.809,40.039,82.031,0
119613.477,45.410,23.438,35.156,37.109,6.836,0
119613.481,59.570,23.438,33.691,43.945,-63.477,0
119613.485,88.867,30.273,29.785,41.504,-25.879,0
119613.489,83.496,35.645,21.484,31.738,44.922,0
119613.493,60.059,35.645,18.066,18.066,-6.836,0
119613.497,41.992,34.180,20.508,22.461,-26.367,0
119613.500,57.617,31.738,22.949,33.203,40.527,0
119613.504,83.496,29.785,26.367,28.809,51.270,0
119613.508,64.453,27.832,28.809,22.461,-14.160,0
119613.512,41.016,30.273,26.367,12.695,-55.176,0
119613.516,62.988,32.227,23.926,21.484,22.461,0
119613.519,76.660,28.809,25.879,30.762,64.453,0
119613.523,67.383,31.250,25.879,25.879,21.973,0
119613.527,63.477,32.715,18.066,28.320,-31.738,0
119613.531,73.242,29.297,17.090,26.855,-1.465,0
119613.535,81.543,29.785,21.973,32.227,70.312,0
119613.539,72.266,30.762,23.926,35.156,67.383,0
119613.543,54.199,32.227,26.367,25.879,33.691,0
119613.544,50.781,34.668,24.414,28.809,34.668,0
119613.548,78.125,36.133,18.555,37.109,77.637,0
119613.551,85.449,36.133,15.625,30.762,91.309,0
119613.555,65.918,36.621,18.066,16.602,21.484,0
119613.559,49.805,34.180,23.438,16.602,-20.996,0
119613.563,66.895,31.250,23.438,30.273,10.254,0
119613.567,97.656,28.320,17.578,34.668,30.762,0
119613.571,84.473,27.832,17.578,27.344,34.668,0
119613.575,49.805,31.738,25.391,25.879,-9.277,0
119613.579,60.547,30.762,24.414,32.227,-20.020,0
119613.583,82.031,31.738,18.066,41.504,44.922,0
119613.587,71.777,33.203,20.508,37.598,62.500,0
119613.604,45.898,30.273,24.414,29.785,-8.301,0
119613.608,50.781,31.250,24.902,28.320,-23.438,0
119613.611,82.031,29.297,24.902,33.691,25.391,0
119613.615,90.820,29.785,25.879,40.039,35.645,0
119613.619,79.590,36.133,26.367,34.180,-9.766,0
119613.623,60.547,32.715,24.414,34.668,-69.336,0
119613.627,75.195,28.320,23.438,30.273,-23.438,0
119613.631,96.191,37.109,22.461,28.809,46.875,0
119613.635,64.941,40.039,26.367,23.438,25.879,0
119613.639,41.016,29.297,28.809,13.184,-26.367,0
119613.643,61.523,28.320,26.855,23.926,4.883,0
119613.647,86.426,34.180,24.414,35.156,59.082,0
119613.649,82.031,31.250,24.414,27.344,48.340,0
119613.653,62.988,32.715,26.855,20.996,-11.230,0
119613.657,64.941,34.668,27.832,33.691,6.836,0
119613.660,89.844,33.203,26.855,41.992,70.312,0
119613.664,94.727,39.551,25.879,32.715,57.617,0
119613.668,61.523,38.086,27.832,21.484,-1.465,0
119613.672,51.270,31.250,26.367,23.926,-15.625,0
119613.676,85.449,28.320,24.414,32.227,57.129,0
119613.680,83.984,25.391,26.367,22.949,69.824,0
119613.684,56.152,25.391,25.879,20.020,-12.207,0
119613.688,56.641,26.367,20.996,27.832,-14.648,0
119613.692,78.125,31.250,21.484,39.062,41.504,0
119613.694,92.285,37.109,25.879,45.898,62.988,0
119613.698,78.125,33.691,25.391,35.645,29.785,0
119613.702,59.082,34.668,21.973,23.926,-0.977,0
119613.705,85.449,36.621,22.949,35.156,-27.832,0
119613.709,106.445,34.668,25.879,43.945,4.883,0
119613.713,89.355,33.203,27.344,34.668,18.555,0
119613.717,56.641,32.227,26.855,25.879,-16.602,0
119613.721,56.641,39.062,28.809,34.668,10.254,0
119613.725,103.027,45.410,25.879,41.992,20.996,0
119613.729,100.586,45.898,19.043,30.762,15.625,0
119613.733,53.223,38.086,14.648,13.184,4.395,0
119613.737,54.199,36.133,18.555,22.949,-14.648,0
119613.739,90.332,41.016,26.855,39.551,35.645,0
119613.743,100.586,44.922,24.902,36.133,57.617,0
119613.747,80.078,45.410,25.879,36.621,28.809,0
119613.751,65.918,44.922,33.691,43.457,0.488,0
119613.755,81.543,49.316,38.574,46.875,8.301,0
119613.759,113.770,48.340,34.180,54.688,36.621,0
119613.763,102.051,43.457,30.762,44.922,1.465,0
119613.767,49.316,39.062,32.715,20.020,-43.457,0
119613.771,55.664,39.062,30.762,28.809,-9.277,0
119613.774,93.750,45.898,33.203,43.945,38.574,0
119613.778,84.473,49.805,35.156,43.945,10.254,0
119613.782,60.059,47.852,29.785,34.668,-28.320,0
119613.784,81.055,49.316,29.297,35.156,12.695,0
119613.788,95.215,51.758,31.250,47.363,61.035,0
119613.792,76.660,49.316,30.762,38.086,51.758,0
119613.795,75.684,48.828,26.855,29.785,13.672,0
119613.799,81.543,48.340,27.832,36.133,20.020,0
119613.803,87.891,45.410,30.273,54.688,25.391,0
119613.807,92.285,46.875,28.320,55.664,41.016,0
119613.811,82.031,52.246,26.855,41.016,19.531,0
119613.815,67.383,52.246,28.320,35.156,-44.922,0
119613.819,86.426,46.875,31.738,44.434,18.555,0
119613.823,109.863,48.828,35.156,57.129,91.797,0
119613.827,90.820,53.711,37.109,56.152,56.152,0
119613.829,62.012,52.734,34.180,50.293,33.691,0
119613.833,76.172,51.758,34.668,50.781,45.898,0
119613.837,102.051,52.246,35.156,56.641,50.781,0
119613.840,103.027,51.758,36.621,52.734,44.434,0
119613.844,82.520,50.293,40.527,42.969,30.273,0
119613.848,64.453,47.363,38.086,40.039,6.348,0
119613.852,84.961,44.434,36.621,53.223,16.602,0
119613.856,94.238,41.016,34.180,50.293,24.902,0
119613.860,72.754,42.480,30.273,29.785,-6.348,0
119613.864,73.730,42.480,30.273,30.273,-11.719,0
119613.868,87.402,41.504,29.297,46.875,7.812,0
119613.872,90.332,42.480,28.809,40.039,36.621,0
119613.874,74.707,41.504,29.785,20.996,11.230,0
119613.878,68.848,42.480,32.227,20.020,-30.273,0
119613.881,88.379,45.898,30.762,33.691,5.859,0
119613.885,94.238,44.922,28.809,34.668,96.191,0
119613.889,82.031,41.016,28.320,34.180,59.570,0
119613.893,58.594,38.574,27.344,36.621,-33.203,0
119613.897,50.781,36.133,27.344,29.297,-38.086,0
119613.901,75.684,36.133,27.832,32.227,-3.906,0
119613.905,82.520,37.109,31.738,37.109,20.020,0
119613.909,38.574,37.109,25.879,32.227,-15.625,0
119613.913,28.320,39.062,18.555,33.691,-18.555,0
119613.917,64.453,39.062,25.879,37.598,42.969,0
119613.919,76.660,33.691,36.133,33.203,35.156,0
119613.923,64.941,31.738,37.598,25.879,-19.043,0
119613.926,50.293,37.109,34.180,21.973,-44.434,0
119613.930,73.242,40.527,36.621,26.855,-14.160,0
119613.934,89.355,40.039,39.551,24.414,26.367,0
119613.938,69.336,40.039,38.574,16.113,8.789,0
119613.942,52.734,41.016,35.645,20.508,-12.695,0
119613.946,63.477,36.133,28.320,30.273,23.926,0
119613.950,82.520,35.645,29.297,41.504,99.121,0
119613.954,64.941,41.504,34.180,31.738,70.312,0
119613.958,41.504,37.109,32.715,13.184,14.160,0
119613.962,50.781,33.691,35.156,22.461,35.645,0
119613.965,97.168,37.598,34.180,24.902,86.426,0
119613.969,95.703,39.551,27.832,16.113,63.965,0
119613.973,42.969,40.039,29.785,8.301,4.395,0
119613.977,33.691,38.574,31.250,9.277,19.043,0
119613.981,57.617,36.621,24.414,16.113,75.684,0
119613.985,72.754,37.109,21.484,15.625,78.125,0
119613.988,57.617,38.086,20.508,8.789,20.508,0
119613.992,46.875,32.715,25.391,18.066,17.578,0
119613.996,60.059,29.297,32.227,24.414,62.988,0
119614.000,71.289,30.273,31.738,22.949,102.539,0
119614.004,65.430,29.297,29.297,14.160,77.148,0
119614.008,45.410,28.320,32.227,6.836,26.367,0
119614.024,52.246,26.855,33.203,16.602,39.551,0
119614.028,80.078,26.367,32.227,25.391,50.293,0
119614.032,65.918,28.809,30.273,19.043,37.598,0
119614.035,49.805,27.344,28.809,21.484,-13.672,0
119614.039,67.871,29.785,24.902,30.273,-49.316,0
119614.043,92.773,35.156,21.484,32.227,24.414,0
119614.047,85.938,32.227,25.879,36.621,40.527,0
119614.051,50.781,26.367,27.344,30.273,44.922,0
119614.055,41.016,25.879,23.438,20.508,33.203,0
119614.059,70.312,27.344,28.320,32.715,20.020,0
119614.063,85.449,27.832,32.227,38.574,53.223,0
119614.067,69.824,30.762,28.320,27.832,23.926,0
119614.069,59.082,32.227,27.832,25.879,-1.465,0
119614.073,66.406,33.203,30.762,38.086,50.781,0
119614.077,79.102,31.738,30.273,43.457,91.309,0
119614.080,68.848,30.273,23.438,41.992,50.781,0
119614.084,49.805,29.297,22.461,29.297,14.648,0
119614.088,65.430,27.832,27.832,25.879,58.594,0
119614.092,82.520,26.855,32.227,41.504,72.266,0
119614.096,72.266,28.809,36.133,36.621,34.180,0
119614.100,51.758,29.297,39.062,26.367,-15.137,0
119614.104,63.477,30.762,36.133,31.250,-25.879,0
119614.108,85.449,33.203,32.715,37.109,40.039,0
119614.112,81.055,33.691,34.180,36.133,60.059,0
119614.114,56.152,33.691,31.738,28.320,-3.906,0
119614.118,42.480,32.715,25.391,22.949,-48.828,0
119614.121,70.801,31.250,20.996,27.832,-6.348,0
119614.125,84.961,30.273,19.531,29.297,13.672,0
119614.129,61.035,31.250,23.438,25.391,-48.340,0
119614.133,51.758,35.156,26.367,20.996,-90.820,0
119614.137,75.684,35.645,24.414,25.879,-45.898,0
119614.141,78.613,32.715,21.973,37.598,-0.488,0
119614.145,62.012,36.133,28.809,30.273,-38.574,0
119614.149,46.387,36.621,33.691,14.648,-48.340,0
119614.153,50.293,29.297,28.320,24.414,0.488,0
119614.157,78.613,28.320,24.414,29.297,20.020,0
119614.159,79.102,31.250,28.809,23.926,-11.230,0
119614.163,54.199,35.156,29.297,16.113,-23.926,0
119614.166,61.035,35.645,23.926,23.926,-14.648,0
119614.170,88.379,30.762,25.391,40.039,39.551,0
119614.174,84.473,26.367,25.879,28.809,43.457,0
119614.178,51.758,27.832,22.949,16.602,-11.230,0
119614.182,41.016,28.809,23.926,21.484,8.301,0
119614.186,72.266,29.785,23.926,26.367,8.301,0
119614.190,89.844,30.273,20.508,27.832,-2.441,0
119614.194,67.871,25.879,21.973,32.227,-6.348,0
119614.198,46.875,24.902,25.391,25.391,-41.992,0
119614.202,61.035,26.367,26.855,29.785,1.465,0
119614.205,93.750,26.855,30.273,43.457,51.758,0
119614.209,89.844,34.668,27.832,30.273,41.992,0
119614.213,62.500,37.598,22.949,21.484,11.230,0
119614.217,58.594,37.109,22.949,13.184,-6.836,0
119614.221,84.961,37.109,23.926,17.578,62.988,0
119614.224,85.449,36.133,22.949,21.484,49.805,0
119614.228,53.223,34.668,24.414,17.578,-27.832,0
119614.232,50.293,33.203,29.785,26.367,-41.504,0
119614.236,76.172,33.203,34.668,38.086,10.254,0
119614.240,81.055,35.645,31.250,39.551,52.734,0
119614.244,56.641,36.133,30.273,34.180,23.926,0
119614.248,45.898,33.203,38.086,35.645,3.418,0
119614.249,74.707,32.227,37.109,52.246,31.250,0
119614.253,97.168,33.691,32.715,44.434,29.785,0
119614.257,69.824,35.645,31.738,20.996,1.465,0
119614.260,40.527,35.645,31.250,19.531,-0.488,0
119614.264,62.012,33.203,30.762,28.809,48.340,0
119614.268,93.750,33.691,28.809,41.016,83.496,0
119614.272,86.914,37.109,31.738,38.574,47.363,0
119614.276,67.871,39.062,32.227,25.391,-32.227,0
119614.280,64.941,40.039,25.879,35.156,-29.297,0
119614.284,84.473,40.039,24.414,53.223,24.414,1
119614.288,95.703,37.598,29.785,45.410,19.043,0
119614.292,65.430,34.668,32.227,18.066,28.809,0
119614.294,50.781,33.691,29.785,9.766,28.320,0
119614.298,74.219,31.250,27.344,26.855,35.156,0
119614.302,80.078,29.297,27.344,36.133,71.289,0
119614.305,58.594,31.738,28.320,22.461,68.848,0
119614.309,42.969,30.762,30.762,24.902,41.504,0
119614.313,63.965,26.367,28.320,31.250,50.781,0
119614.317,92.773,32.715,25.879,24.414,23.926,0
119614.321,80.566,36.621,28.809,25.879,0.977,0
119614.325,42.969,29.785,31.250,31.250,11.230,0
119614.329,50.781,25.879,30.273,28.320,17.090,0
119614.333,81.055,29.297,27.344,37.109,28.809,0
119614.337,79.102,32.715,24.902,37.109,29.297,0
119614.354,59.082,30.762,20.508,27.344,13.672,0
119614.358,55.664,28.809,15.137,28.809,16.602,0
119614.362,80.078,33.203,18.066,36.621,79.102,0
119614.365,91.797,37.598,22.949,39.062,102.051,0
119614.369,61.523,38.086,23.926,28.320,51.270,0
119614.373,52.246,38.086,25.879,30.273,8.301,0
119614.377,91.309,36.133,25.391,45.410,18.066,0
119614.381,90.332,35.156,23.926,34.668,21.973,0
119614.385,53.223,35.156,23.926,19.531,11.719,0
119614.389,45.410,35.645,25.391,20.996,-8.301,0
119614.393,66.895,35.156,23.438,20.996,-10.742,0
119614.397,92.773,38.086,22.949,27.832,37.598,0
119614.399,89.355,40.039,24.414,25.879,32.227,0
119614.403,54.199,41.504,23.926,28.320,-6.348,0
119614.407,64.941,40.527,22.949,36.133,19.043,0
119614.411,88.379,35.645,22.949,43.457,49.316,0
119614.415,72.754,37.109,26.367,47.363,26.855,0
119614.419,57.129,41.016,25.391,41.992,-21.484,0
119614.422,57.129,38.086,23.926,33.691,-15.137,0
119614.426,77.148,35.156,25.879,41.504,37.598,0
119614.430,93.750,36.133,32.715,55.176,41.016,0
119614.434,71.777,34.180,35.156,39.551,-21.973,0
119614.438,57.617,34.668,30.273,32.715,-15.625,0
119614.442,73.242,30.762,29.297,41.016,38.086,0
119614.444,83.008,24.902,25.879,40.527,64.941,0
119614.448,83.496,25.391,21.484,40.039,62.988,0
119614.452,56.152,26.367,24.902,34.180,62.012,0
119614.455,57.129,26.855,26.367,24.902,96.680,0
119614.459,85.449,23.926,24.902,23.438,95.215,0
119614.463,69.336,23.926,26.367,21.484,28.809,0
119614.467,47.852,26.367,25.879,19.531,-12.207,0
119614.471,58.594,26.367,22.949,23.926,13.184,0
119614.475,78.613,26.855,20.508,29.297,59.570,0
119614.479,77.637,27.832,22.461,28.809,69.824,0
119614.483,56.641,27.344,21.484,19.531,40.527,0
119614.487,62.012,26.855,11.719,18.066,46.875,0
119614.489,88.867,26.855,11.230,31.250,87.402,0
119614.493,83.984,31.250,20.508,41.992,76.660,0
119614.497,46.875,36.133,24.902,37.598,73.242,0
119614.500,38.086,36.621,22.461,33.691,40.527,0
119614.504,64.453,30.762,18.555,40.039,0.977,0
119614.508,86.426,29.785,16.113,40.527,26.855,0
119614.512,76.660,37.109,12.695,23.926,-0.488,0
119614.516,41.992,37.109,12.207,4.883,-43.945,0
119614.520,53.711,32.715,19.043,9.277,-31.250,0
119614.524,86.914,33.691,19.043,12.695,7.324,0
119614.528,70.312,35.156,13.672,15.625,9.277,0
119614.532,43.457,37.598,17.578,17.578,11.719,0
119614.535,60.059,40.527,27.832,29.297,16.602,0
119614.539,89.355,37.598,30.273,41.504,34.180,0
119614.543,87.402,33.691,25.391,41.016,45.898,0
119614.547,64.941,33.203,21.973,33.203,-0.977,0
119614.550,62.012,30.273,20.020,25.391,-29.785,0
119614.554,83.984,29.297,21.973,31.250,29.297,0
119614.558,78.613,27.832,25.391,37.109,80.078,0
119614.562,42.480,23.926,25.391,31.250,6.836,0
119614.566,30.762,23.438,28.809,24.902,-51.270,0
119614.570,53.711,25.391,33.203,25.879,44.922,0
119614.574,80.078,30.762,36.133,30.273,102.051,0
119614.578,64.453,32.715,38.574,37.598,60.059,0
119614.579,37.109,28.809,36.621,27.344,20.508,0
119614.583,54.199,25.879,33.691,21.484,38.574,0
119614.587,82.520,26.855,31.250,31.250,70.312,0
119614.590,75.684,28.320,28.320,21.973,49.805,0
119614.594,41.504,29.785,24.902,16.113,9.766,0
119614.598,40.039,31.250,27.344,26.367,1.953,0
119614.602,78.613,33.691,28.809,38.086,31.250,0
119614.606,93.262,38.086,27.344,36.133,-11.230,0
119614.610,60.547,41.016,30.762,22.461,-69.336,0
119614.614,44.434,36.133,31.738,26.367,-64.941,0
119614.618,75.195,32.227,29.785,39.062,-21.484,0
119614.622,85.449,37.598,27.832,36.133,16.113,0
119614.624,68.848,40.039,27.344,29.297,-15.625,0
119614.628,55.176,41.016,25.879,32.227,-45.410,0
119614.631,74.219,41.504,24.902,33.691,-14.648,0
119614.635,95.703,40.527,26.855,34.668,38.574,0
119614.639,86.426,46.387,22.461,25.391,7.324,0
119614.643,73.730,46.875,16.113,20.996,-55.176,0
119614.647,79.102,41.504,22.461,28.320,-59.570,0
119614.651,92.773,38.086,28.809,38.086,-29.297,0
119614.655,89.355,38.086,27.344,38.574,11.719,0
119614.659,62.012,38.574,27.344,35.645,3.906,0
119614.663,66.406,38.086,27.344,40.527,-23.926,0
119614.667,95.215,41.992,24.902,49.316,26.367,0
119614.670,103.516,45.898,28.320,63.965,61.523,0
119614.674,75.684,43.945,33.691,53.223,3.418,0
119614.678,56.641,37.598,31.250,43.945,-26.855,0
119614.682,85.449,33.203,29.297,49.805,43.945,0
119614.686,104.004,31.738,30.273,52.246,84.473,0
119614.690,91.797,37.109,31.250,56.641,21.973,0
119614.694,68.848,38.086,31.738,44.922,-29.297,0
119614.698,72.754,34.180,28.809,43.945,16.602,0
119614.701,99.121,33.691,24.902,54.688,88.867,0
119614.705,91.309,36.621,27.344,50.293,44.434,0
119614.709,63.965,39.551,28.809,39.551,-16.602,0
119614.713,71.777,37.109,26.367,47.363,-8.789,0
119614.729,94.727,35.645,29.785,51.758,20.996,0
119614.733,95.703,34.668,30.762,49.316,36.621,0
119614.737,74.707,38.574,22.949,43.457,1.953,0
119614.740,62.012,41.016,22.949,34.668,-0.488,0
119614.744,82.031,40.039,28.809,43.457,57.129,0
119614.748,96.191,43.457,28.320,51.270,61.035,0
119614.752,70.801,44.922,26.367,33.203,-0.488,0
119614.756,50.293,41.992,28.320,34.668,-38.574,0
119614.760,64.941,35.645,26.367,41.992,7.324,0
119614.764,83.008,30.273,23.438,23.926,89.355,0
119614.768,71.777,34.668,25.391,16.602,89.355,0
119614.772,51.270,40.527,28.809,12.695,27.832,0
119614.774,57.617,41.016,27.832,26.367,44.434,0
119614.778,83.496,39.551,21.973,34.180,82.031,0
119614.782,73.242,39.551,19.531,25.391,46.875,0
119614.785,48.340,35.645,22.461,21.973,32.715,0
119614.789,55.176,33.203,27.832,21.973,54.199,0
119614.793,81.055,36.621,29.785,22.949,77.637,0
119614.797,85.938,37.109,30.273,25.879,64.941,0
119614.801,53.223,33.691,29.785,23.438,26.367,0
119614.805,51.758,31.250,27.344,28.320,32.227,0
119614.809,99.609,33.203,26.855,37.109,36.621,0
119614.813,107.910,32.715,27.832,34.180,65.918,0
119614.817,65.918,30.273,29.297,30.273,73.242,0
119614.819,48.828,28.320,25.391,29.297,5.371,0
119614.823,65.918,26.367,25.391,33.203,23.926,0
119614.827,80.078,29.785,29.297,49.805,56.641,0
119614.830,73.730,33.691,28.320,44.434,20.996,0
119614.834,54.688,33.691,30.273,25.391,-14.648,0
119614.838,61.523,33.691,30.762,28.320,-34.180,0
119614.842,92.285,32.715,29.297,31.250,39.062,0
119614.846,85.449,32.715,29.785,23.438,62.012,0
119614.850,57.617,35.156,26.855,20.996,-36.133,0
119614.854,61.035,34.180,29.785,23.926,-56.641,0
119614.858,74.219,32.715,34.668,29.785,39.551,0
119614.862,73.242,34.668,27.832,31.250,74.707,0
119614.865,57.129,37.598,24.414,20.996,23.438,0
119614.869,62.012,39.062,30.273,20.508,15.137,0
119614.873,99.609,38.086,32.227,33.203,62.012,0
119614.877,104.004,35.645,30.273,29.297,78.125,0
119614.881,56.152,33.691,27.344,25.879,32.715,0
119614.885,40.527,35.645,27.344,26.855,-39.062,0
119614.888,71.289,36.133,29.297,29.785,-4.395,0
119614.892,91.309,37.109,30.273,35.156,58.105,0
119614.896,82.031,38.086,26.855,39.062,10.254,0
119614.900,71.289,39.551,22.461,39.551,-3.418,0
119614.904,80.566,42.480,20.996,32.715,47.363,0
119614.908,94.727,38.086,23.926,28.320,70.801,0
119614.910,87.891,37.109,26.855,23.438,46.875,0
119614.914,53.711,37.598,28.809,20.508,20.020,0
119614.918,53.711,30.273,28.320,24.902,30.762,0
119614.922,82.031,25.391,26.367,30.273,49.805,0
119614.926,78.613,26.367,26.855,33.203,70.312,0
119614.930,59.570,29.297,26.855,28.809,14.648,0
119614.933,53.223,28.320,25.879,29.785,-34.668,0
119614.937,85.449,26.855,25.879,41.992,20.508,0
119614.941,110.840,31.250,29.297,47.852,70.801,0
119614.945,76.172,30.762,31.250,34.180,65.918,0
119614.949,43.457,26.855,29.297,22.949,15.625,0
119614.953,67.871,26.855,29.297,29.297,40.527,0
119614.954,95.703,27.832,29.785,35.645,97.168,0
119614.958,78.613,28.809,31.738,37.598,33.203,0
119614.962,40.039,29.785,34.180,34.180,-46.387,0
119614.966,44.922,29.297,28.320,23.438,-45.898,0
119614.970,78.125,28.809,27.344,24.414,-2.930,0
119614.974,81.055,32.227,29.785,28.809,18.066,0
119614.978,58.594,35.645,27.344,28.809,-24.902,0
119614.982,58.105,37.598,27.344,36.133,-68.359,0
119614.986,78.613,37.109,26.367,32.227,-22.949,0
119614.990,82.031,32.227,24.902,25.391,49.316,0
119614.993,65.430,29.785,23.926,21.973,32.715,0
119614.997,54.688,31.250,22.461,16.602,9.277,0
119614.999,84.961,35.156,21.484,29.297,59.082,0
119615.003,98.633,38.574,23.926,40.527,90.332,0
119615.007,69.336,37.598,23.926,15.625,65.430,0
119615.010,47.363,38.574,22.949,-2.441,27.832,0
119615.014,59.082,37.598,22.949,9.277,40.527,0
119615.018,90.332,37.598,21.973,23.926,62.012,0
119615.022,89.355,40.039,24.414,28.809,20.996,0
119615.026,57.129,35.156,26.855,20.508,-36.133,0
119615.030,49.805,25.391,27.344,24.902,6.348,0
119615.034,74.707,21.973,29.297,33.691,54.688,0
119615.038,75.684,24.902,26.855,26.855,34.180,0
119615.042,55.664,28.809,22.949,27.344,18.066,0
119615.044,70.312,31.738,24.414,41.016,28.809,0
119615.048,82.031,31.250,21.484,33.691,67.383,0
119615.052,72.266,27.344,19.043,22.949,31.738,0
119615.056,55.664,28.809,25.879,19.531,-4.395,0
119615.059,41.992,37.109,27.832,20.508,6.348,0
119615.063,61.035,36.621,21.973,27.832,38.574,0
119615.067,84.473,30.762,21.484,22.461,65.918,0
119615.071,73.730,31.250,23.926,20.508,37.598,0
119615.075,40.527,36.621,25.391,30.762,52.246,0
119615.079,49.316,41.504,29.297,30.273,79.590,0
119615.083,78.613,38.086,24.902,26.855,94.727,0
119615.087,79.590,33.203,20.020,31.738,82.520,0
119615.104,62.500,31.738,20.020,22.949,16.602,0
119615.108,56.641,29.297,21.973,20.996,2.930,0
119615.111,72.266,34.668,25.879,34.668,67.383,0
119615.115,85.449,38.574,21.484,36.621,63.965,0
119615.119,68.359,32.227,17.090,27.344,1.465,0
119615.123,51.758,28.320,19.043,21.973,-38.574,0
119615.127,66.895,29.785,21.484,31.738,-19.531,0
119615.131,71.289,33.203,23.438,40.039,13.184,0
119615.135,50.293,32.715,20.508,30.273,-22.461,0
119615.139,40.039,30.762,16.113,18.555,-46.387,0
119615.143,64.453,33.691,20.020,33.691,-16.113,0
119615.147,81.543,35.156,21.484,34.180,39.551,0
119615.149,70.801,32.715,20.020,11.719,17.090,0
119615.153,43.945,29.297,22.461,12.207,-61.523,0
119615.156,50.293,28.320,25.391,18.066,-25.879,0
119615.160,84.961,31.738,24.414,23.926,75.195,0
119615.164,79.590,31.250,23.926,25.391,48.340,0
119615.168,51.758,27.344,20.996,20.508,-40.527,0
119615.172,48.828,26.367,14.160,24.902,-45.898,0
119615.176,78.613,27.344,17.090,38.574,7.324,0
119615.180,82.031,27.344,23.438,31.738,4.883,0
119615.184,51.270,27.832,24.902,18.066,-41.504,0
119615.188,53.223,34.668,25.879,24.414,-23.926,0
119615.192,86.426,39.062,24.902,34.180,21.484,0
119615.194,87.891,34.668,21.973,36.133,36.133,0
119615.198,55.176,34.180,21.484,25.879,35.645,0
119615.201,41.992,39.551,21.973,19.043,45.898,0
119615.205,66.406,38.086,24.414,26.855,49.805,0
119615.209,86.914,34.668,17.090,32.227,23.926,0
119615.213,68.848,35.156,15.137,27.344,4.883,0
119615.217,46.875,36.133,23.926,21.973,-32.715,0
119615.221,59.570,37.109,24.414,28.320,-13.672,0
119615.225,82.031,37.598,23.926,33.691,26.855,0
119615.229,78.613,36.621,24.414,24.414,20.508,0
119615.233,66.895,32.227,22.461,23.926,-5.859,0
119615.237,58.105,33.691,21.973,29.785,9.766,0
119615.239,71.777,37.109,21.973,32.715,53.223,0
119615.243,83.008,35.156,21.973,35.645,96.680,0
119615.247,55.176,34.668,20.996,37.598,46.875,0
119615.250,40.039,39.062,20.996,35.645,-2.441,0
119615.254,72.266,39.551,24.902,44.922,25.879,0
119615.258,90.820,34.180,27.344,48.828,47.852,0
119615.262,56.152,31.738,27.344,37.109,20.508,0
119615.266,31.250,32.227,24.902,32.715,-50.781,0
119615.270,58.105,28.320,26.367,37.109,-34.668,0
119615.274,86.426,27.344,24.902,43.457,7.812,0
119615.278,72.754,27.832,20.996,36.621,33.203,0
119615.282,44.922,28.320,25.879,25.879,1.953,0
119615.284,50.293,29.785,27.832,34.180,-9.766,0
119615.288,77.637,30.273,21.484,49.316,44.922,0
119615.291,84.473,28.809,20.996,41.016,63.965,0
119615.295,63.965,28.320,24.902,33.203,13.184,0
119615.299,51.270,35.645,23.438,20.996,-5.859,0
119615.303,81.055,39.062,25.879,21.973,46.875,0
119615.307,92.773,32.227,26.367,35.156,83.984,0
119615.311,50.781,27.344,22.949,26.367,41.992,0
119615.315,40.039,28.320,23.926,16.602,-27.832,0
119615.319,72.754,29.785,24.902,27.832,5.371,0
119615.323,84.473,33.691,26.855,37.598,82.520,0
119615.327,62.988,34.180,29.785,31.738,63.477,0
119615.329,41.992,32.715,27.344,25.391,-12.207,0
119615.333,60.059,34.668,23.438,32.715,-1.465,0
119615.337,83.984,33.203,22.949,36.621,44.434,0
119615.340,74.707,33.691,21.484,25.879,18.066,0
119615.344,57.129,38.574,21.484,29.297,-16.113,0
119615.348,58.594,41.016,24.902,25.879,7.812,0
119615.352,82.031,40.527,20.508,24.902,48.340,0
119615.356,88.867,42.480,19.043,25.879,44.922,0
119615.360,64.941,41.992,20.508,15.625,34.668,0
119615.364,54.688,39.062,16.602,9.766,44.922,0
119615.368,76.660,37.109,18.555,17.578,49.316,0
119615.372,92.773,37.598,23.438,28.320,81.543,0
119615.376,68.848,36.133,17.578,23.438,40.527,0
119615.380,45.410,33.691,19.531,25.391,-1.953,0
119615.384,66.895,32.715,26.367,37.109,29.785,0
119615.387,90.820,34.180,26.855,32.715,33.691,0
119615.391,72.754,35.645,27.832,20.508,17.578,0
119615.395,43.945,32.715,27.344,14.648,-0.488,0
119615.399,70.312,34.668,26.855,23.926,-16.113,0
119615.403,98.633,37.109,27.832,35.156,4.395,0
119615.407,82.520,31.250,26.855,31.250,31.250,0
119615.411,51.270,27.344,26.855,22.949,-3.906,0
119615.415,48.828,28.809,25.391,22.949,-10.742,0
119615.419,73.730,28.320,28.320,30.762,58.594,0
119615.419,81.543,31.250,37.598,33.203,70.312,0
119615.423,69.336,36.621,40.527,29.785,0.488,0
119615.427,60.059,32.227,31.738,19.531,-24.902,0
119615.430,80.566,30.762,26.855,24.414,36.621,0
119615.434,89.355,32.227,28.320,31.250,49.805,0
119615.438,62.988,31.250,29.785,37.109,10.254,0
119615.442,53.711,35.645,33.203,22.949,-35.645,0
119615.446,78.125,35.156,37.598,11.230,-5.859,0
119615.450,90.820,30.762,37.109,27.832,73.730,0
119615.454,71.289,35.645,36.133,29.785,41.992,0
119615.458,52.734,40.039,38.574,18.555,14.160,0
119615.462,62.012,38.086,36.133,21.484,28.809,0
119615.479,87.891,33.203,36.133,30.762,29.297,0
119615.483,82.031,35.156,39.062,29.297,38.086,0
119615.487,61.523,40.039,34.668,33.691,20.508,0
119615.490,65.430,37.109,30.273,29.785,3.906,0
119615.494,83.008,34.180,35.156,30.762,28.320,0
119615.498,84.473,35.156,37.109,38.574,47.363,0
119615.502,66.895,36.133,39.551,32.715,17.090,0
119615.506,60.547,34.180,40.039,26.855,6.348,0
119615.510,79.590,32.227,32.715,41.504,41.016,0
119615.514,92.773,34.668,26.855,43.457,64.941,0
119615.518,74.219,36.133,22.461,32.227,63.965,0
119615.522,55.176,34.668,19.043,27.832,20.020,0
119615.524,66.406,29.297,19.531,32.715,23.926,0
119615.528,88.379,26.855,18.066,42.480,98.633,0
119615.532,80.566,28.320,17.090,34.668,57.617,0
119615.535,52.734,29.297,22.949,34.180,2.930,0
119615.539,60.547,31.738,24.414,38.086,4.883,0
119615.543,92.285,32.715,16.113,41.016,25.879,0
119615.547,94.727,30.762,15.625,41.992,42.480,0
119615.551,64.453,32.227,23.926,33.203,2.441,0
119615.555,63.965,39.062,35.645,40.527,-20.020,0
119615.559,93.262,40.039,37.109,44.922,4.883,0
119615.563,85.938,32.715,20.508,27.344,38.086,0
119615.567,56.152,24.414,14.160,19.531,51.758,0
119615.569,41.016,21.484,18.066,8.301,6.836,0
119615.573,57.129,27.344,21.484,12.695,22.949,0
119615.576,77.637,33.203,24.414,29.785,93.750,0
119615.580,65.430,37.109,27.344,41.016,84.961,0
119615.584,45.898,37.598,26.855,30.762,30.762,0
119615.588,64.453,33.203,27.344,18.066,-1.953,0
119615.592,93.262,30.273,27.344,37.109,34.668,0
119615.596,72.754,34.180,26.367,35.156,51.758,0
119615.600,40.527,35.156,31.738,21.484,-22.461,0
119615.604,47.363,30.762,35.645,31.250,-51.270,0
119615.608,83.008,29.297,36.133,37.109,20.508,0
119615.612,85.449,27.832,35.156,37.598,29.785,0
119615.615,52.734,28.809,28.809,29.297,-38.574,0
119615.619,47.363,32.715,30.273,22.461,-40.039,0
119615.623,81.543,38.574,39.062,39.062,54.688,0
119615.627,98.633,39.062,36.621,44.922,83.984,0
119615.631,73.730,34.180,34.180,37.598,38.574,0
119615.635,49.805,32.715,39.551,33.691,-18.066,0
119615.639,72.266,32.227,40.039,32.715,5.371,0
119615.642,90.820,31.738,37.109,41.504,53.223,0
119615.646,67.871,32.227,41.504,40.039,3.906,0
119615.650,49.316,35.645,43.945,30.762,-4.883,0
119615.654,59.570,34.668,37.109,33.691,59.570,0
119615.658,81.055,24.414,35.156,41.504,46.875,0
119615.659,81.055,20.996,33.203,43.457,45.410,0
119615.663,59.082,27.832,28.809,28.320,54.688,0
119615.667,54.688,30.762,31.738,21.484,33.203,0
119615.670,83.008,28.809,35.645,36.621,60.059,0
119615.674,93.750,26.855,34.180,32.715,50.293,0
119615.678,65.918,23.438,29.785,13.672,8.789,0
119615.682,46.387,23.926,31.250,17.090,-2.930,0
119615.686,70.801,29.785,33.691,27.344,33.691,0
119615.690,89.355,34.668,32.227,35.156,64.941,0
119615.694,69.336,33.203,34.668,27.832,51.758,0
119615.698,48.340,28.809,39.062,19.043,-12.695,0
119615.702,61.035,27.344,38.574,26.367,15.137,0
119615.704,80.078,33.691,35.156,32.715,66.895,0
119615.708,68.359,35.156,32.715,29.785,22.461,0
119615.712,43.457,30.762,30.762,25.391,-16.113,0
119615.715,53.223,30.273,30.273,30.762,4.395,0
119615.719,85.449,29.785,27.832,33.691,53.223,0
119615.723,83.496,28.320,27.344,34.668,45.898,0
119615.727,45.410,26.855,28.320,19.531,3.906,0
119615.731,42.969,31.250,30.273,12.695,-19.531,0
119615.735,80.078,32.715,28.809,21.973,32.227,0
119615.739,86.914,31.250,27.832,22.461,67.871,0
119615.743,57.129,37.109,33.691,17.578,7.324,0
119615.747,50.293,38.574,36.621,17.578,-19.043,0
119615.749,69.336,33.203,33.691,29.785,42.969,0
119615.753,74.707,29.785,32.227,37.109,90.332,0
119615.757,57.617,28.320,31.738,36.133,45.898,0
119615.760,39.062,28.320,32.715,31.738,11.230,0
119615.764,62.012,28.809,34.180,25.879,32.227,0
119615.768,91.309,29.785,34.668,30.273,83.496,0
119615.772,71.777,33.691,40.039,30.762,8.789,0
119615.776,43.945,33.203,41.504,25.391,-54.688,0
119615.780,60.547,30.273,37.598,27.832,-10.254,0
119615.784,87.402,32.715,40.039,33.691,30.762,0
119615.788,82.031,31.738,40.527,42.480,19.531,0
119615.792,59.082,32.715,36.621,37.109,-18.066,0
119615.794,58.594,32.715,40.039,32.227,-7.324,0
119615.798,94.238,27.344,43.945,42.969,24.414,0
119615.802,97.168,25.391,45.898,45.410,32.715,0
119615.806,51.270,24.902,44.434,31.738,-15.137,0
119615.810,38.574,26.855,39.062,26.855,-49.805,0
119615.814,60.059,29.785,33.691,43.457,-8.301,0
119615.818,82.031,31.738,37.598,59.082,1.953,0
119615.822,76.660,27.344,41.992,43.457,-13.184,0
119615.826,55.664,29.297,35.645,23.926,-23.438,0
119615.829,71.777,41.504,32.715,28.320,13.184,0
119615.833,94.727,44.922,34.180,43.457,85.938,0
119615.837,76.660,37.109,30.273,33.203,52.246,0
119615.840,41.992,30.273,30.762,15.137,-0.977,0
119615.844,53.711,27.344,33.203,27.344,-4.883,0
119615.848,89.844,29.785,31.250,41.504,-0.977,0
119615.852,85.449,34.668,34.180,36.133,18.066,0
119615.856,64.453,37.109,42.480,26.855,2.930,0
119615.860,52.734,36.133,40.039,27.344,-3.906,0
119615.863,78.125,34.668,36.621,40.527,12.207,0
119615.867,95.703,36.133,39.062,45.898,36.133,0
119615.871,68.359,33.691,35.645,33.203,44.922,0
119615.875,54.199,27.832,32.227,28.320,34.668,0
119615.879,83.984,31.250,30.762,45.898,62.500,0
119615.883,104.980,34.668,35.645,60.547,92.285,0
119615.899,85.938,30.273,39.062,39.551,20.508,0
119615.903,65.918,27.344,36.133,29.297,-41.504,0
119615.907,74.707,29.297,30.762,43.457,-24.902,0
119615.910,94.727,32.715,33.203,44.922,34.180,0
119615.914,95.215,35.645,40.039,41.992,31.250,0
119615.918,63.965,35.645,40.039,41.992,-27.344,0
119615.922,60.547,35.645,39.551,46.387,-60.059,0
119615.926,92.285,35.645,40.039,52.246,-7.812,0
119615.930,100.098,33.203,38.086,57.129,30.273,0
119615.934,66.895,33.203,37.598,41.992,-16.113,0
119615.938,48.828,35.156,36.621,23.926,-5.371,0
119615.942,83.008,35.645,38.086,39.551,27.832,0
119615.944,104.980,37.109,35.156,57.129,45.410,0
119615.948,80.566,39.551,31.738,52.734,33.203,0
119615.951,59.082,37.109,33.691,31.250,-5.859,0
119615.955,82.520,34.180,33.203,28.809,0.000,0
119615.959,97.168,28.809,30.762,34.668,16.113,0
119615.963,76.660,22.949,32.715,20.508,21.484,0
119615.967,49.805,23.926,34.668,17.578,2.930,0
119615.971,53.711,24.902,32.715,24.902,0.000,0
119615.975,89.844,24.902,33.203,31.738,34.668,0
119615.979,93.750,29.785,40.039,38.086,40.039,0
119615.983,58.594,34.180,46.387,34.668,18.066,0
119615.987,58.105,34.180,41.504,30.762,-7.812,0
119615.989,91.309,31.250,35.645,41.504,9.277,0
119615.993,91.797,28.320,35.645,45.410,59.082,0
119615.997,70.801,32.715,24.902,39.551,51.758,0
119616.000,61.523,35.645,19.043,30.273,23.926,0
119616.004,69.824,33.203,30.273,34.668,46.875,0
119616.008,83.984,31.738,37.109,40.527,78.125,0
119616.012,65.918,29.785,37.598,19.531,74.219,0
119616.016,37.109,31.738,40.039,19.043,45.410,0
119616.020,52.734,33.203,39.551,29.785,43.457,0
119616.024,90.332,39.551,34.668,32.227,76.660,0
119616.028,80.566,38.574,31.250,29.785,70.312,0
119616.032,46.875,29.297,30.762,21.484,20.508,0
119616.034,55.176,30.762,31.250,25.391,31.250,0
119616.038,83.984,35.645,27.832,27.832,77.148,0
119616.041,76.172,33.691,26.855,20.996,48.828,0
119616.045,46.875,33.691,28.320,16.113,-9.277,0
119616.049,53.223,38.086,26.367,31.250,-4.395,0
119616.053,88.379,37.598,24.414,42.969,27.832,0
119616.057,93.262,35.645,25.391,30.273,17.090,0
119616.061,68.848,35.645,25.391,14.648,-1.953,0
119616.065,55.176,31.738,27.832,15.625,-43.945,0
119616.069,77.637,29.785,31.250,32.227,-20.508,0
119616.073,99.121,29.785,32.715,32.227,28.320,0
119616.077,85.938,33.203,32.227,25.879,20.020,0
119616.080,61.035,36.133,30.762,22.949,13.672,0
119616.084,74.219,33.203,33.203,27.344,14.160,0
119616.088,104.004,34.668,30.762,40.039,38.086,0
119616.092,99.609,41.992,28.320,37.598,6.348,0
119616.096,73.242,41.504,31.250,28.809,-43.457,0
119616.100,77.148,41.016,37.109,38.086,-19.043,0
119616.103,102.051,37.109,38.086,48.828,52.734,0
119616.107,96.680,35.645,35.156,43.945,28.809,0
119616.111,59.570,35.156,33.203,30.762,-36.621,0
119616.115,48.828,30.762,35.645,29.785,-23.438,0
119616.119,84.961,26.855,33.203,31.250,17.090,0
119616.123,99.121,25.391,27.344,32.715,40.527,0
119616.124,64.453,24.902,30.273,32.227,16.602,0
119616.128,43.945,21.973,35.156,25.879,-8.789,0
119616.132,79.102,23.926,35.645,37.598,4.395,0
119616.135,94.238,25.391,33.691,38.086,14.648,0
119616.139,71.289,24.414,32.715,22.949,0.000,0
119616.143,59.082,30.273,36.133,22.461,-0.977,0
119616.147,69.824,34.180,36.621,27.832,32.715,0
119616.151,89.844,30.273,30.273,30.762,41.016,0
119616.155,84.473,28.320,33.691,35.645,66.406,0
119616.159,53.223,28.320,34.180,33.203,34.180,0
119616.163,48.828,28.320,26.855,30.273,-18.555,0
119616.167,83.496,32.227,27.832,29.785,47.363,0
119616.169,87.402,38.086,35.645,38.086,83.984,0
119616.173,49.805,34.180,32.715,24.414,32.227,0
119616.177,40.039,26.855,30.762,7.324,9.277,0
119616.180,71.289,23.926,35.156,20.020,42.969,0
119616.184,68.848,25.391,36.133,30.762,51.270,0
119616.188,46.875,28.320,32.227,23.926,7.812,0
119616.192,38.086,32.715,27.344,21.484,-26.367,0
119616.196,56.152,35.156,22.461,30.762,8.789,0
119616.200,82.031,36.621,23.926,35.156,62.500,0
119616.204,68.359,37.109,28.809,25.391,58.594,0
119616.208,51.758,35.645,29.297,16.602,24.902,0
119616.212,61.035,34.180,29.785,22.461,7.812,0
119616.229,82.031,34.668,29.785,31.250,62.012,0
119616.233,89.355,35.156,25.879,28.320,65.918,0
119616.237,65.918,36.621,24.414,21.973,11.230,0
119616.241,59.082,34.668,24.414,27.832,14.648,0
119616.245,82.520,28.320,27.832,37.109,50.293,0
119616.249,83.984,31.250,31.738,39.551,41.504,0
119616.253,67.383,37.109,30.762,29.297,-17.578,0
119616.257,60.059,35.156,29.785,26.367,-14.160,0
119616.261,77.637,28.809,26.855,33.691,45.410,0
119616.264,99.609,30.273,27.344,35.156,62.500,0
119616.268,89.844,33.203,30.762,29.785,20.996,0
119616.272,56.641,37.598,28.320,28.320,0.000,0
119616.274,68.359,39.062,23.926,34.180,-3.418,0
119616.278,104.492,36.621,22.949,39.062,16.113,0
119616.282,98.145,36.133,22.949,33.203,37.109,0
119616.285,67.383,34.180,25.391,24.902,3.906,0
119616.289,73.242,33.691,24.902,28.320,-2.930,0
119616.293,101.074,32.715,23.438,37.109,0.977,0
119616.297,95.215,32.227,29.785,32.227,35.156,0
119616.301,59.570,30.762,29.785,19.531,19.043,0
119616.305,62.988,28.809,27.832,29.297,-7.812,0
119616.309,85.449,28.809,25.391,38.086,7.812,0
119616.313,80.078,27.344,19.531,32.227,20.996,0
119616.317,63.477,30.273,22.949,33.691,50.293,0
119616.320,51.270,29.785,32.715,29.297,12.695,0
119616.324,70.312,31.250,35.156,39.062,31.250,0
119616.328,91.797,32.227,34.180,43.945,73.730,0
119616.332,80.566,33.691,36.621,29.297,31.738,0
119616.336,54.199,35.645,34.180,22.949,-7.324,0
119616.340,65.918,35.156,30.762,30.273,-7.324,0
119616.343,102.539,36.133,33.203,42.480,12.207,0
119616.347,91.309,35.156,35.156,41.992,20.020,0
119616.351,47.852,32.227,32.715,34.668,-25.879,0
119616.355,54.688,34.180,34.180,39.551,-45.410,0
119616.359,93.262,39.062,39.062,46.875,45.410,0
119616.363,90.820,40.039,34.668,40.039,64.453,0
119616.364,58.594,43.457,31.250,26.855,-12.207,0
119616.368,59.082,42.480,33.203,22.461,-28.320,0
119616.372,81.543,36.133,30.273,31.738,39.551,0
119616.375,80.078,33.691,25.879,26.855,59.570,0
119616.379,60.059,37.598,23.926,19.531,2.441,0
119616.383,40.039,35.156,28.320,25.879,-41.992,0
119616.387,57.129,30.762,37.598,37.598,-7.324,0
119616.391,89.355,32.715,37.109,36.621,33.203,0
119616.395,78.125,33.691,33.691,28.320,-13.672,0
119616.399,50.293,36.133,34.180,24.414,-59.570,0
119616.403,55.176,38.086,32.715,29.785,-20.020,0
119616.407,78.613,33.203,32.715,40.039,18.555,0
119616.409,79.102,29.297,32.715,42.969,32.227,0
119616.413,51.758,29.785,28.320,39.551,-2.441,0
119616.416,59.082,32.227,28.809,43.457,-13.184,0
119616.420,88.867,33.203,35.156,56.152,55.176,0
119616.424,89.844,36.133,38.086,65.430,71.777,0
119616.428,70.312,39.062,35.156,58.105,26.367,0
119616.432,58.594,38.086,29.785,41.504,32.715,0
119616.436,84.473,36.133,25.879,43.457,31.250,0
119616.440,109.863,38.574,26.367,46.387,10.254,0
119616.444,76.660,41.504,28.809,29.785,6.348,0
119616.448,52.246,35.645,25.879,29.785,2.930,0
119616.452,75.684,26.855,24.902,42.480,20.508,0
119616.454,89.355,25.391,29.785,48.340,44.434,0
119616.458,74.707,29.297,33.203,43.945,43.457,0
119616.462,58.105,34.668,30.762,37.109,-8.301,0
119616.466,78.613,41.016,26.855,46.387,6.836,0
119616.470,101.562,39.062,32.227,58.594,82.031,0
119616.474,77.148,32.227,41.504,41.992,99.609,0
119616.478,42.969,28.320,43.457,25.391,31.738,0
119616.482,43.457,25.879,42.969,32.227,0.000,0
119616.486,80.078,27.832,41.504,47.852,74.219,0
119616.490,85.938,30.762,41.016,49.805,98.633,0
119616.493,49.316,33.691,42.480,38.086,55.176,0
119616.497,45.410,37.109,43.457,42.969,31.250,0
119616.499,79.102,32.227,41.016,58.594,52.734,0
119616.503,96.191,27.832,33.691,57.617,105.957,0
119616.506,72.754,31.250,28.320,48.828,53.223,0
119616.510,56.152,31.738,30.762,51.758,18.555,0
119616.514,77.148,28.320,33.203,53.711,35.645,0
119616.518,98.145,33.203,30.762,55.176,64.453,0
119616.522,86.426,36.621,30.762,50.781,62.500,0
119616.526,59.082,36.621,28.320,36.621,-1.953,0
119616.530,66.895,41.504,25.391,42.480,20.020,0
119616.534,97.656,40.527,33.691,50.293,71.777,0
119616.538,98.633,41.016,36.621,44.434,49.805,0
119616.542,72.754,43.945,32.227,38.086,-13.184,0
119616.545,63.965,41.992,27.344,41.016,-17.090,0
119616.549,89.355,38.086,24.414,48.828,20.508,0
119616.553,95.703,39.062,27.832,46.387,44.922,0
119616.557,62.500,37.109,32.715,39.551,21.973,0
119616.561,48.340,35.156,35.645,41.992,-4.395,0
119616.565,67.871,35.645,34.668,45.410,20.020,0
119616.568,82.031,38.086,36.621,45.410,46.387,0
119616.572,67.383,42.969,41.016,45.898,27.832,0
119616.576,47.852,37.598,35.645,39.551,7.324,0
119616.580,63.477,30.762,27.832,45.410,47.852,0
119616.584,90.332,33.203,27.344,52.246,84.961,0
119616.588,75.684,32.227,31.250,43.457,64.941,0
119616.604,62.012,24.902,34.668,46.387,22.949,0
119616.608,77.637,27.832,36.621,59.570,-3.418,0
119616.612,87.402,43.457,29.297,45.410,32.715,0
119616.615,89.844,55.664,20.020,30.762,66.406,0
119616.619,67.383,54.688,21.973,29.297,29.785,0
119616.623,49.316,43.945,24.902,26.855,-24.902,0
119616.627,78.125,34.668,22.949,33.203,2.441,0
119616.631,94.238,32.227,23.926,37.598,101.074,0
119616.635,77.148,35.156,28.809,37.598,62.988,0
119616.639,65.918,37.598,28.320,36.621,-13.672,0
119616.643,78.613,34.668,26.367,41.504,9.277,0
119616.647,90.820,34.180,28.809,37.109,46.875,0
119616.649,75.684,40.039,27.344,33.691,23.926,0
119616.653,61.523,42.480,26.367,27.832,4.395,0
119616.656,77.148,40.527,27.344,32.227,42.480,0
119616.660,98.633,38.086,26.367,47.363,98.633,0
119616.664,85.938,35.156,22.461,38.086,72.266,0
119616.668,49.316,37.598,22.461,27.344,-13.184,0
119616.672,47.852,37.598,28.809,27.832,-28.320,0
119616.676,84.473,37.598,34.180,40.527,38.086,0
119616.680,93.750,42.480,35.645,43.945,52.734,0
119616.684,54.199,41.504,35.156,31.250,-37.109,0
119616.688,44.434,37.109,37.109,28.809,-55.664,0
119616.692,73.242,35.156,37.598,38.574,7.812,0
119616.694,85.938,37.109,33.203,44.922,18.066,0
119616.698,77.148,42.480,29.297,49.316,-12.695,0
119616.701,58.105,41.992,31.738,44.922,-55.664,0
119616.705,63.965,40.039,33.691,36.621,-15.625,0
119616.709,94.238,42.969,27.832,28.809,62.500,0
119616.713,79.590,39.062,23.926,22.949,62.988,0
119616.717,40.039,37.598,27.344,25.391,-26.855,0
119616.721,52.246,42.480,30.762,30.273,-23.438,0
119616.725,87.402,42.969,31.738,34.180,3.418,0
119616.729,83.008,41.992,29.297,33.691,-35.645,0
119616.733,54.688,41.504,31.738,26.855,-7.812,0
119616.737,54.199,39.551,38.574,27.832,32.715,0
119616.739,82.520,40.039,38.574,37.598,63.477,0
119616.743,91.309,41.016,31.250,38.574,86.426,0
119616.746,60.547,37.109,26.855,22.461,47.363,0
119616.750,38.574,36.621,28.320,15.137,7.324,0
119616.754,63.477,39.551,30.273,34.180,25.879,0
119616.758,87.891,35.645,32.227,39.551,27.344,0
119616.762,65.918,32.227,32.227,34.668,5.371,0
119616.766,44.434,33.691,30.273,32.227,-1.953,0
119616.770,58.594,35.156,26.855,23.438,-14.648,0
119616.774,76.172,37.598,25.879,25.879,14.160,0
119616.778,66.895,38.086,28.809,25.391,9.766,0
119616.782,46.387,37.598,30.762,20.996,-60.547,0
119616.785,59.570,34.180,28.809,28.809,-28.320,0
119616.789,79.590,30.762,28.809,25.391,26.855,0
119616.793,71.289,31.738,28.809,14.648,22.949,0
119616.797,46.387,29.785,21.973,12.695,-7.812,0
119616.801,43.945,28.809,18.555,15.137,13.184,0
119616.805,81.543,30.273,26.855,27.344,57.617,0
119616.808,88.867,30.273,33.691,40.527,75.684,0
119616.812,47.363,28.809,34.668,27.344,12.695,0
119616.816,29.785,29.297,33.203,11.719,-32.715,0
119616.820,57.129,29.297,31.738,25.391,53.223,0
119616.824,78.613,30.762,32.715,28.320,92.285,0
119616.828,69.336,35.645,33.691,17.090,59.570,0
119616.829,45.410,33.203,35.645,17.090,27.344,0
119616.833,47.363,26.855,31.250,22.461,52.734,0
119616.837,74.707,27.832,25.879,25.879,80.078,0
119616.840,64.453,33.691,26.367,25.879,55.176,0
119616.844,38.086,33.691,25.391,21.973,-8.301,0
119616.848,51.270,32.227,26.855,16.602,-15.137,0
119616.852,77.637,34.180,25.879,23.926,20.020,0
119616.856,76.172,34.668,26.855,25.391,17.578,0
119616.860,50.293,36.621,29.297,22.461,-9.766,0
119616.864,42.480,41.016,28.809,28.320,6.836,0
119616.868,65.918,38.086,34.180,32.227,33.691,0
119616.872,80.078,36.621,34.668,34.180,62.988,0
119616.874,58.105,37.598,29.785,25.879,69.824,0
119616.878,40.527,33.691,31.738,14.160,39.551,0
119616.882,67.871,30.273,32.715,35.645,28.809,0
119616.885,93.262,29.297,29.297,54.199,18.066,0
119616.889,63.965,33.691,27.832,31.738,4.883,0
119616.893,34.180,36.621,28.809,17.578,-54.688,0
119616.897,45.898,32.227,29.297,20.020,-62.500,0
119616.901,65.918,32.227,30.762,13.184,-15.625,0
119616.905,65.918,36.621,30.762,12.207,3.418,0
119616.909,44.922,33.691,28.320,20.996,-3.418,0
119616.913,54.688,33.691,32.227,22.949,1.953,0
119616.917,85.938,38.574,37.598,27.832,52.246,0
119616.919,80.078,35.156,41.504,34.668,68.848,0
119616.923,50.781,34.668,40.039,30.273,-0.977,0
119616.927,41.016,34.180,34.180,29.297,-33.203,0
119616.930,61.523,33.203,33.203,32.227,14.160,0
119616.934,71.777,33.203,33.203,32.227,56.641,0
119616.938,56.152,32.227,32.227,33.691,9.766,0
119616.942,37.598,34.180,34.180,30.762,-36.133,0
119616.946,57.617,37.598,34.668,35.156,30.762,0
119616.950,83.008,37.598,36.133,42.969,85.938,0
119616.954,70.312,32.227,38.574,26.855,55.176,0
119616.958,49.316,28.320,37.598,10.254,4.395,0
119616.962,49.316,27.832,32.715,15.137,-1.953,0
119616.979,74.219,31.738,30.762,24.414,39.062,0
119616.983,72.754,28.809,32.715,20.508,20.020,0
119616.987,45.898,24.902,31.738,24.902,-40.039,0
119616.990,46.875,29.297,31.738,33.691,-20.020,0
119616.994,74.707,30.762,31.250,40.527,61.523,0
119616.998,85.938,25.879,31.738,43.945,56.152,0
119617.002,63.965,23.438,32.227,31.738,-16.602,0
119617.006,43.945,28.320,31.250,32.715,-22.461,0
119617.010,62.988,31.738,35.645,41.992,34.180,0
119617.014,81.543,32.227,37.598,33.691,97.168,0
119617.018,62.012,32.227,39.062,36.621,78.125,0
119617.022,40.527,35.156,41.016,38.086,23.926,0
119617.024,61.035,33.691,37.598,32.227,50.293,0
119617.028,84.961,28.320,36.621,31.250,110.352,0
119617.031,66.406,28.320,34.180,27.832,66.895,0
119617.035,47.363,33.203,31.738,24.414,-3.418,0
119617.039,54.199,37.598,30.273,28.320,1.465,0
119617.043,74.219,34.180,33.691,35.156,26.367,0
119617.047,75.195,29.785,38.574,37.109,68.359,0
119617.051,48.828,31.738,31.738,26.855,26.367,0
119617.055,47.852,34.180,29.297,24.902,-38.574,0
119617.059,81.055,33.691,31.738,25.391,-32.227,0
119617.063,84.961,30.762,27.832,15.625,41.504,0
119617.067,55.664,27.832,28.809,18.066,69.336,0
119617.069,44.434,32.227,30.762,16.602,18.555,0
119617.073,67.383,33.691,25.879,22.461,29.297,0
119617.076,90.332,27.832,29.785,29.297,78.613,0
119617.080,70.312,29.785,35.645,24.902,27.344,0
119617.084,38.574,34.180,35.156,22.949,-55.664,0
119617.088,57.617,32.227,33.203,28.809,-30.273,0
119617.092,85.449,30.273,35.156,38.086,40.039,0
119617.096,74.219,32.715,39.062,37.109,53.223,0
119617.100,58.594,36.621,36.621,31.738,-15.137,0
119617.104,64.453,32.715,33.691,28.809,-32.715,0
119617.108,85.938,32.715,35.645,42.969,55.664,0
119617.112,86.914,39.062,33.691,42.969,63.965,0
119617.114,62.500,32.227,35.645,24.902,13.184,0
119617.118,52.246,28.809,37.598,21.973,6.836,0
119617.121,78.125,30.273,31.738,30.273,56.641,0
119617.125,90.332,27.832,31.250,34.668,85.938,0
119617.129,65.430,29.785,32.715,34.668,64.941,0
119617.133,46.387,31.738,35.156,33.691,30.762,0
119617.137,67.871,32.715,37.109,34.180,26.855,0
119617.141,90.332,26.367,39.551,43.945,75.195,0
119617.145,72.754,22.461,39.551,42.480,20.508,0
119617.149,49.805,25.391,33.203,34.668,-10.254,0
119617.153,64.941,22.949,35.645,37.109,75.684,0
119617.157,91.797,23.926,40.527,43.945,87.891,0
119617.159,80.078,25.391,37.598,41.016,79.590,0
119617.163,55.176,30.273,38.574,34.668,51.270,0
119617.166,60.059,33.691,39.551,33.203,26.855,0
119617.170,83.984,29.297,36.133,35.645,60.059,0
119617.174,85.449,27.832,39.062,35.645,75.195,0
119617.178,67.383,30.273,40.527,31.738,6.836,0
119617.182,66.406,35.156,43.457,35.645,-11.719,0
119617.186,93.750,38.086,42.480,40.039,21.484,0
119617.190,102.539,36.133,31.250,40.039,53.711,0
119617.194,74.707,37.598,32.715,33.203,78.125,0
119617.198,55.664,38.086,43.457,29.785,18.066,0
119617.202,71.777,35.156,43.945,39.551,25.391,0
119617.204,90.820,33.203,37.598,48.340,84.961,0
119617.208,75.684,31.738,39.062,35.156,21.973,0
119617.211,47.363,33.691,40.039,22.461,-33.203,0
119617.215,57.129,34.668,38.086,39.062,26.367,0
119617.219,83.496,37.109,38.086,44.922,67.871,0
119617.223,79.102,43.945,32.715,29.297,64.453,0
119617.227,57.617,44.434,32.227,24.414,32.227,0
119617.231,56.152,40.527,35.645,20.996,15.137,0
119617.235,78.613,37.109,37.598,29.785,43.457,0
119617.239,90.820,42.969,41.504,37.109,66.895,0
119617.243,72.754,44.922,41.016,25.879,13.672,0
119617.247,58.594,40.039,42.969,29.785,-20.508,0
119617.250,80.566,43.945,41.992,42.480,26.367,0
119617.254,97.168,46.875,35.156,44.434,47.363,0
119617.258,80.078,45.410,35.645,43.945,15.137,0
119617.262,63.965,41.504,38.086,41.992,-35.645,0
119617.266,75.195,38.086,39.062,38.574,17.578,0
119617.269,92.285,37.109,41.504,38.574,65.430,0
119617.273,80.078,39.551,38.574,36.133,-14.160,0
119617.277,55.176,41.504,51.758,29.297,-42.480,0
119617.281,60.547,42.480,66.406,32.715,5.859,0
119617.285,91.797,44.922,65.918,42.969,78.613,0
119617.289,91.797,41.992,61.035,34.180,104.980,0
119617.293,60.059,37.109,64.453,23.926,56.641,0
119617.294,53.711,35.645,70.312,31.738,17.578,0
119617.298,84.961,41.016,67.383,45.410,24.902,0
119617.301,100.586,46.387,61.523,47.852,48.340,0
119617.305,74.707,47.363,58.594,41.504,11.719,0
119617.309,58.594,44.922,61.523,36.621,-43.945,0
119617.313,81.055,39.551,62.500,43.457,-8.301,0
119617.317,101.074,34.668,61.523,46.387,33.691,0
119617.321,83.008,33.691,61.523,34.668,21.484,0
119617.325,60.059,33.691,57.617,36.621,25.391,0
119617.329,82.031,38.086,54.688,43.457,2.441,0
119617.333,105.957,41.504,58.105,43.945,0.977,0
119617.337,89.355,41.504,61.035,45.898,38.086,0
119617.354,63.965,36.621,59.082,28.809,0.977,0
119617.358,64.453,34.180,55.176,28.320,-32.227,0
119617.362,87.891,32.227,54.199,41.504,60.547,0
119617.365,96.191,31.738,58.105,41.504,89.844,0
119617.369,71.289,36.621,60.059,40.039,20.020,0
119617.373,58.105,37.109,56.152,35.156,-11.230,0
119617.377,85.449,34.668,48.340,36.621,-6.348,0
119617.381,102.539,37.109,41.016,41.992,29.297,0
119617.385,80.078,40.527,44.434,39.551,18.555,0
119617.389,57.617,39.062,48.340,36.621,-24.902,0
119617.393,79.590,35.156,46.387,40.039,-18.066,0
119617.397,100.098,32.715,44.922,39.551,13.672,0
119617.399,74.707,35.156,46.387,29.297,3.906,0
119617.403,49.805,38.086,45.410,23.926,-47.852,0
119617.406,64.941,36.621,47.852,34.180,-13.184,0
119617.410,92.773,37.598,48.828,42.480,66.895,0
119617.414,86.914,40.039,43.945,37.109,58.594,0
119617.418,58.105,38.574,36.621,26.855,-29.785,0
119617.422,59.570,39.551,36.133,26.367,-36.621,0
119617.426,84.473,42.969,42.480,39.551,53.711,0
119617.430,87.402,39.551,44.434,46.387,40.527,0
119617.434,67.871,36.133,45.898,38.574,-39.062,0
119617.438,64.453,39.062,49.805,40.527,-39.062,0
119617.442,84.961,38.574,46.387,49.316,27.344,0
119617.444,100.586,37.598,40.527,40.039,25.391,0
119617.448,81.543,37.109,40.039,28.809,-15.625,0
119617.452,53.711,38.086,37.109,27.832,-17.090,0
119617.456,67.871,38.086,33.691,37.109,52.734,0
119617.460,91.309,40.039,35.645,44.434,104.004,0
119617.463,79.102,43.457,39.062,31.250,72.266,0
119617.467,54.688,42.969,40.039,24.414,28.809,0
119617.471,65.918,41.992,39.551,38.086,41.504,0
119617.475,93.262,42.480,40.039,43.945,73.730,0
119617.479,86.914,41.016,39.062,35.645,47.852,0
119617.483,59.570,39.551,35.156,23.926,36.621,0
119617.487,58.105,39.062,32.227,27.832,68.848,0
119617.490,85.449,39.551,32.227,40.527,82.520,0
119617.494,91.797,41.016,34.668,42.480,69.336,0
119617.498,63.965,41.992,39.062,36.621,24.902,0
119617.502,51.758,43.945,41.016,34.180,-31.738,0
119617.506,72.754,40.039,41.016,36.621,9.277,0
