timestamps,TP9,AF7,AF8,TP10,Right AUX,Marker0
119876.676,47.363,35.156,35.645,49.316,-58.594,0
119876.680,52.246,37.598,24.902,46.875,-15.137,0
119876.684,28.320,37.598,17.578,39.062,-27.344,0
119876.688,14.160,28.809,19.531,35.645,-28.320,0
119876.692,32.227,22.949,10.742,40.527,-0.977,0
119876.695,50.781,30.273,6.836,45.410,27.344,0
119876.699,37.598,35.156,16.602,39.062,16.113,0
119876.703,17.578,32.227,21.973,37.598,-15.137,0
119876.707,26.367,30.273,22.949,39.551,-26.367,0
119876.711,47.852,29.785,20.996,42.480,11.719,0
119876.715,46.875,31.738,24.414,43.945,6.836,0
119876.719,25.391,32.227,34.668,39.062,-68.848,0
119876.735,29.785,28.320,35.645,41.992,-92.773,0
119876.739,55.176,22.949,29.785,47.363,-42.969,0
119876.743,53.223,26.855,24.414,44.434,-4.883,0
119876.746,29.785,35.645,23.438,40.039,-67.871,0
119876.750,21.973,33.691,22.949,40.527,-101.074,0
119876.754,46.875,29.785,21.973,50.293,-73.242,0
119876.758,62.500,32.227,22.949,54.688,-43.945,0
119876.762,39.062,33.203,21.973,42.480,-27.344,0
119876.766,22.949,32.227,25.391,37.598,-59.570,0
119876.770,44.922,38.086,32.227,46.875,-61.035,0
119876.774,61.523,39.551,27.344,46.387,-8.789,0
119876.778,49.316,36.621,23.438,40.527,-21.484,0
119876.780,29.297,35.156,30.273,40.527,-56.152,0
119876.784,33.203,38.574,26.855,39.551,-41.992,0
119876.787,52.246,40.039,24.902,39.551,-4.883,0
119876.791,44.922,33.203,34.180,37.109,17.090,0
119876.795,19.531,31.738,35.645,32.227,-68.359,0
119876.799,19.043,34.180,27.344,36.133,-84.961,0
119876.803,46.387,35.156,25.879,46.387,-19.531,0
119876.807,48.828,37.109,28.320,45.410,-18.066,0
119876.811,21.973,38.574,30.762,32.715,-38.574,0
119876.815,12.207,36.621,31.738,30.273,-62.500,0
119876.819,31.250,29.297,28.320,37.598,1.465,0
119876.823,45.410,29.785,27.344,38.574,38.086,0
119876.825,30.762,34.180,25.879,30.273,-27.832,0
119876.829,11.230,31.738,30.762,26.367,-46.387,0
119876.832,27.344,30.762,29.785,33.203,-7.812,0
119876.836,57.129,36.133,24.902,44.922,-10.254,0
119876.840,50.293,39.551,28.320,44.434,-28.809,0
119876.844,23.438,36.133,26.855,33.203,-64.453,0
119876.848,33.691,37.598,31.738,36.621,-82.520,0
119876.852,58.105,37.109,36.133,41.016,2.441,0
119876.856,44.922,31.250,25.391,30.762,-17.578,0
119876.860,15.625,32.227,23.438,28.320,-56.152,0
119876.864,11.719,31.250,27.344,31.250,-21.484,0
119876.868,38.086,35.156,24.902,33.691,-11.230,0
119876.870,48.828,32.715,27.832,37.109,-6.348,0
119876.874,30.762,27.344,29.297,37.598,-27.344,0
119876.877,16.113,23.438,20.020,26.855,-69.824,0
119876.881,36.621,24.414,12.207,27.832,-43.457,0
119876.885,55.664,27.344,15.625,38.086,7.812,0
119876.889,40.039,30.762,27.344,34.668,-25.391,0
119876.893,21.484,38.574,33.203,35.645,-72.754,0
119876.897,28.320,40.039,25.879,36.621,-39.062,0
119876.901,51.270,31.250,21.973,38.086,-11.230,0
119876.905,45.410,24.902,25.391,36.621,-20.508,0
119876.909,19.531,24.414,25.391,30.273,-54.688,0
119876.913,25.879,25.879,24.414,36.133,-52.734,0
119876.917,52.734,28.809,20.996,42.480,-7.812,0
119876.921,52.246,34.180,16.602,40.039,34.180,0
119876.924,29.297,40.527,20.996,37.598,1.465,0
119876.928,23.438,39.551,19.531,34.668,-33.691,0
119876.932,44.922,33.203,20.020,40.039,-12.207,0
119876.936,51.270,27.832,27.344,39.062,-42.480,0
119876.940,32.715,31.738,35.645,31.738,-94.727,0
119876.944,20.020,31.250,36.621,26.855,-117.188,0
119876.948,34.668,24.902,29.297,28.320,-56.641,0
119876.952,55.664,32.715,23.438,37.598,-7.324,0
119876.956,42.480,39.551,25.879,37.598,-53.223,0
119876.960,19.531,38.574,30.273,36.133,-44.922,0
119876.960,32.227,33.691,23.438,42.480,19.531,0
119876.964,45.410,24.414,22.949,40.527,12.695,0
119876.968,37.109,28.809,31.738,36.133,9.766,0
119876.971,21.484,33.203,32.227,30.762,-47.852,0
119876.975,22.949,31.738,27.832,29.297,-56.641,0
119876.979,49.805,36.133,27.344,36.621,7.812,0
119876.983,52.734,35.156,26.367,37.598,-5.859,0
119876.987,27.832,32.715,27.344,33.691,-67.871,0
119876.991,21.973,31.738,29.297,32.715,-85.938,0
119876.995,40.527,31.250,28.320,40.527,-29.297,0
119876.999,54.688,29.297,27.832,47.852,-23.438,0
119877.003,41.016,31.738,25.879,41.992,-68.848,0
119877.005,21.484,34.668,24.414,39.551,-75.684,0
119877.009,41.504,37.598,29.785,44.922,-31.738,0
119877.012,60.547,34.180,30.762,47.363,-6.348,0
119877.016,44.434,27.832,32.227,44.434,-25.879,0
119877.020,23.438,29.297,33.691,43.457,-50.293,0
119877.024,30.273,32.715,35.156,43.945,-46.387,0
119877.028,53.711,32.227,37.598,53.711,-10.254,0
119877.032,59.082,38.574,31.250,62.500,-20.996,0
119877.036,37.109,42.969,23.926,51.270,-58.594,0
119877.040,32.227,36.621,23.926,48.828,-79.590,0
119877.044,50.293,29.297,25.391,49.805,-63.477,0
119877.048,48.340,25.879,30.762,41.504,-44.922,0
119877.050,25.879,26.855,36.133,38.086,-47.852,0
119877.054,14.648,28.809,38.574,37.598,-74.707,0
119877.057,36.133,27.344,41.016,42.480,-67.871,0
119877.061,57.617,26.855,41.992,46.387,-4.883,0
119877.065,34.668,30.273,37.109,37.598,-59.570,0
119877.069,11.719,34.180,34.668,30.762,-137.207,0
119877.073,30.273,33.691,32.715,38.574,-111.328,0
119877.077,54.199,29.785,31.250,47.363,-32.715,0
119877.081,44.434,31.738,25.879,41.016,-21.973,0
119877.085,25.391,36.133,23.438,34.668,-95.703,0
119877.089,36.621,37.598,38.574,41.992,-128.906,0
119877.093,54.688,32.227,36.621,48.340,-76.172,0
119877.110,50.293,30.762,29.297,48.340,-54.688,0
119877.114,25.879,32.715,34.180,43.457,-117.676,0
119877.118,19.043,29.297,36.621,42.480,-125.488,0
119877.122,42.969,27.832,36.621,51.758,-52.734,0
119877.125,42.480,26.855,32.227,49.805,-32.715,0
119877.129,20.996,26.855,31.250,46.875,-73.730,0
119877.133,18.066,25.879,31.250,49.805,-79.590,0
119877.137,39.062,30.273,32.715,49.316,-42.969,0
119877.141,57.129,40.039,34.180,49.316,-21.973,0
119877.145,39.551,40.039,34.668,41.504,-74.219,0
119877.149,17.578,33.691,34.668,30.762,-87.891,0
119877.153,30.762,26.855,23.438,34.180,-9.277,0
119877.155,51.758,23.438,19.043,40.527,9.277,0
119877.159,43.945,28.809,21.484,39.062,-32.715,0
119877.163,22.461,36.621,23.438,32.715,-55.664,0
119877.166,30.273,36.133,27.832,39.551,-28.320,0
119877.170,61.035,41.504,24.414,49.805,3.418,0
119877.174,57.617,47.852,21.973,45.410,-20.020,0
119877.178,25.391,40.039,26.367,29.785,-45.410,0
119877.182,18.066,27.344,24.902,26.855,-16.113,0
119877.186,40.527,22.461,22.461,36.621,14.648,0
119877.190,50.293,28.809,26.367,36.133,-9.277,0
119877.194,28.809,30.762,29.785,28.320,-8.301,0
119877.198,16.602,37.109,32.227,32.227,-20.020,0
119877.200,42.969,47.852,31.738,46.387,-49.805,0
119877.204,58.594,37.598,29.297,49.316,-49.805,0
119877.207,40.039,24.414,28.809,38.086,-35.645,0
119877.211,21.973,25.391,28.809,31.738,-82.031,0
119877.215,41.992,30.762,35.645,39.551,-94.238,0
119877.219,67.383,30.762,36.133,45.898,-31.738,0
119877.223,60.547,33.203,29.297,42.969,-41.016,0
119877.227,38.574,45.410,20.996,39.062,-50.293,0
119877.231,32.227,48.340,17.090,34.668,-66.895,0
119877.235,50.781,37.598,22.461,37.109,-59.570,0
119877.239,50.781,26.367,22.949,38.086,-10.254,0
119877.243,25.879,29.785,23.926,31.738,-30.273,0
119877.245,19.531,31.250,31.250,35.645,-57.129,0
119877.249,44.434,29.297,35.645,45.898,-37.109,0
119877.252,56.641,36.621,35.156,45.898,-6.836,0
119877.256,41.016,39.551,31.250,39.551,-45.898,0
119877.260,29.297,37.109,21.484,37.109,-100.098,0
119877.264,43.945,34.668,11.719,41.504,-76.660,0
119877.268,63.965,35.645,15.137,44.922,-51.270,0
119877.272,48.828,37.598,21.973,39.062,-87.402,0
119877.276,22.949,33.691,19.531,31.250,-114.258,0
119877.280,34.668,33.691,20.508,36.133,-46.387,0
119877.284,63.477,38.574,22.461,49.316,23.438,0
119877.288,62.012,36.133,8.789,50.781,25.879,0
119877.290,28.320,29.785,12.695,36.621,0.488,0
119877.294,24.902,33.691,34.668,31.738,-17.578,0
119877.297,51.758,39.062,34.180,38.574,-0.977,0
119877.301,57.617,36.133,27.832,43.945,39.062,0
119877.305,38.086,40.527,29.297,40.527,9.766,0
119877.309,29.785,44.922,32.227,38.086,-85.449,0
119877.313,50.781,34.668,35.156,46.387,-79.102,0
119877.317,62.500,33.203,30.762,49.316,-16.113,0
119877.321,41.504,35.645,25.879,42.480,-41.992,0
119877.325,21.973,36.133,30.273,37.109,-90.820,0
119877.329,37.598,36.621,34.180,41.992,-72.754,0
119877.333,58.105,34.180,29.297,47.852,-14.160,0
119877.335,44.922,30.762,22.461,41.992,11.719,0
119877.339,21.484,29.785,23.926,35.156,-38.086,0
119877.343,26.855,31.250,23.438,38.574,-33.203,0
119877.347,50.293,30.273,24.902,44.922,23.926,0
119877.351,52.246,31.250,27.832,43.457,3.418,0
119877.355,27.832,37.109,28.320,37.598,-66.406,0
119877.359,23.926,34.180,26.367,41.992,-78.613,0
119877.363,50.781,31.250,24.902,52.734,-37.598,0
119877.367,57.129,34.668,27.344,54.688,0.977,0
119877.370,37.109,34.180,26.367,49.805,-31.738,0
119877.374,23.438,32.227,25.879,43.945,-56.152,0
119877.378,42.480,31.738,30.762,45.410,-39.551,0
119877.381,59.082,33.691,32.715,46.875,-18.066,0
119877.385,35.645,30.273,24.902,34.668,-14.160,0
119877.389,16.113,29.785,23.926,29.785,-60.547,0
119877.393,35.645,35.645,31.738,41.992,-44.434,0
119877.397,53.711,35.645,26.367,46.387,0.488,0
119877.401,41.504,30.762,20.508,43.457,-33.203,0
119877.404,19.531,29.297,20.996,36.621,-101.074,0
119877.408,28.809,29.297,20.508,39.551,-74.219,0
119877.412,61.523,33.203,28.320,56.152,-16.113,0
119877.416,54.688,39.062,32.715,51.270,-17.090,0
119877.420,20.020,34.180,31.250,33.203,-41.016,0
119877.424,16.602,36.133,31.250,36.133,-55.176,0
119877.440,39.551,39.062,31.250,44.922,-0.488,0
119877.444,43.457,31.250,29.785,44.922,12.207,0
119877.448,20.996,25.391,26.367,37.598,-15.625,0
119877.451,12.207,32.715,30.762,34.668,-61.035,0
119877.455,32.715,36.133,22.949,41.992,-72.754,0
119877.459,48.340,32.227,18.066,43.945,-23.926,0
119877.463,33.203,36.621,24.902,39.062,-57.617,0
119877.467,14.648,41.992,25.391,34.668,-100.586,0
119877.471,27.344,36.133,27.344,40.527,-42.480,0
119877.475,49.316,32.715,30.273,48.340,17.090,0
119877.479,39.551,34.180,28.320,41.016,31.738,0
119877.483,13.184,33.691,28.809,30.273,-12.695,0
119877.485,18.066,33.691,35.156,37.598,-49.316,0
119877.489,49.316,37.109,30.762,46.875,-25.391,0
119877.492,50.293,41.504,27.344,42.480,11.230,0
119877.496,22.461,41.016,31.738,35.156,-2.930,0
119877.500,16.602,38.086,27.832,33.203,-30.273,0
119877.504,43.945,33.203,22.461,40.527,-21.484,0
119877.508,53.711,32.227,20.996,41.504,-3.418,0
119877.512,22.949,32.227,22.949,30.273,-15.625,0
119877.516,5.371,32.227,30.273,28.809,-53.223,0
119877.520,24.902,36.133,32.715,34.180,-41.992,0
119877.524,44.434,37.598,33.691,34.668,13.184,0
119877.528,35.156,32.715,33.691,37.598,13.672,0
119877.530,16.602,30.273,28.809,38.086,-1.953,0
119877.534,25.879,33.203,23.438,40.039,25.879,0
119877.537,52.734,32.227,24.902,47.852,55.176,0
119877.541,48.828,31.250,27.344,45.898,1.465,0
119877.545,23.438,31.250,25.391,38.086,-70.801,0
119877.549,27.344,34.180,28.809,41.504,-54.199,0
119877.553,53.711,39.062,27.832,48.828,-9.766,0
119877.557,53.223,43.457,22.949,47.852,-4.883,0
119877.561,22.949,36.621,24.902,37.109,-28.320,0
119877.565,13.672,30.273,29.297,35.156,-59.082,0
119877.569,39.551,29.785,31.250,45.898,-4.883,0
119877.573,50.781,25.391,31.738,47.363,33.203,0
119877.575,27.832,27.344,31.250,41.504,16.602,0
119877.579,12.695,34.668,24.902,33.691,-41.504,0
119877.582,34.180,35.645,22.461,36.133,-21.973,0
119877.586,56.641,34.668,21.973,43.457,64.941,0
119877.590,43.457,30.762,20.996,38.086,26.367,0
119877.594,21.484,29.297,20.020,31.250,-26.367,0
119877.598,28.809,33.203,21.973,34.180,-33.691,0
119877.602,53.223,31.738,25.391,36.133,8.789,0
119877.606,50.781,33.203,25.879,32.715,-27.344,0
119877.610,20.996,33.691,23.926,24.414,-83.008,0
119877.614,17.090,25.391,18.555,24.902,-50.293,0
119877.618,52.734,28.320,23.926,39.062,-11.719,0
119877.621,63.477,34.180,25.391,42.480,-3.906,0
119877.625,31.250,29.297,15.137,23.438,-40.527,0
119877.629,20.020,29.785,18.555,21.973,-47.852,0
119877.633,46.387,34.180,24.902,36.621,-5.859,0
119877.637,61.523,36.621,22.461,39.551,31.250,0
119877.641,45.410,38.086,23.438,37.598,32.715,0
119877.644,25.879,37.598,26.855,39.062,-3.906,0
119877.648,35.156,35.645,23.438,38.574,-9.766,0
119877.652,51.270,36.621,20.508,39.062,-4.395,0
119877.656,41.016,36.621,21.973,39.062,-6.836,0
119877.660,16.113,35.156,24.414,34.668,-44.922,0
119877.664,25.879,35.156,29.785,38.574,-45.898,0
119877.665,55.664,36.133,27.832,40.527,-0.488,0
119877.669,51.270,35.156,24.414,37.598,22.949,0
119877.672,26.855,36.133,23.438,35.156,-21.973,0
119877.676,26.855,37.598,25.391,35.645,-58.105,0
119877.680,49.316,36.621,29.785,41.016,6.348,0
119877.684,55.176,36.621,28.809,42.969,24.414,0
119877.688,32.715,35.156,27.344,36.133,-38.574,0
119877.692,14.160,30.762,29.297,31.250,-83.008,0
119877.696,32.227,26.855,30.273,36.621,-64.941,0
119877.700,53.711,24.902,23.438,42.969,-10.254,0
119877.704,40.527,29.785,20.996,43.457,-45.898,0
119877.708,17.090,33.203,24.902,37.598,-92.285,0
119877.710,31.738,35.645,30.762,41.504,-47.363,0
119877.714,54.688,37.598,31.250,50.781,-2.930,0
119877.717,42.480,36.621,23.926,45.410,-18.555,0
119877.721,17.578,36.621,19.043,34.180,-86.914,0
119877.725,22.949,32.227,21.973,36.133,-71.289,0
119877.729,44.434,32.227,24.414,44.434,6.348,0
119877.733,39.551,36.133,21.484,37.598,10.254,0
119877.737,16.113,36.133,20.996,27.832,-44.434,0
119877.741,13.184,32.227,21.484,34.668,-31.250,0
119877.745,40.039,30.762,25.879,45.898,20.996,0
119877.749,51.270,33.203,27.832,41.992,11.230,0
119877.753,30.762,33.203,23.926,28.320,-6.836,0
119877.755,17.578,35.156,20.996,24.902,-39.062,0
119877.759,34.180,36.621,21.484,33.203,-39.062,0
119877.763,55.176,38.086,28.809,41.016,0.000,0
119877.767,44.922,40.039,27.344,40.527,-21.973,0
119877.771,24.414,35.156,18.066,33.691,-44.434,0
119877.775,39.551,29.297,23.438,39.062,-32.227,0
119877.779,64.941,29.785,24.902,50.293,-15.625,0
119877.783,53.223,34.668,20.996,44.434,-8.301,0
119877.787,25.879,36.621,28.320,37.109,6.836,0
119877.791,30.273,41.992,33.203,41.504,-28.809,0
119877.794,54.688,42.969,30.273,48.828,-26.367,0
119877.798,49.805,28.809,31.250,47.363,16.113,0
119877.800,20.996,23.438,32.227,40.527,-16.113,0
119877.804,12.207,25.391,26.367,36.621,-55.664,0
119877.808,33.691,24.414,21.484,40.527,-60.547,0
119877.811,51.758,29.785,21.973,42.480,-9.766,0
119877.815,33.691,32.227,30.762,32.715,-16.602,0
119877.819,12.207,36.133,26.855,26.855,-65.430,0
119877.823,33.203,42.480,16.602,33.691,-75.195,0
119877.827,56.152,37.109,23.438,44.434,-16.602,0
119877.831,43.457,30.273,28.320,38.574,3.418,0
119877.835,19.043,30.273,24.414,27.832,-52.734,0
119877.839,31.250,36.133,25.391,36.133,-42.480,0
119877.843,57.129,39.062,28.809,46.387,24.902,0
119877.860,54.688,43.457,27.344,47.363,-7.324,0
119877.864,28.809,42.969,27.344,41.992,-106.934,0
119877.867,21.484,37.109,27.832,41.016,-90.332,0
119877.871,47.852,35.645,23.926,45.410,-24.902,0
119877.875,53.223,32.715,22.949,43.457,-27.344,0
119877.879,23.926,31.738,28.809,35.156,-47.363,0
119877.883,14.648,30.273,39.062,39.062,-78.125,0
119877.887,42.480,37.598,42.480,49.805,-76.660,0
119877.891,61.035,43.457,34.668,48.340,-28.809,0
119877.895,42.480,34.668,25.391,38.086,-27.344,0
119877.899,18.066,25.879,16.602,28.320,-66.406,0
119877.903,30.762,25.391,17.578,29.297,-49.805,0
119877.905,56.152,28.809,27.832,35.156,-31.738,0
119877.909,49.316,28.809,32.715,33.691,-71.289,0
119877.912,28.809,35.156,31.250,32.715,-74.707,0
119877.916,34.668,43.457,27.832,36.621,-16.602,0
119877.920,52.246,36.621,27.344,41.016,18.066,0
119877.924,48.340,28.809,24.902,38.574,4.883,0
119877.928,21.973,27.344,24.414,29.785,-3.906,0
119877.932,18.066,27.344,28.320,32.715,-10.742,0
119877.936,46.875,30.762,28.320,43.457,-27.832,0
119877.940,56.152,37.598,27.832,41.504,-41.992,0
119877.944,38.086,43.945,29.297,38.086,-43.457,0
119877.948,25.391,41.016,28.809,39.062,-57.617,0
119877.950,43.945,34.180,25.879,44.922,-23.438,0
119877.954,62.988,36.133,26.855,45.898,-13.672,0
119877.957,46.875,36.621,28.809,41.504,-44.922,0
119877.961,21.973,34.180,25.879,34.180,-29.297,0
119877.965,32.715,36.133,24.902,35.645,-5.371,0
119877.969,60.059,35.645,27.832,47.363,15.137,0
119877.973,50.293,37.109,25.879,39.062,6.836,0
119877.977,20.996,38.086,27.344,29.297,-45.898,0
119877.981,27.344,32.227,26.367,35.156,-89.844,0
119877.985,54.688,33.691,20.996,42.480,-62.500,0
119877.989,52.246,36.621,24.414,42.480,-21.973,0
119877.993,27.344,34.180,30.762,34.180,-72.754,0
119877.995,27.832,35.156,31.738,35.156,-116.211,0
119877.999,51.758,35.156,31.738,41.992,-83.984,0
119878.003,52.246,30.273,31.250,39.551,-42.969,0
119878.006,29.785,32.227,32.227,34.668,-64.941,0
119878.010,16.113,33.203,32.715,34.668,-69.824,0
119878.014,30.273,31.250,30.273,37.109,-5.859,0
119878.018,47.852,28.320,25.391,35.645,22.461,0
119878.022,33.203,25.391,22.461,28.809,-11.719,0
119878.026,11.719,28.320,27.344,22.461,-41.992,0
119878.030,24.902,31.250,26.367,24.902,-25.391,0
119878.034,50.293,32.227,23.926,34.668,11.719,0
119878.038,43.945,34.180,27.344,35.156,-8.301,0
119878.040,20.996,34.180,32.715,29.297,-73.242,0
119878.044,24.902,30.762,34.668,34.180,-41.992,0
119878.048,46.875,28.809,31.250,43.457,10.742,0
119878.052,47.363,34.668,26.367,40.039,-1.953,0
119878.056,25.879,39.551,24.902,34.180,-27.344,0
119878.059,19.043,38.086,28.809,34.180,-61.035,0
119878.063,40.527,30.273,29.297,38.086,-34.180,0
119878.067,45.410,20.996,25.391,35.645,3.906,0
119878.071,25.391,24.902,22.461,26.855,-13.672,0
119878.075,17.090,31.250,24.902,26.855,-30.273,0
119878.079,38.086,34.180,30.762,36.621,-16.113,0
119878.083,52.734,36.621,26.855,37.598,-16.602,0
119878.086,37.109,36.621,22.461,30.273,-62.988,0
119878.090,18.555,35.156,27.832,28.320,-99.609,0
119878.094,34.180,36.621,31.250,37.109,-79.102,0
119878.098,58.594,32.715,28.809,47.852,2.441,0
119878.102,51.270,28.320,28.809,43.945,-0.977,0
119878.106,25.879,32.715,26.367,34.180,-41.992,0
119878.109,25.879,39.062,25.391,35.645,-40.527,0
119878.113,51.758,36.621,26.855,40.039,-38.574,0
119878.117,55.176,38.086,25.391,39.551,-26.855,0
119878.121,28.320,39.062,23.438,32.227,-39.062,0
119878.125,19.531,33.203,26.855,37.109,-51.270,0
119878.129,48.340,39.062,33.203,48.340,-19.531,0
119878.130,59.570,44.434,33.203,45.898,0.977,0
119878.134,36.133,40.527,34.668,39.062,-65.918,0
119878.137,12.695,31.738,32.227,34.668,-102.539,0
119878.141,27.832,31.250,28.320,37.109,-40.039,0
119878.145,53.711,33.691,26.855,41.504,18.555,0
119878.149,48.340,34.180,30.762,43.457,0.488,0
119878.153,28.320,37.109,36.133,38.086,-42.969,0
119878.157,30.762,34.180,32.715,36.621,-14.160,0
119878.161,56.641,32.227,28.809,46.875,26.367,0
119878.165,53.223,32.715,27.344,46.387,-24.414,0
119878.169,27.832,34.668,30.762,35.645,-46.875,0
119878.173,23.926,31.738,30.762,32.715,-9.277,0
119878.190,42.480,26.855,26.855,38.574,47.852,0
119878.194,49.805,28.809,29.297,41.016,61.035,0
119878.197,28.320,29.297,33.203,38.086,18.066,0
119878.201,17.090,32.715,29.785,38.086,-12.207,0
119878.205,43.457,38.086,30.762,46.387,-14.160,0
119878.209,56.641,33.203,30.762,50.293,6.836,0
119878.213,35.645,29.297,25.391,42.480,-18.066,0
119878.217,20.996,32.715,23.926,39.062,-29.785,0
119878.221,36.621,30.762,23.926,46.875,-8.301,0
119878.225,57.129,32.227,28.320,55.664,9.766,0
119878.229,46.387,33.203,35.156,47.363,-0.977,0
119878.233,21.484,34.180,33.691,38.574,-36.621,0
119878.235,23.926,40.527,26.855,39.551,-63.965,0
119878.239,47.363,36.621,20.996,40.527,-41.992,0
119878.243,47.852,30.762,20.996,41.504,11.719,0
119878.246,21.484,34.180,28.809,36.133,-1.953,0
119878.250,17.090,32.715,32.227,35.645,-21.973,0
119878.254,41.504,28.809,28.809,43.457,-10.254,0
119878.258,52.734,34.668,24.902,45.410,5.371,0
119878.262,30.273,39.551,24.414,37.598,-16.602,0
119878.266,7.812,35.156,24.902,33.203,-57.129,0
119878.270,24.902,29.785,28.320,36.621,-67.383,0
119878.274,43.457,28.320,31.738,39.551,-28.320,0
119878.278,26.855,27.344,29.785,32.715,-24.414,0
119878.280,3.906,25.879,26.367,24.414,-87.402,0
119878.284,18.555,29.785,27.344,32.227,-99.609,0
119878.287,45.898,36.133,30.273,38.574,-49.805,0
119878.291,43.945,38.086,31.250,35.645,-67.383,0
119878.295,20.508,31.738,31.250,33.691,-133.789,0
119878.299,18.066,27.832,30.762,36.621,-118.652,0
119878.303,41.992,30.273,28.320,39.551,-42.969,0
119878.307,44.434,30.762,25.391,33.691,-17.090,0
119878.311,21.484,30.762,27.832,30.273,-70.801,0
119878.315,15.137,32.715,29.785,30.762,-63.477,0
119878.319,37.598,35.156,24.414,38.086,-4.395,0
119878.323,49.805,37.109,18.066,41.992,-11.719,0
119878.326,32.227,36.133,21.484,32.227,-53.711,0
119878.330,16.602,33.203,26.855,25.879,-56.641,0
119878.334,35.156,29.297,24.902,30.762,23.926,0
119878.338,52.246,29.785,20.996,34.668,42.480,0
119878.342,34.180,32.227,19.531,27.832,-2.441,0
119878.346,14.160,34.668,20.996,22.461,-34.668,0
119878.350,29.297,34.180,23.926,30.762,-37.109,0
119878.354,54.199,33.691,30.273,41.992,-10.254,0
119878.358,50.781,33.691,28.809,38.086,-7.812,0
119878.362,27.344,29.297,23.926,27.344,-11.230,0
119878.365,28.320,26.367,16.602,28.320,-21.973,0
119878.369,52.734,26.855,17.578,38.574,-18.066,0
119878.370,54.199,32.227,24.902,41.992,3.418,0
119878.374,27.832,33.691,23.926,34.180,-29.785,0
119878.378,18.555,30.273,23.438,31.250,-65.430,0
119878.381,41.504,27.344,25.391,32.715,-62.012,0
119878.385,55.176,29.297,32.715,35.156,-54.688,0
119878.389,40.527,34.668,38.574,35.645,-70.801,0
119878.393,20.996,34.668,31.250,32.715,-67.871,0
119878.397,34.668,35.156,25.879,39.062,-39.062,0
119878.401,60.547,38.086,31.738,45.898,-3.906,0
119878.405,46.875,34.668,30.273,41.016,-5.371,0
119878.409,14.160,30.273,24.414,26.855,-38.086,0
119878.413,20.996,28.809,23.926,28.320,-53.711,0
119878.415,52.734,29.785,26.367,44.922,-18.066,0
119878.419,53.223,37.598,30.762,46.387,22.949,0
119878.423,25.879,41.016,28.320,33.691,-47.852,0
119878.426,20.996,33.691,23.438,35.156,-62.500,0
119878.430,47.852,28.320,25.391,45.410,10.742,0
119878.434,56.152,24.414,26.367,43.457,5.371,0
119878.438,28.809,27.832,22.461,40.039,-33.691,0
119878.442,14.160,31.738,25.391,38.574,-50.293,0
119878.446,31.250,26.855,29.785,35.156,-20.996,0
119878.450,45.898,36.133,34.180,36.621,31.250,0
119878.454,33.691,43.945,33.691,35.645,27.832,0
119878.458,12.207,36.621,28.809,27.832,-3.418,0
119878.460,22.949,31.250,27.832,34.180,12.207,0
119878.464,48.340,31.250,28.809,44.434,41.992,0
119878.468,39.551,29.785,33.203,43.457,13.672,0
119878.471,14.160,25.879,29.785,36.133,-18.555,0
119878.475,25.879,28.320,24.414,41.016,-13.184,0
119878.479,54.688,38.574,26.367,47.852,25.879,0
119878.483,55.176,41.504,30.762,45.898,4.883,0
119878.487,29.297,34.180,35.156,38.086,-48.828,0
119878.491,21.973,32.227,35.156,38.086,-19.531,0
119878.495,49.805,34.668,36.621,53.711,19.043,0
119878.499,56.152,35.645,33.691,54.199,-8.789,0
119878.503,26.855,33.203,31.738,41.504,-38.574,0
119878.505,12.207,33.691,34.180,38.086,-49.805,0
119878.509,32.227,32.715,28.320,42.969,-24.902,0
119878.512,51.758,28.320,22.949,45.410,-1.953,0
119878.516,36.133,25.879,29.785,41.504,-30.762,0
119878.520,16.602,28.320,36.621,39.062,-44.434,0
119878.524,36.133,31.738,37.598,49.316,-14.160,0
119878.528,58.105,32.227,35.645,55.176,-10.742,0
119878.532,47.852,33.203,30.273,45.410,-22.461,0
119878.536,24.414,34.180,24.414,35.156,-44.434,0
119878.540,27.832,35.156,29.785,41.992,-49.316,0
119878.544,54.688,30.762,33.203,51.758,14.160,0
119878.548,56.641,28.809,30.762,49.316,23.926,0
119878.551,29.785,30.273,33.203,38.086,-48.828,0
119878.555,22.949,33.203,31.250,36.133,-94.238,0
119878.559,49.805,36.621,29.297,45.410,-49.805,0
119878.563,55.176,36.133,27.832,42.480,-8.789,0
119878.567,32.715,32.227,28.809,35.645,-16.602,0
119878.571,20.508,33.203,32.715,36.621,-59.570,0
119878.575,35.645,32.715,29.785,35.156,-29.297,0
119878.578,55.176,30.762,22.949,34.180,17.578,0
119878.582,38.574,31.250,22.461,29.297,4.395,0
119878.586,13.184,30.273,32.227,25.391,-29.785,0
119878.590,27.832,34.180,31.250,29.785,-16.602,0
119878.594,54.199,36.133,19.531,36.621,24.902,0
119878.610,49.316,35.645,19.043,33.691,3.906,0
119878.614,26.855,37.109,22.949,30.762,-33.691,0
119878.617,25.879,35.645,27.344,38.086,-43.945,0
119878.621,46.875,29.297,27.344,46.875,13.672,0
119878.625,53.711,31.738,29.785,46.387,22.949,0
119878.629,30.762,36.621,35.645,36.621,-47.363,0
119878.633,21.484,36.133,33.691,34.668,-77.637,0
119878.637,41.992,37.109,26.367,40.527,-22.461,0
119878.641,49.316,41.504,23.926,41.992,-7.812,0
119878.645,30.762,43.457,32.227,39.551,-46.387,0
119878.649,16.602,35.156,35.156,40.039,-72.266,0
119878.653,28.809,28.809,25.879,41.504,-51.758,0
119878.655,42.480,27.832,21.973,41.504,9.766,0
119878.659,31.250,31.738,27.832,36.133,33.203,0
119878.663,12.207,36.133,31.250,33.203,13.184,0
119878.666,23.438,34.180,27.344,40.039,1.465,0
119878.670,50.293,29.297,22.461,46.387,-2.441,0
119878.674,44.434,29.297,23.926,41.016,2.441,0
119878.678,21.484,35.156,29.785,33.691,-6.836,0
119878.682,24.414,40.039,28.809,32.227,-14.648,0
119878.686,49.316,39.551,26.855,41.992,-12.695,0
119878.690,56.641,36.621,30.273,45.410,-14.160,0
119878.694,33.203,37.109,27.344,33.691,-11.719,0
119878.698,18.555,38.086,23.438,32.227,-12.695,0
119878.700,41.504,38.086,23.926,38.574,9.766,0
119878.704,54.199,34.180,27.832,40.039,19.531,0
119878.708,30.273,31.738,29.297,37.598,8.789,0
119878.712,10.742,33.203,25.879,33.691,-15.137,0
119878.716,25.879,36.133,25.391,36.133,15.625,0
119878.719,48.828,37.598,27.344,41.504,38.086,0
119878.723,37.598,29.785,23.438,33.203,15.625,0
119878.727,13.184,28.809,24.414,22.461,-21.484,0
119878.731,20.996,35.645,27.344,22.461,-74.707,0
119878.735,47.363,34.668,29.297,29.297,-54.688,0
119878.739,46.875,31.738,27.344,23.438,-15.137,0
119878.743,19.043,29.785,22.461,13.184,-55.664,0
119878.745,19.531,32.227,26.367,22.949,-67.871,0
119878.749,48.828,33.691,34.180,33.691,12.695,0
119878.752,52.246,30.273,33.691,33.203,40.039,0
119878.756,24.902,26.367,29.297,28.320,-11.230,0
119878.760,14.160,29.785,24.902,26.855,-85.449,0
119878.764,35.645,32.715,21.484,36.621,-78.125,0
119878.768,51.270,33.203,23.926,48.340,-33.203,0
119878.772,37.109,32.715,28.320,41.992,-43.945,0
119878.776,17.578,31.250,29.785,30.762,-87.402,0
119878.780,31.250,32.227,29.297,34.668,-45.898,0
119878.784,56.641,33.691,30.762,38.574,9.277,0
119878.788,46.875,34.180,30.762,34.180,-35.156,0
119878.791,18.555,35.645,30.273,26.855,-72.754,0
119878.795,26.855,38.574,31.250,33.691,-34.668,0
119878.799,56.641,34.668,31.250,43.945,7.812,0
119878.803,55.176,30.762,32.227,41.504,-4.883,0
119878.807,28.809,36.133,30.762,37.109,-56.641,0
119878.810,19.531,39.062,31.738,39.551,-82.520,0
119878.814,43.457,38.574,33.691,47.363,-43.457,0
119878.818,58.105,36.621,32.715,46.875,-21.973,0
119878.822,36.133,39.062,31.250,35.645,-43.945,0
119878.826,15.137,42.969,30.762,33.691,-33.691,0
119878.830,33.203,37.598,27.344,38.574,-30.762,0
119878.834,54.688,34.668,23.438,41.016,-10.742,0
119878.835,46.387,39.551,27.344,38.086,-13.184,0
119878.839,25.391,43.945,28.809,36.621,-36.621,0
119878.842,29.297,41.016,26.367,40.039,-25.879,0
119878.846,48.828,35.156,25.391,40.527,-26.367,0
119878.850,42.969,35.645,24.902,39.062,-12.207,0
119878.854,22.949,40.527,27.344,42.969,-2.441,0
119878.858,25.391,37.109,24.902,44.922,1.465,0
119878.862,49.805,30.273,25.391,43.945,14.160,0
119878.866,59.082,34.668,30.273,42.969,-15.625,0
119878.870,35.156,38.086,27.344,38.574,-78.613,0
119878.874,25.391,37.598,27.832,37.109,-76.660,0
119878.878,49.805,36.621,30.762,43.457,-17.090,0
119878.880,59.570,36.621,28.809,47.363,12.207,0
119878.884,36.621,37.598,23.438,36.133,-19.043,0
119878.887,19.531,37.109,19.531,30.273,-68.848,0
119878.891,37.598,35.645,23.438,40.527,-36.133,0
119878.895,56.152,35.645,29.785,43.457,4.883,0
119878.899,41.992,37.109,29.785,38.574,-17.578,0
119878.903,17.578,33.203,25.391,33.691,-75.195,0
119878.907,27.344,31.738,29.297,39.062,-78.125,0
119878.911,54.199,35.156,28.320,44.434,12.207,0
119878.915,48.828,37.109,25.391,40.527,31.738,0
119878.919,26.855,36.133,27.344,40.527,13.184,0
119878.923,27.344,38.086,27.344,45.898,14.160,0
119878.940,48.828,37.109,24.414,46.387,25.391,0
119878.944,55.176,38.086,18.066,42.969,1.465,0
119878.947,31.738,41.016,20.508,39.551,-27.344,0
119878.951,20.996,41.504,31.738,42.480,3.906,0
119878.955,42.480,39.551,35.156,49.805,27.344,0
119878.959,56.641,38.086,29.785,50.781,5.859,0
119878.963,34.668,37.109,27.832,42.480,-33.691,0
119878.967,10.742,36.133,32.227,36.621,-50.781,0
119878.971,25.879,37.598,31.250,39.062,-1.465,0
119878.975,46.875,38.086,26.855,39.551,7.812,0
119878.979,37.109,36.133,30.273,35.156,-30.273,0
119878.983,19.043,37.598,32.227,31.250,-38.574,0
119878.985,25.391,41.016,28.809,33.691,-43.945,0
119878.989,46.387,42.969,26.367,40.527,-35.156,0
119878.992,46.387,40.527,27.832,41.016,-20.020,0
119878.996,19.531,35.156,25.879,32.227,-58.105,0
119879.000,12.695,33.691,27.832,35.645,-76.660,0
119879.004,39.062,31.250,29.785,44.922,-39.062,0
119879.008,46.875,31.738,25.391,40.527,-4.883,0
119879.012,28.809,34.668,25.879,39.062,12.207,0
119879.016,20.996,36.621,29.297,41.016,-30.762,0
119879.020,41.016,40.039,32.227,43.945,-19.043,0
119879.024,57.129,41.016,30.762,43.945,27.832,0
119879.028,38.574,38.086,26.855,38.086,9.766,0
119879.031,18.555,39.551,24.902,33.691,-28.320,0
119879.035,29.785,41.504,17.090,37.598,-30.762,0
119879.039,51.270,38.574,19.531,44.434,15.137,0
119879.043,43.945,37.598,23.438,38.574,23.926,0
119879.047,20.996,36.621,22.949,29.785,-26.367,0
119879.051,26.855,40.039,25.391,29.785,-46.387,0
119879.054,54.688,43.457,25.879,36.133,51.758,0
119879.058,53.711,40.527,31.250,37.598,84.961,0
119879.062,22.461,32.227,26.855,30.762,-18.555,0
119879.066,15.625,27.832,22.949,30.273,-51.758,0
119879.070,46.875,32.227,23.926,47.852,26.855,0
119879.074,58.594,38.086,22.949,46.875,21.973,0
119879.075,32.227,34.180,21.973,33.203,-39.062,0
119879.079,13.184,28.320,18.555,33.203,-34.180,0
119879.083,31.738,30.762,23.438,43.457,-20.508,0
119879.086,55.176,32.227,28.809,49.805,-21.484,0
119879.090,40.039,29.785,27.832,42.480,-42.480,0
119879.094,15.625,26.855,26.855,34.668,-89.844,0
119879.098,26.855,28.809,27.344,40.039,-39.551,0
119879.102,50.781,29.785,26.855,48.340,23.438,0
119879.106,50.781,29.785,24.902,41.992,-21.973,0
119879.110,28.809,37.109,29.785,34.180,-47.852,0
119879.114,30.273,42.969,28.809,40.039,-17.578,0
119879.118,55.176,35.156,28.320,49.316,-38.086,0
119879.120,54.199,31.738,31.250,45.898,-15.625,0
119879.124,27.344,35.645,28.320,36.133,-8.301,0
119879.127,17.090,32.715,26.855,35.156,-27.832,0
119879.131,34.668,27.832,25.879,38.574,6.348,0
119879.135,44.922,25.391,25.879,37.109,34.668,0
119879.139,24.902,27.344,30.273,34.180,-26.367,0
119879.143,3.418,30.273,32.227,29.785,-37.598,0
119879.147,22.461,30.762,31.250,35.645,8.301,0
119879.151,49.316,30.273,28.320,42.480,12.695,0
119879.155,39.062,30.762,27.344,36.133,23.926,0
119879.159,14.648,30.762,23.926,28.809,0.977,0
119879.163,21.484,27.344,18.066,31.250,-33.203,0
119879.165,51.758,29.785,21.484,36.621,14.648,0
119879.169,52.734,35.156,30.273,36.133,26.855,0
119879.172,26.855,38.574,30.762,30.273,-7.324,0
119879.176,22.461,37.109,23.438,27.344,35.645,0
119879.180,45.898,32.227,27.344,34.668,69.824,0
119879.184,51.270,34.668,29.785,36.133,22.461,0
119879.188,26.367,37.598,26.367,26.367,-14.160,0
119879.192,14.648,31.250,22.461,21.484,-36.133,0
119879.196,44.434,31.738,23.438,34.668,-19.531,0
119879.200,63.477,35.645,33.203,44.922,58.594,0
119879.204,35.645,33.691,30.762,28.809,22.461,0
119879.208,15.137,29.297,27.344,24.902,-24.902,0
119879.210,35.645,25.391,36.133,41.016,0.977,0
119879.214,54.199,25.391,38.086,45.410,30.273,0
119879.217,37.109,26.855,33.691,40.039,16.602,0
119879.221,9.277,29.785,32.227,33.691,-16.602,0
119879.225,15.137,31.738,34.668,35.645,21.973,0
119879.229,41.016,33.203,36.133,45.410,49.316,0
119879.233,41.016,34.180,32.227,42.969,26.855,0
119879.237,15.625,33.203,24.414,29.297,-4.395,0
119879.241,17.578,33.691,25.879,28.809,-14.160,0
119879.245,48.828,35.645,35.156,37.598,3.906,0
119879.249,57.617,34.668,40.039,40.039,37.109,0
119879.253,35.645,33.203,33.691,34.180,35.156,0
119879.256,21.484,35.645,28.320,30.273,-16.602,0
119879.260,44.922,42.480,33.691,43.457,-11.230,0
119879.264,62.988,44.922,35.156,49.805,10.254,0
119879.268,40.527,39.551,30.273,40.039,-28.809,0
119879.272,19.043,38.574,35.645,37.109,-47.363,0
119879.276,35.156,34.668,34.668,44.434,-23.926,0
119879.280,54.199,31.250,26.855,49.805,-0.977,0
119879.284,41.016,36.133,29.297,46.387,9.277,0
119879.287,14.160,40.527,32.227,41.992,-5.371,0
119879.291,16.113,43.945,32.227,44.434,-19.531,0
119879.295,44.434,43.457,32.715,51.270,43.945,0
119879.299,46.387,37.598,35.645,50.293,61.035,0
119879.315,16.602,35.156,37.109,46.387,-3.906,0
119879.319,6.348,29.785,38.574,45.898,-32.715,0
119879.323,32.227,30.273,39.062,52.246,-9.766,0
119879.326,45.410,35.645,28.809,46.875,4.883,0
119879.330,25.391,40.527,27.832,38.086,-42.969,0
119879.334,12.207,43.945,37.109,39.062,-77.148,0
119879.338,38.574,42.480,38.574,43.457,-52.246,0
119879.342,58.105,37.109,35.156,44.434,-4.395,0
119879.346,39.062,31.250,32.715,34.180,0.488,0
119879.350,17.090,32.227,29.297,27.344,-53.223,0
119879.354,30.273,36.621,27.832,36.621,-26.367,0
119879.358,57.617,39.062,27.344,43.457,46.875,0
119879.360,55.176,39.551,29.297,39.062,38.086,0
119879.364,34.668,42.969,29.785,34.180,-0.977,0
119879.368,39.551,40.039,25.879,41.016,-6.348,0
119879.371,65.430,35.645,24.414,52.734,17.578,0
119879.375,64.941,38.574,30.762,52.246,7.812,0
119879.379,40.039,38.574,34.668,46.875,-26.855,0
119879.383,31.250,38.574,33.691,47.852,-40.527,0
119879.387,49.805,40.527,33.691,52.246,-15.625,0
119879.391,59.082,39.062,27.832,54.688,-30.273,0
119879.395,34.668,41.016,27.832,47.852,-66.406,0
119879.399,14.648,39.551,30.762,39.062,-68.359,0
119879.403,34.668,35.156,31.738,43.945,-17.578,0
119879.405,56.641,36.621,28.320,49.316,28.320,0
119879.409,46.875,46.387,33.691,45.410,-3.906,0
119879.413,20.020,46.875,40.527,39.062,-68.359,0
119879.416,26.855,39.551,30.273,36.621,-60.547,0
119879.420,55.664,39.551,29.785,39.551,15.625,0
119879.424,44.434,33.203,31.738,33.691,-14.160,0
119879.428,15.137,31.738,27.344,23.926,-66.406,0
119879.432,19.531,39.062,24.902,26.855,-42.969,0
119879.436,41.992,37.598,22.461,31.250,-43.945,0
119879.440,42.480,34.180,24.414,29.297,-52.734,0
119879.444,20.508,35.645,28.320,25.391,-49.316,0
119879.448,14.648,36.133,24.902,28.320,-57.129,0
119879.450,37.109,35.645,22.949,35.645,-49.316,0
119879.454,49.316,33.203,25.879,33.203,-12.207,0
119879.457,29.785,35.156,28.320,25.391,-6.836,0
119879.461,11.230,38.086,30.273,22.949,-52.734,0
119879.465,27.832,41.504,25.391,27.832,-19.043,0
119879.469,51.270,39.551,22.949,33.203,20.996,0
119879.473,41.504,33.203,27.344,29.297,12.207,0
119879.477,10.742,30.762,28.809,21.973,-4.395,0
119879.481,19.531,37.109,35.156,29.785,-47.852,0
119879.485,46.875,40.527,37.598,38.086,-9.766,0
119879.489,41.504,42.480,27.344,32.227,18.066,0
119879.493,16.113,43.457,23.438,24.414,-41.016,0
119879.496,12.695,34.668,26.855,24.902,-55.664,0
119879.500,39.062,30.762,26.855,33.691,-9.277,0
119879.504,48.340,33.203,25.391,33.203,-7.324,0
119879.508,28.320,40.527,24.902,25.391,-45.898,0
119879.512,20.508,40.527,25.879,26.855,-49.316,0
119879.516,38.086,33.203,25.391,31.738,0.000,0
119879.519,48.828,37.109,24.414,31.250,87.402,0
119879.523,31.738,39.062,26.367,31.250,41.016,0
119879.527,11.719,34.180,26.855,28.320,-30.273,0
119879.531,26.367,36.133,26.855,28.809,24.414,0
119879.535,48.828,35.156,28.320,34.180,53.223,0
119879.539,39.062,34.180,29.297,28.809,22.949,0
119879.540,11.230,35.645,31.250,20.508,-24.414,0
119879.544,14.648,33.691,29.785,23.438,7.324,0
119879.547,43.945,34.668,29.297,33.203,46.875,0
119879.551,47.363,40.527,33.691,35.645,25.391,0
119879.555,22.461,32.227,33.203,27.832,10.254,0
119879.559,17.090,24.902,31.250,29.785,20.996,0
119879.563,43.457,32.715,30.273,45.898,30.273,0
119879.567,52.734,33.203,28.809,47.852,-7.324,0
119879.571,30.762,29.785,29.785,39.062,-7.812,0
119879.575,16.602,30.273,27.832,38.086,-23.438,0
119879.579,41.992,32.227,28.809,46.875,0.977,0
119879.583,63.477,33.203,36.133,50.781,64.453,0
119879.585,39.062,36.133,37.109,41.016,33.691,0
119879.589,15.137,40.039,33.691,34.668,-3.906,0
119879.592,28.320,44.434,37.109,39.062,0.000,0
119879.596,47.363,43.457,35.156,42.969,0.488,1
119879.600,36.133,36.621,28.809,38.574,-16.113,0
119879.604,9.277,32.227,29.785,30.762,-49.316,0
119879.608,15.137,32.715,30.273,32.715,-70.312,0
119879.612,44.434,37.109,25.391,37.598,-48.828,0
119879.616,47.363,38.086,24.414,33.691,-30.762,0
119879.620,25.879,37.109,28.320,30.762,-48.828,0
119879.624,20.020,40.527,25.391,29.785,-48.340,0
119879.628,41.992,43.457,28.809,34.180,3.418,0
119879.630,52.246,42.480,30.762,36.621,44.922,0
119879.634,32.715,42.480,27.832,35.156,5.371,0
119879.637,14.648,42.480,28.809,30.762,-57.617,0
119879.641,32.227,37.598,26.855,38.574,-41.504,0
119879.645,54.199,41.504,30.762,49.805,-4.395,0
119879.649,34.180,44.922,30.273,38.086,-41.992,0
119879.653,6.836,40.527,28.320,27.832,-120.117,0
119879.657,20.996,40.527,29.785,31.738,-87.891,0
119879.661,46.875,44.434,29.297,38.086,-1.465,0
119879.665,41.016,42.969,33.203,37.598,-22.461,0
119879.669,17.090,38.086,36.133,32.715,-79.590,0
119879.673,17.578,33.691,35.645,34.668,-60.547,0
119879.675,43.945,35.156,31.738,39.551,-31.250,0
119879.679,47.852,38.574,24.414,38.574,-20.020,0
119879.683,22.949,33.691,22.461,32.715,-43.457,0
119879.687,10.742,31.738,24.902,28.320,-72.754,0
119879.691,31.738,35.156,30.762,35.645,-35.645,0
119879.695,46.875,42.480,33.691,41.992,-18.555,0
119879.699,29.297,44.922,31.738,37.598,-39.551,0
119879.703,8.789,38.574,34.180,31.738,-8.789,0
119879.707,20.996,32.227,36.621,33.691,22.949,0
119879.710,45.410,31.738,32.715,37.109,11.719,0
119879.714,38.086,37.598,32.227,34.180,-16.113,0
119879.718,11.719,40.527,29.785,27.344,-36.133,0
119879.750,17.578,40.039,24.414,28.809,-1.953,0
119879.754,48.340,41.992,22.949,37.109,16.602,0
119879.757,46.875,42.969,29.297,34.180,29.785,0
119879.761,18.066,39.062,29.785,24.902,-22.949,0
119879.765,14.160,34.668,19.043,24.414,-68.848,0
119879.769,44.922,31.738,22.949,34.180,-29.785,0
119879.773,55.176,32.715,32.227,36.133,-21.484,0
119879.777,29.297,32.715,34.180,27.832,-6.348,0
119879.781,23.438,35.645,31.738,30.273,-27.344,0
119879.785,48.828,42.969,25.879,43.457,-35.645,0
119879.789,57.617,42.969,23.926,43.457,15.137,0
119879.793,39.062,35.645,27.832,40.039,2.441,0
119879.780,22.949,34.180,28.320,40.039,-49.805,0
119879.784,38.086,36.133,24.414,42.480,-13.672,0
119879.788,59.570,35.156,23.438,49.316,54.688,0
119879.791,47.852,31.738,29.785,45.410,42.480,0
119879.795,26.367,32.715,38.574,40.527,-37.109,0
119879.799,35.156,33.691,40.039,43.945,-38.574,0
119879.803,60.059,36.133,39.062,50.293,10.742,0
119879.807,60.059,42.480,37.598,50.781,27.832,0
119879.811,34.668,35.645,32.227,41.016,2.930,0
119879.815,26.855,31.250,25.391,36.621,-13.672,0
119879.819,51.270,33.691,21.973,44.922,46.387,0
119879.823,62.988,31.738,23.438,48.828,74.219,0
119879.825,38.086,31.250,27.832,40.039,-19.531,0
119879.829,20.508,32.715,32.227,38.574,-67.871,0
119879.833,39.062,32.715,35.156,48.340,-1.465,0
119879.836,58.105,30.273,35.645,54.688,33.691,0
119879.840,42.969,32.715,30.762,51.270,10.742,0
119879.844,20.020,36.621,26.855,41.504,-16.113,0
119879.848,28.809,32.227,29.785,39.062,0.488,0
119879.852,51.758,30.273,27.832,41.504,52.246,0
119879.856,44.434,28.320,22.461,35.156,-14.160,0
119879.860,17.578,25.879,28.320,29.785,-66.406,0
119879.864,22.461,29.297,32.227,33.691,-21.484,0
119879.868,51.270,36.621,28.320,42.969,26.367,0
119879.870,51.758,34.180,28.320,44.434,58.105,0
119879.874,20.996,28.809,28.809,35.645,19.531,0
119879.877,14.160,30.762,22.949,38.086,-8.301,0
119879.881,35.645,31.738,24.414,43.945,25.391,0
119879.885,44.434,37.109,29.297,42.969,31.250,0
119879.889,26.855,37.598,28.809,36.133,-2.930,0
119879.893,12.695,33.691,28.320,28.809,25.879,0
119879.897,29.785,35.645,31.250,34.180,43.457,0
119879.901,45.410,31.250,32.227,38.086,22.949,0
119879.905,31.738,23.926,31.738,32.715,39.551,0
119879.909,10.742,24.902,31.738,30.762,7.324,0
119879.913,22.461,29.297,25.391,35.645,-20.020,0
119879.915,45.410,34.180,26.367,41.992,31.250,0
119879.919,39.062,31.738,27.832,39.551,46.875,0
119879.922,15.137,29.785,26.855,31.738,-29.785,0
119879.926,18.066,28.809,27.344,33.203,-45.410,0
119879.930,47.852,31.738,29.785,44.434,49.805,0
119879.934,52.734,36.621,33.203,47.363,61.523,0
119879.938,22.461,36.621,31.250,35.645,8.789,0
119879.942,12.695,36.133,27.832,31.738,-23.926,0
119879.946,41.992,35.645,26.855,43.457,-9.766,0
119879.950,56.641,36.621,30.762,50.293,49.316,0
119879.954,36.621,33.691,32.227,43.457,11.230,0
119879.958,18.555,27.344,30.273,33.691,-55.664,0
119879.962,41.016,32.227,28.320,38.574,-2.441,0
119879.966,65.918,39.062,27.344,47.363,53.223,0
119879.969,42.969,37.598,25.879,38.574,17.578,0
119879.973,15.137,38.574,30.273,32.715,-23.438,0
119879.977,24.414,35.645,37.109,39.551,-7.812,0
119879.981,48.340,33.691,24.902,46.875,38.086,0
119879.985,47.363,31.738,16.602,41.992,3.906,0
119879.989,20.020,29.297,26.855,31.738,-64.941,0
119879.993,20.508,33.691,34.180,35.156,-46.875,0
119879.997,52.246,35.645,35.645,49.316,-4.883,0
119880.001,57.617,36.621,34.180,50.293,14.160,0
119880.005,35.156,39.551,30.273,41.016,-36.133,0
119880.005,26.367,37.598,28.809,40.527,-52.734,0
119880.009,48.828,35.645,31.738,48.340,-13.184,0
119880.013,66.895,36.621,32.715,53.223,-34.180,0
119880.016,47.363,34.668,25.879,43.457,-50.781,0
119880.020,27.344,37.109,21.484,40.039,-68.848,0
119880.024,42.969,37.598,25.391,48.828,-53.223,0
119880.028,62.988,38.086,28.809,51.270,-21.973,0
119880.032,57.129,43.945,34.180,49.805,-60.547,0
119880.036,29.785,40.039,37.109,43.945,-63.965,0
119880.040,29.785,31.738,28.320,44.922,-42.969,0
119880.044,54.199,30.273,22.461,48.828,4.883,0
119880.048,50.293,33.203,24.414,47.852,1.465,0
119880.065,27.832,35.645,29.785,43.457,-31.738,0
119880.069,26.855,33.691,32.227,41.016,-18.066,0
119880.073,54.199,36.133,32.715,48.340,7.324,0
119880.076,59.082,41.504,27.344,45.410,-16.602,0
119880.080,30.762,42.969,26.367,35.645,-53.711,0
119880.084,14.160,37.109,29.297,32.227,-52.246,0
119880.088,32.227,35.156,27.344,36.133,-33.203,0
119880.092,51.758,39.551,29.297,40.527,20.020,0
119880.096,40.039,38.086,37.598,36.621,43.457,0
119880.100,17.578,37.109,33.691,32.227,9.277,0
119880.104,30.273,39.062,24.414,37.109,28.809,0
119880.108,56.641,37.598,24.414,41.992,72.754,0
119880.110,44.434,36.133,28.320,34.180,57.617,0
119880.114,19.043,39.062,25.391,27.344,5.859,0
119880.117,25.879,38.086,22.461,33.203,3.906,0
119880.121,50.781,35.645,29.785,39.062,69.336,0
119880.125,49.316,35.156,31.738,33.203,56.152,0
119880.129,20.996,34.180,31.738,25.879,-3.418,0
119880.133,15.625,34.668,33.691,29.785,-22.949,0
119880.137,42.480,34.668,29.297,36.621,-4.395,0
119880.141,52.734,33.691,28.809,37.598,43.945,0
119880.145,27.832,34.668,27.832,29.785,17.578,0
119880.149,14.648,39.551,25.879,28.320,-20.020,0
119880.153,37.109,40.039,28.320,40.039,11.719,0
119880.155,55.664,38.574,26.855,43.945,41.992,0
119880.159,38.086,38.574,27.832,40.039,26.367,0
119880.162,7.812,36.133,32.227,34.180,-28.809,0
119880.166,17.578,37.598,35.156,38.574,-20.508,0
119880.170,45.410,37.598,40.039,48.340,51.758,0
119880.174,39.062,35.645,40.527,47.852,34.180,0
119880.178,12.695,41.992,36.621,37.109,-33.203,0
119880.182,11.230,37.109,33.203,33.203,-12.695,0
119880.186,34.668,27.832,28.320,34.668,49.316,0
119880.190,32.715,25.879,23.926,24.902,32.715,0
119880.194,8.789,22.949,27.344,16.602,-10.254,0
119880.198,8.789,26.855,31.738,18.066,5.371,0
119880.201,35.156,31.250,33.691,26.367,51.270,0
119880.205,46.387,32.227,34.180,28.320,27.832,0
119880.209,28.320,34.180,35.156,22.949,-18.066,0
119880.213,18.555,41.504,33.691,26.855,-57.617,0
119880.217,38.574,48.340,27.832,36.621,-60.547,0
119880.221,54.688,41.504,28.809,38.574,4.395,0
119880.224,42.969,31.250,29.297,38.086,-11.719,0
119880.228,18.066,29.297,21.973,37.598,-62.988,0
119880.232,24.414,33.691,23.438,40.039,-56.641,0
119880.236,52.246,39.551,30.762,45.898,-5.371,0
119880.240,49.805,38.574,33.691,42.969,64.941,0
119880.244,22.461,33.691,40.039,37.598,31.250,0
119880.245,24.902,37.109,42.480,42.480,-36.621,0
119880.249,50.293,38.574,33.691,47.852,32.227,0
119880.252,51.270,29.785,27.832,42.480,72.266,0
119880.256,26.367,24.414,28.809,34.668,-35.645,0
119880.260,17.578,28.320,26.855,35.156,-74.219,0
119880.264,42.969,31.250,22.461,43.457,-13.672,0
119880.268,57.129,31.250,22.949,48.828,43.457,0
119880.272,38.574,31.738,27.832,44.922,26.367,0
119880.276,20.020,31.250,32.715,38.086,-5.859,0
119880.280,36.621,37.598,32.715,40.527,50.781,0
119880.284,60.547,39.062,29.785,46.387,96.191,0
119880.288,43.945,36.133,23.438,37.598,50.293,0
119880.290,15.137,32.715,22.461,30.273,-4.395,0
119880.294,27.832,30.762,26.855,32.227,40.039,0
119880.298,55.176,37.598,23.926,36.621,61.523,0
119880.302,52.246,38.574,20.996,37.109,35.645,0
119880.306,26.367,31.250,23.438,30.273,-11.719,0
119880.310,22.461,29.297,27.832,30.273,-48.828,0
119880.314,52.246,29.785,27.832,40.527,22.461,0
119880.318,64.453,32.227,25.391,44.922,36.621,0
119880.322,41.992,36.133,22.461,38.574,-20.508,0
119880.325,25.879,37.598,21.973,40.039,-31.250,0
119880.329,42.969,39.062,24.902,49.316,-19.531,0
119880.333,64.941,36.133,25.391,52.734,12.207,0
119880.335,51.270,32.227,25.391,50.293,19.043,0
119880.339,25.391,32.715,22.949,43.945,-27.832,0
119880.342,34.668,32.715,21.484,44.922,-15.625,0
119880.346,55.176,30.762,25.879,52.734,60.547,0
119880.350,44.922,31.738,27.832,48.828,62.988,0
119880.354,20.996,35.645,25.879,36.621,-18.555,0
119880.358,21.484,33.203,22.949,37.109,-58.105,0
119880.362,47.852,30.273,23.438,42.480,-17.578,0
119880.366,50.781,29.785,26.367,39.551,30.762,0
119880.370,21.484,28.809,23.926,30.762,-3.418,0
119880.374,17.090,28.320,18.066,27.344,-63.477,0
119880.378,47.852,30.762,20.996,35.645,-1.465,0
119880.380,58.105,28.320,23.926,36.133,73.730,0
119880.384,30.762,26.367,24.902,23.438,10.254,0
119880.387,18.066,36.621,30.762,17.578,-36.621,0
119880.391,40.527,42.969,33.203,26.367,21.973,0
119880.395,49.316,30.762,26.855,22.949,52.734,0
119880.399,32.715,28.320,23.438,15.625,-15.625,0
119880.403,19.531,33.203,24.414,18.555,-88.379,0
119880.407,30.762,29.297,24.902,26.855,-56.641,0
119880.411,52.246,24.414,20.996,35.156,20.020,0
119880.415,49.805,29.297,17.090,33.203,26.855,0
119880.419,23.438,35.645,22.949,27.344,-54.199,0
119880.423,19.043,35.156,30.273,33.691,-65.430,0
119880.426,48.340,36.621,25.879,42.480,17.578,0
119880.430,54.688,34.180,23.926,37.109,18.555,0
119880.434,29.297,27.344,21.973,28.809,-35.645,0
119880.438,24.902,28.320,23.438,35.156,-41.992,0
119880.442,50.293,34.668,29.785,47.852,-9.277,0
119880.446,62.012,37.598,30.762,50.293,-17.578,0
119880.449,39.551,38.574,30.273,42.969,-82.520,0
119880.453,15.625,35.645,29.785,36.621,-52.734,0
119880.457,33.691,34.668,30.762,40.527,32.227,0
119880.461,55.664,33.691,27.344,45.410,47.852,0
119880.465,38.086,29.785,23.438,36.621,20.996,0
119880.469,12.695,28.809,27.832,32.715,-28.320,0
119880.485,21.484,28.809,31.250,39.551,-32.715,0
119880.489,44.434,28.809,25.391,45.410,3.906,0
119880.493,36.621,30.273,23.438,39.551,17.090,0
119880.496,8.301,25.879,30.273,30.762,0.977,0
119880.500,9.277,25.391,31.250,33.203,0.977,0
119880.504,37.109,29.785,34.180,39.062,40.527,0
119880.508,42.969,27.832,35.645,37.598,47.852,0
119880.512,20.996,30.762,28.809,32.715,23.438,0
119880.516,12.695,33.691,27.832,31.250,-20.020,0
119880.520,34.668,28.809,33.203,40.039,7.812,0
119880.524,51.270,29.785,33.691,48.340,55.176,0
119880.528,35.156,37.109,35.156,43.945,21.484,0
119880.530,12.207,36.133,36.133,37.109,-5.859,0
119880.534,30.273,33.203,29.297,42.969,39.062,0
119880.537,55.664,37.598,23.926,50.781,52.246,0
119880.541,41.504,35.645,24.902,43.945,3.418,0
119880.545,19.043,28.809,29.297,38.574,-37.598,0
119880.549,27.832,31.250,30.762,44.434,-52.734,0
119880.553,50.781,34.180,27.344,48.828,33.203,0
119880.557,47.852,33.691,26.855,46.387,57.129,0
119880.561,23.926,36.133,33.691,40.527,-10.742,0
119880.565,24.902,35.156,35.156,37.598,-33.203,0
119880.569,49.805,37.109,25.879,42.969,28.320,0
119880.573,56.152,38.086,21.973,44.922,75.684,0
119880.575,32.715,32.715,27.344,38.086,18.555,0
119880.579,20.508,32.715,31.250,35.645,-7.324,0
119880.583,44.922,36.133,34.180,41.992,37.109,0
119880.587,57.129,36.621,33.203,44.434,86.426,0
119880.590,35.156,33.691,24.902,31.250,48.828,0
119880.594,18.066,33.203,20.508,25.391,-12.695,0
119880.598,35.645,37.598,26.367,37.109,-15.625,0
119880.602,56.152,40.527,30.762,44.434,20.508,0
119880.606,48.828,36.621,31.738,43.457,3.418,0
119880.610,24.414,32.715,29.785,37.598,-41.016,0
119880.614,26.367,33.691,22.949,39.062,0.488,0
119880.618,52.246,33.691,20.996,47.852,33.691,0
119880.620,51.758,31.250,24.414,43.945,29.297,0
119880.624,24.414,32.227,29.785,38.086,-0.488,0
119880.627,20.508,37.109,33.203,41.992,-6.348,0
119880.631,51.270,40.527,32.715,51.758,54.199,0
119880.635,58.105,36.621,31.738,47.363,71.777,0
119880.639,32.227,34.668,24.902,35.156,15.137,0
119880.643,17.090,32.715,21.484,36.133,-20.020,0
119880.647,39.062,25.391,23.926,47.852,43.457,0
119880.651,61.035,22.949,21.484,52.734,55.664,0
119880.655,37.598,34.180,18.066,34.668,40.039,0
119880.659,14.160,42.969,21.484,27.344,40.527,0
119880.663,27.344,37.109,25.879,36.133,17.090,0
119880.666,45.898,33.691,24.902,35.645,41.992,0
119880.670,38.086,37.109,23.438,34.180,30.762,0
119880.674,18.066,37.109,23.438,32.227,-27.344,0
119880.678,22.949,33.691,24.902,33.691,-19.531,0
119880.682,48.340,33.203,26.367,41.016,9.277,0
119880.686,55.664,35.645,30.273,44.434,1.953,0
119880.689,28.809,33.691,31.250,33.203,-20.020,0
119880.693,16.113,30.762,24.414,28.809,-62.012,0
119880.697,42.480,33.203,17.090,36.621,-5.859,0
119880.701,57.617,31.738,19.531,36.133,36.621,0
119880.705,40.527,31.738,26.367,32.227,-12.207,0
119880.709,20.996,35.156,26.367,32.227,-24.902,0
119880.710,34.668,34.668,25.879,34.668,9.277,0
119880.714,50.781,36.133,24.902,37.109,46.387,0
119880.718,30.762,37.109,24.414,29.785,10.742,0
119880.722,7.812,35.645,27.344,25.391,-31.250,0
119880.726,20.996,34.180,26.367,32.715,-4.395,0
119880.730,49.805,34.180,24.414,41.016,66.895,0
119880.734,47.852,37.109,24.902,40.039,43.457,0
119880.738,18.066,35.156,21.973,30.762,-39.551,0
119880.742,21.484,34.668,20.996,31.738,6.836,0
119880.745,57.129,39.062,24.414,44.434,54.199,0
119880.749,58.105,42.480,23.438,44.922,41.016,0
119880.753,31.738,40.527,22.461,34.668,8.301,0
119880.755,21.973,35.156,23.438,31.738,-3.906,0
119880.759,43.945,33.203,28.809,40.039,48.340,0
119880.762,56.641,34.668,28.320,43.457,68.848,0
119880.766,34.668,36.133,23.438,33.691,33.691,0
119880.770,17.090,40.039,24.414,28.809,-8.789,0
119880.774,33.203,39.551,25.391,39.062,-2.441,0
119880.778,51.270,34.180,23.926,42.969,20.020,0
119880.782,37.598,31.250,24.902,38.574,-1.465,0
119880.786,16.602,33.691,29.785,34.180,-12.695,0
119880.790,25.879,30.273,21.973,36.133,-2.930,0
119880.794,56.641,29.297,17.578,47.363,30.273,0
119880.798,57.617,38.574,26.367,43.457,23.438,0
119880.815,32.715,40.039,32.715,35.156,-29.785,0
119880.819,31.250,34.668,33.691,41.504,-67.871,0
119880.823,52.246,34.180,31.250,44.922,-28.320,0
119880.826,55.664,35.645,29.785,42.480,26.367,0
119880.830,33.691,34.668,28.809,32.715,24.902,0
119880.834,20.996,38.574,26.367,25.879,-34.668,0
119880.838,43.457,43.945,16.113,28.809,-23.438,0
119880.842,66.406,44.922,11.230,37.598,38.086,0
119880.846,40.527,36.133,23.438,35.156,20.996,0
119880.850,-3.906,27.832,34.180,16.113,-14.648,0
119880.854,16.113,27.344,34.668,27.344,-28.320,0
119880.858,49.316,22.949,36.133,47.363,42.969,0
119880.860,37.598,26.367,37.109,38.086,38.574,0
119880.864,14.160,32.715,36.621,30.273,-33.203,0
119880.867,14.648,29.297,24.902,32.227,-21.973,0
119880.871,37.109,25.391,22.461,38.086,58.105,0
119880.875,35.156,26.367,28.809,37.109,63.477,0
119880.879,8.301,31.250,26.367,28.809,0.488,0
119880.883,5.859,28.320,27.344,26.855,-0.977,0
119880.887,38.086,22.949,27.832,37.598,36.133,0
119880.891,53.223,27.832,27.344,43.945,44.434,0
119880.895,32.227,34.180,30.273,40.039,-41.504,0
119880.899,17.090,33.691,27.344,37.598,-76.172,0
119880.903,32.715,28.809,24.902,39.551,6.348,0
119880.906,47.852,24.414,22.949,39.062,16.602,0
119880.910,32.227,29.785,20.996,37.598,-32.227,0
119880.914,10.254,33.691,31.738,32.227,-41.016,0
119880.918,19.531,31.738,38.574,31.738,6.836,0
119880.922,44.922,31.738,33.691,36.621,26.367,0
119880.926,45.410,32.227,30.273,34.180,-13.184,0
119880.929,23.926,29.785,27.344,28.809,-15.625,0
119880.933,24.902,25.879,23.438,29.297,24.902,0
119880.937,56.152,29.297,26.367,42.969,59.082,0
119880.941,62.012,36.133,28.320,48.828,53.711,0
119880.945,30.762,32.715,27.344,34.180,10.742,0
119880.949,22.949,25.879,29.785,31.250,-19.531,0
119880.950,47.852,25.879,30.762,45.898,16.602,0
119880.954,56.641,28.809,31.738,48.828,35.156,0
119880.958,35.645,26.855,33.691,45.898,31.738,0
119880.961,17.578,19.043,29.785,52.246,-12.695,0
119880.965,34.180,20.996,25.879,55.664,-22.949,0
119880.969,46.875,31.250,18.555,42.480,22.949,0
119880.973,30.273,39.062,13.184,32.227,10.742,0
119880.977,9.766,41.016,20.508,30.273,-29.297,0
119880.981,24.414,38.086,27.832,33.691,-41.016,0
119880.985,52.734,33.691,22.949,43.457,12.695,0
119880.989,47.363,28.809,19.531,40.527,41.504,0
119880.993,27.832,38.086,24.414,32.715,-9.277,0
119880.995,29.785,41.992,20.996,34.668,-16.113,0
119880.999,59.570,40.039,21.484,43.945,52.734,0
119881.003,68.848,39.062,22.949,47.363,35.645,0
119881.006,39.062,33.203,15.137,37.598,-11.719,0
119881.010,27.832,32.227,15.625,36.133,-4.883,0
119881.014,51.758,33.691,20.508,47.363,24.414,0
119881.018,67.383,36.133,24.414,52.246,43.457,0
119881.022,47.363,32.227,27.832,47.852,6.836,0
119881.026,25.391,33.691,28.320,40.039,-45.410,0
119881.030,42.969,39.551,28.320,45.898,2.930,0
119881.034,66.406,35.645,29.297,53.223,49.805,0
119881.038,54.199,29.785,27.832,45.410,34.180,0
119881.040,33.203,27.344,24.414,41.016,0.000,0
119881.044,37.598,25.391,18.066,45.410,20.508,0
119881.048,58.594,25.391,21.484,44.922,54.199,0
119881.051,53.711,30.762,30.762,40.527,23.438,0
119881.055,21.973,36.621,29.785,34.180,-10.742,0
119881.059,23.926,35.645,26.855,36.133,-33.691,0
119881.063,55.176,31.250,24.414,47.363,14.648,0
119881.067,57.617,32.715,25.391,44.922,32.715,0
119881.071,32.715,34.180,27.344,34.180,0.000,0
119881.075,18.066,29.785,18.066,27.832,21.484,0
119881.079,40.039,32.227,14.160,35.156,35.645,0
119881.083,58.105,36.133,20.508,39.062,15.625,0
119881.085,34.668,37.109,23.438,26.367,-11.230,0
119881.089,13.672,33.203,25.879,19.531,2.930,0
119881.092,34.668,26.855,27.344,30.273,28.809,0
119881.096,56.641,25.391,25.391,38.086,32.227,0
119881.100,41.504,24.414,25.391,28.320,19.531,0
119881.104,15.625,20.996,27.832,21.484,-25.391,0
119881.108,23.926,28.809,25.391,28.320,-19.531,0
119881.112,54.199,34.668,22.461,32.715,19.531,0
119881.116,55.664,29.785,21.484,32.715,21.484,0
119881.120,28.320,27.344,22.949,31.738,13.184,0
119881.124,20.508,25.391,20.508,31.250,-23.926,0
119881.128,49.805,33.691,19.531,41.016,8.301,0
119881.132,62.988,43.457,23.926,44.922,63.965,0
119881.136,38.086,42.480,23.438,41.016,17.090,0
119881.140,21.484,29.785,23.438,38.086,-29.785,0
119881.143,39.551,22.949,24.414,41.504,-0.977,0
119881.147,61.035,29.297,27.832,47.852,33.691,0
119881.151,45.898,30.762,25.391,41.504,5.371,0
119881.155,21.973,29.785,23.926,34.180,-66.406,0
119881.159,36.133,35.645,26.855,34.668,-62.012,0
119881.163,59.082,36.133,26.367,40.039,48.828,0
119881.167,47.363,31.250,27.344,37.598,42.480,0
119881.171,19.043,24.902,28.320,27.344,-40.527,0
119881.175,20.020,24.902,25.391,27.344,-22.949,0
119881.175,45.410,29.297,20.020,35.645,29.297,0
119881.179,48.828,30.762,24.414,40.039,27.832,0
119881.183,26.367,31.738,28.809,33.203,-21.973,0
119881.186,19.043,30.273,24.414,30.762,-49.805,0
119881.190,45.898,29.785,23.926,40.039,7.812,0
119881.194,58.105,38.086,30.273,38.574,20.508,0
119881.198,34.180,42.480,29.297,31.250,-74.707,0
119881.202,20.996,36.621,23.926,30.762,-77.148,0
119881.206,40.039,32.715,21.484,37.109,17.578,0
119881.210,56.152,30.273,21.484,41.016,52.734,0
119881.214,42.969,27.832,22.949,37.598,30.762,0
119881.218,21.973,28.809,25.879,30.762,-6.348,0
119881.235,32.227,31.250,30.273,34.668,35.156,0
119881.239,54.199,33.691,24.902,40.527,76.172,0
119881.243,49.316,40.527,22.949,35.645,33.691,0
119881.247,24.902,40.527,26.367,28.809,-15.625,0
119881.250,24.902,33.203,26.855,35.156,-21.484,0
119881.254,48.828,27.832,21.973,44.434,20.508,0
119881.258,52.246,29.785,21.484,43.945,26.855,0
119881.262,28.809,31.250,27.344,41.016,-11.719,0
119881.266,17.090,31.250,24.902,41.504,-38.574,0
119881.270,41.016,33.203,20.508,49.316,-39.062,0
119881.274,56.641,31.738,20.508,49.805,3.418,0
119881.278,41.016,36.133,26.855,44.922,25.879,0
119881.280,21.973,37.598,29.785,41.016,-10.742,0
119881.284,33.691,27.832,24.902,46.387,21.484,0
119881.287,60.547,27.344,28.320,53.711,61.523,0
119881.291,54.199,32.227,29.297,47.852,11.230,0
119881.295,25.879,33.691,17.578,36.133,-42.480,0
119881.299,32.715,36.621,13.184,39.551,-5.859,0
119881.303,62.500,39.062,18.555,51.758,30.273,0
119881.307,54.688,34.668,25.879,45.410,1.953,0
119881.311,27.832,31.738,33.203,37.109,-65.430,0
119881.315,27.832,41.504,31.738,38.574,-83.008,0
119881.319,49.805,44.434,32.227,41.504,-3.418,0
119881.323,51.758,38.086,33.203,40.039,50.781,0
119881.325,26.855,33.203,28.320,33.691,7.324,0
119881.329,13.672,30.273,27.344,31.738,-5.859,0
119881.332,35.645,25.391,19.531,38.086,60.547,0
119881.336,51.270,22.949,11.230,39.551,76.172,0
119881.340,33.203,27.344,21.973,33.691,18.066,0
119881.344,18.555,31.250,35.156,39.551,-26.855,0
119881.348,36.133,38.574,32.715,52.734,19.531,0
119881.352,56.152,38.086,32.227,54.199,57.617,0
119881.356,43.457,29.785,32.715,46.387,3.418,0
119881.360,20.020,30.273,29.297,41.992,-67.871,0
119881.364,26.855,33.691,27.344,44.434,-18.555,0
119881.368,46.875,33.203,25.879,47.852,42.480,0
119881.371,43.457,32.227,23.926,44.922,44.922,0
119881.375,21.484,31.738,27.344,38.574,-17.090,0
119881.379,17.090,33.691,30.273,38.086,-6.348,0
119881.383,41.504,33.203,23.926,41.992,63.965,0
119881.387,52.246,31.250,21.973,41.992,45.898,0
119881.391,36.133,37.109,27.344,40.527,-0.977,0
119881.394,23.438,39.062,26.367,41.504,-16.113,0
119881.398,41.992,36.133,25.879,49.805,28.320,0
119881.402,62.988,36.133,27.344,54.688,35.156,0
119881.406,45.898,32.715,21.973,46.875,24.902,0
119881.410,22.461,29.785,22.461,43.457,-16.602,0
119881.414,30.762,35.645,31.738,45.410,-41.504,0
119881.415,50.293,34.668,31.738,47.852,22.949,0
119881.419,41.992,32.227,30.273,44.434,28.809,0
119881.423,10.254,34.668,31.738,30.273,11.230,0
119881.426,15.137,35.156,28.320,30.273,38.574,0
119881.430,47.852,33.691,23.438,38.574,60.059,0
119881.434,44.922,28.320,18.066,36.621,53.223,0
119881.438,17.578,27.344,20.020,32.715,34.180,0
119881.442,15.625,32.715,25.879,35.156,-23.926,0
119881.446,41.992,35.645,26.855,40.527,-20.020,0
119881.450,54.199,37.598,27.344,44.922,37.109,0
119881.454,32.715,37.598,27.832,39.062,28.809,0
119881.458,16.602,31.738,24.902,35.156,0.488,0
119881.460,36.133,30.762,20.020,43.457,40.039,0
119881.464,51.758,33.691,25.879,46.387,113.281,0
119881.468,31.250,34.668,25.391,37.598,50.293,0
119881.471,5.371,36.621,17.578,27.344,-14.648,0
119881.475,14.648,34.668,20.996,26.855,34.668,0
119881.479,41.016,32.227,21.484,37.598,39.551,0
119881.483,36.133,36.133,20.020,35.645,8.789,0
119881.487,8.789,37.109,24.902,25.879,-36.621,0
119881.491,9.277,35.645,32.227,30.273,-30.762,0
119881.495,39.062,35.645,35.156,38.574,22.949,0
119881.499,43.945,34.180,26.367,34.668,34.668,0
119881.503,18.555,34.668,22.461,25.879,-5.859,0
119881.520,11.719,34.668,24.414,26.855,-26.367,0
119881.524,35.645,35.645,25.879,31.250,9.277,0
119881.527,43.945,39.062,22.949,28.320,6.836,0
119881.531,20.996,34.180,20.020,23.438,-32.227,0
119881.535,4.395,28.320,19.043,22.461,-27.832,0
119881.539,25.879,29.297,19.043,31.738,4.395,0
119881.543,51.270,34.668,19.531,42.480,4.883,0
119881.547,39.551,37.598,19.531,42.969,-5.859,0
119881.551,16.113,35.645,25.879,37.109,-36.133,0
119881.555,25.391,33.203,28.809,40.039,-55.664,0
119881.559,55.176,34.180,25.391,48.340,-10.254,0
119881.563,49.316,35.156,23.926,39.062,13.672,0
119881.551,20.508,34.668,25.879,28.809,-8.301,0
119881.555,21.973,36.621,26.367,30.762,-8.301,0
119881.559,47.363,35.156,21.973,36.133,5.371,0
119881.563,54.199,33.691,21.973,37.598,45.898,0
119881.567,30.273,33.203,19.043,30.762,23.926,0
119881.571,19.043,33.691,13.672,31.250,-21.484,0
119881.575,41.992,34.668,18.555,41.992,44.922,0
119881.578,54.688,33.203,28.809,41.992,71.289,0
119881.582,36.133,31.250,30.762,33.691,56.641,0
119881.586,18.555,32.227,28.320,30.273,22.461,0
119881.590,32.715,34.668,26.855,32.715,15.137,0
119881.594,50.781,29.785,23.438,36.133,79.590,0
119881.610,41.016,27.832,23.926,33.691,54.688,0
119881.614,18.555,36.133,22.949,29.785,10.742,0
119881.617,28.809,41.016,18.555,35.645,49.805,0
119881.621,57.129,35.156,23.926,42.480,102.539,0
119881.625,51.270,30.273,30.273,43.945,63.965,0
119881.629,23.438,32.715,25.879,36.621,-17.090,0
119881.633,20.508,33.203,24.414,35.645,-28.809,0
119881.637,48.340,33.691,31.250,47.363,35.156,0
119881.641,55.664,35.645,27.832,46.387,49.805,0
119881.645,30.762,41.016,17.578,40.039,5.371,0
119881.649,15.137,37.109,19.043,38.086,-10.254,0
119881.653,33.691,30.273,23.926,39.062,27.344,0
119881.655,53.223,31.250,33.691,44.434,38.574,0
119881.659,33.691,27.832,35.156,34.668,-13.184,0
119881.663,11.719,29.297,24.414,26.367,-56.641,0
119881.666,24.414,31.738,22.461,33.203,-3.906,0
119881.670,44.922,30.762,23.438,38.086,2.441,0
119881.674,37.109,34.180,26.367,37.109,-33.203,0
119881.678,12.695,33.203,30.762,30.762,-33.203,0
119881.682,17.090,27.832,26.367,31.738,-35.156,0
119881.686,48.340,32.227,24.414,43.457,-9.766,0
119881.690,45.898,33.203,30.762,41.992,-13.184,0
119881.694,17.090,33.203,32.715,33.203,-38.086,0
119881.698,17.578,34.668,30.273,32.227,-32.715,0
119881.700,41.016,36.133,25.391,36.133,46.875,0
119881.704,43.945,36.621,20.996,34.180,72.754,0
119881.708,24.414,32.227,22.949,28.320,25.391,0
119881.711,14.648,31.738,31.250,29.297,-7.324,0
119881.715,29.785,28.320,31.250,34.668,-3.418,0
119881.719,49.805,29.297,28.809,41.016,22.461,0
119881.723,40.039,32.227,29.297,35.645,5.859,0
119881.727,19.043,31.250,29.785,31.250,-48.828,0
119881.731,30.273,29.785,33.691,41.016,-47.852,0
119881.735,52.246,28.320,31.738,44.922,-12.207,0
119881.739,44.434,33.691,26.855,40.039,3.418,0
119881.743,18.066,36.133,29.297,34.668,-44.434,0
119881.745,20.020,31.738,30.762,35.645,-45.898,0
119881.749,47.363,30.762,26.855,41.504,28.320,0
119881.753,56.641,31.250,27.832,44.434,31.250,0
119881.757,30.762,31.250,30.762,37.109,-27.832,0
119881.760,16.602,36.133,25.391,31.738,-41.504,0
119881.764,42.480,38.086,22.461,44.434,12.207,0
119881.768,52.246,34.180,24.414,49.805,61.523,0
119881.772,28.809,36.621,23.438,39.062,26.855,0
119881.776,12.695,32.715,23.438,32.227,-44.434,0
119881.780,29.785,25.391,26.367,40.039,-7.812,0
119881.784,50.781,27.832,29.785,47.852,48.340,0
119881.788,33.691,31.250,27.832,39.062,51.758,0
119881.790,12.695,36.133,20.996,33.691,-2.930,0
119881.794,28.809,38.574,23.926,40.039,-5.371,0
119881.798,53.223,36.621,26.855,44.434,20.508,0
119881.801,47.852,32.715,26.855,41.504,4.395,0
119881.805,21.484,29.785,27.344,28.320,-14.648,0
119881.809,19.531,29.297,25.879,22.949,-42.480,0
119881.813,50.781,31.738,23.926,36.133,-6.836,0
119881.817,61.523,39.551,20.508,42.969,48.340,0
119881.821,25.391,35.645,27.344,32.227,29.297,0
119881.825,3.906,24.902,33.203,25.391,28.809,0
119881.829,33.203,21.973,38.086,36.621,54.688,0
119881.833,51.270,22.461,35.645,42.969,65.918,0
119881.836,29.297,22.949,19.531,30.762,23.438,0
119881.840,6.348,22.949,16.602,21.484,-20.020,0
119881.844,23.438,29.785,23.438,31.738,41.016,0
119881.848,51.270,36.621,26.367,43.945,93.750,0
119881.852,40.039,34.668,28.320,41.016,96.680,0
119881.856,12.695,27.344,29.785,35.156,49.805,0
119881.859,20.020,28.809,33.203,40.527,12.695,0
119881.863,48.828,28.320,37.598,46.875,75.195,0
119881.867,45.410,23.926,41.504,44.922,93.262,0
119881.871,16.113,22.949,32.715,31.250,29.785,0
119881.875,14.160,24.414,21.484,29.785,5.859,0
119881.879,44.434,28.320,22.949,46.875,36.133,0
119881.880,55.664,29.297,27.344,49.316,59.082,0
119881.884,33.691,28.809,28.809,41.992,39.062,0
119881.888,21.973,28.809,32.715,39.062,2.441,0
119881.892,44.922,25.879,32.715,44.922,21.973,0
119881.895,64.453,25.879,34.668,49.805,44.434,0
119881.899,44.434,30.273,38.086,43.945,-18.066,0
119881.903,15.625,30.762,33.203,37.109,-68.848,0
119881.907,28.809,29.297,23.438,42.969,-45.898,0
119881.911,53.223,26.855,20.020,48.828,18.066,0
119881.915,42.969,25.391,21.973,44.434,18.066,0
119881.919,19.531,27.832,21.973,39.551,-28.320,0
119881.923,24.414,31.250,23.438,39.551,-15.625,0
119881.940,53.711,33.691,24.902,43.945,44.922,0
119881.944,58.594,36.621,26.367,47.363,50.293,0
119881.948,28.809,41.504,27.344,37.109,-10.254,0
119881.951,17.090,37.598,28.320,33.203,16.113,0
119881.955,45.410,31.738,29.785,44.434,82.520,0
119881.959,54.688,31.738,27.832,44.922,67.871,0
119881.963,32.227,32.715,26.367,38.574,-11.719,0
119881.967,20.996,30.762,28.809,45.898,-32.227,0
119881.971,43.457,27.832,29.297,53.711,14.648,0
119881.975,54.688,35.645,22.949,41.504,30.762,0
119881.979,31.738,43.945,18.555,29.297,1.953,0
119881.983,12.207,41.504,19.531,21.484,-40.039,0
119881.985,20.508,37.109,21.484,20.996,-42.480,0
119881.989,41.992,38.086,28.809,32.227,7.812,0
119881.993,41.992,37.598,27.344,30.762,-6.836,0
119881.997,22.461,35.645,20.508,23.926,-39.062,0
119882.000,19.043,36.621,20.020,26.855,0.977,0
119882.004,43.457,35.645,20.996,34.180,19.531,0
119882.008,52.734,39.551,24.902,37.598,-0.977,0
119882.012,28.320,45.898,26.367,32.715,-32.715,0
119882.016,19.043,42.480,26.855,30.273,-43.945,0
119882.020,46.875,37.109,30.762,38.574,-34.180,0
119882.024,60.547,35.645,31.738,41.016,-41.504,0
119882.028,35.645,37.598,29.785,34.668,-18.555,0
119882.030,14.648,38.086,23.926,29.785,-20.996,0
119882.034,33.203,36.621,17.090,37.598,-31.250,0
119882.038,57.617,40.527,14.648,46.387,36.133,0
119882.041,41.504,39.551,20.508,39.551,31.738,0
119882.045,18.066,37.598,37.598,38.086,-23.926,0
119882.049,30.762,41.504,43.457,48.340,-3.418,0
119882.053,51.270,34.180,34.180,45.898,20.020,0
119882.057,44.922,27.832,33.691,37.109,2.441,0
119882.061,25.391,37.109,34.180,33.203,-41.504,0
119882.065,27.344,40.527,29.785,37.109,-45.898,0
119882.069,49.805,38.574,26.855,41.504,20.996,0
119882.073,49.805,39.551,24.414,36.621,37.109,0
119882.076,21.484,35.645,20.508,25.879,6.348,0
119882.080,5.371,33.203,21.973,19.531,-12.207,0
119882.084,28.320,34.668,26.367,23.926,20.996,0
119882.088,45.898,32.715,24.902,27.832,42.480,0
119882.092,24.902,29.785,20.508,18.555,18.066,0
119882.096,11.719,37.598,22.949,16.113,-27.344,0
119882.099,32.715,42.969,25.391,26.367,-13.672,0
119882.103,50.781,42.480,21.484,34.668,23.438,0
119882.107,36.133,42.969,23.926,32.227,-37.109,0
119882.111,4.883,38.086,27.344,20.996,-45.898,0
119882.115,5.371,35.156,21.484,17.578,0.977,0
119882.119,34.668,40.039,23.438,23.438,19.531,0
119882.120,33.203,39.551,25.391,21.484,38.574,0
119882.124,6.348,38.574,22.949,17.090,9.277,0
119882.128,4.883,40.527,21.484,19.043,-19.043,0
119882.132,31.250,42.480,23.438,27.344,30.273,0
119882.135,40.527,45.898,30.762,33.691,48.828,0
119882.139,17.578,46.387,29.785,25.879,4.395,0
119882.143,6.836,44.434,24.414,20.508,-1.465,0
119882.147,30.762,39.551,25.879,27.344,21.973,0
119882.151,49.316,34.668,31.250,29.785,31.738,0
119882.155,35.156,34.668,22.949,23.438,27.832,0
119882.159,15.137,34.668,18.066,19.531,-4.395,0
119882.163,29.785,31.738,23.926,26.855,-21.484,0
119882.165,51.270,31.250,25.391,39.062,26.855,0
119882.169,39.551,36.621,23.438,33.691,80.078,0
119882.173,16.113,41.504,20.020,25.879,41.016,0
119882.176,26.855,43.457,22.949,33.203,4.883,0
119882.180,49.316,35.645,22.461,37.109,28.809,0
119882.184,41.016,27.832,20.508,29.785,38.086,0
119882.188,16.602,30.762,22.461,23.926,24.902,0
119882.192,12.695,34.668,23.926,23.926,-7.324,0
119882.196,39.551,38.574,22.949,31.250,15.137,0
119882.200,53.223,37.109,20.508,33.691,65.430,0
119882.204,27.832,35.645,17.578,24.414,9.766,0
119882.208,13.184,41.992,16.113,23.438,-26.855,0
119882.210,37.109,40.039,17.090,36.133,40.527,0
119882.214,57.129,36.621,20.996,44.434,67.871,0
119882.218,40.039,35.156,27.344,36.621,19.043,0
119882.221,17.090,31.738,28.320,30.762,-11.719,0
119882.225,32.227,35.156,26.367,38.574,13.184,0
119882.229,55.176,39.551,30.762,46.875,17.090,0
119882.233,46.387,46.875,31.738,42.480,-12.695,0
119882.237,18.555,50.293,27.832,34.180,-28.809,0
119882.241,16.602,45.410,26.367,36.133,-8.301,0
119882.245,41.992,40.527,22.949,44.922,47.363,0
119882.249,45.410,42.969,24.902,44.434,76.172,0
119882.253,17.578,45.410,29.297,32.227,20.508,0
119882.255,4.883,38.574,21.484,27.832,13.184,0
119882.259,30.762,41.504,22.949,40.527,83.008,0
119882.263,46.387,43.945,28.320,40.039,119.141,0
119882.267,25.391,38.574,28.320,28.809,70.801,0
119882.271,12.207,41.504,31.738,27.344,67.383,0
119882.275,32.227,45.898,32.227,32.715,92.285,0
119882.279,52.246,43.945,26.367,35.156,60.059,0
119882.283,38.086,41.016,21.484,28.320,39.551,0
119882.287,15.625,41.992,25.391,21.973,37.109,0
119882.290,31.250,46.875,26.855,31.250,23.438,0
119882.294,55.176,45.898,22.949,40.527,57.129,0
119882.298,43.945,45.410,21.973,35.156,43.945,0
119882.301,20.508,45.410,28.809,28.809,-7.812,0
119882.305,20.020,38.574,27.344,34.180,-0.488,0
119882.309,44.922,37.598,18.555,43.457,42.480,0
119882.313,51.758,41.016,19.043,41.992,77.637,0
119882.317,25.879,43.945,20.996,34.180,42.969,0
119882.321,16.113,42.480,25.879,34.668,-13.184,0
119882.324,44.434,40.039,32.715,41.992,-5.859,0
119882.328,59.082,41.504,32.715,42.969,6.348,0
119882.332,39.551,40.527,29.785,35.645,-30.273,0
119882.336,18.066,37.598,25.391,25.879,-21.973,0
119882.340,32.227,38.086,23.438,31.250,10.254,0
119882.344,58.105,42.969,24.902,42.480,54.199,0
119882.360,46.875,43.457,29.785,42.480,16.602,0
119882.364,22.461,36.621,28.320,38.086,-69.336,0
119882.368,29.785,33.691,20.508,40.527,-40.039,0
119882.372,52.246,33.691,18.555,44.922,45.410,0
119882.375,47.852,35.156,22.461,40.039,60.547,0
119882.379,23.926,38.086,26.367,28.320,-27.832,0
119882.383,19.531,35.645,20.020,29.297,-70.312,0
119882.387,44.434,37.598,16.602,42.969,-5.859,0
119882.391,52.246,41.016,27.344,43.945,32.715,0
119882.395,25.879,38.574,30.273,37.109,-7.324,0
119882.399,13.184,41.992,28.809,36.133,-16.602,0
119882.403,36.621,43.945,30.762,43.457,30.762,0
119882.405,52.246,40.039,28.809,49.805,40.527,0
119882.409,33.691,41.016,23.926,43.945,13.184,0
119882.413,12.695,42.969,20.996,36.133,-14.160,0
119882.417,33.203,42.969,22.949,45.898,-6.348,0
119882.420,58.594,43.457,23.926,53.711,7.812,0
119882.424,47.363,42.969,24.902,43.945,-5.859,0
119882.428,23.438,42.480,23.438,36.133,-34.180,0
119882.432,23.438,38.086,20.508,35.156,-5.371,0
119882.436,42.969,35.156,24.902,39.062,62.012,0
119882.440,40.039,37.109,27.832,36.133,58.594,0
119882.444,19.531,36.133,25.391,33.203,15.625,0
119882.448,19.043,35.156,25.391,39.551,3.906,0
119882.450,42.480,43.457,27.832,46.387,14.648,0
119882.454,49.316,44.922,27.344,49.316,34.668,0
119882.458,24.414,41.992,24.902,42.480,-5.371,0
119882.461,12.207,42.480,23.926,39.062,-31.250,0
119882.465,33.691,39.551,23.438,46.387,29.785,0
119882.469,50.293,38.574,24.414,49.805,57.617,0
119882.473,37.109,44.434,27.344,47.363,25.391,0
119882.477,17.578,46.875,30.762,40.039,-43.945,0
119882.481,29.297,45.410,29.785,41.504,-45.410,0
119882.485,55.176,42.480,29.785,49.805,19.043,0
119882.489,46.875,37.598,28.809,45.410,-16.113,0
119882.493,23.438,36.133,23.438,38.086,-72.266,0
119882.495,23.926,37.598,24.902,37.109,-28.809,0
119882.499,48.340,42.969,30.273,46.387,26.367,0
119882.503,51.758,45.898,29.785,47.363,25.879,0
119882.506,26.855,43.457,30.273,37.109,-32.715,0
119882.510,21.484,41.504,32.227,34.180,-46.875,0
119882.514,43.457,39.062,29.785,37.598,-44.922,0
119882.518,55.664,41.016,26.855,39.551,-33.691,0
119882.522,37.109,43.945,23.438,36.621,-52.246,0
119882.526,18.555,44.434,22.949,31.738,-109.863,0
119882.530,36.621,42.969,25.879,36.621,-49.805,0
119882.534,56.641,42.480,30.273,44.922,10.742,0
119882.538,36.133,40.527,21.973,38.574,-2.441,0
119882.541,7.812,39.062,17.578,32.227,-7.812,0
119882.545,20.996,42.969,26.855,41.992,-11.719,0
119882.549,45.898,38.574,31.250,49.316,8.301,0
119882.553,35.156,32.227,26.855,38.086,3.906,0
119882.557,8.789,34.180,23.438,26.855,-25.391,0
119882.561,13.672,34.668,23.926,32.715,8.789,0
119882.564,43.457,33.691,29.297,43.457,50.293,0
119882.568,50.781,33.203,39.551,44.434,44.434,0
119882.572,32.227,32.227,35.645,39.062,3.418,0
119882.576,20.996,34.668,25.879,37.598,39.551,0
119882.580,42.480,41.504,24.902,44.434,74.707,0
119882.584,58.105,45.410,23.926,50.293,43.457,0
119882.585,39.551,42.969,22.461,46.387,13.184,0
119882.589,18.555,39.551,21.973,39.551,30.762,0
119882.593,29.785,34.180,20.996,38.086,42.969,0
119882.597,46.875,27.344,21.484,39.062,73.730,0
119882.600,35.156,25.879,23.926,36.133,76.660,0
119882.604,12.695,28.320,24.902,30.273,4.395,0
119882.608,24.414,29.297,26.367,34.668,-23.438,0
119882.612,50.781,30.762,23.438,41.016,3.418,0
119882.616,45.410,36.133,20.020,36.133,24.414,0
119882.620,21.484,34.180,19.531,26.855,1.465,0
119882.624,21.973,31.250,15.625,28.320,2.441,0
119882.628,47.363,33.203,15.625,38.086,41.992,0
119882.630,54.199,33.203,14.160,38.086,75.195,0
119882.634,33.203,34.668,16.602,32.227,93.262,0
119882.638,21.973,38.086,27.832,34.180,49.316,0
119882.641,45.898,39.551,31.250,42.969,69.336,0
119882.645,62.500,39.062,32.227,47.363,125.977,0
119882.649,43.457,36.133,28.809,41.016,54.688,0
119882.653,21.484,30.273,18.066,34.668,-47.852,0
119882.657,37.109,29.785,18.066,40.039,-18.555,0
119882.661,62.500,28.809,18.066,46.875,83.008,0
119882.665,56.641,35.156,20.508,49.805,100.586,0
119882.669,33.691,39.062,27.344,42.480,28.809,0
119882.673,33.691,30.762,29.297,41.992,34.668,0
119882.675,55.664,28.320,29.785,50.781,101.562,0
119882.679,54.688,30.762,28.320,50.293,91.309,0
119882.682,28.320,31.250,28.809,41.504,53.223,0
119882.686,19.531,30.273,27.832,36.133,29.785,0
119882.690,41.016,31.250,25.879,41.504,57.617,0
119882.694,47.363,31.250,24.414,42.480,67.871,0
119882.698,21.973,33.691,23.926,31.250,14.160,0
119882.702,9.766,38.574,26.855,26.855,-39.062,0
119882.706,34.180,37.598,28.809,34.180,-9.766,0
119882.710,49.316,28.809,20.996,35.645,25.391,0
119882.714,30.273,26.367,20.996,27.832,-20.996,0
119882.718,14.648,29.297,26.367,26.855,-33.691,0
119882.735,27.344,28.320,27.832,32.715,16.113,0
119882.739,53.711,30.273,25.391,39.062,45.898,0
119882.743,48.340,32.715,19.531,38.574,66.406,0
119882.746,18.555,38.086,21.973,29.785,24.414,0
119882.750,15.137,32.715,20.020,33.691,-23.438,0
119882.754,39.551,24.414,16.113,44.434,31.250,0
119882.758,41.992,26.855,21.973,40.039,76.660,0
119882.762,14.160,29.297,25.391,28.809,39.551,0
119882.766,9.277,28.320,25.879,28.809,-21.484,0
119882.770,40.527,29.785,23.438,38.574,11.230,0
119882.774,58.594,37.109,22.949,43.457,61.035,0
119882.778,39.062,39.551,27.832,38.574,50.781,0
119882.781,23.438,31.738,30.273,36.133,17.090,0
119882.785,45.898,30.762,21.973,45.898,23.438,0
119882.789,65.918,29.297,15.625,50.781,62.500,0
119882.793,46.875,29.297,17.578,41.504,44.434,0
119882.797,20.996,33.691,19.531,32.715,-9.277,0
119882.801,32.227,32.715,19.043,35.156,5.371,0
119882.805,58.105,31.738,19.043,42.969,29.297,0
119882.809,54.199,37.598,24.902,42.480,1.953,0
119882.812,27.344,40.527,25.391,33.203,-30.273,0
119882.816,25.879,36.133,22.461,36.133,-43.945,0
119882.820,54.199,32.227,21.973,48.340,2.930,0
119882.824,55.176,31.250,16.602,44.434,30.273,0
119882.825,24.414,31.738,12.207,32.227,-8.789,0
119882.829,14.160,30.762,17.578,30.762,-58.594,0
119882.833,39.551,32.715,22.461,38.086,-21.484,0
119882.836,52.734,32.227,25.879,38.086,21.973,0
119882.840,34.180,37.598,24.414,32.715,-6.836,0
119882.844,17.090,40.527,20.996,29.297,2.441,0
119882.848,31.250,34.180,19.531,34.668,35.645,0
119882.852,53.711,30.273,18.066,41.992,68.848,0
119882.856,41.992,31.250,18.066,33.691,30.273,0
119882.860,15.137,29.785,14.648,22.949,-26.855,0
119882.864,26.855,27.344,16.113,32.227,24.414,0
119882.868,55.176,27.344,21.973,46.875,80.078,0
119882.870,49.805,33.203,28.809,48.340,93.750,0
119882.874,24.902,36.621,30.762,39.062,80.566,0
119882.878,19.531,30.273,21.973,29.785,62.012,0
119882.881,43.457,26.855,16.113,35.645,65.430,0
119882.885,52.246,27.832,20.508,40.039,65.430,0
119882.889,26.855,30.762,22.461,30.273,20.508,0
119882.893,11.230,28.809,19.043,25.879,-14.648,0
119882.897,32.227,29.297,20.996,34.180,10.254,0
119882.901,52.246,38.574,22.461,40.039,18.555,0
119882.905,34.180,40.527,19.531,33.691,22.949,0
119882.909,10.742,32.715,20.996,28.809,-0.977,0
119882.913,26.367,29.297,26.855,36.621,-15.137,0
119882.915,49.316,29.297,30.273,41.504,50.781,0
119882.919,38.574,27.344,24.902,33.691,30.762,0
119882.923,14.160,28.809,21.973,29.297,-5.371,0
119882.926,21.484,28.809,24.902,37.598,17.578,0
119882.930,51.270,28.809,23.438,45.410,66.895,0
119882.934,48.340,28.320,25.391,45.898,91.797,0
119882.938,20.508,28.320,23.438,36.133,23.438,0
119882.942,17.578,31.738,20.020,24.902,-36.133,0
119882.946,40.039,28.320,21.484,31.250,33.691,0
119882.950,49.316,29.785,22.461,37.109,68.359,0
119882.954,33.203,31.250,23.926,34.180,-9.766,0
119882.958,23.438,29.785,20.996,35.645,-30.273,0
119882.960,45.410,32.227,22.461,43.945,14.648,0
119882.964,62.500,32.715,28.320,52.246,39.551,0
119882.968,41.504,31.250,25.879,44.922,5.371,0
119882.972,19.531,34.180,21.973,36.133,-29.785,0
119882.975,34.180,37.109,20.020,42.480,12.695,0
119882.979,54.688,29.785,19.043,50.293,27.344,0
119882.983,41.504,23.438,24.414,43.945,-15.137,0
119882.987,12.207,23.926,26.367,32.715,-41.992,0
119882.991,18.555,22.949,28.809,34.668,-14.160,0
119882.995,48.340,26.855,28.809,47.363,25.879,0
119882.999,47.852,29.785,25.391,47.852,17.090,0
119883.003,23.438,31.250,22.461,37.598,16.113,0
119883.006,21.484,36.621,17.578,38.086,22.949,0
119883.010,48.340,33.691,18.555,46.875,31.738,0
119883.014,57.129,27.832,20.508,46.387,20.508,0
119883.018,29.785,25.391,17.090,33.203,-1.465,0
119883.022,11.230,24.902,20.996,29.297,-11.719,0
119883.026,32.715,25.879,31.250,40.039,41.016,0
119883.029,48.340,28.809,24.902,38.086,59.570,0
119883.033,29.297,30.762,14.648,25.879,0.488,0
119883.037,7.812,25.391,13.184,19.531,-3.418,0
119883.041,21.484,29.297,14.160,24.902,23.438,0
119883.045,50.293,33.203,13.184,34.668,68.359,0
119883.049,41.504,26.855,17.090,30.762,54.688,0
119883.050,8.789,24.414,20.508,21.484,8.789,0
119883.054,12.207,28.809,14.160,24.414,-2.441,0
119883.058,43.457,31.250,15.137,32.715,44.434,0
119883.061,46.387,29.297,22.949,30.762,82.031,0
119883.065,21.973,35.645,30.762,24.414,55.176,0
119883.069,16.113,41.504,36.133,30.273,9.277,0
119883.073,33.203,28.320,28.809,32.227,7.324,0
119883.077,38.574,23.438,20.508,28.809,29.785,0
119883.081,21.484,28.809,19.531,30.762,16.113,0
119883.085,5.859,32.227,20.020,28.809,-19.043,0
119883.089,29.297,34.180,24.414,38.574,5.371,0
119883.093,51.270,35.156,31.250,46.875,93.262,0
119883.110,30.762,36.133,33.203,36.133,83.496,0
119883.114,7.324,38.574,26.855,30.273,9.277,0
119883.118,20.020,40.527,21.484,35.645,10.742,0
119883.121,46.875,34.180,20.996,41.016,94.238,2
119883.125,41.016,25.879,21.484,38.086,109.863,0
119883.129,15.137,24.902,23.438,32.715,51.270,0
119883.133,14.160,25.879,22.949,31.738,40.039,0
119883.137,42.969,26.367,23.438,41.992,65.918,0
119883.141,49.316,25.879,29.785,46.387,74.707,0
119883.145,21.973,25.879,29.297,34.668,-5.371,0
119883.149,11.719,22.461,18.066,27.344,-35.645,0
119883.153,33.691,13.184,16.602,32.227,42.480,0
119883.155,49.805,9.277,23.926,41.016,64.941,0
119883.159,30.273,9.277,24.414,38.574,47.363,0
119883.163,11.230,10.742,21.973,36.621,13.184,0
119883.166,33.691,11.230,20.996,44.434,3.906,0
119883.170,59.082,12.207,23.438,48.340,34.668,0
119883.174,47.852,16.113,27.832,41.016,14.648,0
119883.178,22.949,15.137,24.902,29.785,-25.391,0
119883.182,29.297,11.719,19.531,33.203,8.301,0
119883.186,59.570,11.230,20.020,46.875,36.621,0
119883.190,56.641,12.695,24.902,44.434,-3.418,0
119883.194,28.320,16.113,25.879,36.621,-37.109,0
119883.198,25.879,17.578,22.949,37.109,-19.043,0
119883.200,48.828,18.066,26.855,43.945,34.668,0
119883.204,53.223,16.113,28.809,43.457,55.664,0
119883.208,31.250,18.066,31.738,35.156,29.785,0
119883.211,17.578,21.484,35.645,32.715,7.812,0
119883.215,41.016,22.461,32.715,40.527,32.227,0
119883.219,58.105,19.531,20.508,42.969,43.457,0
119883.223,37.598,15.625,15.625,34.180,20.996,0
119883.227,14.160,19.043,22.949,28.320,13.184,0
119883.231,25.391,22.461,22.461,30.273,-19.531,0
119883.235,52.246,21.484,26.367,37.109,-17.578,0
119883.239,44.922,20.020,35.645,37.109,15.625,0
119883.243,19.531,26.855,36.133,33.203,-38.574,0
119883.246,24.902,32.715,29.297,36.133,-39.062,0
119883.250,49.316,27.344,26.367,41.504,37.109,0
119883.254,48.828,26.367,25.879,40.527,39.551,0
119883.258,22.461,26.855,23.926,26.855,14.160,0
119883.262,20.996,25.879,26.367,29.785,0.977,0
119883.266,51.758,30.273,29.785,47.363,-3.418,0
119883.269,54.199,26.367,25.879,44.922,0.000,0
119883.273,25.391,22.461,25.879,30.273,-10.742,0
119883.277,12.207,22.461,27.344,21.484,-31.250,0
119883.281,38.086,29.297,25.391,27.344,39.551,0
119883.285,61.523,34.668,23.438,36.133,69.824,0
119883.289,44.434,28.320,23.926,32.227,8.789,0
119883.290,24.902,27.344,29.297,31.738,-32.227,0
119883.294,40.039,33.691,31.250,43.457,-4.883,0
119883.298,58.105,33.691,23.926,45.898,72.754,0
119883.301,46.875,29.785,22.461,37.109,73.242,0
119883.305,14.160,25.391,23.926,24.414,2.930,0
119883.309,10.254,28.809,25.879,24.902,3.418,0
119883.313,40.527,32.715,26.855,37.109,35.156,0
119883.317,46.387,25.391,24.414,31.738,17.090,0
119883.321,22.949,20.020,24.902,32.227,-40.039,0
119883.325,11.719,20.508,22.949,32.227,-49.316,0
119883.329,38.574,21.484,24.414,33.203,-20.996,0
119883.333,55.664,28.809,32.227,43.457,14.648,0
119883.335,26.855,31.250,33.691,33.691,41.992,0
119883.339,12.695,33.691,29.297,33.203,38.574,0
119883.343,38.086,37.598,28.320,47.363,32.227,0
119883.347,58.105,32.715,28.320,48.340,50.781,0
119883.350,43.457,29.297,26.367,39.062,41.016,0
119883.354,21.484,31.250,28.320,33.691,-16.113,0
119883.358,29.785,32.227,33.203,36.621,-30.273,0
119883.362,48.828,29.785,32.715,36.133,26.855,0
119883.366,44.434,31.738,28.320,30.762,43.945,0
119883.370,20.996,34.668,29.297,29.297,-17.578,0
119883.374,18.066,31.250,30.762,28.809,-28.320,0
119883.378,42.969,32.715,29.297,35.156,27.832,0
119883.380,51.758,36.133,29.297,40.527,59.570,0
119883.384,24.414,33.691,24.902,30.273,2.441,0
119883.388,13.184,30.762,14.648,26.855,-37.109,0
119883.391,45.410,29.785,17.090,41.504,6.836,0
119883.395,59.570,31.738,29.785,46.875,4.395,0
119883.399,35.156,29.297,30.762,41.504,-4.883,0
119883.403,15.137,26.855,29.297,39.551,-28.320,0
119883.407,31.250,30.273,30.762,43.945,-24.902,0
119883.411,50.781,33.691,27.344,45.898,30.762,0
119883.415,41.016,32.715,30.762,43.945,3.906,0
119883.419,18.555,32.227,35.156,42.480,-53.223,0
119883.423,22.461,32.227,30.273,41.992,-23.926,0
119883.426,48.340,31.738,25.391,47.363,20.020,0
119883.430,45.410,27.344,29.785,45.898,-2.930,0
119883.434,16.602,24.902,36.133,38.086,-30.762,0
119883.438,15.625,34.668,37.109,42.969,-11.719,0
119883.442,43.457,38.086,32.715,50.781,36.133,0
119883.446,47.852,28.809,28.320,45.898,39.551,0
119883.449,21.484,26.855,30.273,34.180,-23.926,0
119883.453,11.230,30.273,27.344,32.227,-73.730,0
119883.457,34.180,32.715,21.973,37.598,-38.574,0
119883.461,52.734,31.738,26.855,39.551,40.039,0
119883.465,39.062,34.180,27.832,37.109,53.223,0
119883.469,17.090,39.551,22.461,34.180,8.789,0
119883.485,29.785,39.062,23.926,37.598,16.602,0
119883.489,54.199,38.574,24.414,41.504,55.664,0
119883.493,44.922,32.715,26.367,37.598,58.594,0
119883.496,20.020,28.320,28.320,29.785,19.531,0
119883.500,26.855,31.250,27.832,37.109,22.461,0
119883.504,54.199,30.273,29.785,49.316,62.988,0
119883.508,54.199,33.691,30.273,48.340,71.289,0
119883.512,27.344,36.621,31.250,43.457,72.266,0
119883.516,22.949,32.715,29.297,44.434,23.438,0
119883.520,52.246,36.621,33.203,51.758,35.645,0
119883.524,61.035,43.945,37.598,47.852,42.969,0
119883.528,33.203,36.621,29.785,37.109,24.414,0
119883.530,16.113,28.809,26.855,35.156,0.000,0
119883.534,34.180,31.250,26.367,36.133,45.898,0
119883.538,52.246,32.227,26.367,40.527,84.473,0
119883.541,38.574,31.738,25.391,39.551,52.734,0
119883.545,18.555,34.180,25.879,33.691,47.852,0
119883.549,33.203,37.598,28.809,38.086,60.547,0
119883.553,59.570,37.109,23.926,45.410,108.398,0
119883.557,52.246,32.715,27.832,47.363,103.027,0
119883.561,29.297,34.668,31.738,44.922,33.691,0
119883.565,32.227,34.668,23.438,43.457,-15.137,0
119883.569,59.082,32.227,21.973,51.758,51.270,0
119883.573,64.941,34.180,25.879,51.270,82.520,0
119883.575,40.527,37.109,24.902,40.527,16.113,0
119883.579,33.691,40.527,23.438,36.621,-11.230,0
119883.583,53.223,32.227,22.461,40.039,61.523,0
119883.586,60.547,23.926,22.949,41.504,146.973,0
119883.590,37.598,29.785,15.137,32.227,77.148,0
119883.594,23.926,34.668,10.742,29.785,-9.766,0
119883.598,46.875,33.203,22.949,40.527,23.926,0
119883.602,65.430,31.738,29.297,45.898,60.059,0
119883.606,48.340,31.250,24.414,36.621,-13.184,0
119883.610,22.461,34.668,20.020,26.855,-93.750,0
119883.614,32.227,33.691,19.531,33.203,-50.293,0
119883.618,59.082,29.297,26.855,45.898,21.484,0
119883.620,52.246,29.297,28.320,44.922,23.438,0
119883.624,20.996,28.809,22.949,32.715,-31.250,0
119883.628,21.484,28.809,20.508,29.785,-44.434,0
119883.631,51.270,34.180,14.160,38.086,16.602,0
119883.635,57.129,34.180,20.996,40.527,42.480,0
119883.639,28.809,28.809,28.320,31.738,-4.395,0
119883.643,15.625,32.227,23.926,28.809,-12.695,0
119883.647,41.016,32.715,24.902,35.645,22.461,0
119883.651,53.223,26.855,23.926,39.062,49.316,0
119883.655,27.344,25.879,21.484,30.273,62.012,0
119883.659,7.812,29.297,25.879,25.391,63.965,0
119883.663,29.785,33.691,29.785,35.645,59.082,0
119883.665,52.246,36.133,29.785,40.039,98.145,0
119883.669,38.574,36.133,27.344,32.715,76.172,0
119883.673,10.742,30.273,27.832,25.391,10.254,0
119883.676,14.648,27.344,24.902,30.762,37.598,0
119883.680,38.086,28.320,18.555,36.133,91.797,0
119883.684,32.227,25.879,18.066,32.227,80.078,0
119883.688,3.418,26.367,18.555,25.391,26.367,0
119883.692,0.977,29.785,23.926,23.438,-23.926,0
119883.696,33.691,33.203,27.344,32.227,17.090,0
119883.700,48.340,35.645,28.320,39.551,98.145,0
119883.704,23.926,31.250,25.391,32.715,69.824,0
119883.708,10.742,29.785,26.855,28.320,46.387,0
119883.711,35.156,32.227,31.250,39.062,98.633,0
119883.715,50.781,30.273,24.414,42.480,100.586,0
119883.719,34.180,28.809,21.484,36.621,23.926,0
119883.723,10.254,27.832,23.926,29.785,-32.227,0
119883.727,27.344,29.785,27.344,40.039,20.996,0
119883.731,57.129,34.180,28.809,56.152,70.801,0
119883.734,40.527,37.109,30.762,45.410,28.320,0
119883.738,13.672,38.086,31.250,33.691,-17.090,0
119883.742,24.414,36.133,23.926,42.480,-5.371,0
119883.746,55.176,38.574,22.461,50.781,27.344,0
119883.750,55.664,40.527,24.414,45.410,52.246,0
119883.754,30.273,36.133,24.414,35.645,30.273,0
119883.755,23.438,36.133,22.461,36.621,-10.742,0
119883.759,47.852,30.762,23.438,45.410,36.621,0
119883.763,61.523,33.203,28.320,48.828,85.938,0
119883.766,34.668,42.480,28.320,41.016,45.898,0
119883.770,18.066,37.598,25.879,36.621,8.301,0
119883.774,42.969,37.598,24.902,48.828,42.969,0
119883.778,58.594,38.086,25.391,52.246,61.523,0
119883.782,38.574,35.156,31.250,38.574,11.230,0
119883.786,17.090,33.203,31.250,32.715,-1.953,0
119883.790,33.203,39.062,27.344,43.457,-6.836,0
119883.794,55.176,41.504,28.809,47.852,6.836,0
119883.798,45.410,35.156,27.344,44.434,23.926,0
119883.800,20.996,37.109,26.855,38.086,-13.184,0
119883.804,26.855,41.992,30.273,41.504,2.930,0
119883.808,52.246,40.039,31.250,48.340,49.805,0
119883.812,46.875,34.180,26.855,41.016,68.359,0
119883.815,20.020,32.227,25.879,33.203,18.066,0
119883.819,14.648,30.273,27.832,32.227,-26.855,0
119883.823,41.504,31.250,28.320,38.086,8.301,0
119883.827,54.688,33.203,32.227,38.574,39.062,0
119883.831,34.668,36.621,35.645,34.180,51.758,0
119883.835,17.578,36.621,30.762,30.273,32.715,0
119883.839,32.715,31.738,22.949,29.785,7.812,0
119883.843,53.711,31.250,21.484,32.227,67.871,0
119883.860,43.457,33.691,22.461,27.832,84.473,0
119883.864,19.043,41.016,23.926,25.879,0.000,0
119883.868,27.344,44.922,29.785,36.621,-3.418,0
119883.871,54.199,39.062,29.785,45.410,40.039,0
119883.875,43.457,32.715,21.484,34.180,64.453,0
119883.879,14.648,33.691,19.531,21.973,35.645,0
119883.883,20.020,32.227,25.391,27.832,-2.441,0
119883.887,48.828,29.297,33.691,40.527,62.988,0
119883.891,49.805,31.250,31.738,37.109,95.215,0
119883.895,22.949,33.203,27.832,28.809,24.902,0
119883.899,13.672,36.133,21.973,26.855,-32.715,0
119883.903,35.645,33.203,15.137,30.762,30.273,0
119883.905,47.852,35.156,21.973,33.691,78.613,0
119883.909,29.297,41.016,26.367,28.809,46.875,0
119883.913,10.742,38.086,24.414,26.855,33.691,0
119883.916,27.832,38.086,24.414,31.250,69.336,0
119883.920,49.316,42.480,21.484,37.109,94.727,0
119883.924,37.109,42.480,22.949,36.133,67.383,0
119883.928,9.766,35.645,24.902,24.902,24.902,0
119883.932,20.508,31.250,18.555,28.320,40.527,0
119883.936,47.852,34.668,18.555,39.551,67.871,0
119883.940,42.480,34.668,23.438,34.668,36.621,0
119883.944,21.484,38.086,30.762,30.273,0.977,0
119883.948,21.484,40.527,26.855,32.227,18.555,0
119883.951,41.992,36.133,20.020,37.109,24.902,0
119883.955,46.875,31.250,21.973,39.062,37.598,0
119883.959,23.438,32.715,19.043,31.250,16.602,0
119883.963,11.230,35.645,14.648,28.320,-28.320,0
119883.967,34.180,33.203,19.043,34.180,-28.809,0
119883.971,48.340,31.738,19.531,35.156,-29.785,0
119883.974,29.785,31.250,11.719,29.297,-40.527,0
119883.978,7.812,29.297,11.230,22.949,-50.781,0
119883.982,24.414,34.668,15.137,27.832,-32.227,0
119883.986,49.805,37.598,18.555,35.645,6.836,0
119883.990,38.574,36.621,20.020,31.250,3.418,0
119883.994,16.113,36.133,23.926,25.879,-44.922,0
119883.995,22.949,34.668,21.973,29.297,-38.574,0
119883.999,48.828,36.133,12.695,34.180,13.672,0
119884.003,43.457,34.180,12.207,32.715,24.414,0
119884.007,15.137,32.715,16.602,25.879,8.789,0
119884.010,10.742,33.203,15.625,26.367,11.719,0
119884.014,35.156,31.738,13.184,34.180,41.016,0
119884.018,42.969,32.715,14.648,35.156,61.523,0
119884.022,22.949,34.180,22.461,31.738,36.133,0
119884.026,14.160,38.086,30.762,30.273,-38.086,0
119884.030,36.133,39.062,29.297,40.039,3.906,0
119884.034,54.688,36.621,21.484,44.434,30.273,0
119884.038,44.434,36.621,23.438,38.574,-14.160,0
119884.040,21.484,36.133,28.809,35.645,-34.180,0
119884.044,29.785,36.133,26.855,39.551,-17.578,0
119884.048,57.617,38.574,28.320,47.852,42.480,0
119884.051,50.293,42.480,25.879,45.898,10.742,0
119884.055,20.508,43.945,22.949,36.133,-7.812,0
119884.059,20.508,39.551,27.832,38.574,9.766,0
119884.063,45.410,33.691,27.832,44.434,26.855,0
119884.067,46.387,32.715,24.902,41.992,17.090,0
119884.071,21.973,38.086,23.438,33.203,10.254,0
119884.075,13.672,38.574,20.996,29.785,60.547,0
119884.079,40.039,39.062,19.531,38.086,83.008,0
119884.083,57.617,47.363,24.414,44.922,89.355,0
119884.086,40.527,54.688,28.320,40.039,75.684,0
119884.089,30.762,56.152,32.227,37.598,42.969,0
119884.093,50.293,46.387,28.320,42.969,62.500,0
119884.097,64.941,37.598,19.531,44.434,92.773,0
119884.101,43.457,38.086,22.949,36.133,54.199,0
119884.105,20.996,38.574,29.297,37.109,-14.648,0
119884.109,35.645,40.527,28.809,45.898,-8.789,0
119884.113,58.594,40.039,27.832,47.363,39.062,0
119884.117,54.688,45.898,27.832,43.945,45.898,0
119884.121,27.344,53.223,28.320,37.109,-39.551,0
119884.125,25.879,47.852,28.320,36.133,-68.359,0
119884.129,51.270,41.992,29.785,40.039,2.930,0
119884.130,55.176,41.992,30.273,42.480,41.992,0
119884.134,31.250,45.898,28.809,38.086,-7.324,0
119884.138,17.090,46.387,22.461,31.738,-45.410,0
119884.141,41.016,44.922,20.508,35.645,1.465,0
119884.145,51.758,44.922,26.367,37.109,27.832,0
119884.149,24.902,47.363,27.344,26.855,7.324,0
119884.153,7.812,45.898,21.484,20.020,-35.645,0
119884.157,22.949,41.016,22.461,23.926,-28.809,0
119884.161,45.410,41.016,24.414,32.715,38.574,0
119884.165,37.598,45.898,26.855,34.668,39.551,0
119884.169,13.672,47.852,31.738,29.297,-16.113,0
119884.173,20.996,43.945,24.414,31.738,-17.578,0
119884.176,48.828,40.527,21.484,41.504,49.316,0
119884.180,46.875,40.527,25.879,41.504,49.316,0
119884.184,19.043,43.457,26.855,30.762,-1.953,0
119884.188,16.113,41.992,21.973,26.855,0.000,0
119884.192,43.457,40.039,20.020,36.133,42.969,0
119884.196,51.270,41.992,20.508,38.086,20.996,0
119884.199,29.785,38.574,19.043,31.738,-41.992,0
119884.203,19.043,34.180,20.996,30.762,-16.602,0
119884.207,44.434,38.574,22.461,39.062,24.902,0
119884.211,58.105,44.434,21.973,45.898,47.852,0
119884.215,38.574,44.922,25.879,40.527,66.406,0
119884.219,15.625,38.574,31.738,34.180,38.574,0
119884.235,26.367,37.109,36.133,40.527,6.836,0
119884.239,46.875,39.062,33.691,47.363,14.160,0
119884.243,35.156,34.668,26.855,41.992,2.930,0
119884.247,12.695,33.203,29.785,40.527,-12.695,0
119884.250,19.531,36.621,33.203,45.898,-18.555,0
119884.254,42.969,36.621,30.273,50.781,7.324,0
119884.258,41.016,34.180,28.809,45.410,11.719,0
119884.262,22.949,34.180,34.180,38.086,-21.973,0
119884.266,22.949,35.156,32.715,41.504,-29.297,0
119884.270,47.852,35.645,22.461,42.969,-2.441,0
119884.274,57.129,36.133,25.391,41.504,-8.789,0
119884.278,33.691,38.574,35.645,34.668,-63.477,0
119884.280,20.996,42.480,31.250,29.297,-53.711,0
119884.284,37.109,41.504,26.855,35.156,3.906,0
119884.288,52.246,41.504,27.832,38.574,10.254,0
119884.291,37.598,38.574,28.809,35.645,-26.855,0
119884.295,18.066,38.086,28.809,35.156,-60.059,0
119884.299,29.297,40.527,26.855,38.086,-24.902,0
119884.303,52.734,36.133,30.273,46.387,51.270,0
119884.307,45.410,38.086,30.273,44.434,42.969,0
119884.311,18.555,42.969,31.738,35.645,-42.969,0
119884.315,25.391,40.039,29.297,37.598,-34.668,0
119884.319,52.246,35.156,26.855,42.969,76.172,0
119884.323,50.293,33.203,27.832,40.039,84.961,0
119884.325,25.879,32.715,25.879,33.691,23.438,0
119884.329,24.902,33.203,26.367,41.504,56.641,0
119884.333,47.852,35.156,29.785,46.875,103.516,0
119884.336,55.664,38.574,32.227,41.992,93.262,0
119884.340,37.109,43.457,25.391,37.598,47.852,0
119884.344,17.090,43.457,16.602,30.273,5.859,0
119884.348,33.203,35.156,20.508,35.156,35.645,0
119884.352,55.664,32.715,25.391,44.434,85.449,0
119884.356,41.992,35.645,20.996,40.039,44.434,0
119884.360,21.973,36.621,22.949,36.133,5.371,0
119884.364,37.109,35.156,29.785,43.945,37.109,0
119884.368,60.547,31.250,31.250,55.664,79.590,0
119884.370,46.875,31.250,27.832,49.316,71.289,0
119884.374,20.508,34.668,28.809,36.133,12.207,0
119884.378,27.832,32.715,32.715,39.551,-14.160,0
119884.382,56.641,32.227,27.832,51.758,14.648,0
119884.385,57.129,40.527,18.555,50.781,32.715,0
119884.389,31.738,39.062,17.090,40.039,-9.277,0
119884.393,27.344,33.203,26.855,45.410,-38.086,0
119884.397,51.758,34.668,33.691,59.082,-8.301,0
119884.401,62.012,35.645,33.691,57.617,0.977,0
119884.405,44.922,39.551,34.180,52.734,13.672,0
119884.409,26.855,39.062,36.133,50.293,23.926,0
119884.413,44.922,38.086,36.133,51.758,30.762,0
119884.416,68.359,40.527,34.668,52.734,65.918,0
119884.420,49.805,38.086,26.855,41.504,56.152,0
119884.424,24.902,38.574,21.973,36.133,49.316,0
119884.428,34.668,38.086,29.297,42.969,59.082,0
119884.432,61.523,39.551,32.227,51.270,95.703,0
119884.436,62.500,46.875,33.691,53.223,128.906,0
119884.439,32.227,41.504,31.250,42.969,72.754,0
119884.443,23.926,32.715,26.855,38.086,2.930,0
119884.447,49.316,36.621,31.250,42.480,12.695,0
119884.451,56.152,39.062,36.621,43.945,74.219,0
119884.455,32.227,34.668,32.715,38.086,24.902,0
119884.459,21.973,33.691,28.809,35.156,-43.457,0
119884.460,42.969,37.598,25.391,39.551,-13.672,0
119884.464,55.664,40.527,22.949,40.527,8.789,0
119884.468,36.621,39.551,24.902,35.645,-11.230,0
119884.472,17.090,36.621,27.344,30.762,-51.270,0
119884.475,31.250,36.133,32.715,37.109,-10.742,0
119884.479,57.617,39.551,36.621,46.875,52.734,0
119884.483,50.781,39.062,37.598,42.480,10.742,0
119884.487,24.902,36.621,40.527,38.574,-41.992,0
119884.491,26.855,34.180,37.598,41.504,2.441,0
119884.495,49.316,33.691,26.855,41.504,39.062,0
119884.499,49.316,29.785,19.531,39.551,20.020,0
119884.503,26.367,28.320,24.902,36.133,14.648,0
119884.505,25.391,34.668,32.227,37.598,-13.672,0
119884.509,50.293,40.527,29.785,41.992,-0.977,0
119884.513,54.688,41.016,25.879,39.551,31.738,0
119884.517,27.344,34.668,24.902,29.785,1.465,0
119884.521,15.137,33.691,23.926,25.879,-32.227,0
119884.525,38.574,34.668,25.391,34.180,-7.812,0
119884.529,56.152,36.133,24.414,39.551,21.484,0
119884.533,40.527,37.109,20.996,34.668,8.789,0
119884.537,19.531,36.133,24.414,30.762,3.906,0
119884.541,30.273,35.645,25.391,36.133,32.227,0
119884.544,57.129,37.109,25.391,41.992,68.848,0
119884.548,51.270,40.039,25.879,39.062,69.336,0
119884.550,23.438,38.086,24.414,35.645,18.555,0
119884.554,28.320,38.574,27.344,39.062,17.578,0
119884.557,53.711,40.527,30.273,44.922,48.828,0
119884.561,56.152,38.574,31.738,47.363,47.852,0
119884.565,29.785,35.156,32.227,36.133,12.695,0
119884.569,17.578,32.715,25.879,32.227,-17.578,0
119884.573,42.480,32.227,19.043,47.852,-5.371,0
119884.577,48.340,33.691,18.555,43.945,20.020,0
119884.581,25.391,34.180,23.438,33.691,-27.832,0
119884.585,11.230,31.250,26.367,29.297,-64.453,0
119884.589,31.250,33.691,30.273,35.156,-30.762,0
119884.593,57.617,34.180,29.297,46.387,18.066,0
119884.610,43.457,33.691,25.879,41.992,39.062,0
119884.614,15.137,33.203,25.879,34.180,-16.602,0
119884.618,28.320,31.250,27.832,41.016,-5.859,0
119884.622,55.176,33.203,23.926,44.434,90.332,0
119884.625,45.410,36.621,21.484,39.062,41.016,0
119884.629,13.184,34.180,21.973,29.785,-38.574,0
119884.633,12.695,30.762,18.555,26.367,7.812,0
119884.637,40.039,28.320,17.578,32.227,88.379,0
119884.641,40.527,26.367,20.508,31.250,102.051,0
119884.645,16.113,28.320,22.949,25.879,39.062,0
119884.649,5.859,27.344,23.438,22.461,19.043,0
119884.653,35.156,35.156,23.926,30.762,84.473,0
119884.656,54.199,39.062,20.508,36.621,91.309,0
119884.660,26.855,28.320,16.113,25.391,44.922,0
119884.664,11.719,28.320,22.461,23.438,16.113,0
119884.668,39.551,30.762,24.414,34.180,54.199,0
119884.672,56.641,32.715,23.438,37.598,94.238,0
119884.676,37.598,36.621,25.879,31.250,53.223,0
119884.680,16.113,34.180,27.832,28.809,-8.301,0
119884.683,28.320,31.250,27.832,33.691,10.742,0
119884.687,54.688,34.668,26.367,41.504,21.973,0
119884.691,48.828,38.086,22.949,40.527,-12.207,0
119884.695,20.020,36.621,17.090,29.785,-15.625,0
119884.699,13.672,32.715,13.672,26.855,-9.277,0
119884.700,39.551,33.691,15.137,31.738,33.691,0
119884.704,46.387,37.598,19.531,34.180,32.227,0
119884.708,21.973,39.551,16.113,29.297,1.465,0
119884.711,12.207,35.645,13.672,25.391,-20.020,0
119884.715,36.621,32.715,17.090,33.691,21.484,0
119884.719,51.758,34.668,17.578,34.668,41.992,0
119884.723,32.715,34.668,19.043,27.344,15.137,0
119884.727,15.137,31.250,19.531,27.344,-6.348,0
119884.731,34.180,34.180,20.996,38.086,-11.719,0
119884.735,62.500,42.969,27.832,45.898,31.250,0
119884.739,48.828,41.504,29.297,41.992,78.613,0
119884.743,20.020,35.156,23.438,34.668,27.832,0
119884.745,26.855,31.738,19.531,38.086,10.254,0
119884.749,54.199,32.227,20.020,46.387,61.035,0
119884.753,55.176,33.203,20.508,45.410,83.008,0
119884.756,26.367,31.250,22.461,36.621,38.574,0
119884.760,25.391,29.297,25.879,41.992,12.695,0
119884.764,51.270,28.809,18.555,47.363,45.410,0
119884.768,54.199,31.738,19.531,44.922,59.082,0
119884.772,32.227,32.227,29.785,42.969,-7.324,0
119884.776,20.508,34.180,26.367,37.109,-44.434,0
119884.780,38.086,35.156,22.949,41.504,6.348,0
119884.784,52.246,31.738,24.902,47.852,56.152,0
119884.788,35.645,34.180,25.391,40.527,7.324,0
119884.790,14.160,33.691,28.320,31.738,-53.223,0
119884.794,25.391,27.344,28.320,36.133,1.953,0
119884.798,50.293,27.832,31.250,46.387,32.227,0
119884.802,43.945,31.738,32.715,43.945,-19.043,0
119884.805,18.066,32.227,31.738,35.645,-37.109,0
119884.809,21.484,30.762,34.668,39.062,-16.602,0
119884.813,50.293,30.273,37.598,49.805,-2.441,0
119884.817,53.223,31.738,27.832,47.363,-3.418,0
119884.821,23.438,37.109,23.926,32.715,-40.039,0
119884.825,14.648,40.039,30.273,28.320,-12.695,0
119884.829,41.992,36.621,34.668,37.109,42.480,0
119884.833,48.828,32.715,41.016,36.621,32.715,0
119884.835,24.414,30.762,29.297,27.832,10.742,0
119884.839,10.254,29.785,21.484,23.926,-12.207,0
119884.843,26.855,32.715,27.832,25.391,19.043,0
119884.846,44.922,36.133,23.926,30.273,35.645,0
119884.850,30.273,36.133,22.461,29.785,-35.645,0
119884.854,5.859,35.156,25.879,25.391,-68.359,0
119884.858,24.414,36.621,22.461,34.180,-7.324,0
119884.862,54.199,37.109,19.043,46.875,33.203,0
119884.866,47.852,38.574,27.832,44.922,43.457,0
119884.870,18.066,41.504,32.227,36.133,-16.113,0
119884.874,16.113,38.574,26.855,33.691,-5.371,0
119884.878,45.898,34.180,24.902,42.480,75.195,0
119884.881,47.852,34.668,23.926,41.016,100.586,0
119884.885,20.996,33.203,23.438,30.273,77.637,0
119884.889,15.137,32.227,25.391,30.762,29.297,0
119884.893,37.598,30.762,20.508,37.109,57.129,0
119884.897,47.363,33.691,18.555,39.551,99.609,0
119884.901,27.344,39.551,25.879,32.227,90.332,0
119884.904,11.719,41.504,29.785,28.809,7.812,0
119884.908,31.738,37.598,26.855,34.668,-1.953,0
119884.912,52.246,31.250,27.832,39.062,51.758,0
119884.916,35.156,34.668,32.227,36.133,37.109,0
119884.920,11.230,32.227,29.785,30.273,0.488,0
119884.924,25.879,25.391,23.926,37.109,8.301,0
119884.925,52.246,26.367,24.414,48.828,47.363,0
119884.929,46.387,29.785,24.902,44.922,44.922,0
119884.933,20.996,36.621,23.438,35.156,0.488,0
119884.937,25.391,39.551,27.832,39.551,-10.742,0
119884.941,52.734,33.203,26.367,45.410,33.203,0
119884.945,54.688,27.832,25.879,44.922,27.344,0
119884.949,30.762,33.203,30.273,43.457,-31.738,0
119884.953,20.508,35.645,28.809,41.504,-51.270,0
119884.957,44.434,28.320,27.344,45.410,27.832,0
119884.961,61.035,31.250,29.297,51.270,94.727,0
119884.964,36.621,32.715,28.809,40.527,43.457,0
119884.968,17.578,32.227,24.414,32.715,3.906,0
119884.985,38.086,35.645,24.902,42.969,12.695,0
119884.989,60.059,36.621,23.438,49.316,41.504,0
119884.993,50.293,33.203,27.832,45.410,39.551,0
119884.997,24.414,26.855,33.691,38.086,1.465,0
119885.000,29.785,30.762,31.738,41.504,54.199,0
119885.004,58.105,34.180,23.926,47.852,66.406,0
119885.008,56.641,32.227,25.879,42.480,37.598,0
119885.012,28.320,31.738,29.785,35.156,13.672,0
119885.016,22.461,33.691,27.832,39.062,19.043,0
119885.020,46.875,35.156,24.902,48.340,49.805,0
119885.024,53.711,36.621,21.484,46.875,80.566,0
119885.028,26.855,39.551,23.926,33.203,62.988,0
119885.030,13.184,37.109,32.227,29.297,8.301,0
119885.034,37.598,29.785,31.250,36.621,34.668,0
119885.038,57.617,27.344,27.832,41.992,63.477,0
119885.041,38.086,31.250,26.855,37.109,19.043,0
119885.045,16.602,32.715,25.391,31.250,-31.250,0
119885.049,33.691,29.785,26.855,40.039,-20.996,0
119885.053,59.082,31.250,23.926,47.852,52.734,0
119885.057,47.363,29.785,24.414,41.504,56.152,0
119885.061,19.531,30.273,30.762,35.156,-7.324,0
119885.065,25.879,39.062,35.645,37.109,-5.371,0
119885.069,51.758,38.086,37.109,41.016,43.457,0
119885.073,50.293,32.227,34.180,40.527,58.594,0
119885.075,23.926,34.668,34.668,33.203,20.996,0
119885.079,21.484,38.086,32.715,32.227,22.461,0
119885.083,50.293,32.227,21.973,43.457,63.965,0
119885.086,57.129,31.738,20.508,48.340,62.988,0
119885.090,29.785,39.062,24.414,40.527,49.805,0
119885.094,14.160,37.598,21.973,33.691,6.348,0
119885.098,37.598,30.762,27.344,37.109,6.836,0
119885.102,54.688,29.785,30.762,41.016,73.242,0
119885.106,36.621,28.809,25.879,35.645,14.160,0
119885.110,15.137,29.297,28.809,27.832,-55.176,0
119885.114,26.855,29.785,32.715,30.273,15.625,0
119885.118,52.246,32.715,31.250,40.527,54.688,0
119885.121,41.016,36.133,28.320,36.133,7.812,0
119885.125,13.184,36.621,25.879,25.391,8.301,0
119885.129,18.066,37.109,27.832,30.273,14.648,0
119885.133,43.457,35.156,30.762,39.551,38.086,0
119885.137,48.340,34.668,33.691,38.086,68.848,0
119885.141,22.949,30.273,36.133,28.809,-7.324,0
119885.144,11.230,29.785,37.598,25.879,-44.434,0
119885.148,39.062,31.250,32.715,32.227,4.395,0
119885.152,53.223,27.832,29.297,33.691,33.203,0
119885.156,36.621,30.762,30.762,33.691,39.551,0
119885.160,27.832,33.691,29.297,35.156,5.859,0
119885.164,44.434,36.133,25.879,32.715,-7.812,0
119885.165,62.500,35.156,29.297,36.133,27.344,0
119885.169,48.828,35.645,32.715,36.621,48.340,0
119885.173,24.414,35.645,30.762,30.762,43.457,0
119885.177,36.621,29.785,28.809,33.691,44.434,0
119885.180,62.500,30.762,31.250,44.434,58.594,0
119885.184,54.199,32.715,28.809,47.852,19.043,0
119885.188,27.344,32.227,23.926,41.504,-30.273,0
119885.192,25.391,32.715,24.902,40.039,-36.621,0
119885.196,53.711,34.180,22.949,51.270,9.766,0
119885.200,60.547,34.668,19.531,53.711,100.098,0
119885.204,37.109,34.668,28.320,44.922,65.918,0
119885.208,28.809,29.785,38.086,43.945,1.465,0
119885.210,54.688,29.785,32.715,51.758,50.781,0
119885.214,68.359,32.227,26.855,53.223,101.562,0
119885.217,41.016,28.320,26.367,44.434,51.758,0
119885.221,17.578,27.832,22.949,35.156,8.301,0
119885.225,37.109,30.762,18.555,39.062,45.410,0
119885.229,63.477,34.180,21.973,49.316,90.332,0
119885.233,52.246,35.156,25.391,48.340,67.871,0
119885.237,28.809,36.621,27.832,40.039,-12.207,0
119885.241,39.551,34.180,32.715,41.016,21.973,0
119885.245,67.383,31.738,33.691,48.828,87.402,0
119885.249,64.453,38.574,32.227,47.363,65.430,0
119885.253,33.203,38.086,27.344,38.574,23.926,0
119885.270,25.391,30.762,27.832,37.109,6.836,0
119885.274,54.688,31.738,34.668,44.922,38.574,0
119885.278,60.547,36.133,30.273,40.039,54.688,0
119885.282,31.250,35.156,24.414,26.855,32.715,0
119885.285,12.207,28.809,21.484,21.973,-1.465,0
119885.289,29.297,24.414,23.438,28.809,-8.301,0
119885.293,47.852,26.367,26.367,33.691,13.184,0
119885.297,27.832,27.832,27.832,27.832,13.672,0
119885.301,7.812,26.855,27.344,25.879,-10.742,0
119885.305,28.809,26.367,27.832,35.645,31.250,0
119885.309,52.734,25.879,32.227,44.434,73.242,0
119885.313,41.992,29.785,34.180,41.504,40.527,0
119885.301,16.113,34.180,37.598,38.086,19.043,0
119885.305,25.391,31.250,33.691,43.457,34.668,0
119885.309,52.734,26.367,25.879,47.852,95.703,0
119885.313,44.434,25.879,25.879,42.969,93.262,0
119885.317,17.578,30.762,27.832,39.551,33.203,0
119885.321,11.719,30.273,26.855,39.062,-3.418,0
119885.325,35.645,30.762,25.879,43.457,20.020,0
119885.328,43.457,31.250,27.832,43.457,59.082,0
119885.332,17.578,27.344,30.762,33.203,3.418,0
119885.336,5.371,28.320,26.855,28.809,-24.414,0
119885.340,28.809,31.738,24.902,30.762,-13.184,0
119885.344,49.316,29.297,24.902,35.156,27.344,0
119885.361,30.762,28.809,27.344,33.691,48.828,0
119885.365,10.254,31.250,29.785,30.273,10.742,0
119885.369,28.320,32.715,28.809,39.551,35.645,0
119885.373,54.688,38.086,31.250,49.805,63.477,0
119885.377,42.480,36.621,33.203,44.922,39.062,0
119885.381,11.719,31.250,27.832,30.762,-21.484,0
119885.384,15.625,30.273,24.414,30.273,-17.090,0
119885.388,45.898,30.762,26.855,42.480,65.918,0
119885.392,41.992,30.273,25.391,37.109,86.426,0
119885.396,12.207,26.855,26.855,27.832,44.434,0
119885.400,11.719,30.762,31.250,33.203,31.738,0
119885.404,39.062,34.668,31.738,40.039,59.570,0
119885.405,47.363,31.250,29.297,42.480,58.105,0
119885.409,26.367,31.250,31.738,39.551,32.227,0
119885.413,5.371,28.320,29.785,29.785,20.508,0
119885.417,22.461,24.902,19.043,37.598,51.758,0
119885.420,44.922,26.855,20.020,47.852,84.473,0
119885.424,27.832,29.785,26.367,37.598,77.637,0
119885.428,8.301,28.809,29.297,31.250,23.926,0
119885.432,19.043,24.902,29.785,34.180,-0.977,0
119885.436,40.527,26.367,33.203,41.504,42.969,0
119885.440,38.086,29.785,35.645,42.969,14.160,0
119885.444,12.695,30.273,35.156,38.574,-29.297,0
119885.448,12.207,27.832,33.691,41.504,12.207,0
119885.450,39.062,32.227,31.738,48.828,57.617,0
119885.454,41.504,35.645,27.344,46.875,65.918,0
119885.458,19.531,32.227,26.367,35.645,28.809,0
119885.461,14.160,29.785,31.250,33.203,15.625,0
119885.465,36.133,27.832,34.180,39.062,80.566,0
119885.469,46.875,28.320,31.250,41.016,118.652,0
119885.473,25.391,28.320,28.320,34.668,74.707,0
119885.477,8.301,25.879,27.344,28.320,40.039,0
119885.481,26.855,26.367,22.949,32.227,26.367,0
119885.485,48.340,24.414,19.531,39.062,23.926,0
119885.489,34.180,27.344,18.555,36.621,55.664,0
119885.493,13.672,33.203,21.484,33.691,52.734,0
119885.495,19.043,29.297,27.344,35.645,64.453,0
119885.499,41.016,25.879,31.738,39.062,111.328,0
119885.503,39.551,26.855,32.715,38.086,92.773,0
119885.506,13.184,29.785,32.227,32.715,15.137,0
119885.510,13.672,35.156,32.227,35.645,-26.855,0
119885.514,41.992,35.645,28.809,42.480,29.297,0
119885.518,46.875,30.273,27.832,40.039,73.730,0
119885.522,20.996,31.738,31.738,37.109,29.297,0
119885.526,5.859,34.180,31.250,34.180,4.395,0
119885.530,31.738,30.273,26.367,41.016,85.938,0
119885.534,50.293,28.809,22.949,48.340,110.352,0
119885.538,30.273,35.156,23.926,41.016,37.598,0
119885.540,12.207,37.109,30.762,36.133,6.836,0
119885.544,26.855,30.762,35.156,41.992,41.992,0
119885.548,47.363,27.344,33.691,48.828,72.754,0
119885.551,35.156,28.320,32.227,41.992,52.734,0
119885.555,9.766,29.785,36.133,34.180,-18.555,0
119885.559,21.973,33.691,38.574,42.480,-50.781,0
119885.563,49.316,35.645,30.762,48.340,-7.324,0
119885.567,38.086,34.180,25.879,39.062,-14.648,0
119885.571,9.766,34.668,24.902,29.297,-17.090,0
119885.575,11.719,36.621,25.391,33.691,29.297,0
119885.579,38.574,31.250,27.832,45.410,65.430,0
119885.583,43.945,27.832,28.320,46.387,80.078,0
119885.586,22.949,33.203,34.180,39.551,21.973,0
119885.590,9.766,36.621,34.180,33.203,-42.969,0
119885.594,30.273,35.156,20.508,33.691,-16.113,0
119885.598,47.852,35.156,19.043,36.621,16.602,0
119885.602,32.227,36.621,28.809,36.133,0.977,0
119885.606,11.719,37.598,31.250,33.203,-48.340,0
119885.609,23.438,35.645,29.297,37.109,-55.176,0
119885.613,41.016,30.273,29.785,40.527,6.836,0
119885.617,28.809,25.879,28.320,34.668,75.195,0
119885.621,5.371,27.344,24.902,29.785,37.598,0
119885.625,13.184,34.180,31.738,35.156,-1.465,0
119885.629,41.992,34.668,31.250,41.504,29.785,0
119885.630,43.457,34.668,23.926,38.574,21.484,0
119885.634,15.137,33.691,22.949,29.297,-12.207,0
119885.638,3.906,28.320,26.855,26.367,-14.160,0
119885.641,34.668,26.855,29.297,39.062,10.742,0
119885.645,62.012,33.691,25.391,52.734,18.555,0
119885.649,42.969,45.410,26.855,43.457,-6.836,0
119885.653,14.160,47.363,26.855,22.461,-39.062,0
119885.657,28.809,42.969,31.738,24.902,14.160,0
119885.661,43.945,38.086,33.691,31.250,79.102,0
119885.665,26.855,31.738,23.926,25.879,67.383,0
119885.669,9.766,32.227,22.461,22.949,29.297,0
119885.673,25.879,35.645,28.809,30.762,54.199,0
119885.675,52.246,36.621,28.809,40.527,103.027,0
119885.679,44.922,36.133,27.344,39.551,52.734,0
119885.683,17.578,39.062,27.832,34.668,-27.832,0
119885.686,14.648,36.133,28.320,35.645,-15.137,0
119885.690,39.551,29.297,25.879,42.480,62.500,0
119885.694,47.852,30.273,26.855,46.875,59.570,0
119885.698,23.926,30.273,32.227,43.457,1.465,0
119885.702,12.207,28.809,32.227,39.062,1.465,0
119885.706,39.551,31.738,27.344,43.945,44.922,0
119885.710,57.129,33.691,26.855,46.875,45.898,0
119885.714,32.715,32.715,28.320,39.551,20.508,0
119885.718,13.184,35.156,31.250,34.668,2.441,0
119885.735,36.133,37.598,32.227,43.457,18.066,0
119885.739,57.617,37.598,28.320,50.781,70.801,0
119885.743,39.551,35.156,27.832,39.551,67.871,0
119885.746,13.672,32.715,29.785,32.715,39.062,0
119885.750,20.508,33.203,28.320,37.598,55.176,0
119885.754,43.457,31.250,19.043,41.016,69.824,0
119885.758,41.016,33.691,24.414,39.062,80.566,0
119885.762,17.578,36.621,34.180,30.762,51.270,0
119885.766,19.531,36.133,34.180,33.691,-16.113,0
119885.770,46.387,32.715,31.250,40.527,30.273,0
119885.774,50.781,30.762,26.855,38.086,49.805,0
119885.778,22.461,30.273,20.996,29.785,8.789,0
119885.781,8.301,30.273,16.113,27.832,16.602,0
119885.785,35.156,31.738,20.508,39.551,12.695,0
119885.789,58.105,36.133,23.926,49.316,96.191,0
119885.793,39.062,46.875,27.832,41.992,78.125,0
119885.797,12.695,44.434,28.809,33.691,1.465,0
119885.801,28.320,32.715,25.391,37.598,45.410,0
119885.804,47.852,29.785,25.879,38.574,83.496,0
119885.808,36.133,31.738,26.855,38.086,81.055,0
119885.812,12.695,36.133,33.203,37.109,14.648,0
119885.816,17.090,37.109,34.180,33.203,-19.043,0
119885.820,41.504,34.668,25.879,35.645,47.852,0
119885.824,41.504,35.156,27.832,36.621,64.941,0
119885.826,18.555,36.621,32.715,34.180,27.832,0
119885.830,9.277,31.250,24.902,31.250,-12.695,0
119885.834,29.297,29.785,20.508,38.086,8.789,0
119885.838,40.527,32.715,26.855,42.480,25.879,0
119885.842,20.508,32.227,30.762,37.598,6.836,0
119885.846,9.277,30.762,31.738,35.156,0.488,0
119885.849,33.203,31.250,32.715,38.086,17.090,0
119885.853,53.223,34.180,35.645,43.457,39.551,0
119885.857,38.574,41.504,37.109,37.109,6.348,0
119885.861,15.625,41.016,32.715,25.391,-65.430,0
119885.865,28.320,37.598,27.832,30.762,-28.809,0
119885.869,56.152,37.598,21.484,39.062,50.781,0
119885.870,52.734,36.621,23.438,38.574,46.875,0
119885.874,23.438,40.039,32.227,31.250,-13.672,0
119885.878,18.066,37.598,37.109,29.785,-21.484,0
119885.881,42.969,34.180,36.621,40.527,38.086,0
119885.885,43.945,35.156,34.668,40.527,19.043,0
119885.889,19.531,36.621,28.809,33.203,-28.320,0
119885.893,10.254,35.645,22.949,31.250,-45.898,0
119885.897,35.156,33.691,23.438,36.133,5.859,0
119885.901,50.293,33.203,23.926,40.039,23.926,0
119885.905,25.879,30.273,25.879,31.250,-6.348,0
119885.909,7.324,30.273,28.320,29.297,-13.184,0
119885.913,31.738,33.691,27.832,39.551,4.883,0
119885.915,55.664,36.621,32.227,44.434,54.688,0
119885.919,34.180,37.109,38.086,35.156,54.688,0
119885.923,8.789,32.715,33.691,28.320,42.480,0
119885.926,25.879,29.297,26.855,34.668,52.734,0
119885.930,51.758,30.273,24.414,37.109,61.035,0
119885.934,43.945,29.785,25.879,31.738,55.176,0
119885.938,22.949,27.832,30.273,32.715,9.277,0
119885.942,29.297,29.785,33.203,44.922,-36.621,0
119885.946,48.828,34.180,28.809,43.945,26.367,0
119885.950,54.199,40.527,15.625,35.156,78.125,0
119885.954,36.133,41.504,10.254,33.691,19.531,0
119885.958,16.602,37.109,18.555,32.715,8.301,0
119885.960,35.156,29.297,18.555,37.109,53.223,0
119885.964,53.223,29.297,16.602,42.969,73.730,0
119885.968,36.133,35.156,19.531,38.086,36.621,0
119885.972,18.066,34.668,20.020,34.180,6.348,0
119885.975,38.086,34.668,18.555,41.992,36.621,0
119885.979,62.988,32.715,21.973,49.316,81.055,0
119885.983,47.852,30.273,21.973,44.922,61.035,0
119885.987,21.484,31.250,21.484,36.133,-13.184,0
119885.991,36.133,31.250,24.414,41.016,3.906,0
119885.995,59.082,32.227,23.438,50.781,46.387,0
119885.999,51.758,30.762,21.973,46.387,43.945,0
119886.003,27.832,26.855,25.391,37.598,28.809,0
119886.005,27.832,32.227,38.574,42.480,32.715,0
119886.009,55.176,35.645,40.039,49.316,50.781,0
119886.013,56.641,30.273,26.855,43.457,34.668,0
119886.017,25.391,29.297,20.996,31.738,-24.902,0
119886.021,14.648,33.203,21.484,30.273,-41.992,0
119886.025,42.969,38.574,20.020,41.992,3.418,0
119886.029,57.129,37.598,22.461,43.457,-7.812,0
119886.033,32.715,36.621,23.438,35.645,0.000,0
119886.037,15.137,38.086,20.508,33.691,-3.906,0
119886.040,33.691,33.691,24.902,42.480,-15.137,0
119886.044,56.641,30.273,29.297,47.852,24.902,0
119886.048,44.922,31.738,24.902,41.016,40.039,0
119886.051,15.137,31.250,22.461,32.715,8.789,0
119886.055,19.531,30.762,22.461,35.156,-8.301,0
119886.059,47.363,32.227,22.461,41.992,49.805,0
119886.063,43.945,29.297,26.367,37.598,75.684,0
119886.067,14.648,32.227,30.762,29.297,20.508,0
119886.070,14.160,36.621,23.926,34.668,-10.742,0
119886.074,40.039,31.250,17.578,39.551,43.945,0
119886.078,47.852,29.297,23.926,37.598,79.102,0
119886.082,26.855,32.715,28.320,37.598,28.320,0
119886.086,11.719,30.762,28.320,38.086,30.762,0
119886.090,32.715,27.344,26.367,42.480,39.062,0
119886.094,53.223,30.762,25.879,49.805,52.734,0
119886.110,38.086,33.691,30.762,45.410,63.477,0
119886.114,15.625,35.645,32.227,35.156,32.715,0
119886.118,31.738,39.062,30.762,43.457,49.316,0
119886.122,54.199,37.598,13.184,50.781,109.863,0
119886.125,39.551,36.621,-6.836,40.039,76.660,0
119886.129,12.207,34.180,10.742,28.809,-20.508,0
119886.133,18.066,31.738,19.043,35.645,-22.949,0
119886.137,46.875,34.180,21.484,46.387,40.039,0
119886.141,43.457,34.180,23.926,43.457,78.125,0
119886.145,17.090,30.273,9.766,35.156,22.461,0
119886.149,13.184,27.344,28.320,34.180,-3.906,0
119886.153,33.203,27.832,53.223,39.551,50.781,0
119886.155,44.434,29.297,55.176,40.527,74.707,0
119886.159,25.879,27.832,49.316,36.133,31.738,0
119886.163,8.789,31.738,41.016,31.738,4.883,0
119886.166,25.391,34.668,32.715,33.691,80.078,0
119886.170,38.574,31.250,29.297,36.621,92.285,0
119886.174,21.484,30.273,23.438,29.785,19.043,0
119886.178,2.930,31.738,24.414,24.414,-1.953,0
119886.182,19.531,28.809,34.668,35.645,24.414,0
119886.186,47.852,27.344,35.156,46.875,46.387,0
119886.190,41.016,28.320,27.344,38.574,26.367,0
119886.194,13.672,30.762,27.344,28.320,-2.441,0
119886.198,18.066,37.109,26.855,33.691,31.250,0
119886.200,45.410,41.992,17.578,41.992,78.613,0
119886.204,49.316,40.039,15.137,39.062,71.289,0
119886.208,24.414,33.691,20.508,29.785,27.344,0
119886.211,12.695,26.855,24.414,32.227,-14.160,0
119886.215,40.039,28.320,24.902,48.340,39.551,0
119886.219,55.176,31.738,28.320,52.734,77.637,0
119886.223,32.227,33.203,36.133,43.945,25.879,0
119886.227,19.043,36.133,41.016,41.016,-4.395,0
119886.231,38.574,39.551,35.156,46.387,11.230,0
119886.235,55.664,35.645,31.738,45.898,57.617,0
119886.239,39.551,30.273,34.180,39.551,47.852,0
119886.243,14.648,30.762,26.367,33.691,-8.301,0
119886.245,23.926,29.297,26.855,36.133,-19.531,0
119886.249,47.363,29.785,33.203,44.434,42.969,0
119886.252,42.969,33.203,38.086,44.434,60.059,0
119886.256,16.602,39.062,30.273,33.691,-11.230,0
119886.260,14.648,39.062,9.277,27.832,-4.883,0
119886.264,40.039,30.273,15.625,35.645,39.551,0
119886.268,41.504,25.879,33.691,37.598,49.805,0
119886.272,19.043,25.391,36.133,31.738,11.719,0
119886.276,13.672,29.785,34.180,29.297,-17.578,0
119886.280,39.062,37.109,32.227,38.086,60.547,0
119886.284,53.223,40.527,32.715,41.504,97.656,0
119886.288,32.227,40.039,33.203,33.203,59.082,0
119886.291,9.766,37.109,19.043,24.902,37.598,0
119886.295,25.879,36.621,9.277,30.273,49.316,0
119886.299,50.781,35.156,16.113,39.551,83.984,0
119886.303,38.086,33.691,17.090,36.133,45.898,0
119886.307,11.719,34.180,25.879,27.344,-11.230,0
119886.311,19.531,32.715,30.273,33.203,29.297,0
119886.315,43.457,30.273,23.926,41.992,105.469,0
119886.319,40.527,33.691,39.551,36.621,84.961,0
119886.322,18.555,37.598,46.387,28.320,-12.207,0
119886.326,15.137,36.621,37.109,28.320,-35.156,0
119886.330,40.039,34.668,32.227,38.574,-2.441,0
119886.334,50.781,36.133,31.250,44.434,15.625,0
119886.335,26.855,36.133,30.762,37.598,2.930,0
119886.339,11.230,30.273,27.344,34.180,-6.348,0
119886.343,35.156,29.785,22.461,40.527,9.766,0
119886.347,55.176,35.645,22.461,43.457,37.109,0
119886.350,37.598,38.086,27.832,37.598,5.371,0
119886.354,15.137,36.621,31.738,34.668,-50.781,0
119886.358,32.227,35.645,28.320,42.969,-41.504,0
119886.362,59.570,39.551,24.414,47.363,-1.953,0
119886.366,47.852,38.574,15.625,39.062,36.133,0
119886.370,19.043,36.621,8.301,34.180,14.160,0
119886.374,22.949,38.086,16.113,39.062,-18.555,0
119886.378,52.246,35.156,20.508,46.875,35.645,0
119886.380,53.223,37.598,22.461,45.898,90.332,0
