timestamps,TP9,AF7,AF8,TP10,Right AUX,Marker0
120525.802,15.137,39.062,34.180,23.438,30.273,0
120525.806,35.645,43.457,17.578,34.180,9.277,0
120525.810,54.688,36.133,29.785,34.668,50.781,0
120525.814,38.086,32.227,54.199,17.578,29.297,0
120525.818,16.113,34.668,52.734,15.625,-25.391,0
120525.822,23.438,31.250,38.574,23.926,-13.672,0
120525.826,62.012,41.016,29.297,41.016,29.785,0
120525.830,74.707,31.250,30.762,49.316,70.801,0
120525.834,22.461,18.555,27.344,26.855,69.336,0
120525.838,-2.441,44.922,34.180,17.090,25.391,0
120525.842,33.691,48.828,41.504,30.273,24.414,0
120525.845,47.363,40.527,37.598,36.621,74.707,0
120525.847,19.531,41.504,41.504,26.855,14.160,0
120525.851,7.812,43.945,43.457,23.438,-41.016,0
120525.855,36.133,41.016,43.457,35.156,35.645,0
120525.859,59.082,31.738,50.781,46.875,55.176,0
120525.863,33.203,23.438,37.598,26.367,6.348,0
120525.867,3.418,24.414,36.133,7.812,-34.668,0
120525.871,10.254,32.715,40.527,13.672,0.000,0
120525.875,25.879,33.203,33.203,20.996,65.918,0
120525.879,27.832,42.480,43.457,27.344,48.828,0
120525.882,8.789,48.828,50.293,25.879,-14.648,0
120525.886,13.184,37.109,45.410,29.785,-12.207,0
120525.890,43.945,41.504,27.344,44.434,60.059,0
120525.892,38.574,43.457,9.277,42.480,76.172,0
120525.896,18.066,31.738,23.926,37.109,9.766,0
120525.900,17.090,30.273,44.922,33.691,1.465,0
120525.904,40.527,30.762,45.410,39.551,84.961,0
120525.908,50.781,28.320,36.133,43.457,94.238,0
120525.912,23.926,36.133,20.996,28.809,50.781,0
120525.916,14.160,41.504,20.020,30.762,30.273,0
120525.920,32.715,32.715,44.434,34.180,49.316,0
120525.924,42.480,22.461,62.988,25.391,59.082,0
120525.928,32.227,31.250,58.594,22.949,25.879,0
120525.931,16.602,44.434,49.805,27.832,34.180,0
120525.935,24.902,38.086,42.969,33.203,31.250,0
120525.937,51.758,20.508,36.621,41.504,78.613,0
120525.941,51.758,19.043,29.785,40.527,86.426,0
120525.945,22.949,30.273,21.484,30.273,30.273,0
120525.949,19.043,34.180,17.090,33.203,54.688,0
120525.953,39.551,34.668,28.809,37.598,116.699,0
120525.957,40.039,34.668,50.781,34.668,91.309,0
120525.961,18.066,30.762,54.688,29.297,8.789,0
120525.965,11.230,28.320,49.316,24.414,-14.160,0
120525.969,31.738,23.926,20.508,23.438,18.555,0
120525.972,48.340,26.367,2.441,29.297,70.312,0
120525.976,33.691,29.785,20.996,25.879,53.223,0
120525.980,26.855,28.809,39.551,25.391,-3.906,0
120525.983,41.016,26.367,53.711,33.691,15.625,0
120525.986,45.410,25.391,48.828,30.273,103.027,0
120525.990,24.902,24.414,32.715,19.531,104.492,0
120525.994,7.324,24.414,37.598,20.996,27.832,0
120525.998,27.344,27.344,46.875,29.297,29.297,0
120526.002,55.176,24.902,41.504,36.621,79.590,0
120526.006,48.828,24.414,39.551,35.645,113.770,0
120526.010,17.090,27.832,42.969,17.578,48.828,0
120526.014,11.230,10.254,36.133,11.719,69.824,0
120526.018,41.504,17.090,20.508,23.438,145.996,0
120526.022,55.176,41.992,8.301,27.832,112.305,0
120526.026,28.320,41.992,9.277,18.555,47.852,0
120526.027,10.254,32.227,29.785,15.625,38.086,0
120526.031,36.133,29.785,43.457,27.832,99.121,0
120526.035,55.664,34.668,42.480,33.203,111.816,0
120526.039,51.270,39.551,44.434,44.434,81.543,0
120526.043,29.297,37.109,41.992,37.109,57.129,0
120526.047,23.926,33.203,39.062,21.973,84.473,0
120526.051,40.039,32.715,33.203,24.902,79.590,0
120526.055,34.180,33.691,27.344,19.531,42.969,0
120526.059,9.277,33.203,36.621,16.113,61.523,0
120526.063,14.648,31.738,41.504,24.902,81.543,0
120526.066,47.363,36.133,35.645,35.645,104.980,0
120526.070,47.852,34.180,26.855,36.133,90.820,0
120526.074,16.602,25.879,26.367,23.926,34.180,0
120526.078,12.207,31.250,23.926,24.902,1.465,0
120526.082,46.875,42.480,17.578,40.527,51.758,0
120526.086,62.500,41.992,14.160,39.062,116.211,0
120526.089,28.809,36.621,28.320,20.996,60.059,0
120526.093,6.348,34.668,39.551,18.066,3.418,0
120526.097,37.598,36.621,33.691,29.297,47.852,0
120526.101,65.430,43.457,34.180,37.598,50.293,0
120526.105,48.828,43.945,35.645,34.180,29.297,0
120526.109,25.391,27.344,28.320,25.391,18.066,0
120526.113,34.180,30.762,26.367,27.832,36.621,0
120526.117,52.246,40.527,45.898,31.738,66.406,0
120526.118,44.434,33.691,54.688,29.297,52.246,0
120526.122,18.555,35.156,40.527,30.762,-4.395,0
120526.126,21.973,42.480,25.879,36.621,-2.441,0
120526.130,49.805,41.016,24.414,43.945,76.660,0
120526.134,47.852,32.715,22.949,41.016,88.379,0
120526.138,24.902,40.527,36.621,33.203,24.414,0
120526.141,25.391,48.828,39.551,33.203,-25.879,0
120526.145,47.363,36.621,21.973,38.086,34.668,0
120526.149,50.781,20.508,23.926,36.621,94.238,0
120526.153,38.086,26.367,39.551,33.691,37.598,0
120526.157,21.484,34.180,44.434,31.250,-21.484,0
120526.161,23.438,28.320,35.645,30.273,-6.836,0
120526.177,48.828,38.574,16.602,44.922,65.430,0
120526.181,46.387,40.039,18.066,51.270,53.223,0
120526.185,19.043,29.785,25.391,38.574,-22.461,0
120526.189,14.160,20.508,21.973,24.414,2.441,0
120526.193,30.273,14.648,39.062,21.973,83.496,0
120526.197,31.738,20.020,49.316,21.973,57.129,0
120526.201,17.578,28.320,43.457,20.996,-38.086,0
120526.205,22.461,30.762,31.738,27.344,-9.277,0
120526.209,57.129,34.180,29.297,43.457,82.520,0
120526.213,71.289,39.062,27.344,48.828,75.684,0
120526.216,46.387,39.551,21.973,41.016,19.531,0
120526.220,24.902,33.203,23.438,29.785,20.996,0
120526.222,40.527,28.320,26.367,29.785,52.734,0
120526.226,60.059,32.715,36.133,37.598,79.102,0
120526.230,40.527,36.133,41.992,31.250,81.055,0
120526.234,20.996,39.062,36.133,24.902,67.383,0
120526.238,44.434,28.809,30.273,41.016,59.082,0
120526.242,69.824,31.738,28.320,59.082,71.777,0
120526.246,42.969,46.387,-1.465,42.480,46.387,0
120526.250,5.371,39.551,-4.395,22.461,29.297,0
120526.254,16.602,35.645,30.762,24.414,55.664,0
120526.258,45.410,30.273,48.340,30.762,54.199,0
120526.261,41.504,28.320,56.152,28.320,67.383,0
120526.265,17.578,31.738,47.852,25.879,59.082,0
120526.267,26.367,35.156,23.926,36.133,32.227,0
120526.271,52.734,35.645,13.672,42.480,92.285,0
120526.275,50.293,27.832,30.762,34.180,95.215,0
120526.279,21.973,26.367,47.363,23.438,31.738,0
120526.283,7.812,41.504,42.480,20.508,-6.836,0
120526.287,31.738,44.434,35.645,25.879,14.160,0
120526.291,45.410,38.086,32.715,27.344,54.688,0
120526.295,22.949,33.691,27.344,20.996,17.578,0
120526.299,3.418,33.203,6.836,16.602,-18.066,0
120526.302,21.973,33.691,4.395,22.949,6.348,0
120526.306,49.316,34.668,28.809,32.227,61.523,0
120526.310,39.551,35.156,38.574,32.227,68.359,0
120526.314,14.648,33.203,36.133,21.973,20.020,0
120526.318,21.973,28.320,33.691,21.484,23.438,0
120526.321,46.875,29.297,34.668,31.738,71.777,0
120526.325,42.480,37.598,33.691,29.785,58.105,0
120526.329,10.742,35.156,24.902,18.066,-2.930,0
120526.333,9.766,34.668,18.066,20.996,-14.160,0
120526.337,45.410,37.109,17.578,39.062,54.199,0
120526.341,46.387,30.762,25.391,36.133,62.500,0
120526.345,4.883,25.879,34.668,12.207,-7.324,0
120526.349,-7.812,27.832,41.016,12.207,16.602,0
120526.353,23.438,31.250,41.016,30.762,69.824,0
120526.357,35.156,30.762,38.086,30.762,67.871,0
120526.357,14.160,32.715,37.109,17.090,55.664,0
120526.361,-4.395,35.156,29.297,10.742,46.875,0
120526.365,18.555,38.086,22.949,18.066,72.266,0
120526.369,44.922,38.086,33.203,27.832,95.703,0
120526.373,33.203,37.109,34.668,25.879,63.477,0
120526.377,11.719,39.062,24.902,15.625,11.719,0
120526.381,10.254,40.527,20.020,15.625,-3.906,0
120526.385,37.109,28.809,40.527,23.926,41.504,0
120526.389,41.016,21.973,46.387,22.949,38.086,0
120526.393,8.789,41.504,24.414,13.184,33.691,0
120526.397,1.465,50.781,7.324,19.043,51.270,0
120526.400,28.320,47.852,11.719,27.832,46.387,0
120526.402,39.551,43.457,38.574,22.461,54.199,0
120526.406,14.160,38.574,44.434,11.719,72.754,0
120526.410,-6.836,38.086,40.039,9.277,60.547,0
120526.414,16.113,35.645,34.180,20.996,88.379,0
120526.418,42.969,32.715,16.602,27.832,143.555,0
120526.422,30.273,41.504,19.531,22.461,92.773,0
120526.426,0.977,43.457,41.504,10.742,8.301,0
120526.430,11.719,41.504,59.082,13.184,-6.836,0
120526.434,33.691,42.969,49.805,22.949,84.473,0
120526.438,23.926,39.551,30.273,15.625,97.656,0
120526.441,0.488,35.645,38.574,9.277,40.527,0
120526.445,1.465,35.645,43.457,15.625,57.617,0
120526.447,27.344,35.645,38.086,22.461,88.379,0
120526.451,33.691,35.645,29.297,24.414,82.520,0
120526.455,9.766,40.039,23.438,19.043,46.875,0
120526.459,3.418,41.016,30.762,18.066,34.668,0
120526.463,39.062,40.039,22.949,34.668,82.031,0
120526.467,49.805,40.527,28.809,37.598,101.562,0
120526.471,26.855,45.410,47.852,25.879,46.387,0
120526.475,15.625,45.898,45.898,24.902,2.441,0
120526.479,30.273,42.969,37.598,26.855,85.938,0
120526.483,51.270,41.992,27.344,29.297,148.926,0
120526.486,42.969,34.180,16.602,26.855,70.801,0
120526.490,10.742,33.203,22.461,18.066,-0.488,0
120526.492,14.160,41.016,46.387,22.461,40.039,0
120526.496,47.852,45.410,37.598,38.574,103.027,0
120526.500,41.016,48.340,20.508,24.414,76.660,0
120526.504,5.859,49.805,26.367,-1.465,2.930,0
120526.508,0.977,51.270,27.344,2.441,3.906,0
120526.512,28.320,50.293,26.855,16.113,58.105,0
120526.516,37.109,44.922,32.715,16.113,71.289,0
120526.520,9.766,39.551,27.832,3.418,47.852,0
120526.524,-2.930,37.598,20.508,3.418,39.062,0
120526.527,26.367,36.133,20.020,21.973,74.707,0
120526.531,47.852,37.598,23.438,25.391,70.312,0
120526.535,26.855,40.039,28.320,13.672,38.574,0
120526.539,11.230,39.551,14.648,20.020,27.344,0
120526.543,31.738,42.480,6.836,28.809,60.547,0
120526.547,53.223,51.270,27.344,34.180,86.426,0
120526.551,39.062,49.805,28.320,32.715,33.691,0
120526.555,16.113,43.945,8.301,25.879,-33.691,0
120526.559,29.297,42.480,28.809,35.156,-10.742,0
120526.563,45.410,39.062,38.086,38.574,33.691,0
120526.567,27.832,35.156,16.113,19.043,45.898,0
120526.571,-0.977,34.180,28.809,4.883,33.203,0
120526.574,-7.324,32.715,45.410,6.348,-19.043,0
120526.578,23.438,35.156,40.527,18.555,2.441,0
120526.582,36.133,36.133,29.785,23.926,51.270,0
120526.597,16.602,32.227,28.320,18.066,8.301,0
120526.601,13.184,35.645,31.250,21.973,-34.668,0
120526.605,37.598,39.551,13.672,30.762,45.410,0
120526.609,54.688,41.504,3.418,34.180,62.500,0
120526.613,34.180,35.156,6.348,28.320,12.207,0
120526.617,9.766,31.738,19.043,15.137,-16.602,0
120526.621,28.320,43.945,43.457,23.438,10.742,0
120526.625,49.316,42.969,34.668,34.180,75.195,0
120526.629,41.016,44.434,29.297,33.691,77.637,0
120526.633,26.855,52.734,44.922,43.457,35.156,0
120526.636,11.719,32.227,42.969,30.762,13.184,0
120526.640,20.508,19.531,23.926,20.020,56.152,0
120526.642,30.762,27.832,14.648,19.531,84.473,0
120526.646,5.859,33.203,24.414,15.137,31.738,0
120526.650,-0.977,35.156,22.461,23.438,18.066,0
120526.654,29.785,34.668,20.508,35.645,70.312,0
120526.658,45.898,40.527,30.762,41.016,84.961,0
120526.662,28.320,48.340,15.625,37.109,31.250,0
120526.666,12.695,48.340,9.277,31.250,-1.953,0
120526.670,37.109,44.434,24.902,35.645,20.508,0
120526.674,55.176,42.969,33.203,32.227,13.184,0
120526.678,33.691,43.945,38.086,21.484,4.883,0
120526.681,9.766,37.109,38.574,16.113,50.293,0
120526.685,27.832,36.621,24.902,27.832,81.543,0
120526.687,58.594,51.270,-2.930,41.016,61.523,0
120526.691,48.828,58.105,0.488,30.762,57.129,0
120526.695,16.602,52.246,36.621,20.020,39.551,0
120526.699,13.184,40.527,41.504,20.996,23.926,0
120526.703,37.109,38.574,22.461,25.879,83.008,0
120526.707,37.598,41.504,26.367,27.344,81.055,0
120526.711,15.625,39.551,16.113,20.020,33.203,0
120526.715,12.695,39.551,16.113,19.531,20.020,0
120526.719,32.715,34.180,29.297,20.996,24.902,0
120526.722,45.898,34.180,24.414,17.578,43.945,0
120526.726,24.902,34.668,36.133,12.207,60.059,0
120526.730,9.277,36.133,39.062,13.672,26.367,0
120526.732,39.551,47.363,23.926,29.785,39.062,0
120526.736,62.012,51.270,18.555,38.086,103.516,0
120526.740,40.039,49.316,28.320,23.926,83.984,0
120526.744,16.602,46.875,39.062,13.672,62.500,0
120526.748,29.297,44.922,31.738,20.508,82.520,0
120526.752,55.664,45.898,19.531,30.762,118.164,0
120526.756,47.852,42.969,20.020,28.809,142.578,0
120526.760,16.602,42.480,20.020,17.578,83.496,0
120526.764,16.113,36.621,22.461,20.020,23.438,0
120526.767,49.316,29.785,33.691,37.109,55.664,0
120526.771,53.223,35.156,33.203,41.504,65.918,0
120526.775,24.902,39.551,32.227,34.180,9.277,0
120526.779,20.996,38.574,26.367,33.691,-38.086,0
120526.783,51.270,35.645,2.930,41.992,20.996,0
120526.786,59.082,33.691,-2.441,43.945,80.078,0
120526.790,25.879,32.227,29.785,28.320,44.434,0
120526.794,10.254,40.527,57.617,25.391,27.832,0
120526.798,35.156,45.410,45.898,38.086,65.430,0
120526.802,59.570,40.527,31.250,46.875,66.406,0
120526.806,47.852,41.504,41.504,40.527,57.617,0
120526.810,29.297,43.457,38.086,36.133,56.641,0
120526.814,35.156,42.480,30.273,37.109,41.992,0
120526.818,54.688,40.527,37.109,37.109,77.637,0
120526.822,50.293,32.715,11.719,31.250,86.426,0
120526.822,32.715,38.574,15.137,37.109,75.684,0
120526.826,26.367,37.598,50.781,39.551,67.383,0
120526.830,42.969,31.738,45.898,35.645,93.750,0
120526.834,48.828,20.508,40.039,32.227,117.676,0
120526.838,33.691,18.555,25.391,31.738,34.180,0
120526.842,25.879,40.039,15.625,36.133,14.160,0
120526.846,38.574,41.992,32.715,33.203,23.926,0
120526.850,53.223,45.898,44.922,34.180,59.082,0
120526.854,38.574,50.293,35.156,33.691,87.402,0
120526.857,26.367,47.363,29.785,34.668,24.414,0
120526.861,49.316,52.246,47.363,50.781,31.250,0
120526.865,62.500,51.270,49.805,49.805,97.656,0
120526.867,40.039,40.527,33.203,30.273,104.004,0
120526.871,15.137,37.598,25.879,26.855,13.184,0
120526.875,22.949,42.480,32.227,36.133,38.086,0
120526.879,53.223,46.387,29.297,42.480,116.699,0
120526.883,51.758,46.387,34.668,39.551,91.797,0
120526.887,23.926,44.922,41.016,31.738,33.203,0
120526.891,16.113,44.434,34.180,25.391,5.371,0
120526.895,43.457,39.551,39.551,34.668,40.527,0
120526.899,61.035,40.039,45.410,44.922,58.594,0
120526.902,33.203,43.945,29.785,37.109,22.949,0
120526.906,9.766,42.480,20.996,28.809,-4.883,0
120526.910,34.180,41.016,13.184,38.086,53.711,0
120526.927,51.270,34.180,19.043,36.621,96.680,0
120526.931,30.273,36.133,47.852,25.879,60.059,0
120526.935,7.812,44.434,45.898,21.973,41.992,0
120526.939,22.461,52.734,32.227,28.320,40.527,0
120526.943,48.828,37.598,44.434,36.621,42.480,0
120526.947,38.086,24.414,51.270,30.762,18.555,0
120526.951,7.812,48.340,41.504,22.461,-49.805,0
120526.955,12.695,49.805,35.156,27.832,4.883,0
120526.959,41.016,42.969,23.926,35.156,70.801,0
120526.962,44.434,54.688,6.836,33.203,66.895,0
120526.966,18.555,52.246,11.230,22.949,40.527,0
120526.970,9.766,40.527,35.156,19.531,28.320,0
120526.972,36.621,41.992,42.480,30.762,90.332,0
120526.976,46.875,45.410,26.855,32.715,102.539,0
120526.980,27.344,47.363,13.672,28.320,45.410,0
120526.984,15.625,56.152,-8.789,32.715,17.090,0
120526.988,46.387,57.129,-16.602,46.875,53.223,0
120526.992,84.961,59.082,46.387,59.570,64.453,0
120526.996,51.758,48.828,83.008,41.504,31.738,0
120527.000,-7.324,27.344,58.105,9.766,55.664,0
120527.004,2.930,29.297,42.969,8.301,83.496,0
120527.008,41.504,38.574,34.668,19.043,97.168,0
120527.011,44.434,42.969,27.344,21.973,96.680,0
120527.015,13.184,41.504,24.414,17.090,61.523,0
120527.017,8.789,42.480,10.254,21.484,13.184,0
120527.021,44.434,41.016,0.000,37.598,56.641,0
120527.025,52.246,36.621,23.926,35.645,124.512,0
120527.029,27.344,43.457,42.969,24.414,75.195,0
120527.033,16.602,52.246,34.668,23.926,-23.438,0
120527.037,32.715,50.781,24.902,25.879,-1.953,0
120527.041,46.387,38.086,19.531,26.367,104.980,0
120527.045,32.227,32.227,16.113,23.926,104.492,0
120527.049,19.531,50.293,8.789,23.926,3.418,0
120527.052,40.527,57.129,-5.859,35.645,22.949,0
120527.056,51.758,44.434,18.066,32.715,103.516,0
120527.060,29.297,34.668,50.781,17.578,63.965,0
120527.062,11.719,38.086,54.199,19.531,15.137,0
120527.066,25.879,39.062,43.945,26.855,68.359,0
120527.070,57.129,39.551,31.250,35.156,129.883,0
120527.074,50.781,44.922,21.484,31.738,102.051,0
120527.078,24.414,48.340,20.508,25.391,6.348,0
120527.082,24.414,47.363,20.508,28.320,12.207,0
120527.086,43.945,42.480,21.484,29.785,75.684,0
120527.090,44.922,36.621,33.203,22.949,98.633,0
120527.094,16.602,34.180,11.719,15.625,38.574,0
120527.098,7.812,35.645,-38.086,20.996,-1.953,0
120527.101,33.691,37.109,-4.395,29.785,33.203,0
120527.105,51.270,36.621,54.688,29.297,76.172,0
120527.107,40.039,37.598,64.941,21.484,89.844,0
120527.111,15.625,38.574,44.922,17.090,44.922,0
120527.115,27.832,43.945,29.297,26.855,37.598,0
120527.119,52.734,47.852,33.203,37.109,77.637,0
120527.123,36.133,45.410,21.973,28.809,85.938,0
120527.127,14.160,44.922,12.695,20.508,48.340,0
120527.131,29.297,43.945,19.531,28.320,41.016,0
120527.135,55.176,43.945,13.184,38.574,59.082,0
120527.139,44.922,43.457,10.254,30.273,89.355,0
120527.143,15.625,43.457,18.555,18.066,62.988,0
120527.147,10.254,38.086,20.996,18.066,42.480,0
120527.150,35.645,37.109,19.043,29.785,102.539,0
120527.152,48.340,40.527,14.648,33.203,89.355,0
120527.156,23.926,36.621,2.441,23.438,55.664,0
120527.160,6.836,34.668,6.348,22.949,35.645,0
120527.164,29.785,37.598,22.461,30.762,75.195,0
120527.168,57.617,40.039,25.879,36.621,115.723,0
120527.172,43.457,43.945,26.367,32.715,61.523,0
120527.176,13.672,42.969,20.996,22.461,14.160,0
120527.180,22.461,41.504,15.625,23.438,48.828,0
120527.184,48.340,41.016,11.719,31.738,81.055,0
120527.187,42.969,38.086,9.277,30.762,35.156,0
120527.191,17.090,36.621,16.602,24.902,-11.719,0
120527.195,25.391,37.109,16.113,33.203,25.879,0
120527.197,58.105,39.062,3.418,44.922,99.121,0
120527.201,52.246,46.387,15.137,39.062,83.984,0
120527.205,22.461,53.711,35.645,26.367,34.668,0
120527.209,9.766,52.246,46.875,22.461,0.000,0
120527.213,24.414,42.480,43.945,25.879,37.109,0
120527.217,41.992,43.457,36.621,32.227,68.359,0
120527.221,24.414,46.387,33.203,26.855,10.254,0
120527.225,5.859,37.109,25.879,17.578,-29.297,0
120527.229,31.250,32.715,8.789,29.297,40.527,0
120527.232,52.734,42.480,3.906,33.691,70.801,0
120527.236,35.645,48.828,20.996,24.414,34.180,0
120527.240,18.066,48.828,34.180,24.414,8.301,0
120527.244,31.738,46.875,33.691,36.621,25.879,0
120527.248,40.527,41.504,20.020,32.715,55.176,0
120527.251,34.180,47.852,19.043,27.832,51.758,0
120527.255,14.648,44.922,14.160,26.855,27.832,0
120527.259,23.438,37.109,7.812,27.344,26.367,0
120527.263,52.246,40.039,26.367,37.598,66.406,0
120527.267,39.062,37.109,29.785,26.855,42.969,0
120527.271,5.371,32.227,20.996,9.766,-4.883,0
120527.275,-0.977,39.062,24.414,14.648,6.836,0
120527.279,32.227,43.457,32.227,30.273,28.320,0
120527.283,46.875,35.645,22.461,31.250,40.527,0
120527.287,25.391,41.016,19.043,23.926,18.555,0
120527.302,8.301,47.363,35.156,19.531,8.301,0
120527.306,26.855,40.527,37.598,26.367,58.594,0
120527.310,46.875,37.598,32.227,33.691,85.938,0
120527.314,36.133,39.062,27.344,26.855,58.105,0
120527.318,13.184,39.551,7.812,14.648,34.180,0
120527.322,10.254,46.875,9.766,10.742,10.742,0
120527.326,34.180,46.387,28.320,15.625,32.227,0
120527.330,41.992,35.156,24.902,12.695,93.750,0
120527.334,13.184,37.109,20.508,8.789,73.730,0
120527.338,3.418,48.828,31.250,14.648,37.109,0
120527.341,34.180,48.828,36.621,22.461,97.168,0
120527.345,45.898,45.410,16.602,22.461,116.699,0
120527.347,20.508,42.480,9.277,10.742,33.691,0
120527.351,7.812,42.969,14.648,8.789,7.812,0
120527.355,40.039,48.828,7.812,24.902,81.055,0
120527.359,56.152,44.434,10.254,27.832,125.977,0
120527.363,26.367,33.691,25.879,10.742,60.547,0
120527.367,4.883,31.738,36.621,8.301,-15.625,0
120527.371,29.785,35.156,42.480,21.973,38.574,0
120527.375,62.012,37.109,34.668,30.273,138.184,0
120527.379,47.363,39.062,27.344,24.902,66.895,0
120527.382,10.742,40.527,25.879,14.648,-25.879,0
120527.386,16.602,36.621,22.949,20.996,32.227,0
120527.390,48.340,40.527,19.531,34.668,77.637,0
120527.392,45.898,41.992,15.137,31.250,71.777,0
120527.396,18.555,38.086,17.578,26.367,37.109,0
120527.400,10.742,38.574,17.578,23.926,-2.930,0
120527.404,34.668,47.363,11.230,32.715,66.406,0
120527.408,45.410,53.711,18.555,36.621,106.934,0
120527.412,16.602,37.598,14.160,18.066,52.246,0
120527.416,6.348,28.320,11.230,16.113,28.809,0
120527.420,28.320,33.691,37.109,26.855,83.496,0
120527.424,38.086,37.109,49.316,27.832,73.730,0
120527.427,23.438,38.086,43.945,24.414,44.922,0
120527.431,1.465,38.574,34.180,21.484,58.105,0
120527.435,14.160,40.039,29.297,28.320,47.363,0
120527.437,48.828,40.527,10.254,43.457,20.508,0
120527.441,45.410,42.969,-7.324,39.551,51.758,0
120527.445,15.137,38.574,13.184,23.926,60.547,0
120527.449,8.789,32.227,34.180,23.926,20.996,0
120527.453,33.691,35.645,38.086,31.738,48.340,0
120527.457,41.504,46.387,39.062,32.227,47.363,0
120527.461,14.160,41.992,31.250,23.926,46.875,0
120527.465,7.812,31.250,26.367,19.531,14.648,0
120527.469,34.668,41.504,27.832,24.902,22.949,0
120527.472,42.480,40.527,30.762,28.320,104.004,0
120527.476,22.949,39.551,23.926,28.320,75.195,0
120527.480,7.812,46.387,18.555,23.438,-16.602,0
120527.484,25.879,37.109,26.855,24.414,21.973,0
120527.488,51.270,30.762,26.855,38.086,114.258,0
120527.491,39.551,43.945,8.789,33.691,101.074,0
120527.495,15.625,47.852,16.602,24.414,42.480,0
120527.499,22.949,37.598,30.273,29.785,8.789,0
120527.503,50.293,41.016,21.973,42.969,49.316,0
120527.507,38.574,43.457,19.531,38.574,72.754,0
120527.511,0.977,35.645,25.391,21.484,10.742,0
120527.515,3.418,39.062,40.527,20.020,-13.184,0
120527.519,31.250,43.457,40.527,26.367,58.105,0
120527.523,35.156,41.992,23.926,26.855,62.012,0
120527.527,12.695,39.551,23.926,20.020,17.090,0
120527.527,5.859,34.668,26.367,19.043,27.344,0
120527.531,39.062,45.410,26.367,36.621,76.172,0
120527.535,53.711,50.781,38.086,39.551,82.031,0
120527.539,25.391,38.086,32.227,22.949,63.477,0
120527.543,8.301,30.273,15.625,18.066,53.223,0
120527.547,33.203,37.598,7.324,29.785,56.641,0
120527.551,60.059,48.340,10.742,42.969,75.195,0
120527.555,38.574,36.621,23.926,27.832,39.062,0
120527.559,9.277,33.691,33.203,14.160,6.348,0
120527.563,19.043,46.875,44.922,21.484,63.477,0
120527.566,52.246,41.992,47.852,31.738,107.422,0
120527.570,45.410,34.668,40.039,27.832,77.148,0
120527.572,7.812,35.645,36.621,20.996,45.898,0
120527.576,15.137,38.086,31.250,29.785,48.340,0
120527.580,48.340,41.016,17.578,41.992,84.473,0
120527.584,52.246,42.480,12.207,38.086,118.164,0
120527.588,28.809,42.480,20.020,30.762,114.746,0
120527.592,9.766,42.969,19.531,25.879,72.754,0
120527.596,26.855,43.457,5.859,24.414,55.664,0
120527.600,43.457,42.480,2.441,21.973,69.824,0
120527.604,26.855,32.715,7.812,20.508,47.363,0
120527.608,8.301,30.273,16.602,21.484,6.348,0
120527.611,23.926,47.852,34.180,29.297,16.113,0
120527.615,47.852,48.340,40.039,28.809,28.809,0
120527.617,28.809,37.598,32.715,14.160,14.160,0
120527.621,-0.977,41.504,24.414,11.230,-7.812,0
120527.625,14.160,47.363,16.602,21.484,-10.254,0
120527.629,44.434,43.945,10.254,28.809,33.203,0
120527.633,44.922,37.598,16.113,22.949,42.480,0
120527.637,25.391,38.574,9.277,16.602,-16.113,0
120527.641,20.020,40.527,-3.906,17.578,-72.754,0
120527.645,42.480,40.527,2.441,25.879,2.441,0
120527.649,46.875,41.504,30.762,23.926,71.289,0
120527.653,23.438,41.016,42.969,18.066,29.297,0
120527.656,12.695,41.016,30.273,20.020,15.625,0
120527.660,42.969,40.527,22.949,26.367,59.570,0
120527.677,56.152,35.645,25.879,26.855,105.469,0
120527.681,22.949,33.691,22.949,17.578,58.105,0
120527.685,0.000,20.996,15.137,11.719,9.277,0
120527.689,15.137,18.066,25.879,18.066,66.895,0
120527.693,41.504,36.621,26.855,24.902,116.699,0
120527.697,41.504,48.340,16.113,23.926,70.801,0
120527.701,16.602,51.270,18.555,16.113,20.996,0
120527.705,13.184,41.504,21.484,18.066,50.293,0
120527.709,43.945,36.621,18.555,33.203,109.863,0
120527.712,47.363,38.086,22.949,33.203,86.426,0
120527.716,15.625,32.227,14.648,20.020,49.316,0
120527.720,12.207,31.250,10.742,24.902,71.289,0
120527.722,49.316,39.551,33.203,40.039,97.656,0
120527.726,59.082,44.434,43.457,38.086,85.449,0
120527.730,29.297,41.992,40.527,20.508,31.250,0
120527.734,14.160,36.621,33.691,13.184,13.184,0
120527.738,27.344,38.574,25.879,25.391,48.828,0
120527.742,39.551,41.016,24.902,31.250,86.914,0
120527.746,26.855,39.551,28.320,22.949,62.988,0
120527.750,10.254,35.156,32.715,20.020,7.812,0
120527.754,23.926,32.715,30.762,26.855,-2.930,0
120527.757,47.852,34.180,24.902,32.715,47.852,0
120527.761,40.527,37.598,14.160,28.320,46.387,0
120527.765,14.160,42.480,9.277,22.461,19.531,0
120527.767,9.766,43.457,9.766,21.973,39.062,0
120527.771,33.203,38.086,9.277,27.832,75.684,0
120527.775,43.457,34.180,11.230,27.344,122.559,0
120527.779,15.137,32.715,29.785,13.184,72.266,0
120527.783,0.488,36.621,46.387,15.137,39.551,0
120527.787,30.273,44.434,38.574,28.809,86.914,0
120527.791,40.527,39.551,33.691,25.879,98.633,0
120527.795,12.695,34.180,21.973,15.137,102.051,0
120527.799,-8.301,40.039,20.996,11.719,63.965,0
120527.803,14.160,44.434,38.574,20.508,83.984,0
120527.806,45.898,42.480,37.598,28.320,133.301,0
120527.810,31.738,38.086,21.973,24.414,42.969,0
120527.812,1.953,39.062,15.625,18.066,-14.648,0
120527.816,13.184,41.504,9.277,21.484,55.664,0
120527.820,41.504,41.992,6.836,32.715,96.191,0
120527.824,41.504,41.016,25.879,30.273,46.875,0
120527.828,15.625,40.527,41.504,20.508,1.465,0
120527.832,7.812,39.062,39.062,21.973,34.180,0
120527.836,37.109,39.551,30.762,33.691,111.328,0
120527.840,45.410,39.062,22.949,34.668,144.531,0
120527.844,20.508,42.480,-3.418,23.926,81.055,0
120527.847,15.137,46.387,-12.207,28.320,70.312,0
120527.851,39.062,39.062,25.879,42.969,128.418,0
120527.855,44.922,32.715,52.734,41.016,147.461,0
120527.857,18.066,32.715,59.082,25.391,114.258,0
120527.861,0.000,30.762,54.199,22.461,58.594,0
120527.865,33.203,36.133,40.039,41.016,45.410,0
120527.869,51.758,41.504,27.344,42.480,65.430,0
120527.873,25.879,40.527,25.391,26.855,62.988,0
120527.877,7.812,40.527,3.418,23.438,21.484,0
120527.881,17.578,39.062,-3.906,30.273,23.438,0
120527.885,48.828,43.945,27.344,37.598,62.012,0
120527.889,47.363,38.574,45.410,27.344,96.191,0
120527.892,12.207,28.320,44.434,14.160,58.594,0
120527.896,7.812,32.227,44.434,17.090,29.297,0
120527.900,37.598,41.016,36.133,28.809,93.750,0
120527.902,48.828,42.969,21.973,30.273,145.996,0
120527.906,28.320,36.133,16.113,23.926,115.234,0
120527.910,11.719,35.156,13.672,24.414,69.824,0
120527.914,26.855,35.645,15.625,33.691,73.242,0
120527.918,43.945,37.109,12.207,38.086,75.684,0
120527.922,30.273,39.551,-4.395,30.762,47.852,0
120527.926,8.301,38.574,7.812,22.949,-6.348,0
120527.930,21.973,37.598,42.480,25.391,13.672,0
120527.934,51.270,41.016,39.062,33.691,90.332,0
120527.937,44.922,45.898,28.809,31.738,90.332,0
120527.941,16.602,39.551,31.738,23.438,7.812,0
120527.945,18.555,36.621,28.809,29.785,18.555,0
120527.949,53.223,41.016,20.996,42.969,121.582,0
120527.953,59.082,40.039,19.043,41.992,136.230,0
120527.956,22.461,37.109,23.438,29.785,68.359,0
120527.960,10.254,32.715,24.414,28.809,75.195,0
120527.964,40.527,27.344,21.484,39.062,119.141,0
120527.968,59.082,40.039,22.949,42.480,123.535,0
120527.972,37.109,50.293,19.531,32.715,50.293,0
120527.976,7.812,47.363,22.949,23.438,-6.836,0
120527.980,23.438,44.922,20.996,29.297,60.059,0
120527.984,47.852,41.992,17.578,31.250,101.074,0
120527.988,31.250,38.574,30.762,22.461,62.500,0
120527.992,10.742,41.016,21.484,23.438,11.230,0
120527.992,31.250,43.457,7.812,31.250,38.574,0
120527.996,56.641,38.574,31.250,35.156,71.777,0
120528.000,39.062,36.133,50.293,28.809,41.504,0
120528.004,8.301,41.016,49.805,17.578,-42.969,0
120528.008,17.090,46.875,35.156,28.320,-40.039,0
120528.012,46.875,45.410,10.742,42.969,49.316,0
120528.016,41.992,40.527,8.301,31.738,20.996,0
120528.020,14.160,42.969,14.648,19.531,4.395,0
120528.024,11.230,39.062,32.227,23.438,-4.395,0
120528.028,37.109,33.691,54.199,31.250,25.391,0
120528.031,55.664,41.016,49.805,37.598,46.875,0
120528.035,36.133,50.293,35.156,34.668,16.602,0
120528.052,12.695,43.945,28.809,26.367,39.551,0
120528.056,33.691,36.133,22.949,31.250,56.641,0
120528.060,59.082,41.016,19.043,36.133,94.727,0
120528.064,42.969,41.992,25.391,31.738,82.031,0
120528.068,20.020,41.504,29.297,27.344,20.508,0
120528.072,41.992,44.922,33.691,34.180,25.879,0
120528.076,69.824,46.387,41.016,43.457,85.938,0
120528.080,48.828,39.551,39.551,37.598,98.145,0
120528.084,13.672,35.156,18.555,26.855,66.406,0
120528.088,17.090,42.969,17.090,31.738,51.270,0
120528.092,50.293,49.316,25.391,43.945,98.633,0
120528.095,47.363,44.922,24.902,39.551,131.348,0
120528.097,14.648,42.480,36.133,27.344,95.703,0
120528.101,4.883,42.480,33.691,25.391,53.711,0
120528.105,30.762,41.016,20.996,36.621,97.168,0
120528.109,51.270,41.992,19.531,44.434,146.484,0
120528.113,36.621,47.852,15.625,39.062,95.703,0
120528.117,18.555,47.363,33.691,29.297,77.637,0
120528.121,38.086,42.969,52.246,33.203,96.680,0
120528.125,51.758,42.480,46.875,39.551,93.750,0
120528.129,33.691,44.434,42.480,33.203,61.035,0
120528.133,11.719,48.828,40.527,26.855,13.184,0
120528.136,22.461,49.316,27.832,35.156,56.641,0
120528.140,50.781,48.828,20.508,42.480,126.465,0
120528.143,43.457,50.293,24.902,38.086,128.906,0
120528.147,22.949,50.781,26.855,29.297,44.434,0
120528.151,21.973,49.805,24.902,32.715,17.578,0
120528.155,45.898,53.711,29.297,46.387,83.008,0
120528.159,51.758,54.688,36.621,41.992,69.336,0
120528.163,25.391,51.270,29.297,30.762,28.809,0
120528.166,7.812,41.992,29.297,20.996,23.926,0
120528.170,27.344,41.016,32.227,26.367,28.320,0
120528.174,48.340,43.457,25.879,35.645,38.574,0
120528.178,30.762,47.852,25.391,26.855,45.898,0
120528.182,10.742,55.664,23.926,23.926,41.016,0
120528.186,22.461,56.152,12.207,27.832,13.184,0
120528.204,43.945,54.199,15.137,33.203,33.203,0
120528.208,37.109,53.711,30.762,26.367,51.270,0
120528.212,12.695,54.688,28.320,17.090,15.137,0
120528.215,22.949,51.758,25.879,26.855,38.574,0
120528.219,55.176,47.852,39.062,35.156,87.402,0
120528.223,49.316,54.199,39.551,28.320,87.891,0
120528.227,13.672,52.246,31.738,19.531,40.527,0
120528.231,4.883,45.410,30.762,17.090,0.488,0
120528.235,29.297,45.898,25.391,21.484,14.160,0
120528.239,41.504,50.781,14.160,28.809,51.270,0
120528.243,22.949,46.387,0.977,31.250,54.199,0
120528.247,5.859,38.574,-6.836,25.879,28.809,0
120528.233,27.832,42.969,-5.371,31.738,81.055,0
120528.237,48.828,43.945,40.039,35.645,128.906,0
120528.241,24.902,36.133,84.961,20.996,89.355,0
120528.245,0.977,36.621,81.543,17.090,74.219,0
120528.249,15.137,38.086,59.082,28.320,75.195,0
120528.253,44.434,40.039,39.551,38.574,96.680,0
120528.256,37.598,37.109,39.062,29.785,114.746,0
120528.260,14.648,38.574,37.109,21.484,47.363,0
120528.264,18.066,42.480,26.367,27.832,26.367,0
120528.268,40.527,39.062,23.438,33.203,89.844,0
120528.272,43.457,41.016,24.414,30.273,69.824,0
120528.276,22.949,46.387,14.160,23.926,-5.859,0
120528.277,21.484,48.828,1.465,20.996,3.418,0
120528.281,45.898,51.758,13.672,29.785,75.684,0
120528.285,56.152,52.246,31.250,36.133,87.891,0
120528.289,30.273,49.316,44.434,24.414,40.527,0
120528.293,4.395,47.363,48.828,18.555,9.766,0
120528.297,22.949,48.340,32.227,28.320,61.523,0
120528.301,46.875,49.805,12.207,33.691,100.586,0
120528.305,34.180,49.316,5.859,28.809,36.621,0
120528.309,12.207,47.363,19.043,24.902,20.996,0
120528.313,21.973,45.410,43.945,24.902,59.082,0
120528.317,45.898,46.875,45.898,29.785,94.727,0
120528.320,38.086,47.852,30.762,23.438,93.750,0
120528.322,8.789,44.434,33.691,16.113,62.012,0
120528.326,11.230,40.527,27.832,23.926,52.246,0
120528.330,43.945,41.992,9.277,33.691,80.078,0
120528.334,53.223,45.410,26.367,34.180,102.051,0
120528.338,30.762,45.410,48.828,26.367,61.035,0
120528.342,19.043,45.410,41.504,18.555,27.832,0
120528.346,42.969,44.922,21.973,26.367,37.109,0
120528.350,61.523,42.480,19.043,34.180,70.801,0
120528.354,43.945,47.852,23.926,32.227,53.223,0
120528.358,14.160,46.875,27.832,23.438,-2.441,0
120528.361,25.391,40.527,41.016,27.832,22.949,0
120528.365,47.363,35.156,43.945,39.551,58.594,0
120528.367,34.668,37.598,38.086,32.715,45.410,0
120528.371,8.301,38.574,33.691,19.043,19.531,0
120528.375,12.695,45.410,31.250,24.414,32.227,0
120528.379,45.410,59.082,30.762,37.109,85.449,0
120528.383,49.316,60.059,23.438,34.180,85.449,0
120528.387,24.414,55.176,2.441,23.438,26.367,0
120528.391,21.973,48.828,9.766,24.414,6.836,0
120528.395,43.945,43.945,38.574,34.668,66.406,0
120528.399,50.781,43.457,39.551,35.156,81.543,0
120528.402,34.180,48.340,24.414,26.367,16.602,0
120528.406,23.926,44.922,26.855,26.367,27.344,0
120528.410,44.922,44.922,33.691,35.645,81.055,0
120528.414,58.105,45.410,36.133,35.156,88.379,0
120528.418,37.598,46.875,33.691,27.832,52.734,0
120528.421,15.625,50.781,27.832,21.484,31.738,0
120528.425,32.227,50.781,29.785,25.391,40.527,0
120528.429,55.176,45.898,10.742,34.180,82.031,0
120528.433,40.527,38.574,11.719,27.344,62.500,0
120528.437,8.789,42.480,33.203,17.090,-16.113,0
120528.441,9.766,48.340,34.668,20.020,22.949,0
120528.445,38.086,44.434,34.180,30.273,119.141,0
120528.449,36.133,38.574,38.574,25.391,139.648,0
120528.453,14.648,41.016,26.367,17.578,50.293,0
120528.457,13.184,43.457,20.020,20.996,21.973,0
120528.472,35.645,42.480,28.320,31.250,77.637,0
120528.476,50.293,40.527,33.691,32.227,102.051,0
120528.480,36.621,38.574,35.156,21.484,74.707,0
120528.484,15.137,39.551,25.879,18.066,39.551,0
120528.488,24.902,37.598,21.484,26.367,71.777,0
120528.492,47.363,37.598,25.391,34.668,104.004,0
120528.496,33.691,39.062,21.973,27.832,66.406,0
120528.500,8.789,40.039,25.879,22.461,58.594,0
120528.504,20.996,39.551,31.250,31.738,94.727,0
120528.507,47.852,41.016,27.832,38.086,99.121,0
120528.511,38.574,42.480,25.391,29.297,89.844,0
120528.515,10.254,41.992,26.367,21.484,80.566,0
120528.517,16.113,41.992,16.602,24.414,117.676,0
120528.521,43.945,41.992,14.648,30.273,150.391,0
120528.525,47.852,43.457,21.484,30.762,132.324,0
120528.529,26.367,43.457,27.344,25.391,46.875,0
120528.533,13.672,42.480,43.457,23.926,7.812,0
120528.537,32.227,43.457,46.387,30.762,75.684,0
120528.541,46.387,42.969,35.156,32.227,108.887,0
120528.545,24.902,42.969,20.996,24.414,69.336,0
120528.549,5.371,42.969,22.461,17.578,13.184,0
120528.552,26.367,42.480,33.691,26.367,30.762,0
120528.556,50.781,41.016,35.156,36.133,106.934,0
120528.560,35.645,40.039,31.738,28.809,105.469,0
120528.562,11.719,43.945,30.273,21.973,53.223,0
120528.566,19.043,43.457,30.273,22.949,42.969,0
120528.570,43.457,40.039,23.926,28.809,89.844,0
120528.574,38.086,38.574,13.672,23.926,78.613,0
120528.578,9.766,37.598,20.020,11.719,29.785,0
120528.582,14.160,38.086,30.762,14.648,26.855,0
120528.586,44.922,38.574,24.902,21.973,100.098,0
120528.590,43.457,37.598,16.602,17.090,117.188,0
120528.594,8.789,37.109,17.578,6.348,28.320,0
120528.597,-3.906,37.109,29.297,3.418,19.531,0
120528.601,24.414,36.133,35.156,14.160,77.637,0
120528.605,41.992,34.668,32.715,17.578,120.117,0
120528.607,21.484,38.574,30.762,7.812,65.430,0
120528.611,2.441,40.527,18.066,5.859,17.090,0
120528.615,21.484,38.574,14.160,11.719,72.754,0
120528.619,43.945,39.062,24.902,18.555,119.629,0
120528.623,29.297,40.039,20.996,16.602,93.262,0
120528.627,2.930,41.016,25.879,12.207,47.852,0
120528.631,12.695,42.480,45.898,20.020,49.316,1
120528.635,41.504,43.457,44.434,25.391,81.543,0
120528.639,37.598,41.992,28.809,18.555,58.594,0
120528.642,14.648,36.621,17.578,13.672,13.184,0
120528.646,13.184,38.574,26.367,14.160,5.371,0
120528.650,36.133,41.504,31.738,23.926,43.457,0
120528.654,51.758,44.434,19.043,35.156,66.895,0
120528.658,31.738,49.316,31.738,22.949,30.762,0
120528.662,12.207,45.410,38.086,13.672,-30.273,0
120528.666,28.320,41.992,30.762,24.902,-9.766,0
120528.670,38.086,39.551,29.785,22.461,73.730,0
120528.674,21.484,41.992,34.180,14.648,47.363,0
120528.678,8.301,44.922,37.109,19.043,-12.695,0
120528.682,27.344,42.480,28.809,29.297,5.859,0
120528.686,57.129,43.945,18.555,40.039,59.082,0
120528.690,46.387,45.898,12.695,36.133,39.551,0
120528.693,12.207,42.969,19.531,20.020,-5.371,0
120528.697,17.090,43.945,21.973,21.484,17.090,0
120528.698,48.340,44.922,20.508,32.715,73.242,0
120528.702,50.781,45.410,16.602,29.297,64.453,0
120528.706,22.461,42.480,16.113,18.555,18.555,0
120528.710,7.812,38.574,39.062,21.973,6.836,0
120528.713,34.180,38.086,45.410,31.738,43.457,0
120528.717,51.270,42.480,35.645,36.133,74.707,0
120528.721,26.367,41.016,40.039,29.297,15.625,0
120528.725,9.766,40.039,37.109,18.066,-41.016,0
120528.729,38.574,41.504,21.484,25.391,60.547,0
120528.733,53.223,41.504,19.531,28.809,136.719,0
120528.737,31.738,41.016,24.902,16.113,89.355,0
120528.741,15.625,42.969,22.949,15.137,35.156,0
120528.742,32.227,45.898,18.066,22.461,85.938,0
120528.746,52.734,41.992,15.137,26.367,146.973,0
120528.750,41.992,40.527,19.043,22.949,108.887,0
120528.754,15.137,41.992,25.879,13.672,48.340,0
120528.758,18.555,42.969,28.320,14.648,49.805,0
120528.762,53.711,44.922,28.809,26.855,100.586,0
120528.766,51.270,44.922,20.996,22.461,87.891,0
120528.770,12.207,41.504,8.789,9.277,34.180,0
120528.774,7.812,39.551,8.301,16.602,57.617,0
120528.777,38.086,38.574,19.531,28.320,92.285,0
120528.781,47.852,39.062,35.156,25.391,118.652,0
120528.785,26.855,41.504,28.809,18.066,87.891,0
120528.802,9.277,40.527,23.926,12.695,24.414,0
120528.806,32.227,38.086,35.156,21.484,41.504,0
120528.810,53.711,41.992,32.227,29.297,71.777,0
120528.814,32.227,45.410,25.879,21.973,81.543,0
120528.818,4.883,41.992,15.625,16.113,98.145,0
120528.822,19.531,43.457,7.324,24.414,82.031,0
120528.826,48.828,45.898,7.324,31.738,104.004,0
120528.830,46.875,41.992,3.906,31.250,149.414,0
120528.834,18.555,40.039,20.996,23.926,105.469,0
120528.838,10.254,39.062,49.316,20.020,67.871,0
120528.841,42.969,39.551,52.246,33.691,81.543,0
120528.845,45.410,39.062,38.086,34.668,105.469,0
120528.847,11.719,38.574,14.160,19.531,54.199,0
120528.851,11.719,41.016,-9.277,25.879,14.648,0
120528.855,39.551,37.109,2.930,33.203,71.289,0
120528.859,47.363,37.109,37.109,28.809,97.656,0
120528.863,27.344,41.992,48.340,24.414,66.895,0
120528.867,0.977,34.180,42.969,15.137,18.066,0
120528.871,16.113,30.273,37.109,22.949,26.367,0
120528.875,44.922,37.109,24.414,33.691,74.707,0
120528.879,27.832,38.086,20.508,24.902,45.898,0
120528.882,0.977,38.574,35.645,17.090,-5.859,0
120528.886,12.695,38.086,36.133,24.414,32.715,0
120528.890,41.992,38.574,24.902,33.203,96.680,0
120528.892,37.109,39.062,25.391,27.832,42.480,0
120528.896,5.859,37.598,23.438,20.020,-32.227,0
120528.900,8.789,34.668,20.020,24.414,-8.789,0
120528.904,36.133,35.645,15.625,37.109,67.871,0
120528.908,43.457,42.969,6.348,41.992,88.379,0
120528.912,22.461,42.969,7.812,34.180,3.906,0
120528.916,3.418,39.062,22.461,21.484,2.441,0
120528.920,27.344,36.621,41.016,27.344,91.797,0
120528.924,51.270,37.109,51.758,39.062,60.059,0
120528.927,33.691,41.016,43.457,34.180,9.277,0
120528.931,14.160,40.527,24.902,28.809,24.414,0
120528.935,26.855,39.062,28.320,33.691,43.457,0
120528.937,47.363,41.016,27.832,37.598,70.312,0
120528.941,34.668,40.039,13.672,28.320,79.102,0
120528.945,9.277,37.598,16.113,20.020,70.312,0
120528.949,16.602,32.227,19.043,23.438,47.852,0
120528.953,42.480,33.691,23.438,32.227,61.035,0
120528.957,38.086,41.504,29.297,27.344,62.012,0
120528.961,10.254,47.852,38.086,19.043,26.367,0
120528.965,9.277,49.316,28.809,20.020,-14.160,0
120528.969,38.574,43.457,19.531,26.855,2.441,0
120528.973,49.805,41.016,29.297,28.809,84.961,0
120528.976,33.203,40.039,29.785,18.555,105.957,0
120528.980,19.043,38.086,27.344,18.555,63.477,0
120528.982,28.320,36.621,23.926,30.762,87.891,0
120528.986,47.363,36.621,13.672,36.621,102.539,0
120528.990,32.715,40.039,11.230,28.320,54.688,0
120528.994,10.254,39.062,24.902,23.926,10.742,0
120528.998,26.855,39.062,30.762,38.574,38.086,0
120529.002,49.316,39.062,21.973,45.898,89.355,0
120529.006,41.504,38.574,26.367,37.109,74.219,0
120529.010,13.184,39.062,39.551,24.414,32.715,0
120529.014,7.324,36.621,31.738,20.996,35.156,0
120529.018,37.598,38.086,23.926,30.273,107.422,0
120529.022,46.387,40.039,24.902,31.738,136.719,0
120529.025,20.020,40.039,27.832,24.414,89.355,0
120529.027,15.625,40.527,26.855,26.855,61.035,0
120529.031,44.434,39.551,28.320,38.086,112.305,0
120529.035,53.711,40.039,26.367,38.086,133.789,0
120529.039,30.762,41.504,16.602,26.855,86.914,0
120529.043,15.137,40.527,18.066,22.949,75.684,0
120529.047,32.227,36.133,12.695,31.738,90.332,0
120529.051,52.246,37.109,5.371,35.645,130.371,0
120529.055,33.203,38.574,26.367,24.414,106.934,0
120529.059,15.625,44.922,33.203,24.902,55.176,0
120529.062,31.738,42.969,9.277,35.156,76.660,0
120529.066,48.828,34.180,20.020,33.203,127.441,0
120529.070,32.715,35.156,50.781,22.949,129.883,0
120529.073,3.418,32.227,55.176,15.625,91.797,0
120529.077,9.766,33.691,42.969,20.020,68.848,0
120529.081,40.527,38.574,36.621,29.297,62.012,0
120529.085,42.480,38.086,32.227,26.367,67.383,0
120529.089,15.625,40.527,21.484,19.531,42.480,0
120529.093,7.812,42.969,23.438,25.391,-11.719,0
120529.096,37.109,41.992,26.855,32.227,6.836,0
120529.100,55.664,44.922,15.137,38.086,54.688,0
120529.104,32.227,44.434,6.836,38.574,55.664,0
120529.108,11.230,41.992,16.113,30.762,14.160,0
120529.112,31.250,39.062,29.297,29.297,54.199,0
120529.116,46.875,34.180,37.598,28.320,125.977,0
120529.119,29.297,35.156,36.621,23.438,101.562,0
120529.123,5.859,36.621,33.203,18.555,22.949,0
120529.126,16.113,34.180,34.668,19.043,0.000,0
120529.130,44.434,35.156,27.344,29.297,41.992,0
120529.134,41.016,33.203,22.461,27.344,98.633,0
120529.138,9.277,31.250,29.297,18.555,81.543,0
120529.142,7.812,39.551,31.250,27.344,29.297,0
120529.146,37.598,41.992,12.695,40.039,60.547,0
120529.150,42.480,37.598,8.789,32.227,108.887,0
120529.154,18.066,36.133,25.391,19.043,80.078,0
120529.158,2.441,34.668,27.832,16.113,58.594,0
120529.162,27.344,35.645,39.062,27.344,66.406,0
120529.177,48.340,36.621,44.434,36.133,88.379,0
120529.181,33.691,41.992,31.250,35.645,54.688,0
120529.185,12.207,41.016,23.926,31.250,42.480,0
120529.189,25.391,33.203,26.855,31.250,68.848,0
120529.193,51.758,35.156,26.855,40.039,87.402,0
120529.197,39.551,39.062,22.461,35.156,83.984,0
120529.201,13.184,41.016,12.695,28.809,19.043,0
120529.205,21.973,40.039,17.578,34.180,32.715,0
120529.209,49.316,39.062,26.855,40.527,80.566,0
120529.213,48.340,41.504,33.691,38.086,74.219,0
120529.217,21.484,41.016,34.180,31.738,25.391,0
120529.220,15.137,39.062,25.879,33.203,20.508,0
120529.222,38.574,38.574,30.762,41.016,86.426,0
120529.226,52.734,40.039,30.273,45.898,113.281,0
120529.230,32.715,41.504,15.137,37.598,62.988,0
120529.234,12.695,42.969,23.438,29.297,15.625,0
120529.238,32.227,41.016,26.367,36.621,39.062,0
120529.242,60.547,45.898,8.789,51.758,79.102,0
120529.246,49.316,48.828,20.020,43.945,37.598,0
120529.250,20.020,36.621,38.086,28.320,14.648,0
120529.254,23.926,34.668,37.109,30.762,44.922,0
120529.258,48.340,40.527,27.832,36.621,43.945,0
120529.261,41.992,40.527,20.996,34.180,62.500,0
120529.265,18.066,41.016,21.484,28.320,37.109,0
120529.267,20.996,40.527,29.785,28.320,21.484,0
120529.271,47.852,40.527,31.738,33.203,87.402,0
120529.275,50.293,41.992,33.691,34.668,111.816,0
120529.279,18.555,38.574,31.250,21.973,70.312,0
120529.283,9.766,38.574,10.254,18.066,19.043,0
120529.287,37.598,37.598,0.488,28.809,32.227,0
120529.291,49.316,33.691,24.902,26.855,65.918,0
120529.295,25.879,30.273,43.945,15.625,71.777,0
120529.299,6.348,29.785,35.156,13.184,37.109,0
120529.303,27.344,29.785,21.973,26.367,34.180,0
120529.306,46.387,33.691,26.367,33.691,100.586,0
120529.310,29.785,43.457,35.156,19.531,87.402,0
120529.312,7.812,46.875,29.785,11.230,7.324,0
120529.316,20.508,44.434,23.438,17.578,19.043,0
120529.320,44.434,38.574,24.414,21.973,116.699,0
120529.324,34.180,37.598,15.137,17.090,126.465,0
120529.328,7.812,38.086,3.418,13.672,52.734,0
120529.332,19.531,39.062,24.414,21.973,62.012,0
120529.336,50.781,39.551,18.555,33.691,120.605,0
120529.340,40.527,35.645,10.742,27.344,102.051,0
120529.344,9.277,34.668,39.551,13.184,32.715,0
120529.347,6.836,36.133,38.574,14.648,-3.906,0
120529.351,34.180,35.156,19.043,23.926,65.430,0
120529.355,43.457,34.180,21.973,23.438,127.930,0
120529.359,25.391,32.715,25.391,19.531,96.191,0
120529.363,7.812,33.203,20.020,17.090,71.289,0
120529.366,21.973,35.156,22.949,17.578,77.637,0
120529.370,45.410,33.203,20.996,22.461,102.539,0
120529.374,35.645,31.250,23.926,19.531,90.820,0
120529.378,11.719,32.227,40.527,17.578,20.020,0
120529.382,20.996,32.715,26.367,28.320,46.387,0
120529.386,49.805,36.133,0.488,37.109,98.633,0
120529.390,43.945,37.598,23.438,28.809,82.031,0
120529.394,16.602,35.156,48.340,18.555,58.594,0
120529.398,19.531,33.691,42.480,20.508,65.918,0
120529.402,48.340,32.715,36.133,33.691,95.215,0
120529.402,47.852,32.715,29.785,34.668,130.371,0
120529.406,17.090,32.715,24.902,23.926,104.004,0
120529.410,11.230,37.109,27.832,26.855,36.621,0
120529.414,40.527,42.969,13.672,35.156,54.688,0
120529.418,49.316,40.039,6.348,29.297,119.629,0
120529.422,29.785,34.180,18.555,21.484,93.750,0
120529.426,15.625,29.785,27.344,18.555,23.926,0
120529.430,27.832,31.250,28.809,19.043,-0.977,0
120529.434,46.387,36.621,25.391,24.414,81.055,0
120529.437,40.039,40.527,20.996,26.855,118.164,0
120529.441,14.648,38.574,28.809,20.508,20.020,0
120529.445,20.508,31.738,37.598,24.902,27.832,0
120529.447,48.340,31.738,31.250,34.668,107.422,0
120529.451,42.480,35.645,30.273,32.227,124.023,0
120529.455,14.648,35.156,16.602,27.344,65.430,0
120529.459,9.766,36.133,10.254,26.855,47.852,0
120529.463,34.180,36.133,38.086,36.133,102.539,0
120529.467,43.945,33.203,50.293,38.086,97.656,0
120529.471,17.578,32.715,36.133,21.484,31.250,0
120529.475,0.000,33.203,29.785,14.160,-2.441,0
120529.479,23.926,28.809,28.809,25.391,66.406,0
120529.482,45.410,29.785,32.227,36.621,89.355,0
120529.486,29.785,36.621,32.715,32.715,27.832,0
120529.490,7.812,38.086,17.090,26.367,-13.672,0
120529.493,17.090,36.621,13.184,28.809,1.465,0
120529.497,43.945,40.527,37.598,35.156,53.223,0
120529.501,39.062,42.480,45.898,32.715,36.621,0
120529.505,9.277,35.645,27.832,23.438,-10.254,0
120529.509,9.766,35.156,30.273,25.879,12.207,0
120529.513,32.715,34.668,36.621,33.203,63.965,0
120529.516,40.039,33.691,12.695,30.762,51.758,0
120529.520,20.996,38.086,12.207,22.949,17.578,0
120529.524,11.719,37.598,46.875,21.484,24.902,0
120529.528,40.039,33.691,42.480,32.715,80.078,0
120529.532,54.199,36.621,19.531,34.180,93.750,0
120529.536,37.109,38.574,23.438,22.949,37.109,0
120529.552,18.066,38.086,26.367,15.137,-9.766,0
120529.556,27.344,39.062,20.996,20.020,9.766,0
120529.560,43.945,39.062,23.926,26.367,66.895,0
120529.564,27.832,40.527,32.715,23.438,59.082,0
120529.568,3.906,39.062,38.574,18.066,-1.953,0
120529.572,14.648,35.156,38.574,23.926,-1.465,0
120529.576,41.504,34.180,36.621,35.156,50.781,0
120529.580,42.480,33.691,35.156,35.156,66.406,0
120529.584,20.508,35.156,30.273,29.785,16.602,0
120529.587,20.996,39.062,23.926,32.715,36.621,0
120529.591,50.781,40.039,20.996,39.062,94.727,0
120529.595,52.246,37.598,25.391,36.621,80.078,0
120529.597,24.414,37.109,32.227,29.297,17.578,0
120529.601,18.066,39.062,21.973,30.762,2.441,0
120529.605,44.434,40.527,6.836,40.527,46.387,0
120529.609,55.664,36.621,20.996,37.109,111.816,0
120529.613,27.344,33.203,31.250,20.508,94.238,0
120529.617,4.883,34.668,29.297,13.184,13.672,0
120529.621,24.414,35.156,33.203,19.043,13.184,0
120529.625,46.387,35.645,27.832,27.832,44.434,0
120529.629,32.227,36.133,4.883,27.832,33.203,0
120529.633,6.348,35.645,9.277,22.461,-19.531,0
120529.636,17.090,33.691,37.109,23.438,15.625,0
120529.640,47.363,34.180,46.387,33.203,87.402,0
120529.642,46.875,36.133,40.527,34.668,85.938,0
120529.646,22.461,37.109,31.250,25.879,62.012,0
120529.650,22.949,36.621,25.391,26.855,55.664,0
120529.654,45.898,38.574,19.531,35.645,88.867,0
120529.658,50.293,39.062,19.531,33.203,112.305,0
120529.662,27.832,39.062,12.207,26.855,77.637,0
120529.666,18.066,41.992,-0.977,30.273,50.781,0
120529.670,40.039,41.992,19.531,39.062,100.098,0
120529.674,52.734,41.992,40.039,40.527,112.305,0
120529.678,34.180,42.480,42.480,33.203,75.195,0
120529.681,17.090,41.016,27.344,30.273,68.848,0
120529.685,35.156,42.480,10.742,38.086,86.426,0
120529.687,60.059,44.434,12.695,45.410,127.441,0
120529.691,47.852,41.504,28.320,37.109,126.953,0
120529.695,20.020,40.527,37.598,27.344,70.801,0
120529.699,19.531,38.574,42.480,28.320,39.551,0
120529.703,44.922,36.621,43.945,36.133,79.590,0
120529.707,46.875,39.551,38.086,35.645,94.238,0
120529.711,24.414,35.156,33.691,26.367,48.828,0
120529.715,23.926,36.621,28.320,26.855,41.016,0
120529.719,44.434,41.992,28.320,40.527,69.824,0
120529.722,54.199,41.992,28.320,46.387,91.797,0
120529.726,29.785,38.574,25.879,33.203,77.148,0
120529.730,8.301,33.691,30.273,23.438,42.969,0
120529.732,30.762,34.180,29.297,30.762,46.387,0
120529.736,49.805,36.621,23.926,35.156,72.754,0
120529.740,30.762,36.133,24.414,24.902,87.402,0
120529.744,8.789,34.180,28.320,18.555,71.289,0
120529.748,19.043,31.250,35.156,24.414,83.008,0
120529.752,43.945,27.344,35.645,32.227,89.844,0
120529.756,38.086,30.273,33.203,30.762,62.988,0
120529.760,8.789,32.227,36.133,21.484,30.273,0
120529.764,8.789,31.250,33.203,22.461,25.391,0
120529.767,31.738,32.715,30.273,30.762,83.008,0
120529.771,42.480,39.551,-6.348,39.062,98.633,0
120529.775,23.438,41.504,-18.066,32.227,32.715,0
120529.777,5.371,32.715,41.016,21.973,28.320,0
120529.781,30.273,25.879,71.289,30.273,101.562,0
120529.785,44.434,26.855,65.430,34.668,79.590,0
120529.789,25.879,31.738,61.035,32.715,39.062,0
120529.793,13.184,33.691,44.434,28.809,45.410,0
120529.797,32.227,31.738,28.809,33.691,38.574,0
120529.801,55.664,32.715,35.645,41.504,27.832,0
120529.805,38.086,36.621,37.109,35.156,23.438,0
120529.809,8.301,34.668,31.738,26.367,-7.812,0
120529.812,17.578,30.273,24.414,27.344,-1.465,0
120529.816,45.410,31.738,26.855,32.715,68.848,0
120529.820,35.645,33.203,31.250,23.926,98.145,0
120529.824,8.301,33.691,30.273,15.137,51.758,0
120529.828,17.090,36.621,23.926,21.973,29.785,0
120529.831,41.504,33.203,9.766,26.855,70.312,0
120529.835,44.922,35.645,20.020,24.902,93.262,0
120529.839,21.484,37.598,34.180,18.066,62.988,0
120529.843,9.277,33.203,30.273,16.113,8.301,0
120529.847,31.738,30.762,28.809,24.902,-2.441,0
120529.851,43.457,29.297,26.367,25.879,42.969,0
120529.855,21.973,30.762,27.832,20.020,69.336,0
120529.859,-3.906,29.785,26.855,18.555,22.461,0
120529.863,15.625,26.367,26.367,28.320,32.715,0
120529.867,41.016,27.832,31.250,36.621,86.426,0
120529.867,23.926,32.715,24.902,30.273,86.914,0
120529.871,-0.488,33.691,18.066,24.902,29.785,0
120529.875,11.230,34.668,20.020,29.297,26.367,0
120529.879,40.039,35.645,18.555,35.645,103.027,0
120529.883,34.668,38.574,20.996,30.273,94.238,0
120529.887,5.371,38.086,37.598,19.043,45.410,0
120529.891,4.883,33.691,49.805,19.043,3.418,0
120529.895,33.691,35.645,44.434,25.391,34.668,0
120529.899,45.410,42.480,28.320,28.320,104.004,0
120529.902,19.043,40.039,27.832,18.555,67.871,0
120529.906,1.953,35.645,34.668,7.324,38.086,0
120529.910,26.367,38.086,30.762,15.137,87.402,0
120529.927,43.945,40.527,31.250,22.461,125.000,0
120529.931,25.879,39.062,20.996,13.672,83.984,0
120529.935,4.395,38.574,15.137,10.254,18.555,0
120529.939,20.508,39.062,23.926,22.461,45.898,0
120529.943,45.410,34.668,31.738,33.203,74.707,0
120529.947,25.391,31.250,38.086,20.508,21.484,0
120529.951,-6.836,28.320,34.668,8.301,-17.090,0
120529.955,0.977,24.902,30.273,18.555,20.996,0
120529.959,33.203,25.391,27.832,29.785,91.797,0
120529.962,37.109,26.855,24.902,26.855,91.797,0
120529.966,11.719,25.391,41.016,19.043,23.926,0
120529.970,12.695,31.250,51.270,25.391,45.898,0
120529.973,41.016,35.645,39.551,36.621,89.355,0
120529.977,48.340,33.203,25.391,36.133,78.613,0
120529.981,29.297,34.180,25.879,26.855,53.711,0
120529.985,18.066,35.645,45.898,23.926,68.848,0
120529.989,39.551,35.156,54.199,30.273,57.129,0
120529.992,58.105,35.156,50.293,34.668,63.477,0
120529.996,43.457,38.086,41.504,30.762,89.355,0
120530.000,23.438,41.504,22.461,27.344,54.199,0
120530.004,34.668,39.551,16.113,29.297,77.637,0
120530.008,55.664,39.062,28.320,29.785,102.539,0
120530.012,42.480,39.551,22.461,21.973,88.379,0
120530.016,12.695,40.527,24.414,10.742,50.293,0
120530.017,17.090,38.086,41.992,12.695,35.645,0
120530.021,42.480,28.320,43.457,28.320,88.379,0
120530.025,43.457,29.785,32.227,27.832,105.957,0
120530.029,14.160,36.621,24.414,8.301,32.227,0
120530.033,5.859,40.527,24.902,4.395,17.578,0
120530.037,36.621,42.480,19.043,18.555,75.684,0
120530.041,48.340,39.062,18.066,21.973,88.867,0
120530.045,19.531,34.668,33.691,11.719,60.059,0
120530.049,7.324,34.668,38.086,9.766,30.273,0
120530.052,27.344,34.180,28.320,20.020,42.480,0
120530.056,41.992,35.645,18.555,25.391,104.980,0
120530.060,26.855,37.598,22.461,22.461,126.465,0
120530.064,7.812,41.016,31.738,21.973,47.363,0
120530.068,32.227,45.410,22.461,34.180,40.039,0
120530.071,49.805,38.574,16.602,42.480,128.418,0
120530.075,20.996,30.762,35.645,25.391,113.770,0
120530.079,-8.789,28.809,55.664,13.184,21.973,0
120530.083,-4.883,24.414,59.570,20.996,45.410,0
120530.087,24.902,25.391,57.129,34.180,102.539,0
120530.091,35.156,29.785,51.270,40.039,99.121,0
120530.095,14.648,28.809,46.875,30.762,13.184,0
120530.099,4.883,24.414,41.992,22.949,7.324,0
120530.103,29.785,24.902,34.668,29.297,95.703,0
120530.107,43.945,24.902,36.621,36.133,117.188,0
120530.107,27.344,26.367,27.832,34.180,71.289,0
120530.111,11.719,24.902,24.414,31.250,9.766,0
120530.115,28.320,22.461,41.992,37.598,48.828,0
120530.119,44.922,30.762,43.945,36.133,128.418,0
120530.123,25.391,39.551,40.527,20.020,102.051,0
120530.127,8.301,43.457,36.621,16.602,33.691,0
120530.131,19.531,42.480,24.902,22.949,33.203,0
120530.135,42.969,41.016,20.508,27.832,51.270,0
120530.139,44.434,42.969,21.484,28.809,32.227,0
120530.143,19.531,41.992,18.066,18.066,1.465,0
120530.146,20.996,40.527,29.297,20.508,-33.203,0
120530.150,52.246,41.504,38.574,36.133,41.992,0
120530.152,56.152,40.527,33.691,36.621,84.473,0
120530.156,31.250,40.039,26.367,27.832,29.297,0
120530.160,18.555,39.062,23.438,22.949,33.203,0
120530.164,42.969,37.598,11.719,32.227,85.938,0
120530.168,59.082,38.574,10.742,38.086,104.004,0
120530.172,36.621,38.086,26.367,29.785,88.867,0
120530.176,16.113,39.551,21.484,23.438,38.086,0
120530.180,29.297,37.109,13.672,26.855,24.902,0
120530.184,47.363,32.227,23.926,28.809,76.172,0
120530.188,34.668,34.180,29.297,22.461,78.613,0
120530.191,7.812,37.109,24.902,19.531,41.504,0
120530.195,14.160,37.598,23.438,26.367,64.941,0
120530.197,45.898,39.062,32.715,31.738,129.883,0
120530.201,49.805,40.527,38.086,29.785,123.535,0
120530.205,27.344,39.551,24.414,22.949,45.410,0
120530.209,25.391,40.527,17.090,28.320,23.926,0
120530.213,51.758,38.086,13.672,34.668,55.664,0
120530.217,55.664,35.645,17.090,33.203,60.547,0
120530.221,26.367,35.645,33.691,26.855,18.555,0
120530.225,9.277,35.156,43.945,20.020,-8.301,0
120530.229,34.668,38.574,44.434,26.367,24.902,0
120530.233,50.781,40.527,24.414,28.809,55.664,0
120530.236,27.832,38.574,0.000,23.438,15.137,0
120530.240,11.230,40.527,1.953,22.461,-33.203,0
120530.243,28.809,40.039,17.090,28.320,16.113,0
120530.247,42.969,33.203,33.691,25.391,74.219,0
120530.250,28.809,33.203,50.293,15.625,28.320,0
120530.254,3.906,36.621,50.293,11.230,4.883,0
120530.258,11.719,37.109,39.062,16.602,16.602,0
120530.262,41.992,36.621,32.227,24.902,62.500,0
120530.266,41.016,37.109,26.367,16.113,65.918,0
120530.270,13.672,39.551,24.414,8.789,18.066,0
120530.274,9.766,36.621,21.973,14.648,24.414,0
120530.278,40.039,40.039,20.020,25.879,83.496,0
120530.282,48.340,42.969,22.949,30.273,82.520,0
120530.286,21.973,39.062,24.902,19.043,28.320,0
120530.289,5.371,37.109,21.973,11.719,-17.578,0
120530.293,26.367,39.551,11.230,20.996,-2.930,0
120530.297,47.852,39.551,13.672,25.391,70.801,0
120530.300,28.809,37.598,31.250,14.648,75.195,0
120530.304,6.348,36.133,36.133,10.742,43.945,0
120530.308,20.996,36.133,38.574,21.973,67.383,0
120530.312,44.922,37.109,41.016,28.320,131.348,0
120530.316,36.133,35.645,28.809,22.949,101.562,0
120530.320,14.160,39.062,20.020,18.555,38.086,0
120530.324,18.066,41.016,28.809,18.066,39.551,0
120530.328,38.574,39.062,27.344,18.066,57.129,0
120530.332,37.598,42.969,23.438,19.531,70.312,0
120530.347,8.301,41.992,29.785,12.207,56.641,0
120530.351,0.488,39.062,30.273,13.672,78.613,0
120530.355,27.832,36.621,28.320,25.879,123.535,0
120530.359,39.062,33.691,30.273,27.344,137.207,0
120530.363,19.043,35.645,31.738,20.508,97.656,0
120530.367,-1.953,34.668,26.855,16.602,11.719,0
120530.371,7.812,25.879,28.809,18.066,33.691,0
120530.375,33.203,22.949,32.227,26.855,127.930,0
120530.379,20.508,27.832,30.762,22.949,92.285,0
120530.383,-5.371,32.715,33.203,13.184,41.016,0
120530.386,11.230,34.180,31.738,20.996,62.500,0
120530.390,41.504,35.645,22.949,34.668,132.812,0
120530.392,35.156,37.598,20.508,31.250,129.883,0
120530.396,12.695,38.574,35.156,19.043,74.707,0
120530.400,17.578,35.156,40.039,23.926,78.125,0
120530.404,44.922,35.645,31.738,36.621,78.125,0
120530.408,52.246,40.527,28.809,36.133,62.988,0
120530.412,22.461,41.016,26.855,25.391,54.199,0
120530.416,6.348,38.574,23.926,21.973,30.273,0
120530.420,31.250,35.645,25.391,30.762,55.664,0
120530.424,46.387,32.715,19.043,33.203,81.055,0
120530.428,21.484,32.227,18.555,20.996,41.992,0
120530.431,-0.488,30.762,23.926,15.625,10.742,0
120530.435,20.020,27.344,26.367,26.855,15.137,0
120530.437,47.363,33.203,32.227,28.320,63.477,0
120530.441,36.133,40.039,29.297,18.555,62.500,0
120530.445,14.648,39.062,28.320,13.672,27.344,0
120530.449,23.926,36.621,36.621,18.066,33.203,0
120530.453,48.828,36.621,33.691,25.879,73.730,0
120530.457,46.875,38.086,21.484,26.855,42.480,0
120530.461,21.484,37.109,9.766,20.020,-3.906,0
120530.465,18.066,35.645,13.184,20.020,0.488,0
120530.469,46.387,39.062,31.250,30.762,28.809,0
120530.473,54.688,41.992,37.598,30.762,53.223,0
120530.476,30.273,40.527,25.391,27.344,27.832,0
120530.480,12.695,40.039,21.973,27.832,-9.277,0
120530.482,32.715,40.527,30.273,35.156,21.484,0
120530.486,57.617,42.480,33.691,41.504,76.172,0
120530.490,37.598,41.992,35.156,32.227,60.059,0
120530.494,14.648,43.945,35.645,25.391,2.930,0
120530.498,36.133,46.387,28.809,29.297,31.250,0
120530.502,64.453,45.410,21.484,37.598,70.312,0
120530.506,49.805,41.504,25.879,35.156,49.805,0
120530.510,19.043,38.574,29.297,23.438,-16.602,0
120530.514,22.949,42.480,20.996,30.762,3.418,0
120530.518,49.316,42.969,11.719,43.457,95.703,0
120530.521,44.922,41.504,22.461,33.203,95.703,0
120530.525,15.137,40.039,34.180,19.531,58.594,0
120530.529,7.812,39.551,32.227,24.902,24.414,0
120530.533,31.738,40.039,24.414,36.133,65.918,0
120530.537,43.457,38.574,23.926,38.086,107.422,0
120530.541,20.508,39.551,14.160,32.227,47.852,0
120530.545,0.000,39.062,3.418,28.320,32.227,0
120530.548,20.996,33.203,24.414,35.645,66.895,0
120530.552,41.016,31.738,44.434,36.621,70.312,0
120530.556,21.973,35.156,40.039,22.949,49.316,0
120530.560,1.953,37.598,32.227,17.578,15.625,0
120530.564,21.484,37.598,24.902,24.902,52.246,0
120530.568,52.246,37.109,16.113,33.203,91.309,0
120530.572,46.875,38.574,19.043,31.250,42.480,0
120530.572,19.531,37.598,24.902,21.973,17.090,0
120530.576,21.973,36.133,33.691,22.461,16.602,0
120530.580,49.805,37.109,41.016,31.250,49.316,0
120530.584,48.340,37.598,36.621,28.320,71.289,0
120530.588,20.020,39.551,18.066,19.043,15.625,0
120530.592,17.090,42.480,10.742,23.926,10.742,0
120530.596,41.504,41.016,21.973,33.203,59.570,0
120530.600,46.387,39.062,25.391,32.715,73.730,0
120530.604,18.066,41.016,28.809,23.438,88.379,0
120530.608,3.906,42.480,32.227,20.508,58.594,0
120530.612,30.273,39.062,29.297,33.691,63.477,0
120530.615,39.551,35.645,20.020,31.738,129.883,0
120530.617,16.113,34.180,23.926,18.555,90.820,0
120530.621,-5.859,33.203,36.133,15.625,38.086,0
120530.625,5.371,30.762,32.227,22.949,59.570,0
120530.629,38.574,30.273,26.367,33.691,94.727,0
120530.633,38.574,32.227,22.461,32.715,82.520,0
120530.637,14.160,32.227,20.020,29.785,28.809,0
120530.641,15.625,32.715,27.344,33.691,26.367,0
120530.645,45.410,36.621,34.668,39.551,104.492,0
120530.649,49.316,39.551,40.527,38.086,135.254,0
120530.653,19.531,38.574,34.180,28.809,59.082,0
120530.657,12.207,39.062,21.484,30.762,-20.020,0
120530.660,40.039,41.992,25.879,39.551,36.133,0
120530.677,51.758,42.480,41.504,37.598,90.820,0
120530.681,31.250,41.504,43.457,28.320,90.820,0
120530.685,12.695,39.551,33.691,21.484,68.848,0
120530.689,27.832,40.039,27.832,26.367,50.293,0
120530.693,51.758,41.016,22.949,33.203,76.172,0
120530.697,40.527,41.504,25.391,30.273,52.246,0
120530.701,13.672,43.945,18.066,21.484,6.348,0
120530.705,24.414,42.480,8.301,25.391,55.664,0
120530.709,50.781,37.598,29.785,35.156,117.676,0
120530.713,45.898,35.156,47.852,32.227,88.379,0
120530.716,20.508,37.109,45.898,24.414,16.113,0
120530.720,19.531,36.133,36.621,32.227,28.809,0
120530.722,50.293,36.621,28.809,48.340,69.336,0
120530.726,58.105,38.574,28.320,46.387,78.125,0
120530.730,32.227,39.062,24.902,34.180,58.594,0
120530.734,20.996,38.574,21.484,35.645,15.625,0
120530.738,43.457,38.574,29.785,44.922,59.082,0
120530.742,58.105,40.039,37.598,47.852,91.309,0
120530.746,34.180,37.598,31.250,35.645,57.129,0
120530.750,9.277,35.156,22.461,23.926,36.621,0
120530.754,22.949,36.621,17.090,29.297,58.105,0
120530.757,44.922,37.109,14.160,33.691,64.941,0
120530.761,37.109,34.668,23.438,31.250,45.410,0
120530.765,9.277,32.227,34.668,22.461,13.672,0
120530.767,11.719,32.227,37.109,23.438,1.465,0
120530.771,43.945,35.156,32.227,36.621,40.527,0
120530.775,47.852,35.645,28.809,33.691,58.105,0
120530.779,24.414,38.574,25.879,17.578,5.859,0
120530.783,25.391,39.062,11.230,20.508,-11.719,0
120530.787,45.898,36.621,7.812,30.762,45.410,0
120530.791,51.758,39.062,15.137,27.832,54.688,0
120530.795,34.180,41.016,28.320,21.973,32.715,0
120530.799,16.602,36.621,45.898,17.578,-14.648,0
120530.803,31.250,32.715,42.969,21.973,11.719,0
120530.806,49.316,36.621,30.762,32.227,82.031,0
120530.810,30.273,37.109,26.855,28.320,50.781,0
120530.813,2.441,34.180,34.180,23.926,-27.344,0
120530.817,15.137,32.227,36.133,38.086,-6.348,0
120530.821,42.969,35.156,37.109,49.316,87.402,0
120530.825,32.715,40.039,34.180,36.133,72.754,0
120530.828,2.441,41.504,26.855,20.996,12.695,0
120530.832,5.371,40.527,30.762,23.926,17.578,0
120530.836,34.668,37.109,28.809,31.738,81.543,0
120530.840,35.156,35.645,19.531,25.391,84.961,0
120530.844,16.113,38.086,16.113,15.137,9.766,0
120530.848,15.137,38.086,19.531,20.996,6.836,0
120530.852,39.551,37.109,27.832,32.227,71.289,0
120530.856,50.781,36.133,23.926,30.273,120.117,0
120530.857,29.297,36.133,19.043,22.461,68.359,0
120530.861,15.137,37.598,25.391,19.043,36.133,0
120530.865,34.180,42.969,32.715,28.320,70.312,0
120530.869,54.199,43.457,26.855,35.645,83.984,0
120530.873,39.062,41.504,15.137,28.809,68.359,0
120530.877,8.789,39.551,20.508,21.973,35.156,0
120530.881,19.531,38.086,23.438,32.227,21.484,0
120530.885,45.410,39.551,16.113,40.039,37.109,0
120530.889,34.668,36.133,19.531,30.762,45.898,0
120530.893,5.859,33.691,26.367,23.926,9.766,0
120530.896,5.859,32.715,32.715,24.414,12.695,0
120530.900,33.691,32.715,26.855,33.203,78.613,0
120530.902,35.156,35.645,19.043,36.621,107.422,0
120530.906,9.766,35.645,18.066,22.949,79.590,0
120530.910,2.441,34.180,23.438,18.066,33.203,0
120530.914,28.320,34.180,25.391,25.879,56.152,0
120530.918,43.945,34.180,26.855,21.973,109.863,0
120530.922,24.902,35.645,38.574,17.578,88.379,0
120530.926,6.836,34.180,26.367,17.578,60.059,0
120530.930,26.367,34.668,0.977,25.391,29.785,0
120530.934,49.805,34.668,13.672,30.762,51.270,0
120530.938,37.109,34.180,28.320,22.461,54.688,0
120530.941,12.207,35.156,23.438,16.602,-2.441,0
120530.945,20.020,33.203,23.926,22.461,36.621,0
120530.947,43.457,31.250,28.320,28.320,101.074,0
120530.951,36.133,32.715,29.297,25.879,61.523,0
120530.955,8.789,33.203,22.461,20.996,28.809,0
120530.959,3.418,36.133,16.602,21.973,13.184,0
120530.963,31.738,36.133,19.531,32.715,49.805,0
120530.967,42.480,35.156,19.531,32.227,58.105,0
120530.971,16.602,37.598,18.555,16.602,-43.457,0
120530.975,4.395,38.574,18.555,11.719,-36.621,0
120530.979,32.227,39.551,21.973,26.367,54.688,0
120530.982,48.828,39.062,23.926,29.297,92.285,0
120530.986,31.738,38.086,17.090,19.531,90.332,0
120530.990,17.578,40.039,11.719,16.602,34.668,0
120530.994,33.203,38.574,14.160,21.973,19.043,0
120530.998,54.688,37.109,19.531,30.762,35.645,0
120531.001,41.504,39.062,17.090,26.367,50.781,0
120531.005,12.207,38.086,20.020,18.555,54.199,0
120531.009,18.066,36.133,33.691,26.367,51.758,0
120531.013,45.410,39.062,39.062,40.527,71.289,0
120531.017,41.016,39.062,23.926,37.598,37.109,0
120531.021,12.695,38.086,18.555,25.391,-5.859,0
120531.025,8.301,37.598,25.879,27.344,-14.648,0
120531.029,35.645,36.133,24.414,37.598,26.855,0
120531.033,45.410,36.621,24.414,34.668,96.680,0
120531.037,24.902,38.574,23.438,25.391,49.805,0
120531.052,13.672,38.574,16.602,20.996,9.766,0
120531.056,33.691,38.086,5.371,27.832,46.875,0
120531.060,55.664,40.527,15.137,31.738,92.773,0
120531.064,41.504,41.992,25.391,23.438,63.477,0
120531.068,16.113,39.551,29.297,15.137,-5.859,0
120531.072,21.484,34.180,29.785,14.648,5.371,0
120531.076,38.574,29.297,22.461,17.090,32.715,0
120531.080,30.762,28.809,22.949,15.137,43.457,0
120531.084,6.348,31.738,21.484,10.254,15.137,0
120531.088,11.230,30.273,19.531,14.648,15.137,0
120531.091,41.016,29.785,11.230,28.320,60.059,0
120531.095,41.504,33.203,14.160,29.785,108.887,0
120531.098,14.160,32.227,32.715,19.531,83.496,0
120531.102,6.348,28.809,28.320,19.043,34.180,0
120531.106,35.645,31.738,11.719,28.320,69.336,0
120531.109,49.316,33.203,21.973,28.809,122.070,0
120531.113,24.902,30.273,38.574,20.020,90.820,0
120531.117,16.113,30.273,40.039,20.020,27.832,0
120531.121,39.062,32.715,40.039,27.832,38.574,0
120531.125,56.152,33.691,36.621,32.227,75.195,0
120531.129,41.504,34.668,26.367,25.879,39.062,0
120531.133,20.996,34.180,24.902,18.066,-41.504,0
120531.137,31.250,32.227,25.391,23.438,-34.668,0
120531.141,54.688,32.227,19.043,34.668,34.668,0
120531.142,49.316,31.738,26.367,34.180,36.133,0
120531.146,22.949,32.227,32.227,25.879,-0.488,0
120531.150,20.020,35.645,22.949,24.414,6.348,0
120531.154,47.852,34.180,27.832,32.227,43.945,0
120531.158,53.711,33.691,31.738,36.621,72.266,0
120531.162,26.855,33.691,26.367,27.832,45.410,0
120531.166,15.137,32.715,31.250,27.344,20.508,0
120531.170,40.527,33.691,25.879,36.621,65.430,0
120531.174,54.688,34.180,16.113,42.480,48.828,0
120531.178,28.809,32.715,26.367,31.738,28.320,0
120531.181,8.789,31.738,37.109,20.020,38.086,0
120531.185,28.320,31.250,37.598,28.809,82.031,0
120531.187,50.293,32.715,34.668,34.180,103.516,0
120531.191,39.062,33.691,26.855,27.344,70.312,0
120531.195,15.625,33.691,20.996,20.020,26.367,0
120531.199,22.949,32.227,26.367,25.879,34.668,0
120531.203,55.664,34.668,29.297,45.410,50.781,0
120531.207,51.758,37.109,29.297,46.387,-7.324,0
120531.211,21.484,35.156,30.273,34.668,-16.113,0
120531.215,23.926,37.109,14.648,36.621,-8.789,0
120531.219,44.922,33.691,12.207,40.527,14.648,0
120531.222,45.898,30.762,35.156,33.203,69.336,0
120531.226,25.879,33.691,43.945,27.832,25.879,0
120531.230,16.113,34.180,38.574,33.203,-50.781,0
120531.234,39.062,38.086,21.973,41.504,9.766,0
120531.238,58.105,43.457,18.555,44.434,43.457,0
120531.241,35.645,40.527,38.574,37.598,28.809,0
120531.245,9.277,34.668,44.434,28.320,21.484,0
120531.249,23.926,33.691,33.203,29.785,62.500,0
120531.253,50.293,34.668,30.762,30.273,100.586,0
120531.257,40.039,36.621,32.227,21.973,100.586,0
120531.261,12.695,36.621,28.320,15.625,39.551,0
120531.265,18.555,34.180,26.367,23.438,17.578,0
120531.269,44.434,33.203,23.438,33.691,121.582,0
120531.273,41.016,33.203,25.391,29.297,150.879,0
120531.277,11.719,34.180,26.367,21.484,83.008,0
120531.277,6.348,33.203,19.531,18.066,72.754,0
120531.281,35.156,33.691,21.484,29.297,128.418,0
120531.285,47.852,36.133,29.785,37.598,150.879,0
120531.289,20.996,34.180,34.668,24.902,103.027,0
120531.293,-0.488,31.250,35.156,17.578,33.203,0
120531.297,26.367,31.250,31.250,32.227,35.645,0
120531.301,53.223,32.715,32.715,41.504,43.457,0
120531.305,28.320,32.715,38.574,29.785,-26.855,0
120531.309,5.859,33.691,38.086,20.020,-49.316,0
120531.313,24.414,37.109,35.645,26.367,-3.906,0
120531.316,50.781,39.551,28.320,37.598,32.227,0
120531.320,43.945,40.039,24.902,34.668,48.828,0
120531.322,17.090,41.016,22.461,25.879,24.414,0
120531.326,20.508,39.551,20.020,31.250,29.297,0
120531.330,46.875,37.598,26.367,43.945,63.965,0
120531.334,46.875,40.527,33.203,47.363,78.125,0
120531.338,15.137,36.621,30.273,37.598,48.828,0
120531.342,8.301,37.109,27.344,34.668,23.926,0
120531.346,39.062,37.598,43.945,40.527,79.590,0
120531.350,51.758,38.086,59.082,43.945,103.027,0
120531.354,30.273,42.969,45.410,37.598,61.035,0
120531.358,6.348,36.621,31.250,23.926,44.922,0
120531.361,23.926,35.156,28.320,26.855,59.570,0
120531.365,47.363,36.133,24.902,30.273,74.219,0
120531.368,33.203,36.133,26.367,20.020,49.805,0
120531.372,14.160,39.062,32.715,11.230,4.883,0
120531.376,29.297,40.527,29.297,18.066,39.551,0
120531.380,57.129,43.945,21.973,31.250,118.164,0
120531.384,50.781,41.504,18.066,26.367,94.238,0
120531.387,20.020,37.109,16.602,15.137,33.203,0
120531.391,20.508,36.133,20.996,18.555,32.227,0
120531.395,49.805,34.180,25.391,30.762,81.055,0
120531.399,52.734,34.180,35.645,30.273,111.328,0
120531.403,20.020,32.715,43.457,22.461,53.223,0
120531.407,11.230,34.668,44.434,28.809,9.766,0
120531.411,41.992,35.645,35.645,41.016,75.684,0
120531.414,58.105,32.227,30.273,49.316,128.418,0
120531.418,34.668,31.250,26.855,40.527,7.324,0
120531.421,10.742,33.203,21.973,28.320,-69.824,0
120531.425,31.738,35.156,32.715,38.574,-6.836,0
120531.429,52.246,34.668,41.992,47.852,21.973,0
120531.433,32.715,35.156,38.574,32.715,-2.441,0
120531.437,9.277,33.203,24.902,20.508,-62.012,0
120531.441,19.043,33.203,21.973,29.785,-13.672,0
120531.445,47.852,37.109,28.320,41.016,66.406,0
120531.449,42.969,39.551,31.738,33.203,76.660,0
120531.453,18.555,41.504,39.551,21.973,29.297,0
120531.457,18.066,40.039,36.133,25.391,48.828,0
120531.472,41.504,36.621,24.414,30.762,128.418,0
120531.476,48.828,38.574,26.855,29.297,111.816,0
120531.480,27.832,41.016,30.273,25.391,62.012,0
120531.484,19.043,38.574,10.742,27.832,35.156,0
120531.488,39.551,36.133,12.695,34.668,70.312,0
120531.492,52.246,35.156,31.738,35.645,69.824,0
120531.496,32.227,34.668,33.691,29.785,42.480,0
120531.500,12.207,36.621,39.062,25.391,29.297,0
120531.504,30.762,36.133,40.039,34.668,33.203,0
120531.507,60.059,37.598,31.250,48.340,106.445,0
120531.511,48.828,37.109,23.438,41.992,104.004,0
120531.515,19.043,35.645,28.809,32.715,42.969,0
120531.517,23.438,36.133,35.645,34.180,57.129,0
120531.521,47.363,38.574,38.086,34.668,83.496,0
120531.525,41.016,38.086,34.668,28.809,84.473,0
120531.529,16.113,36.621,30.762,21.973,49.805,0
120531.533,13.672,39.062,30.273,20.508,25.391,0
120531.537,38.574,37.109,33.203,29.785,34.180,0
120531.541,48.340,37.598,33.691,32.715,41.992,0
120531.545,26.855,41.016,31.250,23.926,15.625,0
120531.549,13.184,40.527,28.320,18.555,-60.547,0
120531.553,37.109,38.086,26.367,28.809,-43.945,0
120531.556,52.734,38.086,26.367,37.598,32.715,0
120531.560,30.762,38.086,27.344,29.785,21.484,0
120531.562,10.742,39.062,26.855,26.367,-11.719,0
120531.566,24.414,40.527,21.484,32.715,5.859,0
120531.570,50.293,41.992,16.113,37.598,66.895,0
120531.574,44.922,41.504,19.043,37.109,63.477,0
120531.578,16.113,39.062,32.715,26.855,4.395,0
120531.582,14.160,39.062,37.109,25.391,34.180,0
120531.586,40.039,39.551,30.762,36.133,121.094,0
120531.590,42.480,39.062,36.133,34.668,109.375,0
120531.594,16.602,40.527,32.227,23.438,0.488,0
120531.598,11.230,41.992,26.367,22.949,-8.789,0
120531.601,41.016,41.016,36.621,37.598,102.539,0
120531.605,54.199,41.016,40.039,39.062,116.211,0
120531.608,27.832,42.480,32.227,25.879,36.621,0
120531.612,17.578,42.480,32.227,26.855,27.832,0
120531.616,45.898,41.992,34.668,44.434,56.641,0
120531.620,63.965,41.016,29.785,48.340,117.188,0
120531.624,41.504,38.574,30.273,33.203,112.793,0
120531.628,14.160,38.574,32.227,23.438,34.668,0
120531.631,24.414,42.480,30.762,31.250,36.621,0
120531.635,44.434,38.574,34.668,37.109,39.551,0
120531.639,36.621,36.621,35.156,38.086,46.387,0
120531.643,12.207,39.062,25.879,35.645,17.578,0
120531.647,13.184,41.016,31.738,32.227,0.000,0
120531.651,44.434,41.504,43.457,39.062,66.895,0
120531.652,47.852,40.039,38.086,39.551,83.984,0
120531.656,22.949,41.992,32.227,30.273,37.109,0
120531.660,15.137,43.457,38.086,29.297,-15.625,0
120531.664,41.504,41.504,36.133,38.574,-1.953,0
120531.668,55.664,40.039,33.691,41.016,51.270,0
120531.672,33.203,40.039,41.504,31.738,43.457,0
120531.676,15.625,40.039,39.551,25.879,3.418,0
120531.680,31.738,38.574,36.133,33.203,3.418,0
120531.684,52.734,38.574,41.016,42.480,52.246,0
120531.687,38.086,38.086,40.527,33.203,42.480,0
120531.691,17.090,41.504,39.062,25.879,7.324,0
120531.695,25.879,42.480,35.645,31.738,26.855,0
120531.699,46.875,41.992,28.320,33.691,71.777,0
120531.703,39.551,41.016,30.762,27.832,65.918,0
120531.706,11.230,39.062,37.598,19.043,3.418,0
120531.710,10.742,40.039,34.668,21.484,10.254,0
120531.714,36.133,37.598,32.715,32.227,78.613,0
120531.718,37.598,35.645,37.598,30.762,87.891,0
120531.722,8.789,35.645,32.715,20.996,18.066,0
120531.726,-1.953,33.691,29.785,18.555,-13.184,0
120531.730,22.949,32.715,36.621,29.297,45.410,0
120531.734,36.133,34.668,35.156,30.762,65.430,0
120531.738,13.184,35.645,30.273,20.508,18.066,0
120531.742,-9.277,35.156,30.273,16.113,-14.160,0
120531.742,7.324,36.133,27.344,24.902,25.879,0
120531.746,35.156,39.062,23.438,32.227,99.121,0
120531.750,26.367,38.086,22.461,22.949,82.520,0
120531.754,0.488,37.109,25.391,14.160,42.969,0
120531.758,12.207,38.086,33.203,20.020,39.551,0
120531.762,45.410,38.574,36.621,30.762,81.055,0
120531.766,46.875,39.062,32.715,34.668,68.359,0
120531.770,18.555,39.551,32.715,22.949,27.344,0
120531.774,15.137,37.109,34.180,20.020,64.941,0
120531.778,43.457,37.598,38.086,35.156,92.773,0
120531.781,52.734,39.062,39.062,39.062,96.680,0
120531.785,28.809,38.574,37.598,31.738,65.918,0
120531.802,11.230,36.621,35.156,33.691,15.625,0
120531.806,28.320,32.715,30.273,41.504,34.180,0
120531.810,41.016,30.273,36.133,41.992,70.312,0
120531.814,19.531,31.250,43.945,35.645,62.988,0
120531.818,-3.906,31.250,34.180,31.738,-6.348,0
120531.822,11.230,32.715,18.066,32.715,-14.160,0
120531.826,40.039,33.691,16.602,33.691,81.055,0
120531.830,33.203,33.691,30.762,26.855,85.938,0
120531.834,8.301,33.203,43.945,18.066,14.648,0
120531.838,14.160,31.738,46.387,20.996,4.883,0
120531.841,43.457,32.227,46.387,30.273,73.730,0
120531.845,47.852,31.738,41.992,28.320,85.449,0
120531.847,27.344,33.203,37.598,20.508,4.883,0
120531.851,22.461,35.156,38.086,25.391,-13.672,0
120531.855,46.387,36.621,41.016,35.156,85.449,0
120531.859,58.594,34.668,41.016,34.180,126.953,0
120531.863,36.133,36.133,22.949,25.879,66.895,0
120531.867,18.066,37.598,20.508,24.902,-14.648,0
120531.871,33.203,33.691,39.062,32.715,14.160,0
120531.875,48.340,34.180,45.410,35.645,88.867,0
120531.879,24.902,36.621,42.969,26.855,59.082,0
120531.882,-9.766,33.203,41.016,15.625,23.438,0
120531.886,-2.441,30.762,38.086,24.414,52.246,0
120531.890,25.391,31.738,32.227,40.527,106.934,0
120531.892,21.973,33.691,37.598,40.039,119.141,0
120531.896,-6.348,37.109,45.410,32.715,43.945,0
120531.900,-7.812,34.180,44.434,34.180,39.551,0
120531.904,20.020,32.227,43.457,38.086,105.957,0
120531.908,21.973,37.109,39.551,30.762,85.449,0
120531.912,-5.859,37.598,37.109,20.020,22.949,0
120531.916,-13.184,35.156,36.621,21.484,-6.348,0
120531.920,16.113,36.621,35.645,27.832,60.059,0
120531.924,35.645,40.039,40.039,28.320,86.914,0
120531.927,19.531,40.527,41.992,20.508,17.090,0
120531.931,9.277,41.992,43.945,19.531,-5.371,0
120531.935,32.715,44.434,44.922,26.855,30.273,0
120531.939,59.570,42.480,47.363,30.273,89.355,0
120531.943,51.270,41.016,50.293,21.973,73.242,0
120531.946,26.367,41.992,47.363,17.090,6.348,0
120531.950,35.156,41.016,41.992,29.297,12.207,0
120531.954,60.059,40.039,42.969,40.527,52.734,0
120531.958,53.711,37.598,52.734,37.598,63.965,0
120531.962,25.391,37.109,49.805,29.297,-13.672,0
120531.966,22.461,39.551,44.922,30.762,-46.875,0
120531.970,42.969,38.574,46.875,37.109,22.949,0
120531.974,45.898,37.109,42.969,38.574,67.383,0
120531.978,17.090,34.180,42.969,31.250,38.574,0
120531.982,1.953,35.156,46.875,28.320,-8.789,0
120531.982,20.996,35.645,54.688,36.133,38.574,0
120531.986,30.273,34.668,50.293,36.133,60.059,0
120531.990,8.789,36.621,44.922,27.832,24.414,0
120531.994,-12.695,38.574,48.828,22.461,18.555,0
120531.998,6.836,41.016,46.875,33.691,56.152,0
120532.002,34.180,42.969,37.109,41.992,113.281,0
120532.006,23.438,42.480,36.621,37.109,89.844,0
120532.010,1.953,43.945,46.387,29.785,13.184,0
120532.014,16.113,44.434,51.758,32.715,11.230,0
120532.018,48.828,42.480,46.875,40.527,58.105,0
120532.022,49.316,42.969,39.062,37.109,64.453,0
120532.025,25.879,44.922,37.109,29.785,25.879,0
120532.028,27.344,45.898,36.621,35.645,16.113,0
120532.032,58.105,42.969,43.945,44.434,62.012,0
120532.036,68.848,43.945,47.363,40.527,72.754,0
120532.040,44.434,46.875,53.711,29.785,29.785,0
120532.044,31.738,46.387,59.082,26.367,23.438,0
120532.048,54.688,43.945,50.781,32.227,47.852,0
120532.051,65.430,38.574,50.781,32.715,63.477,0
120532.055,40.039,36.133,54.688,21.973,13.184,0
120532.059,14.648,36.621,51.758,16.113,-34.180,0
120532.063,32.715,37.598,50.293,25.879,59.082,0
120532.067,60.547,39.062,48.340,36.133,128.906,0
120532.071,42.480,38.086,45.898,27.832,115.234,0
120532.072,8.301,39.551,40.527,15.625,73.730,0
120532.076,10.254,39.062,41.992,21.973,61.035,0
120532.080,35.645,38.086,50.781,26.855,85.449,0
120532.084,32.715,39.062,52.246,22.461,64.453,0
120532.088,0.977,41.016,47.363,15.625,40.039,0
120532.092,-7.324,39.062,41.504,11.230,22.949,0
120532.096,20.508,39.551,41.992,19.043,37.598,0
120532.100,32.715,42.480,44.434,21.484,63.965,0
120532.104,9.277,41.504,40.039,9.277,60.059,0
120532.107,-1.953,41.504,40.527,7.324,45.410,0
120532.111,22.461,42.480,33.203,13.184,24.902,0
120532.115,41.992,43.945,23.438,14.160,39.062,0
120532.117,26.367,41.992,35.156,11.230,32.715,0
120532.121,1.465,39.062,43.457,5.859,-18.555,0
120532.125,18.066,38.086,32.715,11.230,23.438,0
120532.129,47.852,39.062,27.344,19.531,100.098,0
120532.133,38.574,38.574,43.457,17.090,82.520,0
120532.137,8.301,36.621,56.641,14.648,26.855,0
120532.141,11.230,38.574,52.246,20.996,11.719,0
120532.145,39.062,39.062,51.758,30.273,58.105,0
120532.149,38.574,39.551,49.316,32.227,116.699,0
120532.152,12.695,41.504,43.945,21.484,81.543,0
120532.156,0.000,38.086,33.203,15.137,28.320,0
120532.160,25.879,38.086,27.344,26.855,83.984,2
120532.164,38.086,39.062,29.297,29.785,150.879,0
120532.168,11.230,37.598,34.668,17.578,94.727,0
120532.172,-3.418,40.039,38.574,10.742,33.203,0
120532.175,20.508,40.527,36.621,20.020,80.566,0
120532.179,44.922,41.504,41.504,25.879,101.074,0
120532.183,37.598,46.875,46.875,16.602,72.266,0
120532.187,19.043,49.316,43.457,13.184,27.832,0
120532.191,28.320,44.922,33.691,20.020,53.711,0
120532.195,53.711,40.527,33.691,26.367,98.633,0
120532.199,50.781,42.969,41.016,27.344,78.613,0
120532.203,23.926,48.340,33.691,18.066,38.574,0
120532.207,21.973,43.945,20.996,18.555,83.496,0
120532.222,49.316,39.551,21.973,32.715,98.633,0
120532.226,50.293,40.527,28.809,34.668,63.477,0
120532.230,16.602,37.109,35.645,21.973,56.641,0
120532.234,4.883,35.645,38.086,18.066,24.414,0
120532.238,31.250,37.598,36.621,29.297,33.691,0
120532.242,41.504,37.598,38.086,28.320,34.180,0
120532.246,16.602,33.691,38.574,16.113,3.418,0
120532.250,-3.906,32.715,38.574,16.113,0.977,0
120532.254,15.137,35.645,32.715,23.926,39.062,0
120532.258,42.480,35.156,31.738,31.738,70.801,0
120532.261,30.273,35.645,36.133,29.785,47.852,0
120532.265,3.418,36.133,35.156,16.113,27.832,0
120532.267,13.184,37.109,33.691,20.020,43.457,0
120532.271,46.875,39.062,22.949,33.203,66.406,0
120532.275,46.387,38.574,11.230,29.297,46.387,0
120532.279,21.484,39.062,20.508,18.066,-15.137,0
120532.283,20.508,41.504,38.086,22.949,-20.020,0
120532.287,45.898,41.016,46.387,37.109,11.230,0
120532.291,54.688,41.016,37.109,37.109,26.367,0
120532.295,31.738,40.527,28.320,29.785,-0.488,0
120532.299,16.602,41.016,34.180,27.344,-31.250,0
120532.303,37.598,39.551,37.598,33.203,0.000,0
120532.306,51.758,36.621,31.738,34.668,32.715,0
120532.310,31.250,35.645,29.297,24.902,21.484,0
120532.312,11.719,35.156,31.250,18.555,8.301,0
120532.316,28.320,38.086,33.203,26.855,3.906,0
120532.320,54.688,39.551,24.902,34.180,61.035,0
120532.324,46.875,37.598,13.184,25.879,58.105,0
120532.328,24.414,41.504,20.020,18.555,-26.367,0
120532.332,31.738,42.480,29.297,25.879,-6.348,0
120532.336,55.176,41.504,29.785,32.227,58.105,0
120532.340,55.664,44.434,36.133,29.785,80.566,0
120532.344,32.227,43.945,35.156,25.879,32.227,0
120532.348,28.809,43.945,29.785,28.320,11.719,0
120532.351,57.617,43.945,31.738,39.062,72.266,0
120532.355,63.965,41.992,37.109,39.551,67.383,0
120532.357,38.086,41.992,35.645,31.250,1.465,0
120532.361,21.973,40.527,33.203,32.227,-37.598,0
120532.365,39.062,37.598,35.645,43.457,22.949,0
120532.369,47.363,35.156,36.133,43.457,90.820,0
120532.373,31.250,37.109,27.832,32.227,46.387,0
120532.377,10.742,38.086,20.020,22.461,-7.324,0
120532.381,18.555,36.621,27.344,25.391,18.066,0
120532.385,44.434,37.598,28.809,35.156,54.688,0
120532.389,41.016,38.086,30.273,32.227,51.270,0
120532.392,19.531,36.133,30.273,22.949,4.883,0
120532.396,22.949,35.645,21.973,26.367,-13.184,0
120532.400,46.387,36.621,18.066,36.133,47.852,0
120532.404,50.781,37.598,27.832,37.598,66.406,0
120532.408,27.344,39.062,35.156,28.320,28.320,0
120532.412,17.578,38.574,27.344,28.320,5.371,0
120532.415,42.969,39.551,18.066,38.574,19.043,0
120532.419,50.781,41.992,8.301,36.133,60.059,0
120532.423,22.461,40.527,8.301,23.438,69.824,0
120532.427,4.883,41.016,24.414,15.625,30.762,0
120532.431,27.344,41.504,33.691,15.625,17.578,0
120532.435,45.410,41.504,37.598,20.508,83.496,0
120532.439,31.250,42.480,40.039,22.461,45.898,0
120532.443,7.324,40.039,34.180,13.184,-7.812,0
120532.447,13.184,37.109,24.902,14.648,30.762,0
120532.448,40.527,34.668,14.648,28.320,53.711,0
120532.452,31.738,34.668,10.742,25.879,58.105,0
120532.456,2.441,35.156,20.020,13.184,16.113,0
120532.460,10.742,35.645,16.602,14.648,17.578,0
120532.464,34.668,35.156,11.230,22.461,76.172,0
120532.468,32.715,35.645,27.832,15.137,113.770,0
120532.471,9.277,38.086,34.668,4.883,60.059,0
120532.475,-1.953,38.574,31.250,4.883,-1.953,0
120532.479,24.414,36.621,23.438,14.648,56.641,0
120532.483,46.875,39.062,11.719,22.461,121.582,0
120532.487,27.832,41.992,18.555,20.020,115.234,0
120532.491,6.836,40.039,18.555,16.113,76.172,0
120532.492,26.367,37.598,6.836,23.926,102.539,0
120532.496,48.828,37.109,20.020,31.738,140.625,0
120532.500,38.574,38.086,34.180,24.902,80.566,0
120532.504,14.160,37.598,29.785,14.648,11.230,0
120532.508,21.484,38.086,22.461,19.531,19.531,0
120532.512,49.316,40.527,26.855,27.832,49.316,0
120532.516,42.480,40.527,36.621,19.531,51.270,0
120532.520,14.648,38.574,36.621,10.254,31.738,0
120532.524,17.090,39.062,10.254,17.090,33.203,0
120532.527,41.992,39.062,-7.324,27.832,66.895,0
120532.531,45.410,37.109,20.996,25.391,74.707,0
120532.535,20.508,34.668,47.852,16.602,47.852,0
120532.552,5.859,33.691,44.434,15.625,9.277,0
120532.556,32.715,33.203,34.180,28.320,36.621,0
120532.560,51.758,32.715,22.461,38.574,77.637,0
120532.564,30.762,34.180,3.418,32.227,50.781,0
120532.568,12.207,34.180,0.488,24.414,23.438,0
120532.572,30.273,32.715,27.832,30.762,38.574,0
120532.576,56.152,35.156,48.340,40.039,80.566,0
120532.580,47.363,37.598,46.875,34.180,69.336,0
120532.584,19.043,33.691,43.945,27.344,23.438,0
120532.588,21.484,31.738,37.109,30.273,0.488,0
120532.591,43.945,30.762,26.855,35.156,25.391,0
120532.595,39.551,27.832,11.230,29.297,48.340,0
120532.597,9.277,23.926,2.441,18.066,-2.441,0
120532.601,-1.465,20.020,9.277,19.043,4.395,0
120532.605,26.367,23.438,10.254,26.367,98.633,0
120532.609,36.133,23.438,7.812,23.438,117.188,0
120532.613,13.672,21.973,12.207,16.602,45.898,0
120532.617,5.859,25.879,11.230,18.555,-23.438,0
120532.621,30.273,25.879,10.254,30.273,0.488,0
120532.625,54.199,26.367,17.090,36.133,33.203,0
120532.629,36.621,26.855,21.973,27.832,22.949,0
120532.633,10.742,28.809,20.020,20.996,-34.180,0
120532.636,25.879,31.250,20.020,28.809,-35.156,0
120532.640,49.316,29.297,22.461,38.574,35.156,0
120532.644,38.574,28.320,21.484,30.273,18.066,0
120532.648,11.719,31.250,13.184,17.578,-23.926,0
120532.652,12.207,32.715,12.207,20.508,5.859,0
120532.655,40.039,33.203,11.719,29.785,45.898,0
120532.659,41.504,34.180,1.953,26.367,31.738,0
120532.663,12.207,33.691,10.742,16.113,-11.230,0
120532.667,2.930,35.645,19.043,11.719,-35.645,0
120532.671,27.344,33.691,18.066,16.602,26.367,0
120532.675,44.922,35.156,20.020,21.973,41.992,0
120532.679,26.855,39.551,15.137,16.602,15.137,0
120532.683,7.812,34.668,20.508,14.160,9.277,0
120532.687,23.926,28.320,30.273,20.508,19.043,0
120532.687,39.062,30.273,30.762,27.832,64.453,0
120532.691,16.113,29.785,31.250,23.438,43.945,0
120532.695,-9.277,29.297,28.809,19.531,-4.883,0
120532.699,8.301,33.691,23.926,26.367,28.809,0
120532.703,33.691,33.203,24.414,34.180,62.500,0
120532.707,28.809,37.109,-1.953,35.156,43.457,0
120532.711,6.348,40.527,-22.949,25.879,13.184,0
120532.715,8.789,40.527,14.160,24.902,-8.301,0
120532.719,39.062,41.016,49.316,28.320,24.414,0
120532.722,43.457,39.551,50.293,23.438,54.199,0
120532.726,20.508,39.062,42.480,19.043,59.570,0
120532.730,11.230,39.551,33.203,19.043,28.809,0
120532.732,38.086,41.016,29.785,30.762,46.387,0
120532.736,56.641,41.016,30.273,37.109,106.934,0
120532.740,35.156,42.480,28.320,24.902,77.637,0
120532.744,14.160,40.527,18.555,23.926,18.555,0
120532.748,30.273,35.645,9.277,37.598,48.828,0
120532.752,51.270,35.156,18.555,41.992,68.848,0
120532.756,33.203,32.715,28.809,33.203,35.645,0
120532.760,6.836,30.273,27.344,27.344,-34.180,0
120532.764,16.602,29.297,25.391,28.320,-41.992,0
120532.768,45.410,29.297,28.809,37.598,81.543,0
120532.771,42.969,30.762,27.832,37.109,81.543,0
120532.775,12.207,30.762,19.043,24.902,-11.230,0
120532.777,15.137,33.691,13.184,26.855,-1.953,0
120532.781,47.852,37.598,15.625,37.109,62.988,0
120532.785,47.363,36.621,21.484,33.691,75.195,0
120532.789,19.043,35.156,20.996,22.949,25.879,0
120532.793,10.742,39.062,19.043,24.902,8.301,0
120532.797,38.574,41.016,20.996,35.156,24.414,0
120532.801,56.152,38.086,22.949,34.668,55.664,0
120532.805,32.715,38.574,22.461,21.484,2.930,0
120532.809,11.719,39.062,17.090,17.090,-41.504,0
120532.813,31.738,38.086,20.020,26.367,23.926,0
120532.816,53.711,35.156,22.461,32.715,54.199,0
120532.820,37.598,34.180,20.996,28.809,43.457,0
120532.822,13.672,33.691,26.855,21.973,38.574,0
120532.826,17.090,33.203,25.391,25.391,22.949,0
120532.830,42.480,33.691,25.879,35.156,34.668,0
120532.834,44.434,35.645,25.879,32.227,36.621,0
120532.838,17.578,37.109,7.812,20.508,-9.766,0
120532.842,8.789,37.109,7.324,20.508,-4.395,0
120532.846,34.180,34.668,19.043,30.762,40.527,0
120532.850,41.992,33.203,18.555,28.320,74.219,0
120532.854,18.555,35.156,30.762,20.508,77.637,0
120532.858,5.859,36.133,31.738,24.414,40.527,0
120532.861,28.809,33.203,20.020,33.691,63.965,0
120532.865,50.781,31.738,22.949,36.133,111.328,0
120532.869,34.668,34.180,32.715,28.320,100.586,0
120532.873,10.742,34.668,35.156,22.949,62.012,0
120532.877,22.461,31.738,30.762,31.738,45.410,0
120532.881,47.363,34.180,23.438,39.062,86.426,0
120532.885,39.062,37.109,21.973,33.691,81.055,0
120532.889,14.648,36.133,26.367,27.832,38.086,0
120532.893,19.531,35.156,26.855,31.738,4.395,0
120532.897,47.363,35.156,14.160,40.039,61.035,0
120532.901,47.363,35.156,15.137,36.621,124.023,0
120532.905,23.438,38.086,21.973,29.785,76.660,0
120532.908,20.996,39.551,15.625,33.691,81.543,0
120532.912,41.016,38.086,19.531,37.598,123.047,0
120532.927,46.875,37.109,25.879,33.691,115.234,0
120532.931,24.902,36.133,29.785,21.973,80.078,0
120532.935,10.254,33.203,30.762,17.578,46.387,0
120532.939,34.180,33.203,33.203,31.738,84.473,0
120532.943,56.641,35.645,30.273,38.574,108.887,0
120532.947,39.551,35.645,24.902,26.855,41.504,0
120532.951,15.625,34.180,22.461,17.578,-49.805,0
120532.955,28.320,36.133,7.324,25.879,-54.688,0
120532.959,58.594,35.645,0.488,37.109,15.137,0
120532.963,50.293,36.621,18.066,32.227,-3.906,0
120532.966,24.414,39.551,29.297,23.438,-32.227,0
120532.970,25.391,40.039,35.156,24.902,1.465,0
120532.972,49.316,40.527,36.133,32.715,46.875,0
120532.976,57.617,38.574,29.297,35.645,38.574,0
120532.980,32.227,36.621,20.996,27.832,1.953,0
120532.984,22.461,37.598,20.996,27.344,1.953,0
120532.988,50.293,39.062,32.227,39.062,48.828,0
120532.992,62.500,37.598,34.180,42.480,81.543,0
120532.996,35.156,35.156,34.180,31.738,60.547,0
120533.000,20.020,36.621,28.320,31.738,29.785,0
120533.004,40.039,35.156,20.020,38.086,43.457,0
120533.008,55.176,33.691,30.273,38.574,46.387,0
120533.011,41.992,36.133,38.574,35.645,5.859,0
120533.015,20.508,36.621,38.086,29.785,-14.160,0
120533.017,32.715,36.133,34.180,37.598,10.254,0
120533.021,57.617,34.668,20.996,46.875,68.848,0
120533.025,50.781,35.645,22.461,40.527,76.660,0
120533.029,25.879,39.062,34.180,31.250,43.457,0
120533.033,20.996,38.086,34.180,31.738,69.824,0
120533.037,44.922,35.645,32.227,36.621,101.562,0
120533.041,46.387,36.621,21.484,34.668,74.219,0
120533.045,18.066,40.039,0.488,27.344,60.547,0
120533.049,3.906,37.109,10.742,20.508,41.504,0
120533.053,26.367,30.273,43.945,29.785,70.801,0
120533.056,41.992,30.762,50.781,39.551,131.836,0
120533.060,25.879,34.180,39.551,33.203,79.590,0
120533.062,8.789,33.203,35.156,28.320,33.203,0
120533.066,22.461,30.273,31.250,32.227,65.430,0
120533.070,48.340,33.691,24.902,40.039,117.676,0
120533.074,42.969,36.621,27.344,39.551,86.426,0
120533.078,19.043,34.668,27.344,32.715,-9.766,0
120533.082,23.438,34.668,22.461,33.203,-13.672,0
120533.086,46.387,35.156,13.672,38.086,61.523,0
120533.090,44.434,37.598,15.137,34.180,62.500,0
120533.094,18.555,38.574,22.461,26.367,-19.531,0
120533.098,13.184,38.574,16.113,27.832,1.953,0
120533.101,43.945,38.086,6.348,38.086,60.059,0
120533.105,56.641,37.109,16.113,39.551,57.617,0
120533.109,24.902,36.621,27.344,27.344,39.551,0
120533.113,7.324,35.645,21.973,22.461,24.902,0
120533.116,31.738,33.691,19.531,35.156,45.898,0
120533.120,48.340,34.668,24.414,39.551,59.570,0
120533.124,27.832,36.133,26.855,29.785,27.832,0
120533.128,8.301,36.133,18.066,25.879,-41.016,0
120533.132,20.996,33.203,12.695,27.832,-31.250,0
120533.136,41.016,29.785,21.973,27.344,12.695,0
120533.140,33.691,30.273,28.320,22.949,-8.301,0
120533.144,8.301,30.762,21.973,17.578,-5.371,0
120533.148,14.160,29.785,22.461,20.996,-8.301,0
120533.152,43.457,31.250,27.344,29.297,26.367,0
120533.152,43.457,34.180,24.902,27.832,46.875,0
120533.156,15.137,33.691,28.809,19.531,4.395,0
120533.160,8.301,33.691,31.250,20.020,-18.555,0
120533.164,36.621,35.645,16.113,28.320,13.672,0
120533.168,44.434,35.645,13.672,24.902,32.715,0
120533.172,18.066,33.691,33.203,20.020,-18.066,0
120533.176,5.371,33.691,37.109,23.438,-23.438,0
120533.180,27.832,36.133,30.762,29.785,24.902,0
120533.184,47.363,37.109,35.645,30.762,69.824,0
120533.188,31.738,33.691,42.480,22.949,65.430,0
120533.191,9.766,35.156,33.691,18.555,7.812,0
120533.195,22.949,38.574,22.949,25.879,42.969,0
120533.197,44.434,35.156,35.156,37.109,89.355,0
120533.201,38.086,34.668,51.758,32.227,39.062,0
120533.205,11.230,35.156,39.551,19.531,17.578,0
120533.209,7.324,34.668,21.484,20.020,-7.324,0
120533.213,36.621,35.156,26.367,30.762,4.395,0
120533.217,41.992,36.621,35.156,31.738,74.707,0
120533.221,18.555,39.551,35.156,21.484,62.988,0
120533.225,9.766,37.109,37.598,21.973,29.785,0
120533.229,37.109,33.691,31.738,36.621,53.711,0
120533.233,53.223,36.133,19.531,39.551,89.844,0
120533.236,28.320,37.598,18.066,28.320,69.336,0
120533.240,4.883,33.691,33.203,19.043,13.184,0
120533.242,22.949,32.227,45.410,25.879,57.129,0
120533.246,49.316,34.668,43.945,39.551,81.055,0
120533.250,38.574,36.133,39.062,36.133,26.367,0
120533.254,14.160,33.691,21.484,26.855,24.414,0
120533.258,21.484,34.180,22.949,34.180,71.289,0
120533.262,47.363,36.133,41.016,42.969,118.164,0
120533.266,45.410,37.598,41.016,33.691,69.824,0
120533.270,20.020,38.086,37.598,29.297,-8.301,0
120533.274,20.508,40.039,34.668,33.691,12.695,0
120533.277,49.805,44.922,28.320,38.086,38.086,0
120533.281,52.734,46.875,18.555,37.109,28.809,0
120533.285,23.926,41.504,27.344,24.414,8.789,0
120533.289,10.742,38.574,47.363,23.926,0.000,0
120533.293,36.621,41.504,45.898,32.227,31.250,0
120533.297,50.781,41.016,27.832,30.762,58.105,0
120533.301,29.785,41.016,25.879,26.855,51.270,0
120533.305,9.277,40.039,35.156,21.484,1.465,0
120533.309,23.926,38.086,35.156,26.367,0.977,0
120533.313,45.898,40.039,20.020,36.621,64.941,0
120533.317,42.969,41.992,-8.789,31.250,92.773,0
120533.321,15.137,41.016,1.465,17.578,48.340,0
120533.325,14.648,39.551,41.992,22.461,59.082,0
120533.328,45.410,36.621,56.152,36.133,71.777,0
120533.332,42.969,35.645,51.270,33.203,27.344,0
120533.347,13.184,39.062,37.598,19.043,18.555,0
120533.351,11.230,39.551,25.879,21.973,25.879,0
120533.355,43.945,34.668,22.461,35.645,69.824,0
120533.359,52.246,36.133,20.996,35.645,97.656,0
120533.363,24.902,42.969,25.391,27.344,51.270,0
120533.367,9.766,39.551,28.809,22.949,-3.906,0
120533.371,28.809,37.598,19.043,28.320,32.715,0
120533.375,38.574,36.133,16.602,30.273,91.797,0
120533.379,22.461,34.180,33.203,22.949,40.527,0
120533.382,7.324,36.133,36.621,21.973,0.488,0
120533.386,20.996,34.180,25.391,28.320,58.594,0
120533.390,45.898,29.297,14.160,35.645,104.980,0
120533.392,34.180,26.855,14.648,33.203,54.688,0
120533.396,6.348,31.738,26.367,26.855,21.973,0
120533.400,8.301,36.621,25.391,20.996,20.508,0
120533.404,36.133,41.016,16.113,22.949,78.125,0
120533.408,36.133,40.039,14.648,21.973,62.988,0
120533.412,1.953,34.180,24.414,13.184,-13.184,0
120533.416,-5.371,32.227,26.367,14.160,-5.859,0
120533.420,26.367,34.180,18.555,25.879,50.293,0
120533.424,39.551,34.668,15.625,31.738,52.734,0
120533.428,20.508,37.109,17.578,23.926,-1.953,0
120533.431,4.883,37.109,23.438,21.973,-20.020,0
120533.435,23.438,34.180,22.949,26.855,-3.418,0
120533.437,48.340,38.574,16.113,32.715,62.988,0
120533.441,36.621,42.480,16.113,32.227,79.590,0
120533.445,13.184,40.527,25.391,27.344,36.133,0
120533.449,26.855,37.598,34.180,37.598,33.203,0
120533.453,58.594,39.062,26.855,50.293,86.914,0
120533.457,50.781,39.551,27.344,41.992,69.336,0
120533.461,21.973,36.621,36.621,25.879,-4.883,0
120533.465,26.855,35.156,32.715,26.855,-25.879,0
120533.469,49.316,35.156,30.273,35.156,-4.395,0
120533.473,50.781,37.109,27.832,34.180,26.855,0
120533.476,24.902,34.180,23.926,24.902,23.438,0
120533.480,12.695,33.203,29.297,23.438,-5.371,0
120533.482,38.574,35.156,20.020,34.668,39.551,0
120533.486,49.316,34.180,10.254,40.527,80.078,0
120533.490,27.344,33.203,22.949,30.273,42.969,0
120533.494,7.812,34.668,27.832,20.996,2.441,0
120533.498,21.973,31.738,22.461,25.879,35.645,0
120533.502,42.480,29.297,26.855,30.273,81.055,0
120533.506,30.762,29.785,16.113,27.344,38.574,0
120533.510,8.789,33.203,-8.789,22.949,-23.438,0
120533.514,19.531,35.156,-2.441,23.438,6.348,0
120533.518,48.340,31.250,10.742,33.691,82.031,0
120533.521,46.387,35.645,13.672,35.156,70.312,0
120533.525,15.137,37.109,27.832,20.996,16.113,0
120533.527,8.301,28.809,43.945,20.996,31.738,0
120533.531,38.086,26.367,55.664,33.691,97.168,0
120533.535,44.434,30.273,47.852,31.738,102.539,0
120533.539,18.555,33.203,27.344,24.902,33.203,0
120533.543,8.301,35.645,32.227,22.461,-2.930,0
120533.547,30.273,35.645,19.531,25.391,7.324,0
120533.551,45.410,35.645,-18.066,30.273,26.367,0
120533.555,23.926,30.762,10.254,20.508,4.395,0
120533.559,2.930,30.273,53.711,8.789,4.883,0
120533.563,24.414,33.691,48.828,16.113,32.715,0
120533.566,52.734,34.668,30.273,26.367,50.293,0
120533.570,42.480,37.598,25.391,20.508,30.762,0
120533.574,16.602,39.062,29.297,15.137,6.836,0
120533.578,24.902,38.574,20.996,25.879,15.625,0
120533.582,60.059,41.504,11.719,38.574,35.156,0
120533.585,58.105,39.551,12.695,32.715,67.383,0
120533.589,21.484,35.156,25.879,19.043,42.969,0
120533.593,14.160,35.156,37.598,23.926,-6.348,0
120533.597,43.457,34.668,32.227,35.156,14.648,0
120533.601,48.828,31.250,22.461,32.715,51.270,0
120533.605,22.949,34.180,15.625,25.391,27.344,0
120533.609,6.348,36.133,3.906,24.414,-16.602,0
120533.613,27.832,32.715,5.859,35.156,39.062,0
120533.617,48.340,33.691,24.902,43.457,83.496,0
120533.617,30.273,34.668,24.902,35.645,74.707,0
120533.621,6.348,31.738,23.438,22.949,36.133,0
120533.625,20.996,30.273,35.156,27.344,43.457,0
120533.629,45.410,27.832,36.621,36.133,95.703,0
120533.633,35.156,28.809,30.762,28.809,81.055,0
120533.637,8.301,32.227,28.320,22.461,-5.371,0
120533.641,13.184,30.273,20.508,24.902,-69.824,0
120533.645,41.504,32.227,16.602,28.809,-0.488,0
120533.649,43.457,32.227,24.414,26.367,50.781,0
120533.653,19.043,31.250,32.715,15.625,9.766,0
120533.657,12.207,32.715,20.508,16.113,0.000,0
120533.660,35.156,32.715,9.766,30.273,47.363,0
120533.678,44.434,30.762,19.531,37.109,53.223,0
120533.682,23.438,29.297,20.996,26.367,18.555,0
120533.685,11.230,29.785,20.020,22.461,4.883,0
120533.689,35.156,29.297,27.832,34.668,44.922,0
120533.693,55.176,29.297,21.484,41.016,94.238,0
120533.697,35.645,31.738,5.371,35.156,43.945,0
120533.701,9.766,31.738,15.137,25.391,11.230,0
120533.705,22.461,32.227,31.250,33.203,71.777,0
120533.709,50.781,33.203,35.156,43.457,79.102,0
120533.713,45.410,33.203,30.273,34.668,45.898,0
120533.717,15.137,35.156,13.672,22.949,0.488,0
120533.721,16.113,37.109,19.531,25.391,13.184,0
120533.722,44.922,35.645,37.109,36.621,57.129,0
120533.726,42.969,34.668,37.109,36.133,21.484,0
120533.730,13.184,34.668,30.273,26.367,-14.160,0
120533.734,6.348,36.133,27.832,25.391,-6.836,0
120533.738,34.668,36.133,6.836,37.598,43.945,0
120533.742,48.340,35.156,-7.812,41.992,70.312,0
120533.746,24.414,37.598,10.254,27.344,12.207,0
120533.750,5.859,36.621,31.250,23.926,4.395,0
120533.754,24.902,32.227,43.945,29.785,65.430,0
120533.757,47.852,31.738,34.668,28.809,58.594,0
120533.761,37.598,31.250,21.484,28.320,29.297,0
120533.765,14.160,34.180,14.160,27.832,38.086,0
120533.767,24.902,36.621,16.602,28.320,54.688,0
120533.771,46.875,33.203,30.273,34.180,81.055,0
120533.775,38.574,31.250,33.203,27.344,67.383,0
120533.779,12.695,31.738,26.367,17.090,0.977,0
120533.783,13.672,30.762,18.066,24.414,-17.090,0
120533.787,44.922,33.203,19.531,37.598,35.645,0
120533.791,48.828,35.645,23.926,33.203,59.570,0
120533.795,20.996,36.133,20.020,23.926,-1.465,0
120533.799,12.207,37.598,-0.488,27.344,-39.062,0
120533.802,37.109,34.668,-6.836,38.574,-4.883,0
120533.806,51.758,31.250,26.855,38.574,47.363,0
120533.810,26.855,28.809,46.387,23.438,64.453,0
120533.814,6.836,29.297,43.457,17.090,23.926,0
120533.818,27.344,31.738,34.668,26.367,30.273,0
120533.822,51.270,30.762,20.020,36.133,87.402,0
120533.825,41.016,33.203,14.648,33.691,83.984,0
120533.829,14.648,34.668,21.484,25.391,11.230,0
120533.833,20.996,32.715,23.438,29.785,30.762,0
120533.837,48.828,30.762,21.973,40.039,109.375,0
120533.841,47.852,33.691,18.066,38.086,88.379,0
120533.845,22.949,33.691,6.836,24.902,-9.766,0
120533.849,17.090,28.809,11.230,21.484,25.391,0
120533.853,47.363,30.762,22.949,33.691,123.047,0
120533.857,57.129,35.156,24.414,39.062,116.211,0
120533.857,27.344,35.156,31.250,28.809,30.273,0
120533.861,9.766,35.645,38.574,21.484,-29.297,0
120533.865,32.715,37.598,32.227,33.203,23.438,0
120533.869,49.316,34.180,25.391,37.109,65.918,0
120533.873,29.785,31.250,31.250,26.367,57.617,0
120533.877,15.625,34.180,33.203,24.414,49.316,0
120533.881,35.156,36.621,25.391,34.180,76.660,0
120533.885,59.570,36.133,19.043,39.551,83.984,0
120533.889,46.875,37.109,19.043,32.715,41.992,0
120533.893,20.020,38.086,16.113,24.414,33.691,0
120533.896,29.785,36.133,12.207,28.809,24.414,0
120533.900,52.246,35.156,11.719,37.109,4.395,0
120533.902,44.922,35.156,15.625,32.227,8.789,0
120533.906,15.625,33.203,24.414,19.043,16.602,0
120533.910,6.836,32.227,23.926,16.113,15.625,0
120533.914,34.668,33.691,17.578,25.879,67.383,0
120533.918,46.387,33.203,15.625,30.762,90.332,0
120533.922,19.043,35.156,14.160,26.855,31.738,0
120533.926,6.348,37.109,11.719,25.879,31.738,0
120533.930,28.809,31.250,20.508,32.227,45.898,0
120533.934,49.805,30.762,29.297,37.109,80.078,0
120533.938,36.621,34.180,19.043,29.297,92.773,0
120533.941,14.648,36.621,23.438,22.949,35.156,0
120533.945,30.273,35.645,21.484,32.227,41.992,0
120533.947,57.129,37.598,-5.859,41.992,100.586,0
120533.951,48.340,37.598,0.977,37.598,110.352,0
120533.955,13.672,29.785,33.691,21.973,37.109,0
120533.959,14.160,29.785,45.410,25.391,28.320,0
120533.963,45.410,33.691,51.758,36.133,73.730,0
120533.967,44.434,33.691,49.805,33.691,43.457,0
120533.971,19.043,35.156,31.250,27.832,-31.738,0
120533.975,16.602,37.109,22.461,26.855,-33.691,0
120533.979,42.969,39.551,26.855,34.180,49.316,0
120533.982,54.688,39.551,25.879,35.645,85.938,0
120533.986,30.273,39.062,12.207,28.320,52.734,0
120533.990,12.695,41.992,10.254,25.391,43.457,0
120533.992,30.273,37.109,30.762,31.738,83.008,0
120533.996,50.293,34.668,35.156,36.133,114.746,0
120534.000,34.668,40.039,33.691,26.855,64.453,0
120534.004,12.207,41.992,27.344,23.438,-16.602,0
120534.008,20.020,39.062,16.113,34.180,12.207,0
120534.012,41.504,35.156,25.391,39.062,51.758,0
120534.016,36.133,34.668,39.551,31.738,22.949,0
120534.020,10.742,36.621,43.457,24.902,-2.930,0
120534.024,12.207,35.156,42.480,28.809,-1.953,0
120534.028,41.504,35.156,39.062,39.062,24.902,0
120534.031,54.688,34.180,33.203,40.039,37.598,0
120534.035,34.180,35.156,22.461,32.227,10.742,0
120534.039,20.996,40.039,15.625,29.785,7.324,0
120534.043,44.434,39.062,17.090,37.109,19.043,0
120534.046,62.012,35.156,15.137,40.039,44.922,0
120534.050,44.434,36.133,21.484,33.203,38.086,0
120534.054,22.461,35.645,29.297,32.227,-11.230,0
120534.058,35.156,34.180,20.996,40.527,6.836,0
120534.062,56.641,37.598,9.277,44.922,84.473,0
120534.066,45.898,38.574,22.461,37.598,61.523,0
120534.070,22.461,36.621,38.086,32.715,5.859,0
120534.074,30.762,37.109,31.250,36.133,0.000,0
120534.078,57.617,37.598,21.973,42.480,41.992,0
120534.082,55.176,38.086,24.414,38.574,74.219,0
120534.097,27.344,38.086,29.297,28.320,11.719,0
120534.101,22.461,40.039,30.762,30.762,-19.531,0
120534.105,47.363,39.062,27.832,40.527,41.016,0
120534.109,48.340,33.203,21.973,38.574,86.426,0
120534.113,21.973,33.691,6.348,30.273,39.062,0
120534.117,7.812,37.109,8.789,23.926,-33.203,0
120534.121,26.367,37.598,37.109,26.367,14.648,0
120534.125,45.898,34.668,41.016,33.691,108.887,0
120534.129,28.809,33.691,29.297,28.320,46.387,0
120534.133,9.766,34.668,33.203,23.438,-57.129,0
120534.137,28.320,33.203,39.551,31.738,-16.602,0
120534.140,47.363,33.691,34.180,38.574,56.641,0
120534.142,35.645,36.621,26.855,34.180,29.297,0
120534.146,10.254,35.645,27.832,23.926,4.883,0
120534.150,18.066,34.668,36.621,28.809,13.184,0
120534.154,48.340,36.133,41.992,41.504,28.809,0
120534.158,49.316,39.062,44.922,38.574,21.973,0
120534.162,20.020,38.574,36.621,21.973,-19.531,0
120534.166,10.742,34.180,29.785,19.531,12.695,0
120534.170,37.109,35.645,28.320,34.668,59.082,0
120534.174,43.457,37.109,25.391,35.645,31.738,0
120534.178,20.020,37.598,41.016,25.391,-10.742,0
120534.181,9.277,39.062,47.363,26.855,12.695,0
120534.185,28.809,36.621,39.062,33.691,56.641,0
120534.187,47.852,35.156,39.551,39.551,80.078,0
120534.191,31.250,37.109,35.156,27.832,67.383,0
120534.195,10.742,37.109,37.598,17.090,29.297,0
120534.199,29.297,37.598,41.504,29.297,51.758,0
120534.203,55.176,40.039,37.109,39.062,97.168,0
120534.207,48.340,41.992,29.785,34.180,77.637,0
120534.211,22.461,41.992,34.180,26.855,37.109,0
120534.215,21.973,41.016,38.086,26.855,1.465,0
120534.219,49.316,43.457,33.203,31.738,30.762,0
120534.223,49.316,42.969,41.992,27.344,76.660,0
120534.226,17.578,36.133,46.387,16.113,41.504,0
120534.230,9.277,35.156,41.016,16.602,31.738,0
120534.232,37.598,39.062,37.109,26.367,76.660,0
120534.236,50.781,41.016,36.621,27.832,129.395,0
120534.240,28.809,40.527,29.297,22.949,97.168,0
120534.244,13.672,41.504,20.020,25.391,9.766,0
120534.248,36.133,42.480,21.484,42.480,32.227,0
120534.252,58.105,42.480,26.855,48.828,85.449,0
120534.256,45.410,41.016,46.387,34.668,69.824,0
120534.260,22.949,41.504,64.453,26.367,-22.461,0
120534.264,27.832,43.457,68.359,33.691,5.371,0
120534.268,54.199,42.969,61.523,42.969,122.559,0
120534.271,50.781,43.457,50.781,39.551,104.980,0
120534.275,21.973,45.898,52.734,33.203,52.246,0
120534.279,25.879,46.875,50.293,36.133,3.418,0
120534.283,57.617,47.852,39.551,45.898,8.789,0
120534.286,60.059,44.922,32.227,48.340,12.207,0
120534.290,27.832,41.016,21.973,33.203,-23.438,0
120534.294,11.719,40.527,28.809,23.926,3.906,0
120534.298,36.621,38.086,49.805,34.668,18.555,0
120534.302,50.293,36.133,57.617,39.062,11.719,0
120534.306,27.832,38.086,49.316,26.367,6.836,0
120534.310,10.254,39.551,38.574,17.578,-23.438,0
120534.314,30.762,38.086,36.133,28.809,1.465,0
120534.318,53.711,37.598,33.203,36.621,64.453,0
120534.322,41.504,38.574,30.273,28.809,51.758,0
120534.322,20.996,39.062,36.133,25.879,-0.488,0
120534.326,26.855,40.527,48.828,32.227,1.953,0
120534.330,48.828,41.016,43.945,36.621,39.062,0
120534.334,49.316,40.527,33.203,32.227,34.668,0
120534.338,28.809,42.969,33.203,24.414,7.812,0
120534.342,24.414,44.922,35.645,29.297,-4.395,0
120534.346,46.387,45.898,34.668,39.062,32.227,0
120534.350,53.711,43.457,33.691,34.668,22.461,0
120534.354,28.320,40.527,38.086,23.926,-8.789,0
120534.358,6.836,39.551,41.016,19.531,8.789,0
120534.361,24.414,39.062,40.039,28.320,36.621,0
120534.365,46.387,39.551,38.086,36.621,69.336,0
120534.367,29.297,42.969,35.645,28.809,51.758,0
120534.371,8.789,41.016,32.715,19.531,-17.578,0
120534.375,21.973,37.598,32.227,23.926,0.488,0
120534.379,46.387,38.574,31.250,32.227,105.957,0
120534.383,38.086,39.062,26.855,27.832,120.605,0
120534.387,13.672,41.504,28.320,20.020,34.180,0
120534.391,26.367,43.457,30.273,26.367,21.484,0
120534.395,59.082,44.922,27.344,37.598,82.520,0
120534.399,56.152,44.922,30.273,35.645,104.492,0
120534.403,21.484,39.551,29.297,25.879,19.531,0
120534.406,14.648,38.574,20.996,26.367,-22.949,0
120534.410,40.039,39.062,21.484,33.203,100.586,0
120534.427,44.922,37.109,30.273,32.227,153.320,0
120534.431,17.578,35.645,33.691,22.949,65.918,0
120534.435,3.418,35.645,30.762,20.020,16.602,0
120534.439,30.273,40.039,27.832,28.320,53.223,0
120534.443,49.805,39.551,27.832,31.250,67.871,0
120534.447,28.809,36.621,20.508,19.043,1.465,0
120534.451,5.371,37.598,6.348,14.648,-42.480,0
120534.455,24.902,39.551,12.695,25.391,-22.461,0
120534.459,58.105,36.133,29.297,30.273,38.086,0
120534.463,45.410,32.715,34.668,21.484,45.898,0
120534.466,11.230,34.668,35.645,12.207,20.508,0
120534.470,15.137,34.668,32.715,16.602,45.898,0
120534.472,44.434,34.180,28.809,24.902,77.637,0
120534.476,46.387,39.062,23.926,24.414,76.172,0
120534.480,22.949,41.504,20.508,18.555,26.855,0
120534.484,17.090,36.133,23.438,16.602,19.531,0
120534.488,41.992,32.715,26.367,23.926,69.824,0
120534.492,53.223,36.133,22.461,29.785,57.129,0
120534.496,29.297,38.574,24.902,20.996,8.301,0
120534.500,14.160,39.551,29.297,19.531,-16.113,0
120534.504,37.109,39.062,23.926,30.762,-3.418,0
120534.508,50.293,34.668,30.273,35.156,26.855,0
120534.511,32.227,35.645,43.457,30.273,20.996,0
120534.515,12.695,36.621,44.922,23.438,-15.137,0
120534.519,20.508,35.645,22.461,25.391,21.484,0
120534.523,48.340,37.598,5.371,34.668,94.238,0
120534.526,43.457,35.156,20.996,35.156,111.816,0
120534.530,12.207,35.156,34.668,22.949,41.504,0
120534.534,13.184,39.062,41.504,21.973,-20.996,0
120534.538,43.945,37.598,41.504,35.156,21.973,0
120534.542,47.852,38.574,26.367,36.133,52.734,0
120534.546,21.484,41.016,27.344,25.879,7.324,0
120534.550,14.648,39.551,38.086,30.273,-24.414,0
120534.554,38.086,34.668,31.738,41.504,-6.836,0
120534.558,47.363,31.250,18.555,36.621,71.289,0
120534.562,27.832,33.203,17.090,26.855,32.715,0
120534.562,10.254,34.180,26.367,26.367,-17.578,0
120534.566,25.879,30.762,31.250,32.227,38.086,0
120534.570,46.875,30.762,24.902,39.551,88.867,0
120534.574,34.180,34.180,23.438,34.668,86.426,0
120534.578,7.812,34.668,23.438,23.926,26.367,0
120534.582,21.973,33.691,31.738,25.879,28.809,0
120534.586,52.246,35.156,38.574,37.109,78.125,0
120534.590,36.621,37.598,39.551,33.691,111.816,0
120534.594,6.348,37.109,40.527,17.578,29.297,0
120534.598,10.742,33.203,34.668,21.484,-6.836,0
120534.601,40.527,33.203,25.879,34.180,80.566,0
120534.605,46.387,36.621,20.508,30.273,118.164,0
120534.608,18.066,34.668,23.438,19.531,55.664,0
120534.612,7.324,35.156,32.715,18.066,2.930,0
120534.616,36.133,40.039,27.344,30.273,43.945,0
120534.620,55.176,41.992,18.555,34.668,68.359,0
120534.623,34.180,38.086,27.344,24.414,30.273,0
120534.627,10.254,35.645,31.250,22.461,-39.551,0
120534.631,24.414,35.645,23.438,30.273,15.625,0
120534.635,48.340,35.645,19.043,34.180,68.848,0
120534.639,35.156,35.156,21.973,28.320,33.203,0
120534.643,8.789,36.621,27.832,24.414,23.438,0
120534.647,20.508,40.039,27.344,30.273,22.461,0
120534.651,52.734,37.109,27.344,39.062,48.828,0
120534.652,48.340,35.156,25.879,34.668,78.613,0
120534.656,17.090,40.527,20.996,23.438,57.129,0
120534.660,12.695,40.039,14.160,24.414,0.000,0
120534.664,40.527,41.504,14.648,32.227,20.020,0
120534.668,49.805,46.387,20.020,34.180,35.156,0
120534.672,28.809,44.434,19.043,30.762,-1.953,0
120534.676,15.625,38.574,22.461,32.227,-19.043,0
120534.680,37.598,37.598,27.832,40.527,18.066,0
120534.684,50.293,42.480,20.508,35.156,77.637,0
120534.687,38.574,47.363,17.578,27.344,49.805,0
120534.691,17.578,44.922,17.090,23.926,-8.301,0
120534.695,18.555,41.992,9.277,24.414,12.207,0
120534.697,41.016,41.016,13.184,31.738,64.941,0
120534.701,36.133,40.039,22.461,28.320,74.707,0
120534.705,13.184,40.527,16.602,17.578,-4.395,0
120534.709,15.625,40.039,11.230,21.973,-2.930,0
120534.713,45.898,39.551,19.531,35.645,63.477,0
120534.717,51.758,42.480,23.438,36.621,28.809,0
120534.721,23.438,42.480,24.414,27.344,-44.434,0
120534.725,11.719,39.062,23.926,24.902,-52.246,0
120534.729,46.875,40.527,17.578,41.504,33.203,0
120534.732,63.965,41.016,22.949,48.340,83.008,0
120534.736,32.227,37.109,27.344,34.180,8.789,0
120534.740,16.113,38.086,24.414,32.715,-41.992,0
120534.744,40.527,40.039,20.508,44.922,2.441,0
120534.748,53.223,38.086,12.207,47.363,42.969,0
120534.752,34.180,39.062,15.137,40.039,34.180,0
120534.755,15.625,41.504,25.879,36.133,-12.695,0
120534.759,26.367,40.527,20.996,38.574,21.484,0
120534.763,49.805,38.086,14.160,41.504,48.340,0
120534.767,44.922,42.480,24.902,32.715,50.293,0
120534.771,19.531,44.922,23.438,23.926,15.625,0
120534.775,20.996,41.992,17.090,27.344,-1.465,0
120534.779,45.898,40.039,23.438,33.691,62.012,0
120534.783,44.434,40.527,26.855,29.297,86.914,0
120534.787,16.113,38.574,30.273,16.602,61.523,0
120534.802,7.324,36.133,33.691,17.578,34.180,0
120534.806,36.621,40.527,32.227,31.250,52.246,0
120534.810,52.246,40.527,23.926,31.738,89.844,0
120534.814,28.809,34.668,19.531,20.508,46.387,0
120534.818,5.859,33.691,15.625,17.090,-44.434,0
120534.822,23.926,35.156,11.230,26.855,-67.871,0
120534.826,53.711,38.574,19.531,38.574,-11.719,0
120534.830,36.133,38.574,23.438,32.227,51.270,0
120534.834,-2.441,33.203,17.578,16.602,27.344,0
120534.838,7.324,29.785,25.391,21.484,21.484,0
120534.841,38.086,31.738,32.715,33.691,90.820,0
120534.845,39.551,38.086,26.367,30.273,107.910,0
120534.847,13.184,41.504,26.855,23.438,63.477,0
120534.851,7.812,38.086,26.855,22.461,47.363,0
120534.855,39.551,35.645,17.090,30.273,107.910,0
120534.859,49.805,38.574,13.672,33.203,140.137,0
120534.863,25.879,40.039,15.137,23.438,38.086,0
120534.867,15.625,39.062,14.648,22.461,-0.977,0
120534.871,42.480,38.574,16.602,34.668,77.637,0
120534.875,57.617,36.621,22.461,37.598,91.309,0
120534.879,36.621,39.062,21.973,28.809,19.043,0
120534.883,15.625,39.062,28.320,27.832,-7.812,0
120534.886,30.273,35.156,33.691,36.133,46.875,0
120534.890,53.223,36.133,30.273,40.039,98.633,0
120534.893,38.086,39.062,26.855,31.250,49.316,0
120534.897,8.301,35.156,20.508,19.531,-0.488,0
120534.901,17.090,31.738,20.508,26.367,30.762,0
120534.905,44.922,31.738,22.949,41.504,79.590,0
120534.909,41.504,32.715,20.020,37.598,74.219,0
120534.912,14.648,34.180,20.020,22.949,28.809,0
120534.916,10.254,31.738,23.926,21.484,3.906,0
120534.920,39.551,31.738,27.832,31.738,41.016,0
120534.924,47.363,35.156,28.320,37.598,62.500,0
120534.928,19.531,33.691,29.785,30.273,6.836,0
120534.932,8.301,32.715,30.762,31.738,-32.715,0
120534.936,34.668,33.691,28.809,50.293,15.625,0
120534.937,53.223,30.762,20.508,51.270,41.504,0
120534.941,29.785,30.273,13.672,33.691,0.000,0
120534.945,4.883,31.738,20.508,22.949,-65.430,0
120534.949,24.902,34.668,24.902,28.809,-31.250,0
120534.953,50.293,36.133,20.020,37.598,25.391,0
120534.957,37.109,34.668,19.043,30.273,-12.695,0
120534.961,10.742,33.203,19.043,20.996,-53.223,0
120534.965,16.113,34.180,25.879,24.902,-40.039,0
120534.969,46.387,37.109,34.180,36.133,1.465,0
120534.972,47.363,37.109,33.691,36.621,42.969,0
120534.976,20.508,37.598,28.809,27.344,27.832,0
120534.980,16.113,31.738,21.973,28.320,-11.230,0
120534.984,45.410,28.320,23.926,42.480,64.941,0
120534.988,55.176,36.621,25.391,37.598,105.957,0
120534.992,23.438,42.969,20.020,19.043,10.742,0
120534.996,3.418,41.992,25.391,17.090,-36.621,0
120535.000,19.531,38.574,30.273,26.367,16.113,0
120535.004,38.574,39.551,31.738,32.227,107.422,0
120535.008,24.902,40.039,28.809,25.391,71.777,0
120535.012,3.906,38.574,21.484,16.602,-42.480,0
120535.016,20.508,38.086,20.020,23.438,-26.855,0
120535.020,46.875,37.598,22.461,30.762,89.844,0
120535.024,39.062,37.109,21.973,25.391,88.379,0
120535.027,14.160,40.527,20.020,18.066,42.969,0
120535.027,14.648,42.969,16.113,20.020,64.453,0
120535.031,42.480,42.480,13.184,28.320,129.883,0
120535.035,43.945,40.527,20.508,25.879,115.723,0
120535.039,9.277,37.109,24.414,14.648,47.363,0
120535.043,4.395,40.039,17.090,17.090,27.832,0
120535.047,40.039,43.945,11.719,31.738,72.266,0
120535.051,48.340,42.480,17.578,33.203,99.609,0
120535.055,20.508,41.992,24.414,18.555,18.555,0
120535.059,2.441,42.969,10.742,14.648,-13.672,0
120535.063,24.414,42.969,-2.441,21.973,29.297,0
120535.066,44.922,41.016,15.137,22.949,53.223,0
120535.070,27.832,39.551,36.621,20.020,63.477,0
120535.073,5.859,40.527,40.039,18.555,34.180,0
120535.076,20.020,40.039,37.598,26.367,36.133,0
120535.080,44.922,40.039,36.133,35.156,79.590,0
120535.084,35.645,37.598,26.855,27.832,67.383,0
120535.088,9.277,37.109,20.508,16.602,36.133,0
120535.092,13.184,38.086,19.531,17.090,38.574,0
120535.096,41.992,36.133,12.207,28.809,73.730,0
120535.100,45.898,35.156,6.348,33.691,31.250,0
120535.104,20.996,35.645,18.066,25.391,-4.883,0
120535.108,12.695,37.598,33.203,24.902,10.742,0
120535.112,40.039,39.551,33.203,38.574,20.996,0
120535.116,57.617,40.527,28.320,42.480,43.457,0
120535.118,34.668,37.109,27.344,28.809,53.223,0
120535.122,13.672,35.156,28.809,20.996,-12.207,0
120535.126,32.715,36.133,29.297,28.809,4.395,0
120535.130,51.758,36.133,25.391,32.227,56.641,0
120535.133,38.574,35.156,23.438,24.414,26.367,0
120535.137,11.719,34.668,25.391,17.090,-2.441,0
120535.141,17.578,33.203,23.438,22.461,-27.832,0
120535.145,50.781,35.156,19.043,35.645,24.902,0
120535.149,45.410,37.598,17.578,32.715,79.590,0
120535.153,16.602,34.180,20.020,24.414,50.781,0
120535.157,15.137,36.133,23.926,28.320,4.395,0
120535.161,38.574,39.062,26.855,33.691,62.988,0
120535.164,46.387,36.133,29.297,32.227,102.539,0
120535.168,22.949,34.668,27.344,26.855,-12.207,0
120535.171,7.812,34.180,21.484,21.973,-42.969,0
120535.175,34.668,34.180,9.277,31.250,45.410,0
120535.179,56.152,35.156,2.930,40.527,87.891,0
120535.183,33.203,35.156,17.578,28.809,46.387,0
120535.187,11.719,36.621,28.320,20.508,21.973,0
120535.191,31.250,37.109,33.691,29.297,83.984,0
120535.195,52.734,36.621,30.273,37.109,95.215,0
120535.199,38.086,36.621,16.602,31.738,70.312,0
120535.203,14.160,34.668,23.438,26.367,-8.301,0
120535.207,21.484,32.227,24.902,28.320,-24.902,0
120535.224,41.016,33.691,18.066,32.715,55.176,0
120535.228,32.227,33.203,24.902,27.344,39.062,0
120535.232,1.953,32.227,35.156,13.672,-22.461,0
120535.235,-2.930,33.691,37.598,14.160,-2.930,0
120535.239,23.926,32.715,28.320,25.391,53.711,0
120535.243,35.156,33.203,24.902,23.438,59.082,0
120535.247,14.160,32.715,28.809,14.648,31.250,0
120535.251,1.953,35.156,21.973,9.277,7.324,0
120535.255,23.438,35.156,21.973,14.648,20.020,0
120535.259,43.457,34.668,24.414,18.066,42.480,0
120535.263,27.832,37.598,21.484,11.230,23.926,0
120535.267,2.441,35.156,21.973,10.254,0.977,0
120535.268,11.719,30.762,24.902,18.066,15.137,0
120535.272,34.180,32.715,28.809,26.367,66.406,0
120535.275,26.855,34.668,30.762,23.926,74.219,0
120535.279,0.000,34.180,31.250,17.090,30.762,0
120535.283,1.465,34.180,27.344,21.484,43.457,0
120535.287,32.715,33.691,24.902,32.227,69.824,0
120535.291,34.180,32.715,20.508,28.809,66.406,0
120535.295,5.859,31.738,20.020,15.625,60.059,0
120535.299,1.953,35.156,25.879,12.207,38.086,0
120535.303,30.762,39.551,28.809,23.926,47.852,0
120535.307,42.480,38.574,18.066,29.785,103.516,0
120535.311,17.578,36.133,10.742,16.602,52.246,0
120535.312,-3.418,37.109,22.461,8.301,-25.391,0
120535.316,16.602,39.551,25.391,16.602,18.555,0
120535.320,39.062,39.062,19.531,22.949,78.613,0
120535.324,24.902,39.062,19.531,18.066,41.992,0
120535.328,-1.465,36.621,22.461,10.254,-6.836,0
120535.332,12.695,37.109,27.832,19.043,9.277,0
120535.336,43.945,38.574,30.273,32.715,61.035,0
120535.340,37.109,41.016,31.738,29.297,70.312,0
120535.344,8.301,43.457,25.391,20.996,-0.977,0
120535.348,10.254,40.039,13.672,21.973,-33.203,0
120535.351,41.992,39.062,18.555,31.738,37.109,0
120535.355,47.363,40.039,23.438,29.785,80.566,0
120535.357,20.508,41.016,23.438,20.020,25.879,0
120535.361,9.766,43.457,21.484,20.508,12.207,0
120535.365,36.133,41.992,18.066,30.762,79.590,0
120535.369,50.293,40.527,26.855,35.645,101.074,0
120535.373,25.391,40.039,39.551,26.855,33.203,0
120535.377,4.883,37.598,33.691,21.973,4.883,0
120535.381,20.996,33.691,17.090,27.344,56.641,0
120535.385,41.992,32.227,16.602,23.926,98.633,0
120535.389,25.879,33.203,25.879,16.113,78.613,0
120535.393,-2.930,34.180,30.273,13.672,46.387,0
120535.396,5.371,34.668,26.367,18.555,57.617,0
120535.400,34.180,35.645,18.066,26.855,56.152,0
120535.403,36.621,39.062,21.973,22.461,20.996,0
120535.407,12.207,39.551,27.832,11.719,20.996,0
120535.411,7.812,38.574,22.949,9.277,2.930,0
120535.415,34.180,36.621,20.508,18.555,34.668,0
120535.419,40.527,36.621,19.043,19.531,71.777,0
120535.423,15.137,38.086,19.043,9.766,43.945,0
120535.426,1.953,35.645,21.484,12.207,27.832,0
120535.430,27.344,35.156,20.996,22.461,50.781,0
120535.434,42.480,35.645,28.320,26.367,92.773,0
120535.438,24.902,37.109,30.273,23.438,100.586,0
120535.442,4.395,37.598,21.484,20.020,45.410,0
120535.446,17.578,35.156,20.508,29.297,17.578,0
120535.449,46.875,37.109,22.461,37.598,62.500,0
120535.453,35.156,34.180,21.973,29.297,78.613,0
120535.457,5.371,31.250,22.461,20.020,-9.277,0
120535.460,12.207,32.227,24.902,22.461,-39.062,0
120535.464,40.039,31.738,28.809,33.691,66.406,0
120535.468,39.551,32.715,33.203,37.598,105.957,0
120535.472,15.137,36.621,35.156,32.715,44.922,0
120535.476,12.695,37.109,31.250,31.250,-1.465,0
120535.480,37.109,36.621,24.414,35.645,60.547,0
120535.484,41.992,35.645,25.391,34.668,111.816,0
120535.488,16.602,36.621,33.691,24.414,57.617,0
120535.492,2.441,36.621,28.320,18.066,32.227,0
120535.492,25.391,35.645,26.367,26.367,62.500,0
120535.496,44.922,35.156,35.645,33.691,84.961,0
120535.500,23.438,35.156,28.809,26.855,74.707,0
120535.504,2.930,35.645,19.043,21.973,32.715,0
120535.508,16.602,36.621,19.531,28.320,10.742,0
120535.512,41.016,36.621,30.762,32.715,41.504,0
120535.516,36.133,34.668,35.645,24.902,23.438,0
120535.520,9.277,35.156,20.996,18.066,-9.766,0
120535.524,14.160,35.645,20.996,22.949,8.789,0
120535.528,46.387,36.133,37.109,33.203,41.504,0
120535.531,49.316,38.574,30.762,32.715,54.199,0
120535.535,21.484,36.133,12.207,23.438,33.203,0
120535.552,15.625,34.668,13.672,27.344,18.555,0
120535.556,39.551,35.156,26.367,38.086,61.035,0
120535.560,51.270,32.715,34.668,36.133,67.383,0
120535.564,28.809,33.691,35.645,24.902,18.555,0
120535.568,16.113,38.086,30.762,26.367,10.742,0
120535.572,40.039,37.109,29.785,36.133,32.715,0
