timestamps,TP9,AF7,AF8,TP10,Right AUX,Marker0
120226.386,50.293,25.879,16.113,39.062,34.180,0
120226.390,39.062,34.180,16.602,28.320,83.008,0
120226.394,21.484,42.480,37.109,22.949,27.832,0
120226.398,24.902,37.598,45.410,24.902,-25.391,0
120226.402,44.922,38.574,34.668,32.715,21.484,0
120226.406,62.500,39.551,25.391,34.180,51.758,0
120226.410,52.246,37.598,30.762,21.973,5.371,0
120226.414,21.973,38.086,27.832,24.902,-41.992,0
120226.417,35.156,35.156,14.160,42.480,-37.109,0
120226.421,48.340,31.738,15.137,48.340,24.414,0
120226.425,21.484,32.227,24.414,35.156,13.184,0
120226.429,6.348,34.668,25.391,24.902,-55.664,0
120226.433,21.484,31.250,22.461,25.391,-20.996,0
120226.437,48.340,26.367,30.762,36.621,39.551,0
120226.440,57.617,37.109,32.227,46.875,5.371,0
120226.444,32.227,31.738,14.648,35.156,-49.316,0
120226.448,23.438,27.344,9.277,25.391,2.930,0
120226.452,34.180,46.387,21.973,36.133,46.387,0
120226.456,29.297,49.805,28.320,36.133,1.953,0
120226.460,12.207,42.480,24.902,29.785,-39.062,0
120226.464,31.250,42.969,15.625,38.086,-28.320,0
120226.468,64.453,41.016,21.973,32.715,15.137,0
120226.472,49.316,33.691,34.668,24.902,31.250,0
120226.476,19.531,30.273,36.133,17.578,-17.578,0
120226.476,18.066,35.156,35.645,19.531,-36.133,0
120226.480,48.828,37.598,30.762,30.273,8.789,0
120226.484,49.316,35.156,20.996,26.855,39.551,0
120226.488,23.926,33.203,11.719,22.461,29.785,0
120226.492,18.066,35.156,16.113,18.066,-11.719,0
120226.496,39.062,33.691,25.391,23.926,18.555,0
120226.500,65.430,40.039,32.227,41.016,56.641,0
120226.504,56.152,36.133,38.086,36.133,3.906,0
120226.507,4.395,23.926,35.156,26.367,-15.137,0
120226.511,4.883,26.367,23.438,32.715,13.184,0
120226.515,49.805,23.438,15.625,34.668,18.555,0
120226.519,48.828,28.809,20.996,33.691,17.090,0
120226.521,22.949,35.645,20.996,35.156,-14.160,0
120226.525,43.945,36.621,14.160,38.086,-13.672,0
120226.529,57.129,35.156,24.414,45.898,39.551,0
120226.533,45.898,32.227,29.297,44.922,49.805,0
120226.537,33.203,30.273,36.621,33.203,-16.602,0
120226.541,16.602,23.438,45.898,33.203,-67.871,0
120226.545,43.457,28.320,35.156,39.551,-51.758,0
120226.549,69.824,38.574,20.996,39.551,6.348,0
120226.552,46.387,37.598,16.113,39.551,22.461,0
120226.556,22.461,38.574,22.949,31.738,4.883,0
120226.560,31.250,38.086,21.484,25.391,20.996,0
120226.564,52.246,38.574,14.648,28.809,63.477,0
120226.566,54.688,36.621,16.602,32.227,66.406,0
120226.570,26.855,33.691,14.160,19.531,14.160,0
120226.574,7.812,33.203,7.812,15.625,14.160,0
120226.578,32.227,29.785,8.301,28.809,44.922,0
120226.582,40.039,28.320,12.695,23.438,41.016,0
120226.586,14.160,29.785,16.113,20.508,-7.812,0
120226.590,11.719,23.438,19.043,23.926,-63.965,0
120226.593,38.574,20.508,20.020,30.273,15.137,0
120226.597,49.805,31.738,20.996,36.621,61.035,0
120226.601,30.762,39.062,13.184,17.090,-0.488,0
120226.605,23.438,33.203,8.301,10.742,-35.645,0
120226.609,43.945,30.273,7.324,31.250,-21.484,0
120226.613,47.852,32.715,4.395,31.250,19.043,0
120226.617,21.973,30.273,15.625,22.949,9.277,0
120226.621,5.859,23.926,22.949,16.113,-22.461,0
120226.625,21.973,24.902,20.020,20.508,10.742,0
120226.629,62.500,34.180,25.391,39.551,64.941,0
120226.633,64.453,44.434,19.043,35.156,10.254,0
120226.637,16.602,41.992,12.695,18.555,-48.828,0
120226.640,-2.930,37.598,22.949,19.531,-18.066,0
120226.644,35.645,36.133,24.902,23.926,-0.977,0
120226.648,50.781,36.621,13.184,27.344,11.230,0
120226.652,29.785,41.016,11.230,28.809,-10.742,0
120226.656,31.250,32.227,26.367,24.414,-46.875,0
120226.672,51.270,24.414,37.598,34.180,-25.391,0
120226.676,43.945,30.273,40.527,40.527,6.836,0
120226.680,32.227,37.109,37.598,37.598,-28.320,0
120226.684,34.668,41.992,31.250,36.621,-62.012,0
120226.688,46.387,33.203,20.508,32.715,-29.297,0
120226.692,49.316,26.367,14.160,31.738,-47.363,0
120226.696,24.414,28.809,16.113,25.391,-34.668,0
120226.700,1.465,30.762,21.484,13.672,-35.645,0
120226.704,9.766,30.273,26.367,15.137,-26.367,0
120226.708,38.574,28.809,21.973,23.438,82.031,0
120226.712,51.270,30.762,15.137,25.391,104.004,0
120226.715,17.090,32.227,17.578,14.160,28.809,0
120226.716,-5.859,30.762,22.461,8.301,-0.977,0
120226.720,21.973,28.809,26.855,23.926,67.871,0
120226.724,37.598,20.508,26.367,29.785,88.867,0
120226.728,33.691,25.391,28.320,22.949,12.207,0
120226.732,24.414,36.133,35.156,27.344,-8.789,0
120226.736,28.809,37.109,30.273,39.062,31.738,0
120226.740,43.945,34.180,22.461,39.551,40.039,0
120226.743,30.762,31.250,24.902,29.297,42.969,0
120226.747,26.367,29.297,3.418,33.691,-18.555,0
120226.751,47.363,19.043,-1.465,40.039,-45.898,0
120226.755,56.641,29.297,29.785,37.109,35.156,0
120226.759,39.551,42.969,40.527,29.297,24.414,0
120226.761,20.020,49.316,41.504,24.902,-58.594,0
120226.765,26.855,54.199,42.969,33.691,-10.254,0
120226.769,40.527,40.039,30.273,35.645,76.172,0
120226.773,48.340,34.180,23.438,28.809,28.809,0
120226.777,20.508,35.645,29.297,22.949,-23.926,0
120226.781,8.301,37.109,31.738,33.691,-16.113,0
120226.785,42.480,33.691,20.996,46.875,50.293,0
120226.788,50.293,23.926,17.578,44.434,56.152,0
120226.792,35.645,23.438,30.762,43.945,-28.320,0
120226.796,26.855,17.578,39.551,38.086,-64.941,0
120226.800,23.438,17.578,35.645,39.062,-8.789,0
120226.804,34.180,26.367,30.273,44.922,36.133,0
120226.806,24.902,31.250,24.414,34.180,-15.137,0
120226.810,12.695,32.715,25.879,27.832,-42.969,0
120226.814,32.227,31.250,30.273,35.645,-34.668,0
120226.818,57.129,30.273,27.832,43.457,0.488,0
120226.822,50.293,30.762,25.879,35.645,12.207,0
120226.826,22.949,32.227,28.320,27.344,-37.109,0
120226.830,25.879,35.645,28.320,36.133,-51.270,0
120226.833,46.387,23.438,22.461,41.016,-8.301,0
120226.837,47.363,14.648,19.043,27.344,3.418,0
120226.841,24.414,20.508,19.043,13.672,-0.977,0
120226.845,3.418,24.902,19.531,17.578,-42.969,0
120226.849,33.203,27.344,21.973,32.227,-6.348,0
120226.851,51.758,30.273,20.996,37.598,52.246,0
120226.855,27.344,29.785,22.461,29.297,21.484,0
120226.859,29.785,29.297,30.273,27.344,-13.672,0
120226.863,54.199,28.809,27.832,34.180,-8.789,0
120226.867,49.805,28.320,28.809,35.156,9.277,0
120226.871,24.414,32.227,27.344,28.809,-14.648,0
120226.875,6.348,35.156,25.391,24.902,-68.848,0
120226.878,20.996,32.715,30.762,25.879,-42.969,0
120226.882,47.852,32.227,29.785,31.738,53.223,0
120226.886,42.969,30.273,25.879,28.809,49.316,0
120226.890,19.531,24.902,24.414,22.461,-32.715,0
120226.894,15.137,23.926,28.320,22.949,-50.293,0
120226.897,39.551,29.785,30.273,33.203,35.156,0
120226.901,53.711,32.227,30.762,37.598,65.430,0
120226.905,24.414,23.438,31.250,25.879,-31.250,0
120226.909,12.695,18.555,22.461,22.461,-61.523,0
120226.913,38.574,30.273,12.207,28.320,9.766,0
120226.917,62.500,30.273,11.230,35.156,69.824,0
120226.921,52.734,24.414,15.625,32.715,30.273,0
120226.925,40.039,43.457,18.066,31.250,-19.531,0
120226.929,42.480,48.828,14.160,30.273,27.344,0
120226.933,56.641,41.016,22.461,22.461,57.617,0
120226.937,51.270,37.598,40.527,13.672,34.668,0
120226.940,8.789,37.598,40.039,9.766,8.789,0
120226.941,16.602,34.180,30.273,17.578,6.348,0
120226.945,56.641,35.645,20.996,28.809,39.062,0
120226.949,48.828,38.574,18.555,27.344,36.133,0
120226.953,36.133,34.180,20.996,16.602,-25.879,0
120226.957,31.738,38.086,25.391,23.438,-17.090,0
120226.961,43.457,37.598,23.926,35.156,33.203,0
120226.965,62.012,36.621,15.625,39.551,-12.207,0
120226.968,35.156,32.227,22.461,30.762,-38.574,0
120226.972,12.207,20.508,33.203,23.438,-17.090,0
120226.976,34.180,22.461,30.762,29.297,-0.977,0
120226.980,39.551,23.926,23.926,27.832,40.527,0
120226.984,14.648,20.508,25.391,19.531,56.641,0
120227.001,5.859,17.090,24.414,15.137,26.367,0
120227.005,27.344,20.020,16.113,21.484,32.227,0
120227.009,51.758,21.484,17.578,26.855,47.363,0
120227.013,31.250,20.020,29.297,26.367,21.484,0
120227.017,-6.348,25.879,33.203,21.484,-31.738,0
120227.021,24.414,23.438,30.762,34.180,-48.340,0
120227.025,57.129,19.043,23.438,45.410,23.438,0
120227.029,34.668,29.297,21.973,32.715,66.895,0
120227.032,10.742,36.133,30.273,19.043,23.926,0
120227.036,12.695,31.250,29.297,20.020,-9.277,0
120227.040,41.504,29.297,28.320,30.762,31.250,0
120227.044,50.781,29.785,29.785,34.668,95.215,0
120227.046,22.461,28.809,25.879,25.879,29.297,0
120227.050,8.789,22.461,16.602,19.043,-35.156,0
120227.054,37.109,28.320,14.648,26.367,5.859,0
120227.058,55.176,44.434,18.555,29.785,38.086,0
120227.062,43.945,39.062,20.508,26.367,-16.113,0
120227.066,22.461,32.227,22.461,23.926,-62.500,0
120227.070,13.672,36.133,22.461,21.484,-20.996,0
120227.073,34.180,40.039,21.973,20.996,41.992,0
120227.077,32.715,36.133,22.461,18.555,30.273,0
120227.081,11.719,35.645,14.160,15.625,-24.902,0
120227.085,30.273,38.574,17.090,27.832,32.227,0
120227.089,64.453,33.691,25.391,30.762,61.523,0
120227.091,44.434,32.227,20.996,19.043,57.617,0
120227.095,-0.977,30.273,19.043,11.230,40.039,0
120227.099,6.836,30.762,23.438,14.160,-14.648,0
120227.103,33.203,29.297,21.484,29.297,2.441,0
120227.107,45.410,25.391,21.484,38.574,42.969,0
120227.111,52.246,30.273,22.949,35.645,17.578,0
120227.115,14.648,37.109,18.555,25.391,-21.484,0
120227.118,8.789,35.645,14.160,26.855,-13.672,0
120227.122,38.574,33.691,18.066,32.715,16.113,0
120227.126,32.715,35.156,32.715,34.668,10.742,0
120227.130,19.043,35.645,35.645,34.668,-28.809,0
120227.134,37.598,31.250,31.250,30.762,-18.555,0
120227.138,55.176,32.715,28.809,32.715,28.809,0
120227.141,36.133,39.062,24.902,28.809,1.465,0
120227.145,15.625,38.086,26.855,20.020,-47.852,0
120227.149,22.461,23.926,29.785,30.762,-29.297,0
120227.153,34.180,20.508,28.320,42.969,37.109,0
120227.157,25.879,34.180,26.367,31.738,58.105,0
120227.161,14.160,37.598,22.949,26.367,-9.766,0
120227.165,11.230,35.156,23.926,29.297,-13.672,0
120227.169,30.273,35.156,30.273,30.273,50.781,0
120227.173,55.176,30.273,37.109,34.180,111.816,0
120227.177,42.969,24.414,32.227,30.762,93.262,0
120227.180,17.090,31.738,21.484,23.438,12.207,0
120227.181,26.855,40.527,21.484,29.785,18.555,0
120227.185,53.711,38.086,21.973,32.227,71.289,0
120227.189,47.363,34.180,23.926,27.344,57.617,0
120227.193,16.113,29.297,28.320,28.809,27.344,0
120227.197,33.691,28.809,31.738,35.156,23.926,0
120227.201,63.965,33.203,31.738,37.598,36.621,0
120227.205,61.523,30.273,20.508,35.645,23.926,0
120227.208,20.020,30.762,10.742,28.809,-56.152,0
120227.212,8.301,34.180,19.531,31.250,-77.148,0
120227.216,52.246,32.227,30.762,46.875,8.789,0
120227.220,56.641,24.902,31.250,50.781,34.668,0
120227.224,19.531,21.484,29.297,40.039,-16.602,0
120227.226,4.395,25.391,30.273,32.227,-35.645,0
120227.230,32.715,31.738,29.297,41.016,0.977,0
120227.234,62.500,34.180,27.344,46.875,29.297,0
120227.238,33.691,27.832,20.020,33.203,-17.090,0
120227.242,-1.465,24.414,20.020,28.320,-42.480,0
120227.246,20.020,23.438,27.832,39.551,-30.762,0
120227.250,43.945,29.785,26.855,40.527,-42.480,0
120227.253,36.133,33.203,26.855,32.715,-14.160,0
120227.257,30.762,35.156,29.297,37.109,-35.156,0
120227.261,38.086,35.156,28.320,35.645,-21.484,0
120227.265,41.504,32.715,26.367,31.738,32.227,0
120227.269,44.922,33.691,27.344,29.785,26.367,0
120227.271,35.645,34.668,24.902,21.484,-6.348,0
120227.275,19.043,34.180,23.926,21.973,-29.785,0
120227.279,35.156,37.109,21.973,33.203,32.227,0
120227.283,47.852,36.621,23.438,38.086,74.707,0
120227.287,17.578,30.762,27.344,26.367,49.805,0
120227.291,5.371,30.762,27.832,19.531,-8.301,0
120227.295,32.715,29.785,27.344,29.785,2.930,0
120227.298,58.594,30.273,24.902,42.480,30.273,0
120227.302,55.664,39.062,19.531,35.645,33.203,0
120227.306,17.090,39.551,19.043,24.414,32.227,0
120227.310,10.742,33.203,21.973,26.855,26.367,0
120227.314,44.434,36.133,22.461,31.738,43.945,0
120227.318,41.504,35.645,21.484,34.180,62.012,0
120227.322,26.367,15.625,20.508,29.297,10.742,0
120227.326,31.738,20.020,24.414,25.879,-7.324,0
120227.330,43.945,50.293,26.855,31.738,88.379,0
120227.333,40.527,47.363,25.879,26.855,107.910,0
120227.337,17.578,35.156,26.855,17.090,25.391,0
120227.341,19.531,41.504,22.949,19.531,-25.879,0
120227.345,51.758,44.922,14.648,23.926,4.883,0
120227.349,57.617,41.016,13.184,24.902,56.641,0
120227.353,41.992,41.016,20.020,23.926,33.691,0
120227.357,22.949,38.574,22.949,22.461,2.441,0
120227.361,32.227,29.785,20.020,25.879,23.926,0
120227.376,62.500,31.738,21.973,36.621,62.500,0
120227.380,43.457,39.062,27.344,36.621,30.762,0
120227.384,11.230,36.621,30.273,29.297,-37.598,0
120227.388,22.949,32.715,30.273,36.133,-7.812,0
120227.392,45.410,30.273,23.926,39.551,57.617,0
120227.396,39.551,29.297,21.973,34.180,20.996,0
120227.400,14.648,32.715,25.391,29.297,-37.598,0
120227.403,25.879,29.785,24.902,31.250,-8.301,0
120227.407,60.059,29.785,22.949,37.598,36.621,0
120227.411,43.457,36.621,8.301,38.574,-4.395,0
120227.415,13.672,31.738,3.418,30.273,-28.809,0
120227.419,13.184,28.320,28.320,24.902,22.461,0
120227.421,34.180,33.691,38.086,28.320,42.969,0
120227.425,35.156,34.668,34.180,25.391,13.672,0
120227.429,9.766,33.691,34.668,19.531,0.000,0
120227.433,5.859,36.133,36.133,20.508,-21.484,0
120227.437,35.645,43.945,29.297,24.902,-3.418,0
120227.441,49.805,40.039,23.438,34.668,-2.441,0
120227.445,43.457,35.156,24.414,32.227,-22.949,0
120227.448,22.461,35.645,22.461,23.438,-5.371,0
120227.452,23.438,36.133,23.926,28.809,41.992,0
120227.456,51.758,37.109,26.367,38.574,81.055,0
120227.460,47.363,36.621,32.227,37.109,72.754,0
120227.464,25.391,38.086,40.527,27.832,-22.461,0
120227.466,20.020,32.715,34.668,24.902,-82.031,0
120227.470,37.598,30.762,27.344,27.344,-26.367,0
120227.474,41.504,31.250,25.879,23.438,27.344,0
120227.478,19.531,26.855,24.414,17.578,-10.742,0
120227.482,11.719,29.785,25.391,24.414,-26.855,0
120227.486,39.551,37.109,25.391,30.762,30.762,0
120227.490,63.965,35.156,22.949,32.715,34.668,0
120227.493,34.668,29.785,27.344,31.250,-21.484,0
120227.497,2.441,35.156,41.992,28.809,-84.961,0
120227.501,22.461,32.715,36.621,29.785,-58.105,0
120227.505,53.223,31.738,15.137,38.574,24.902,0
120227.509,37.109,27.344,12.695,35.645,5.859,0
120227.511,7.812,23.926,16.602,15.137,-59.570,0
120227.515,17.578,39.062,21.973,17.090,-40.039,0
120227.519,46.875,41.016,24.902,29.785,30.762,0
120227.523,50.781,36.621,24.414,32.227,60.059,0
120227.527,32.227,35.156,26.855,28.809,22.461,0
120227.531,24.414,36.621,25.879,27.832,10.254,0
120227.535,30.762,34.180,20.508,36.133,61.035,0
120227.538,46.387,24.414,24.414,41.016,47.852,0
120227.542,32.715,25.391,28.320,33.203,-32.715,0
120227.546,4.395,33.691,23.438,27.832,-43.945,0
120227.550,30.273,37.109,24.902,39.062,21.973,0
120227.554,56.641,35.645,23.438,38.574,53.711,0
120227.556,42.480,31.250,22.461,31.738,-0.977,0
120227.560,17.090,32.715,34.668,32.715,-58.105,0
120227.564,26.855,30.273,36.133,32.227,-23.926,0
120227.568,53.711,28.320,25.391,37.109,39.062,0
120227.572,49.805,30.762,16.113,34.668,37.598,0
120227.576,14.160,27.832,16.113,22.461,-18.066,0
120227.580,9.277,31.738,17.090,25.879,-7.812,0
120227.583,49.805,32.715,19.531,29.785,37.109,0
120227.587,45.898,31.250,30.273,24.902,58.594,0
120227.591,8.301,34.668,30.762,24.902,43.457,0
120227.595,10.254,32.227,27.344,23.926,13.184,0
120227.599,46.387,32.227,33.203,32.227,44.434,0
120227.601,53.223,31.738,34.668,35.645,61.523,0
120227.605,11.230,31.738,32.227,20.996,13.672,0
120227.609,-5.371,31.738,25.391,22.461,-33.691,0
120227.613,19.531,31.250,16.602,36.133,0.000,0
120227.617,43.945,33.691,16.602,33.691,35.156,0
120227.621,30.762,31.738,23.926,24.414,-6.836,0
120227.625,17.578,34.180,26.367,18.555,-31.250,0
120227.628,32.227,30.273,22.949,22.461,11.230,0
120227.632,54.199,25.391,23.438,30.762,85.938,0
120227.636,46.875,31.738,25.391,31.738,97.656,0
120227.640,20.020,34.668,28.320,27.344,12.207,0
120227.644,22.461,39.551,24.414,24.414,-39.551,0
120227.646,40.527,37.109,17.578,29.785,24.902,0
120227.650,46.387,23.438,20.996,31.250,53.223,0
120227.654,22.461,27.832,27.832,24.902,-8.789,0
120227.658,16.113,40.039,27.832,20.508,-41.504,0
120227.662,40.527,39.062,27.832,27.832,37.598,0
120227.666,49.805,38.086,27.832,33.691,62.500,0
120227.670,39.551,39.062,22.461,25.391,-5.371,0
120227.673,20.996,36.621,18.066,19.043,-29.785,0
120227.677,42.969,28.320,19.531,33.203,57.617,0
120227.681,70.801,25.879,20.020,46.387,115.234,0
120227.685,41.016,34.180,13.672,39.062,68.359,0
120227.689,5.859,36.621,9.277,31.738,39.062,0
120227.691,19.043,39.062,12.695,36.621,66.406,0
120227.695,55.176,38.574,21.973,41.992,96.191,0
120227.699,37.598,25.879,14.648,38.574,51.758,0
120227.703,-0.488,20.508,4.395,29.785,-30.273,0
120227.707,4.395,26.855,30.273,26.367,-17.578,0
120227.711,31.738,27.832,60.547,30.762,51.758,0
120227.715,37.109,26.855,58.105,21.973,50.781,0
120227.718,25.391,29.785,46.387,17.090,43.457,0
120227.722,20.508,30.273,41.016,18.066,34.668,0
120227.726,24.902,30.762,36.621,21.973,42.969,0
120227.730,35.156,32.227,38.086,27.832,69.336,0
120227.734,25.391,34.180,37.109,23.926,31.738,0
120227.751,7.324,30.762,31.250,19.531,-34.180,0
120227.755,36.621,29.785,27.832,37.109,-11.719,0
120227.759,73.730,30.762,20.020,49.316,41.992,0
120227.763,50.293,32.227,20.508,34.180,48.828,0
120227.767,6.836,34.180,30.273,21.484,-6.836,0
120227.771,27.344,33.691,30.273,22.461,-38.574,0
120227.775,60.059,31.250,21.973,30.273,10.742,0
120227.778,53.223,32.715,19.531,29.785,11.230,0
120227.782,28.320,30.273,20.508,20.508,-61.523,0
120227.786,20.020,30.273,11.719,24.414,-53.711,0
120227.790,47.852,38.086,9.277,35.156,20.996,0
120227.794,49.316,39.062,19.043,33.691,16.602,0
120227.796,26.367,35.645,30.273,28.320,-42.480,0
120227.800,20.020,33.691,32.227,25.879,-49.805,0
120227.804,39.062,29.297,31.250,35.645,9.277,0
120227.808,50.781,28.320,32.715,41.992,72.266,0
120227.812,32.715,27.832,23.438,36.621,24.414,0
120227.816,17.578,20.996,20.508,36.621,-54.688,0
120227.820,37.109,33.691,24.414,44.434,-23.438,0
120227.823,46.875,35.645,26.855,42.969,47.363,0
120227.827,43.457,30.762,32.227,35.645,38.574,0
120227.831,14.648,31.738,23.438,22.461,-13.672,0
120227.835,2.441,33.203,13.184,20.508,-20.020,0
120227.839,39.062,32.227,17.578,31.250,20.508,0
120227.841,50.781,33.691,28.320,32.715,52.246,0
120227.845,18.066,35.156,31.250,22.461,34.668,0
120227.849,-3.906,29.297,27.832,19.043,10.742,0
120227.853,30.273,27.832,29.297,29.297,37.598,0
120227.857,46.875,25.391,30.273,32.227,34.668,0
120227.861,22.461,24.414,28.809,25.391,-13.184,0
120227.865,14.160,28.320,32.227,29.297,7.812,0
120227.868,43.457,36.621,35.156,37.598,45.898,0
120227.872,84.473,37.109,24.902,38.086,22.461,0
120227.876,58.594,38.574,18.066,32.715,-29.297,0
120227.880,13.672,39.062,30.273,29.297,-27.832,0
120227.884,31.738,35.645,31.250,40.527,-0.977,0
120227.901,56.152,38.086,20.996,37.109,37.598,0
120227.905,42.480,35.645,20.508,24.902,31.250,0
120227.909,19.043,30.762,19.531,23.438,-32.715,0
120227.913,25.391,34.180,17.578,30.273,-24.414,0
120227.917,52.246,39.062,16.602,40.039,52.734,0
120227.921,56.641,39.551,22.461,42.480,56.152,0
120227.924,24.414,28.809,25.391,34.668,10.742,0
120227.928,13.184,24.902,16.602,27.832,-16.602,0
120227.932,43.945,32.715,16.602,33.203,0.488,0
120227.936,50.293,34.180,26.855,36.621,68.359,0
120227.940,36.621,34.180,32.715,31.250,58.105,0
120227.944,27.344,32.227,40.039,29.785,2.441,0
120227.931,28.320,24.414,38.086,41.016,15.137,0
120227.935,37.598,30.273,26.855,39.551,54.688,0
120227.939,28.320,34.180,28.320,28.320,42.969,0
120227.943,22.949,34.668,32.715,23.926,-9.277,0
120227.947,22.461,33.203,27.344,26.367,-21.973,0
120227.951,29.297,26.367,18.555,31.738,27.344,0
120227.955,30.762,32.227,15.625,29.297,46.875,0
120227.958,6.348,37.109,18.555,17.090,-4.395,0
120227.962,5.371,30.273,20.020,15.625,-4.395,0
120227.966,41.016,27.832,20.996,30.762,43.457,0
120227.970,58.105,39.062,22.949,34.180,31.250,0
120227.974,30.273,39.062,26.855,24.902,-26.855,0
120227.976,8.789,21.484,27.832,19.531,-19.043,0
120227.980,29.785,20.996,11.719,26.367,56.152,0
120227.984,44.434,39.551,-2.441,31.250,33.203,0
120227.988,24.902,42.480,6.836,23.438,-28.809,0
120227.992,10.254,38.086,29.785,16.113,-37.109,0
120227.996,30.762,34.180,45.898,24.414,20.020,0
120228.000,43.457,33.691,41.504,34.668,73.730,0
120228.004,37.109,37.598,26.367,31.738,12.695,0
120228.008,16.602,35.156,21.973,25.391,-29.785,0
120228.012,6.348,22.949,33.691,27.832,8.789,0
120228.015,35.156,19.043,31.250,35.156,41.016,0
120228.019,36.621,29.785,1.465,35.156,64.453,0
120228.022,21.484,34.180,7.812,28.320,38.574,0
120228.026,20.508,28.809,40.527,24.414,-24.902,0
120228.030,34.180,29.297,41.992,30.273,-12.695,0
120228.034,41.016,34.180,36.621,33.203,17.090,0
120228.038,18.066,33.203,35.645,25.879,-19.043,0
120228.042,11.719,37.598,31.738,20.508,-35.156,0
120228.046,38.574,38.574,28.320,27.832,-18.555,0
120228.050,54.688,34.180,27.832,31.250,-4.395,0
120228.054,33.691,34.180,19.043,27.344,3.418,0
120228.058,14.648,36.621,-0.977,25.391,-54.688,0
120228.062,36.133,34.668,-19.043,36.621,-42.480,0
120228.065,53.223,25.391,8.301,39.062,17.578,0
120228.081,37.598,24.902,48.340,22.949,0.488,0
120228.085,12.207,25.391,58.105,17.578,-49.316,0
120228.089,15.625,23.926,25.879,30.273,-43.457,0
120228.093,46.387,29.297,14.160,38.574,15.137,0
120228.097,46.875,28.809,42.480,31.250,33.203,0
120228.101,19.043,31.250,45.898,20.508,-32.715,0
120228.105,11.719,28.320,30.762,14.648,-73.730,0
120228.109,32.227,24.414,26.855,22.949,25.391,0
120228.112,34.668,31.250,32.227,29.297,91.797,0
120228.116,12.695,32.715,29.297,22.949,7.324,0
120228.120,6.836,33.203,12.695,23.926,-36.133,0
120228.124,29.785,31.250,4.883,34.180,34.668,0
120228.126,47.852,20.996,19.531,33.691,50.781,0
120228.130,32.227,24.902,30.762,28.320,16.113,0
120228.134,10.742,41.992,29.785,26.855,-15.625,0
120228.138,26.855,45.898,15.625,36.133,-5.859,0
120228.142,44.434,30.762,14.648,35.156,42.969,0
120228.146,29.785,18.066,17.090,20.996,38.574,0
120228.150,9.277,28.320,16.113,20.996,4.395,0
120228.153,12.695,34.180,4.395,24.902,20.508,0
120228.157,41.016,26.855,1.953,30.762,53.711,0
120228.161,46.387,29.297,18.555,33.691,26.367,0
120228.165,9.766,35.645,26.367,24.414,0.000,0
120228.169,-5.371,32.227,27.832,20.020,15.625,0
120228.171,26.855,31.738,25.391,34.668,-4.395,0
120228.175,49.316,34.180,23.926,40.527,22.949,0
120228.179,37.109,32.715,23.438,31.738,31.250,0
120228.183,11.230,27.832,22.461,28.320,-24.902,0
120228.187,23.438,22.461,24.902,36.621,-4.883,0
120228.191,50.293,30.273,22.461,45.410,46.875,0
120228.195,37.109,37.598,19.531,36.621,29.297,0
120228.198,10.254,32.715,18.555,19.043,-20.996,0
120228.202,24.902,26.855,17.578,19.043,-23.926,0
120228.206,60.547,30.762,18.555,27.832,-9.766,0
120228.210,50.293,31.250,13.184,26.367,2.930,0
120228.214,18.555,29.785,12.207,19.531,-23.438,0
120228.216,23.438,31.738,16.602,22.949,-44.434,0
120228.220,45.410,27.832,17.578,29.297,-9.766,0
120228.224,49.316,35.156,27.344,26.367,25.391,0
120228.228,31.738,41.016,27.832,19.531,-12.695,0
120228.232,17.578,27.344,22.461,18.066,-49.805,0
120228.236,26.367,26.367,19.531,24.414,38.574,0
120228.240,57.617,38.086,10.742,26.855,129.883,0
120228.243,38.086,35.156,10.742,23.438,104.492,0
120228.247,-5.371,31.250,16.602,19.531,26.367,0
120228.251,16.113,29.785,15.625,26.367,12.695,0
120228.255,42.480,26.855,6.836,34.668,81.055,0
120228.259,38.086,28.809,10.254,32.715,69.824,0
120228.261,19.043,35.156,29.785,28.809,17.090,0
120228.265,25.879,36.133,40.527,35.645,27.344,0
120228.269,50.781,31.738,31.738,37.598,88.867,0
120228.273,45.898,29.297,20.508,27.832,65.918,0
120228.277,22.461,29.297,19.531,20.996,-1.953,0
120228.281,23.926,33.203,22.461,24.902,-9.766,0
120228.285,53.711,39.062,20.996,34.668,36.133,0
120228.288,61.523,39.062,15.625,32.715,64.941,0
120228.292,32.715,36.621,12.207,22.461,12.207,0
120228.296,22.461,37.109,16.602,21.973,-20.508,0
120228.300,47.363,36.621,21.973,34.180,43.457,0
120228.304,68.359,32.227,23.926,40.039,94.727,0
120228.307,53.223,32.715,21.973,37.598,54.688,0
120228.311,20.020,34.668,20.508,33.203,17.090,0
120228.315,24.902,35.645,20.508,34.668,40.039,0
120228.318,50.781,38.574,20.508,42.480,75.684,0
120228.322,51.270,39.062,21.484,38.574,39.551,0
120228.326,31.250,42.480,19.043,29.297,-20.508,0
120228.330,28.320,39.062,17.090,31.250,1.465,0
120228.334,46.387,34.668,20.020,37.109,23.926,0
120228.338,47.363,29.297,20.020,32.715,43.457,0
120228.342,19.531,21.484,19.043,23.926,27.832,0
120228.346,12.207,29.297,23.438,28.809,7.324,0
120228.350,43.945,33.203,20.020,41.016,37.598,0
120228.351,58.105,32.227,10.254,41.504,51.270,0
120228.355,35.156,33.691,12.207,30.273,26.367,0
120228.359,20.508,32.715,17.578,20.996,-25.391,0
120228.363,40.039,36.133,5.859,32.715,-7.812,0
120228.367,62.988,29.297,7.324,44.922,63.965,0
120228.371,50.293,27.832,31.250,32.227,37.598,0
120228.375,7.812,43.945,40.527,16.113,-31.738,0
120228.378,3.418,40.527,25.879,11.230,-19.531,0
120228.382,33.691,31.250,16.113,16.602,49.316,0
120228.386,39.551,34.180,21.484,18.555,54.688,0
120228.390,17.090,36.621,23.438,19.531,-23.926,0
120228.394,19.043,34.668,22.461,25.879,-15.137,0
120228.396,48.828,35.156,16.113,32.715,33.691,0
120228.400,51.270,33.691,14.648,31.738,22.949,0
120228.404,16.602,33.203,25.879,25.391,19.043,0
120228.408,2.441,35.156,26.855,21.484,-15.137,0
120228.412,42.480,38.086,21.973,32.715,8.789,0
120228.416,64.453,39.551,21.973,39.551,43.945,0
120228.420,28.809,34.180,18.066,25.391,0.977,0
120228.423,4.883,30.762,19.531,17.578,-47.852,0
120228.427,23.926,32.715,24.414,27.344,-10.254,0
120228.431,44.922,28.809,23.438,36.621,64.453,0
120228.435,41.992,26.367,23.438,28.809,52.246,0
120228.439,20.996,26.367,24.414,18.066,-14.160,0
120228.441,17.578,32.227,24.414,21.484,7.812,0
120228.445,44.922,39.062,20.020,30.762,59.082,0
120228.449,43.945,36.133,20.996,30.762,16.113,0
120228.453,18.555,33.691,25.879,25.391,-19.043,0
120228.457,21.973,33.691,22.461,32.715,9.766,0
120228.461,49.805,32.227,21.484,39.062,20.996,0
120228.465,48.340,29.297,23.438,32.715,3.418,0
120228.468,20.996,33.203,20.508,26.367,-24.414,0
120228.472,19.043,37.109,25.879,35.645,-41.504,0
120228.476,68.848,36.133,31.738,44.434,-9.277,0
120228.480,69.824,31.250,31.250,38.086,3.418,0
120228.484,15.137,27.832,29.297,32.227,-15.137,0
120228.487,2.930,31.738,25.879,30.273,-14.160,0
120228.491,28.320,35.156,24.414,35.645,-5.371,0
120228.495,49.316,33.203,24.902,45.410,22.949,0
120228.499,47.363,31.738,25.391,43.457,41.992,0
120228.503,29.297,32.715,27.344,31.738,-6.836,0
120228.507,23.438,34.180,28.809,34.668,-56.641,0
120228.511,49.316,36.621,27.832,43.457,-13.184,0
120228.515,52.246,37.109,24.414,43.945,37.598,0
120228.519,20.020,36.621,28.809,39.551,-23.926,0
120228.523,18.066,35.156,28.320,37.598,-24.902,0
120228.527,52.734,36.133,18.066,38.086,32.715,0
120228.530,60.547,35.645,19.043,32.227,63.477,0
120228.546,36.133,36.621,24.902,22.949,35.156,0
120228.550,8.789,41.992,24.414,25.391,-20.508,0
120228.554,28.809,35.645,21.973,38.086,31.250,0
120228.558,61.523,29.785,25.879,45.898,70.801,0
120228.562,39.062,36.133,23.438,36.133,15.625,0
120228.566,2.930,40.527,18.066,23.926,-50.293,0
120228.570,21.484,39.062,17.578,28.320,-38.574,0
120228.574,55.176,40.039,24.414,41.992,17.090,0
120228.578,43.457,40.039,30.273,35.156,-34.668,0
120228.582,10.254,40.039,26.367,20.020,-114.746,0
120228.585,19.043,40.039,21.973,24.414,-26.367,0
120228.589,50.781,39.062,20.508,32.227,69.824,0
120228.591,49.805,36.133,23.438,31.738,44.434,0
120228.595,23.438,36.621,22.949,24.902,2.930,0
120228.599,23.438,37.109,19.531,21.973,-3.906,0
120228.603,52.246,35.156,22.461,31.738,25.391,0
120228.607,57.617,39.062,24.902,37.109,45.898,0
120228.611,28.809,38.086,26.855,25.391,18.555,0
120228.615,5.859,34.180,30.762,18.555,-33.203,0
120228.618,24.414,34.180,25.879,28.320,-9.766,0
120228.622,54.688,35.156,20.020,25.391,44.922,0
120228.626,39.551,36.133,20.996,16.602,-14.648,0
120228.630,1.465,33.691,22.949,16.113,-47.852,0
120228.634,12.207,29.785,24.902,21.973,15.137,0
120228.636,50.781,34.668,24.902,30.762,62.988,0
120228.640,54.688,37.598,20.508,28.320,64.941,0
120228.644,16.602,35.645,19.531,20.996,46.387,0
120228.648,19.043,34.180,25.391,24.414,15.625,0
120228.652,53.711,33.203,33.203,33.691,63.477,0
120228.656,50.781,34.180,32.227,36.133,75.684,0
120228.660,34.668,34.180,25.391,33.203,-9.766,0
120228.663,29.785,36.621,20.020,28.320,-21.973,0
120228.667,37.109,37.598,20.996,25.391,-15.625,0
120228.671,51.758,39.062,20.996,34.180,1.465,0
120228.675,34.668,41.504,19.531,27.832,16.602,0
120228.679,12.207,40.527,24.902,14.160,-27.832,0
120228.681,30.762,36.133,29.297,28.320,6.836,0
120228.685,50.293,30.273,32.227,29.297,65.918,0
120228.689,40.527,32.227,26.855,19.531,39.551,0
120228.693,14.160,38.574,20.996,16.113,5.859,0
120228.697,15.137,35.156,20.020,21.973,8.789,0
120228.701,45.898,35.645,24.414,35.645,42.480,0
120228.705,49.316,38.086,26.367,30.273,16.602,0
120228.708,8.301,32.715,21.484,16.602,-87.402,0
120228.712,-6.836,32.715,23.926,21.973,-70.801,0
120228.716,31.250,32.227,28.809,31.738,47.852,0
120228.720,41.016,26.855,32.715,29.785,50.781,0
120228.724,18.066,27.832,30.273,23.438,-33.691,0
120228.727,-0.977,30.273,23.926,19.531,-43.945,0
120228.731,20.508,25.879,20.996,26.855,16.602,0
120228.735,39.062,26.367,15.137,28.320,45.898,0
120228.738,21.484,27.832,20.020,20.996,28.809,0
120228.742,8.789,27.832,29.297,17.090,-8.789,0
120228.746,23.926,30.762,26.367,23.438,-16.602,0
120228.750,42.480,31.250,25.391,28.320,33.691,0
120228.754,27.832,33.203,21.484,17.578,20.508,0
120228.758,3.418,30.762,19.043,12.207,-14.160,0
120228.762,16.602,31.250,21.484,21.484,25.391,0
120228.766,41.504,32.227,21.973,28.809,78.125,0
120228.770,38.086,30.762,29.297,26.855,81.055,0
120228.771,18.066,30.273,26.367,18.555,39.551,0
120228.775,17.578,30.273,19.531,17.090,35.645,0
120228.779,33.203,36.621,25.391,26.855,43.457,0
120228.783,38.086,34.668,26.855,30.273,65.430,0
120228.787,21.973,28.320,28.320,24.902,57.617,0
120228.791,7.812,30.762,29.785,19.531,2.441,0
120228.795,36.621,37.598,24.902,27.344,-4.883,0
120228.798,57.129,37.598,23.438,35.156,39.062,0
120228.802,35.156,24.902,30.762,26.855,28.809,0
120228.806,24.414,35.645,33.691,21.484,-34.180,0
120228.810,30.762,51.270,27.344,26.855,7.324,0
120228.814,35.156,41.016,26.367,29.297,34.180,0
120228.816,32.715,32.227,29.297,25.391,3.418,0
120228.820,3.906,34.668,28.809,19.531,-22.461,0
120228.824,-2.441,33.203,20.996,24.902,-25.391,0
120228.828,33.203,23.926,12.207,35.645,18.066,0
120228.832,41.016,21.973,16.602,37.109,50.781,0
120228.836,16.602,29.785,21.484,30.273,13.672,0
120228.840,17.090,37.109,23.438,26.367,-37.109,0
120228.843,44.434,36.133,31.250,33.203,0.000,0
120228.847,49.316,35.156,33.691,36.621,28.809,0
120228.851,30.273,33.691,32.715,29.297,-16.602,0
120228.855,24.902,22.949,30.762,25.391,-53.223,0
120228.859,47.852,35.645,29.297,35.645,-41.016,0
120228.876,52.734,45.410,28.809,40.527,18.555,0
120228.880,27.344,34.180,29.297,26.855,32.715,0
120228.884,2.441,30.273,29.785,19.043,-9.277,0
120228.888,9.766,28.320,29.297,25.391,-3.418,0
120228.892,44.922,33.691,28.809,38.574,48.828,0
120228.896,42.480,34.668,21.484,37.598,1.465,0
120228.900,18.066,30.762,20.996,24.414,-64.941,0
120228.903,37.109,33.691,22.949,22.949,-26.367,0
120228.907,56.641,33.691,22.461,27.832,0.000,0
120228.911,29.785,33.203,24.414,24.902,-21.484,0
120228.915,8.301,35.645,20.508,16.113,-43.945,0
120228.919,12.695,33.691,21.484,16.113,-37.598,0
120228.921,41.016,31.738,23.926,24.414,5.371,0
120228.925,54.199,32.715,20.508,36.133,48.828,0
120228.929,28.809,38.086,17.090,19.531,-2.441,0
120228.933,12.207,40.527,23.926,4.395,-55.176,0
120228.937,38.086,37.598,27.832,19.043,-37.109,0
120228.941,62.012,38.086,21.484,26.367,5.371,0
120228.945,50.781,39.062,18.555,18.066,-24.902,0
120228.948,28.809,36.133,25.391,18.066,-65.918,0
120228.952,23.438,30.762,28.809,24.414,-59.570,0
120228.956,48.340,31.250,29.297,29.785,-42.480,0
120228.960,57.617,34.180,34.180,35.156,-5.859,0
120228.964,22.461,36.621,30.273,25.879,-26.367,0
120228.966,-0.977,34.668,22.949,21.484,-30.762,0
120228.970,22.461,27.832,22.461,30.273,13.672,0
120228.974,36.621,30.762,23.438,26.855,47.363,0
120228.978,20.020,30.762,26.855,20.020,-7.812,0
120228.982,6.836,28.320,24.902,19.531,-33.691,0
120228.986,23.438,29.297,21.973,25.391,21.484,0
120228.990,48.340,27.832,20.020,25.391,58.105,0
120228.993,32.227,28.809,15.137,13.184,43.945,0
120228.997,15.625,29.297,18.066,11.719,19.043,0
120229.001,42.969,28.320,25.879,21.973,12.695,0
120229.005,62.500,30.273,30.762,27.344,27.832,0
120229.009,37.598,34.668,28.320,23.926,28.320,0
120229.011,9.277,32.715,27.344,17.090,2.441,0
120229.015,20.996,29.297,26.855,20.996,-8.789,0
120229.019,57.617,29.297,24.902,29.785,26.855,0
120229.023,51.758,34.180,25.391,28.809,18.066,0
120229.027,9.766,33.691,24.902,19.043,-28.809,0
120229.031,1.953,33.203,25.391,16.113,-14.648,0
120229.035,29.785,31.250,25.391,28.320,40.039,0
120229.038,35.645,27.832,22.949,31.250,41.504,0
120229.042,16.113,27.344,18.555,18.066,-28.320,0
120229.046,21.484,30.273,17.578,17.090,-36.621,0
120229.050,37.598,32.227,22.949,30.762,33.203,0
120229.054,59.082,32.227,24.414,28.809,54.199,0
120229.056,41.016,35.156,25.879,22.949,28.320,0
120229.060,-1.953,34.668,29.785,26.367,-11.719,0
120229.064,26.855,30.273,26.855,29.785,-20.508,0
120229.068,62.500,27.344,19.531,30.273,15.137,0
120229.072,49.316,29.785,23.438,28.320,30.762,0
120229.076,14.648,32.227,31.738,32.715,0.000,0
120229.080,10.254,31.250,29.297,35.156,-29.297,0
120229.083,47.363,35.156,26.855,36.133,13.184,0
120229.087,42.480,31.738,26.367,32.227,20.996,0
120229.091,5.859,30.273,22.949,26.855,-28.320,0
120229.095,22.949,33.691,22.949,28.809,-18.066,0
120229.099,72.754,31.738,23.926,37.598,26.367,0
120229.101,50.781,32.227,24.414,42.969,53.223,0
120229.105,16.602,33.691,21.484,30.762,12.695,0
120229.109,19.043,31.738,20.020,27.344,-47.363,0
120229.113,33.203,28.809,22.949,40.039,2.930,0
120229.117,57.129,28.809,23.438,42.480,39.551,0
120229.121,49.805,32.715,19.531,31.738,9.277,0
120229.125,18.066,32.715,18.066,23.438,-10.742,0
120229.129,21.973,30.273,19.531,25.879,-29.785,0
120229.132,55.176,31.250,25.391,33.691,41.992,0
120229.136,44.922,30.273,25.391,38.086,89.844,0
120229.140,16.113,34.668,19.531,33.691,27.832,0
120229.144,17.090,36.621,21.973,33.203,18.555,0
120229.147,42.969,20.508,24.902,38.086,63.965,1
120229.151,57.129,21.484,20.020,37.109,67.383,0
120229.155,37.598,25.391,23.438,31.250,29.297,0
120229.158,2.930,30.273,32.227,28.320,0.488,0
120229.162,20.996,41.016,32.715,41.016,52.246,0
120229.166,62.500,41.016,28.320,49.316,74.707,0
120229.170,41.504,40.039,27.832,37.598,8.301,0
120229.174,18.066,41.992,27.832,26.367,-19.531,0
120229.178,46.387,40.527,22.949,35.645,40.039,0
120229.182,60.547,32.715,20.508,40.527,101.074,0
120229.186,41.992,27.832,23.926,28.809,83.008,0
120229.190,12.695,25.879,32.227,20.020,24.902,0
120229.193,27.344,26.855,33.203,26.367,54.199,0
120229.197,62.500,28.320,24.902,30.273,81.543,0
120229.200,51.270,25.391,24.414,25.391,39.551,0
120229.204,7.812,24.902,22.949,24.414,6.836,0
120229.208,5.859,28.809,22.949,30.762,19.531,0
120229.212,38.086,31.250,30.762,34.668,57.617,0
120229.216,48.340,29.785,35.156,31.250,24.902,0
120229.220,20.996,30.273,31.250,19.531,-5.859,0
120229.224,15.625,31.250,27.832,21.484,-18.555,0
120229.228,40.039,28.809,25.391,31.250,3.418,0
120229.232,54.688,29.785,23.926,33.691,45.898,0
120229.236,29.785,27.344,22.949,30.273,19.043,0
120229.251,1.953,23.438,23.926,29.785,-12.207,0
120229.255,25.391,30.273,27.344,32.227,13.672,0
120229.259,56.641,33.203,25.391,32.227,62.500,0
120229.263,34.668,29.297,27.344,25.391,35.156,0
120229.267,8.301,30.273,23.926,16.602,-25.391,0
120229.271,15.137,32.715,20.020,23.438,-17.578,0
120229.275,35.156,34.668,22.949,32.227,34.668,0
120229.278,36.133,29.297,16.602,28.320,59.082,0
120229.282,13.672,26.367,15.137,22.461,-2.441,0
120229.286,11.719,30.762,24.414,21.973,-17.090,0
120229.290,44.434,31.250,27.344,34.668,59.082,0
120229.294,55.176,30.762,22.949,33.203,67.871,0
120229.296,42.480,34.180,26.367,20.020,42.969,0
120229.300,17.578,31.738,34.668,23.926,0.488,0
120229.304,19.043,28.320,25.879,31.738,-14.160,0
120229.308,47.363,27.832,20.996,37.109,21.484,0
120229.312,34.668,29.297,26.367,32.227,8.789,0
120229.316,10.742,31.250,27.832,18.555,-28.320,0
120229.320,36.621,32.227,30.762,25.879,-9.766,0
120229.323,64.941,31.738,33.691,36.133,43.457,0
120229.327,44.922,26.367,30.273,25.391,37.598,0
120229.331,19.043,26.367,27.832,15.137,-17.090,0
120229.335,20.020,27.832,27.832,22.949,42.480,0
120229.339,41.504,26.367,22.461,30.762,95.215,0
120229.341,44.434,28.809,18.066,29.297,52.734,0
120229.345,14.160,28.809,23.438,24.414,23.926,0
120229.349,10.254,25.391,26.855,22.949,0.000,0
120229.353,37.109,25.391,26.367,33.691,-7.324,0
120229.357,45.410,26.855,24.902,35.645,5.859,0
120229.361,29.785,27.832,26.367,25.391,-16.113,0
120229.365,12.207,24.902,30.762,23.926,-22.949,0
120229.368,22.461,22.461,28.320,36.133,24.414,0
120229.372,51.270,25.879,25.879,43.457,32.715,0
120229.376,39.062,29.297,26.855,41.992,6.836,0
120229.380,10.254,30.762,26.855,34.180,-6.348,0
120229.384,27.344,32.227,24.414,27.344,-0.488,0
120229.386,45.898,30.273,23.926,30.762,15.625,0
120229.390,33.203,28.320,25.391,26.855,12.207,0
120229.394,8.301,27.344,24.414,24.414,-11.719,0
120229.398,26.855,25.391,22.949,27.344,-3.906,0
120229.402,65.918,26.367,24.414,33.691,38.574,0
120229.406,42.480,25.879,26.367,34.668,38.086,0
120229.410,8.789,27.344,21.484,25.391,11.719,0
120229.413,13.184,27.344,18.555,29.297,-1.953,0
120229.417,44.434,27.344,20.996,40.527,42.480,0
120229.421,57.129,26.367,23.438,42.969,54.688,0
120229.425,30.273,26.855,27.344,27.344,6.348,0
120229.429,15.625,31.250,25.879,18.066,-6.348,0
120229.431,41.992,31.250,21.973,29.785,14.648,0
120229.435,65.918,33.203,23.926,40.527,55.664,0
120229.439,58.105,34.668,23.438,37.598,49.316,0
120229.443,25.879,34.180,27.832,30.273,11.719,0
120229.447,14.648,31.738,28.320,36.621,-5.371,0
120229.451,44.922,31.738,20.508,45.898,29.297,0
120229.455,49.805,34.668,18.066,42.969,39.551,0
120229.458,23.926,34.180,23.926,32.715,-36.133,0
120229.462,26.855,30.273,27.344,27.344,-37.598,0
120229.466,55.664,30.273,24.414,34.180,37.109,0
120229.470,53.711,31.250,29.297,37.109,42.480,0
120229.474,29.785,25.391,34.180,30.273,-1.465,0
120229.476,22.949,22.461,30.762,25.391,-48.828,0
120229.480,43.457,24.902,23.926,33.203,-28.809,0
120229.484,58.594,26.367,19.531,39.551,29.785,0
120229.488,41.016,30.273,25.391,39.062,8.789,0
120229.492,15.137,27.344,23.926,32.227,-27.832,0
120229.496,40.039,27.344,24.414,40.527,-0.488,0
120229.500,59.082,30.273,31.250,54.199,32.715,0
120229.504,30.273,30.762,31.738,42.969,-9.766,0
120229.508,5.371,31.738,33.203,28.320,-56.152,0
120229.512,21.484,28.809,30.273,31.738,-41.504,0
120229.515,52.734,23.926,26.855,39.551,23.438,0
120229.519,44.434,23.926,28.320,34.668,30.273,0
120229.521,27.344,30.762,29.297,27.832,-14.648,0
120229.525,27.832,27.344,32.715,36.133,-36.621,0
120229.529,34.180,27.344,35.156,47.363,10.742,0
120229.533,37.598,33.203,31.738,41.016,27.344,0
120229.537,14.648,32.227,28.809,31.250,-37.109,0
120229.541,10.742,31.250,27.832,35.156,-59.082,0
120229.545,49.805,32.227,31.738,39.062,3.418,0
120229.548,55.176,28.320,31.738,40.039,26.855,0
120229.552,30.762,23.926,29.297,29.785,9.277,0
120229.556,7.812,27.832,26.367,16.602,-21.973,0
120229.560,9.277,30.762,16.602,20.996,-1.465,0
120229.564,51.270,29.785,22.461,30.762,60.059,0
120229.567,68.848,30.762,32.227,30.273,53.711,0
120229.571,12.207,25.391,34.180,22.461,-29.785,0
120229.575,-3.418,22.461,27.832,24.414,-21.973,0
120229.578,38.574,29.785,20.020,34.180,57.617,0
120229.582,42.969,34.180,22.461,30.273,51.270,0
120229.586,31.250,34.668,24.902,29.785,3.906,0
120229.590,23.438,34.180,24.902,29.785,-18.066,0
120229.594,30.762,30.273,24.902,24.902,63.965,0
120229.598,49.316,26.855,22.949,28.809,85.938,0
120229.602,40.527,28.320,24.414,26.855,18.555,0
120229.606,19.043,28.809,28.320,30.273,-2.930,0
120229.610,32.715,28.320,26.855,43.945,20.020,0
120229.626,65.918,29.785,23.438,43.457,41.504,0
120229.630,52.246,27.832,19.531,32.715,6.348,0
120229.634,3.906,29.297,18.555,23.438,-9.766,0
120229.638,6.348,28.320,22.461,25.391,41.504,0
120229.642,57.129,25.879,22.461,34.180,83.984,0
120229.646,65.918,26.855,22.949,34.668,32.715,0
120229.650,14.648,27.344,26.367,23.438,-23.438,0
120229.653,11.230,27.832,29.297,24.902,1.953,0
120229.657,44.434,26.367,25.391,34.180,24.902,0
120229.661,41.016,24.902,19.043,27.344,6.348,0
120229.665,23.926,25.391,21.484,19.043,-58.594,0
120229.669,33.203,31.250,22.949,22.949,-80.566,0
120229.671,44.922,31.738,20.996,31.250,-6.836,0
120229.675,43.457,26.855,20.508,35.156,32.715,0
120229.679,24.902,26.367,21.484,26.367,11.230,0
120229.683,9.766,27.344,18.555,21.973,-5.371,0
120229.687,39.551,27.832,16.602,36.621,0.977,0
120229.691,76.660,27.344,16.602,42.480,43.945,0
120229.695,35.156,28.809,20.996,28.320,38.574,0
120229.698,-13.672,29.785,25.391,17.090,-0.977,0
120229.702,17.090,28.320,23.926,24.902,13.184,0
120229.706,53.711,26.855,24.414,39.551,27.832,0
120229.710,41.992,22.949,22.461,32.715,26.367,0
120229.714,10.254,23.926,22.949,24.902,-12.207,0
120229.716,4.883,24.414,24.414,30.273,-24.414,0
120229.720,29.785,18.555,20.508,35.156,71.289,0
120229.724,41.016,22.461,21.484,36.621,76.172,0
120229.728,33.691,21.484,23.926,30.273,-10.742,0
120229.732,23.926,19.043,23.926,27.832,-17.090,0
120229.736,29.785,21.484,23.926,39.551,56.152,0
120229.740,45.410,21.484,21.484,50.781,70.312,0
120229.743,32.227,29.297,21.484,42.969,22.949,0
120229.747,7.324,28.320,20.996,27.344,-26.855,0
120229.751,14.648,23.926,19.531,33.691,5.371,0
120229.755,50.293,24.902,20.996,39.551,51.758,0
120229.759,50.293,24.902,20.020,30.762,33.691,0
120229.761,9.766,24.902,19.531,15.137,-27.344,0
120229.765,13.672,26.855,20.508,13.672,-31.738,0
120229.769,38.574,26.367,24.902,32.715,43.945,0
120229.773,30.273,19.043,25.391,34.668,78.125,0
120229.777,19.043,19.531,22.949,19.043,13.672,0
120229.781,15.625,23.926,19.531,21.973,-29.297,0
120229.785,46.387,22.461,19.043,35.156,20.508,0
120229.788,59.082,22.949,24.902,35.156,33.203,0
120229.792,32.227,22.949,27.344,29.785,-20.020,0
120229.796,17.578,23.438,25.879,27.344,-47.852,0
120229.800,39.062,21.973,24.902,33.203,-2.930,0
120229.804,71.777,24.414,24.902,39.551,44.922,0
120229.806,22.461,23.926,25.391,33.203,13.184,0
120229.810,-1.465,20.508,21.484,31.738,-15.137,0
120229.814,52.246,25.391,18.066,41.016,25.391,0
120229.818,58.594,25.391,25.391,41.992,68.848,0
120229.822,21.484,19.043,31.250,31.738,56.152,0
120229.826,-1.953,21.484,29.785,27.344,-20.020,0
120229.830,10.254,29.297,26.855,29.785,-31.250,0
120229.834,41.504,29.785,24.414,33.203,-6.348,0
120229.837,52.734,28.809,21.973,35.645,-6.348,0
120229.841,31.738,31.250,17.090,22.949,4.395,0
120229.845,19.531,30.273,18.555,25.391,4.883,0
120229.849,62.012,28.809,22.949,43.457,23.926,0
120229.851,80.566,33.691,25.391,43.945,56.641,0
120229.855,24.902,27.344,26.367,37.598,36.621,0
120229.859,9.277,26.855,26.367,44.434,-25.391,0
120229.863,38.574,28.809,19.043,37.598,12.695,0
120229.867,47.852,22.949,14.160,24.414,63.477,0
120229.871,21.973,30.273,17.090,15.137,23.926,0
120229.875,3.906,34.180,21.973,12.207,-3.418,0
120229.878,25.879,28.809,26.367,24.902,1.953,0
120229.882,62.500,28.320,22.949,31.250,36.133,0
120229.886,52.246,30.762,21.484,30.273,38.086,0
120229.890,5.859,25.391,24.414,18.066,-4.883,0
120229.894,20.508,23.926,27.344,12.695,-37.109,0
120229.897,57.129,27.344,26.367,29.297,12.695,0
120229.901,43.457,28.320,16.602,34.180,58.594,0
120229.905,23.926,29.785,10.742,22.461,2.930,0
120229.909,16.602,25.391,16.113,19.531,-27.832,0
120229.913,39.062,20.508,22.461,28.809,34.668,0
120229.917,61.035,22.949,28.809,35.645,79.590,0
120229.921,27.344,27.344,25.391,34.180,35.156,0
120229.925,3.418,28.809,20.508,31.250,-14.648,0
120229.929,27.832,28.809,20.508,29.785,39.551,0
120229.933,50.781,26.855,21.973,28.809,92.285,0
120229.937,40.039,25.391,28.809,24.902,60.547,0
120229.940,24.414,28.320,19.531,20.508,15.137,0
120229.941,46.875,27.344,3.906,31.250,47.852,0
120229.945,63.965,25.391,17.578,39.062,70.312,0
120229.949,40.527,26.855,26.367,30.762,59.570,0
120229.953,14.648,27.344,27.344,20.508,12.207,0
120229.957,22.949,28.320,32.227,23.438,-5.859,0
120229.961,48.340,27.344,33.691,39.551,65.918,0
120229.965,67.871,27.344,35.645,41.992,66.895,0
120229.968,45.898,31.250,30.762,35.156,-3.418,0
120229.972,20.508,27.832,23.926,34.180,-21.484,0
120229.976,42.480,24.414,22.461,41.504,-11.719,0
120229.980,64.453,29.297,18.066,42.969,-13.184,0
120229.984,45.898,31.250,14.648,33.691,-16.602,0
120230.001,10.742,30.762,20.508,23.926,-24.902,0
120230.005,40.039,32.715,25.879,31.738,4.395,0
120230.009,65.918,32.227,32.227,37.109,78.613,0
120230.013,25.391,29.297,28.320,26.855,99.121,0
120230.017,8.301,29.785,8.789,23.438,53.711,0
120230.021,28.320,28.809,6.348,31.250,28.320,0
120230.025,61.523,23.926,32.227,39.551,54.688,0
120230.028,53.223,23.926,38.574,33.203,54.199,0
120230.032,14.160,26.855,11.230,25.391,35.156,0
120230.036,11.719,23.926,12.207,21.484,10.254,0
120230.040,38.086,23.438,37.598,28.809,45.898,0
120230.044,48.340,28.320,3.906,44.434,83.984,0
120230.046,23.926,25.391,6.348,33.203,-9.277,0
120230.050,21.973,18.066,62.500,14.160,-48.340,0
120230.054,37.598,18.555,62.988,19.043,4.883,0
120230.058,34.668,18.555,50.293,22.461,46.387,0
120230.062,18.555,17.090,46.387,18.555,-3.906,0
120230.066,6.836,21.484,38.086,16.113,-81.055,0
120230.070,28.320,26.855,31.738,20.996,-47.363,0
120230.073,46.875,28.320,29.785,28.809,35.645,0
120230.077,43.457,25.879,22.461,24.414,26.367,0
120230.081,22.949,28.320,12.207,15.137,-73.730,0
120230.085,23.926,30.762,13.184,22.461,-72.266,0
120230.089,46.387,25.879,16.602,33.691,41.016,0
120230.091,39.062,21.973,31.738,30.762,42.969,0
120230.095,11.230,22.949,21.484,23.926,-24.414,0
120230.099,10.742,27.344,-5.371,25.391,-26.855,0
120230.103,48.340,24.414,15.137,31.738,49.316,0
120230.107,52.246,18.555,42.969,35.156,86.426,0
120230.111,21.973,18.555,47.363,23.438,27.344,0
120230.115,1.465,21.973,38.086,13.672,12.695,0
120230.118,12.695,21.973,28.809,23.438,59.570,0
120230.122,36.133,18.555,23.926,27.344,65.430,0
120230.126,25.879,23.438,20.508,25.391,23.926,0
120230.130,10.742,30.273,6.836,21.973,9.766,0
120230.134,38.574,26.367,-1.465,22.461,35.156,0
120230.136,56.641,20.020,14.160,27.832,54.199,0
120230.140,28.809,21.484,32.227,25.879,33.203,0
120230.144,3.906,19.043,34.180,19.531,-6.836,0
120230.148,1.465,16.602,27.344,22.949,14.160,0
120230.152,32.715,18.555,27.344,37.109,71.289,0
120230.156,46.875,19.531,23.438,35.156,60.547,0
120230.160,20.020,22.461,22.949,16.602,15.137,0
120230.164,2.441,21.484,29.297,13.184,-40.527,0
120230.168,31.738,19.043,25.391,23.438,-9.766,0
120230.171,57.617,21.973,19.531,30.273,81.543,0
120230.175,32.715,23.438,22.949,28.320,27.832,0
120230.179,0.488,23.438,23.438,20.020,-47.852,0
120230.181,17.090,20.508,25.391,28.320,1.465,0
120230.185,36.133,16.602,26.367,37.598,74.219,0
120230.189,35.645,21.973,22.949,29.297,35.156,0
120230.193,19.043,25.879,15.137,22.461,-36.621,0
120230.197,12.207,22.949,15.625,27.344,-26.855,0
120230.201,33.203,21.973,25.879,36.621,12.207,0
120230.205,32.227,20.996,29.297,35.156,11.719,0
120230.209,9.766,21.484,21.484,23.926,-47.852,0
120230.212,6.348,21.973,14.160,29.297,-49.805,0
120230.216,48.828,21.973,15.137,40.039,32.715,0
120230.220,59.570,22.461,22.949,39.551,45.898,0
120230.224,11.230,19.531,30.273,25.879,-26.855,0
120230.226,-2.930,24.414,35.645,20.020,-68.359,0
120230.230,30.762,27.344,31.250,30.273,-22.461,0
120230.234,42.480,20.508,24.414,35.645,35.645,0
120230.238,17.578,20.508,23.438,27.832,18.555,0
120230.242,6.836,26.367,20.508,21.484,-14.160,0
120230.246,38.574,30.273,19.531,29.297,-2.441,0
120230.250,51.758,32.227,13.672,32.715,-0.977,0
120230.253,33.203,32.227,10.254,25.879,-33.691,0
120230.257,27.832,31.738,17.578,21.484,-44.922,0
120230.261,37.109,27.344,18.555,30.762,-12.695,0
120230.265,49.316,25.391,21.484,37.598,47.852,0
120230.269,46.387,24.902,29.297,35.156,25.391,0
120230.271,13.672,23.438,29.297,26.367,-57.129,0
120230.275,10.742,29.297,26.367,32.715,-80.078,0
120230.279,50.781,31.738,23.926,42.969,-35.645,0
120230.283,62.500,30.762,18.555,33.203,-31.738,0
120230.287,20.020,28.809,18.555,28.809,-31.250,0
120230.291,4.883,26.367,19.043,31.250,-1.465,0
120230.295,32.227,28.320,18.066,35.645,22.461,0
120230.298,56.152,28.320,11.230,36.133,50.781,0
120230.302,36.133,27.832,17.578,30.273,41.504,0
120230.306,-1.953,25.879,31.250,18.066,4.883,0
120230.310,18.555,18.066,26.855,17.578,29.785,0
120230.314,39.551,18.066,21.484,24.902,61.035,0
120230.316,30.762,16.602,27.832,21.973,82.031,0
120230.320,26.855,14.160,25.879,22.949,11.230,0
120230.324,30.762,22.949,15.137,30.273,0.000,0
120230.328,36.621,26.855,22.949,35.645,81.543,0
120230.332,38.574,29.785,29.785,36.133,34.180,0
120230.336,19.531,32.227,24.414,30.762,0.000,0
120230.340,12.207,27.832,17.090,28.809,-1.953,0
120230.343,40.039,23.438,10.742,33.203,-2.930,0
120230.347,61.035,22.949,24.414,31.250,37.109,0
120230.351,45.898,23.926,40.039,24.902,27.832,0
120230.355,7.324,22.461,35.645,22.461,-18.066,0
120230.359,21.973,19.531,32.227,32.227,-3.418,0
120230.362,57.617,21.484,33.203,39.551,30.762,0
120230.366,37.598,26.855,27.832,32.715,-15.625,0
120230.370,6.348,28.809,25.879,21.973,-70.312,0
120230.374,20.508,28.320,26.855,21.973,-33.691,0
120230.378,54.688,28.809,18.066,32.227,20.020,0
120230.382,47.363,32.227,-0.977,33.691,5.371,0
120230.386,15.625,26.855,-3.906,20.020,-12.695,0
120230.390,25.391,22.949,12.695,20.508,26.855,0
120230.394,51.270,32.715,26.855,28.320,59.570,0
120230.398,50.781,37.598,28.320,24.902,75.195,0
120230.402,21.973,31.250,30.273,17.090,9.766,0
120230.405,15.137,21.973,27.832,20.508,-32.715,0
120230.421,46.387,24.902,18.066,32.227,41.504,0
120230.425,49.805,29.297,22.461,36.133,64.453,0
120230.429,14.648,22.461,29.785,23.926,-7.324,0
120230.433,-3.906,21.484,28.809,9.766,-41.992,0
120230.437,15.625,25.391,28.320,17.578,11.719,0
120230.441,37.598,21.973,26.367,29.297,48.340,0
120230.445,29.297,21.973,23.438,23.926,13.672,0
120230.449,9.277,27.832,27.344,20.020,8.301,0
120230.452,26.855,29.785,28.320,29.785,27.832,0
120230.456,62.988,28.320,22.461,36.621,31.738,0
120230.460,55.176,27.344,18.555,33.691,45.898,0
120230.464,20.020,25.879,19.531,25.391,-9.766,0
120230.466,29.297,25.879,19.531,26.367,-28.320,0
120230.470,53.223,25.879,21.973,35.645,41.992,0
120230.474,45.410,26.367,24.902,34.668,31.250,0
120230.478,27.344,28.320,24.414,24.902,-27.344,0
120230.482,19.531,25.879,23.438,25.879,-21.973,0
120230.486,40.039,19.531,21.484,37.109,2.930,0
120230.490,52.734,18.555,23.438,36.133,-0.488,0
120230.494,37.109,22.949,24.902,23.926,-8.301,0
120230.497,16.602,20.996,20.020,20.996,-41.504,0
120230.501,39.062,24.902,18.066,28.320,-27.832,0
120230.505,67.871,32.227,19.531,40.039,20.996,0
120230.509,43.945,31.250,19.043,39.551,33.691,0
120230.511,16.602,28.320,20.996,30.273,35.645,0
120230.515,24.902,26.855,22.461,34.180,24.902,0
120230.519,53.711,26.367,19.531,35.645,79.590,0
120230.523,52.246,27.832,16.113,30.273,103.027,0
120230.527,23.926,27.344,8.301,25.391,62.500,0
120230.531,18.555,19.043,7.324,23.926,27.832,0
120230.535,33.691,22.461,13.184,29.297,56.641,0
120230.539,42.969,32.227,12.695,31.738,74.219,0
120230.543,24.414,34.180,14.648,19.531,1.953,0
120230.547,13.184,32.227,20.508,24.414,-6.348,0
120230.550,33.203,26.367,31.250,40.039,20.020,0
120230.554,48.828,24.902,37.598,31.738,66.406,0
120230.556,35.156,29.297,31.738,23.926,52.734,0
120230.560,21.973,32.227,22.949,25.391,-19.531,0
120230.564,33.203,29.297,8.789,32.227,7.324,0
120230.568,53.223,24.902,13.184,39.551,67.871,0
120230.572,43.457,24.902,26.367,33.203,81.055,0
120230.576,11.719,27.832,31.738,24.902,-9.277,0
120230.580,18.066,25.879,33.203,30.273,-78.125,0
120230.583,45.898,23.438,29.785,36.133,-24.902,0
120230.587,43.945,26.855,20.020,33.203,-0.488,0
120230.591,29.297,26.855,13.184,32.227,-27.832,0
120230.595,39.551,28.809,26.367,35.156,-10.742,0
120230.599,47.852,31.738,33.203,41.016,38.086,0
120230.602,44.922,27.344,29.297,39.062,45.898,0
120230.606,26.367,23.926,29.297,25.391,-7.812,0
120230.610,6.836,24.902,28.320,21.484,-26.367,0
120230.614,33.203,26.855,20.020,31.250,15.137,0
120230.618,62.012,27.344,20.508,35.156,63.965,0
120230.622,41.504,23.438,22.949,25.879,27.832,0
120230.626,12.695,24.414,25.391,18.066,-9.766,0
120230.630,31.250,23.926,30.762,29.785,7.324,0
120230.634,59.570,23.438,30.273,43.457,57.129,0
120230.638,59.082,26.855,24.902,45.410,65.918,0
120230.642,34.668,32.227,20.020,36.621,-2.930,0
120230.645,19.531,33.691,28.320,36.133,-32.227,0
120230.646,36.621,28.809,29.297,42.969,-10.254,0
120230.650,40.527,26.367,25.391,39.062,-13.672,0
120230.654,16.113,22.461,27.832,28.320,-38.574,0
120230.658,17.090,20.508,24.414,27.344,-70.312,0
120230.662,42.969,22.461,15.625,35.645,-10.254,0
120230.666,40.527,28.809,14.648,38.086,46.875,0
120230.670,18.066,29.785,24.414,26.855,-9.766,0
120230.673,7.324,20.996,32.715,18.555,-44.922,0
120230.677,41.504,21.484,32.227,32.227,4.395,0
120230.681,54.688,25.879,19.531,35.645,51.270,0
120230.685,20.020,26.367,20.508,20.508,25.391,0
120230.689,0.488,27.832,29.785,11.719,-4.883,0
120230.691,16.602,26.855,30.273,18.555,15.137,0
120230.695,45.410,25.879,32.227,27.832,38.574,0
120230.699,45.898,27.832,25.879,25.391,22.461,0
120230.703,29.785,33.691,9.766,22.949,-35.156,0
120230.707,19.043,32.715,8.301,25.391,-8.301,0
120230.711,38.086,29.297,17.090,33.203,56.641,0
120230.715,47.363,33.203,24.414,34.180,6.836,0
120230.718,18.555,31.250,27.344,24.414,-4.395,0
120230.722,11.230,29.297,25.391,25.391,-6.836,0
120230.726,41.992,28.809,26.855,35.645,6.836,0
120230.730,54.199,27.832,34.180,37.109,58.594,0
120230.734,29.297,30.762,35.156,28.320,14.648,0
120230.751,7.812,32.227,26.367,25.391,-29.785,0
120230.755,28.320,30.762,22.461,31.250,1.465,0
120230.759,57.129,28.809,19.531,35.156,48.340,0
120230.763,38.086,27.344,21.484,33.691,17.578,0
120230.767,17.578,27.344,22.461,28.809,-26.855,0
120230.771,28.320,30.762,20.020,25.879,-48.340,0
120230.775,40.039,30.762,24.414,33.691,-8.301,0
120230.778,40.527,29.297,23.438,41.504,24.414,0
120230.782,21.484,26.855,15.137,30.762,-44.434,0
120230.786,23.438,25.391,21.484,26.855,-60.059,0
120230.790,43.945,24.414,28.809,38.086,-0.977,0
120230.794,41.992,22.949,26.367,37.598,41.016,0
120230.797,15.137,23.926,24.902,25.391,-0.488,0
120230.800,0.488,25.879,23.438,20.508,-39.551,0
120230.804,24.902,24.414,26.367,30.273,68.848,0
120230.808,40.527,20.996,26.367,32.227,114.258,0
120230.812,31.250,24.414,24.414,27.344,34.180,0
120230.816,19.043,26.855,25.879,24.414,5.859,0
120230.820,24.902,23.438,28.809,31.250,35.156,0
120230.824,45.410,27.344,34.180,41.992,45.410,0
120230.828,36.133,27.832,26.855,35.645,1.465,0
120230.832,3.906,26.367,20.508,20.996,-70.312,0
120230.836,11.719,24.902,23.438,24.902,-38.086,0
120230.839,40.527,22.949,25.879,35.645,35.645,0
120230.841,42.480,24.902,31.250,29.785,31.250,0
120230.845,18.555,26.855,28.809,18.555,-49.805,0
120230.849,10.254,26.367,20.996,19.043,-51.758,0
120230.853,34.668,27.344,19.531,25.879,52.246,0
120230.857,42.480,30.273,23.926,27.344,56.641,0
120230.861,20.020,30.762,23.926,22.461,30.273,0
120230.865,17.090,30.762,23.438,22.949,42.969,0
120230.868,46.387,30.762,29.785,33.691,75.684,0
120230.872,52.246,31.250,32.227,36.621,77.148,0
120230.876,21.484,27.344,25.391,27.344,15.137,0
120230.880,3.906,26.855,20.020,22.949,28.809,0
120230.884,25.391,27.832,20.020,29.297,42.480,0
120230.886,54.199,20.508,14.648,33.691,57.617,0
120230.890,42.480,20.508,17.578,28.809,81.055,0
120230.894,12.695,25.391,32.715,21.973,-9.766,0
120230.898,15.625,30.273,36.133,26.367,11.230,0
120230.902,39.062,27.344,32.227,33.691,89.844,0
120230.906,40.527,22.461,30.762,33.691,66.406,0
120230.910,18.555,25.879,23.438,27.344,42.969,0
120230.913,14.160,27.832,16.113,26.367,4.395,0
120230.917,42.480,25.391,20.996,31.250,35.645,0
120230.921,56.152,27.344,24.902,30.273,84.473,0
120230.925,27.344,32.715,26.855,23.438,42.480,0
120230.929,17.090,31.250,30.273,20.996,-13.184,0
120230.931,38.086,28.809,30.762,28.809,28.320,0
120230.935,48.340,31.738,23.438,34.180,80.078,0
120230.939,38.086,35.156,14.648,30.273,41.504,0
120230.943,17.090,31.250,15.137,23.926,-5.371,0
120230.947,27.344,25.879,16.602,27.832,13.672,0
120230.951,51.758,24.902,22.461,35.645,79.590,0
120230.955,58.594,26.855,28.809,30.762,79.590,0
120230.958,33.203,29.297,25.879,25.391,28.809,0
120230.962,9.766,25.879,23.438,27.344,29.785,0
120230.966,35.156,24.902,23.438,32.227,90.820,0
120230.970,45.898,28.320,22.949,35.645,90.332,0
120230.974,20.996,28.320,21.973,26.855,35.645,0
120230.976,10.254,22.949,15.137,20.020,-13.184,0
120230.980,44.434,23.438,12.207,29.297,21.973,0
120230.984,52.246,25.879,18.066,33.691,40.527,0
120230.988,24.414,26.367,22.461,27.344,19.531,0
120230.992,19.043,29.297,26.855,24.902,1.465,0
120230.996,41.992,28.809,24.414,30.762,5.859,0
120231.000,56.152,26.855,17.578,31.250,47.363,0
120231.004,36.621,30.273,17.578,20.996,11.230,0
120231.007,6.348,29.297,23.438,13.184,-35.645,0
120231.011,19.043,26.855,25.879,26.855,3.418,0
120231.015,55.664,27.344,22.461,37.598,58.594,0
120231.019,43.457,24.414,20.508,26.855,50.781,0
120231.021,10.254,26.367,20.996,19.043,38.086,0
120231.025,12.695,31.250,19.531,22.461,23.926,0
120231.029,40.527,24.902,19.531,32.227,14.648,0
120231.033,52.734,22.461,17.578,33.691,33.203,0
120231.037,42.969,31.250,11.719,24.902,15.625,0
120231.041,17.090,32.227,14.160,20.020,27.832,0
120231.045,17.578,26.855,19.531,20.508,46.875,0
120231.049,37.598,27.832,18.555,22.461,47.852,0
120231.052,25.391,28.809,18.555,21.973,51.758,0
120231.056,12.207,28.809,20.020,19.531,5.371,0
120231.060,28.320,27.832,21.973,24.414,12.207,0
120231.064,48.828,30.273,24.414,32.227,60.547,0
120231.068,39.551,29.297,16.113,25.879,47.852,0
120231.072,16.602,22.949,16.113,16.113,-3.418,0
120231.076,21.484,22.461,20.020,25.391,-8.301,0
120231.079,50.293,23.438,11.719,32.227,58.105,0
120231.083,48.340,24.902,15.625,28.320,86.914,0
120231.087,15.137,27.344,21.484,23.438,41.504,0
120231.091,7.324,29.785,19.043,22.949,0.488,0
120231.095,34.668,28.809,19.531,32.227,38.574,0
120231.099,44.434,26.367,20.020,34.180,72.266,0
120231.103,25.391,26.367,24.902,26.367,17.578,0
120231.107,16.113,27.344,27.344,26.367,-41.016,0
120231.111,33.691,28.320,22.461,33.691,26.855,0
120231.126,51.270,26.367,22.461,37.598,73.242,0
120231.130,37.109,24.902,19.531,35.645,24.414,0
120231.134,22.461,26.367,16.113,33.691,-21.973,0
120231.138,39.551,30.762,18.555,36.133,5.371,0
120231.142,57.617,29.297,20.020,41.016,59.570,0
120231.146,35.645,25.391,21.484,34.180,21.973,0
120231.150,5.859,29.297,20.508,21.973,-12.207,0
120231.153,19.531,33.691,23.438,26.855,8.301,0
120231.157,50.781,28.320,27.832,36.621,40.527,0
120231.161,52.246,24.414,27.344,35.645,35.156,0
120231.165,15.137,26.367,24.414,26.855,-2.930,0
120231.169,0.000,28.809,19.531,24.902,-12.207,0
120231.171,34.668,30.273,20.020,34.668,22.461,0
120231.175,47.852,31.738,20.020,40.527,71.289,0
120231.179,39.062,33.203,20.508,36.133,35.156,0
120231.183,17.578,30.762,21.973,27.832,-38.574,0
120231.187,17.090,26.367,23.438,35.645,-15.625,0
120231.191,38.574,24.902,25.879,41.504,31.738,0
120231.195,25.391,25.879,30.273,35.156,21.973,0
120231.198,7.324,28.809,31.738,29.785,-6.348,0
120231.202,25.391,26.855,25.879,33.203,-12.695,0
120231.206,45.410,24.414,23.926,35.156,5.371,0
120231.210,40.527,27.344,21.973,29.297,27.344,0
120231.214,16.113,29.297,20.996,24.902,9.766,0
120231.216,8.789,31.250,19.531,28.320,-35.645,0
120231.220,40.039,29.297,18.066,34.668,-0.977,0
120231.224,49.805,27.344,24.414,33.203,49.316,0
120231.228,18.066,27.344,29.297,22.949,12.207,0
120231.232,4.395,25.391,22.949,21.973,-12.207,0
120231.236,41.016,21.484,24.414,40.527,-14.160,0
120231.240,54.688,24.902,26.855,38.086,19.043,0
120231.243,31.250,35.645,18.555,20.996,50.293,0
120231.247,10.254,37.598,12.695,14.648,-0.977,0
120231.251,13.184,32.715,12.695,15.137,29.297,0
120231.255,38.086,28.809,21.973,24.414,107.910,0
120231.259,30.273,27.344,27.832,26.855,79.590,0
120231.261,13.184,31.738,29.297,25.879,1.953,0
120231.265,28.809,31.738,29.297,26.855,22.949,0
120231.269,55.176,27.832,25.879,33.203,73.242,0
120231.273,51.758,26.855,22.461,30.762,18.555,0
120231.277,15.625,28.809,19.043,21.973,-50.293,0
120231.281,8.301,28.320,18.066,28.320,-23.438,0
120231.285,44.922,24.414,20.508,32.227,10.254,0
120231.288,53.223,26.367,21.973,28.320,3.906,0
120231.292,17.578,32.227,22.949,22.461,-13.184,0
120231.296,11.719,30.762,28.320,23.926,-12.695,0
120231.300,42.969,27.344,29.785,37.598,22.461,0
120231.304,54.688,27.344,24.414,36.133,46.387,0
120231.306,38.574,30.273,19.531,26.855,30.273,0
120231.310,21.484,30.762,16.602,24.414,-2.930,0
120231.314,32.227,32.227,18.555,31.250,-2.441,0
120231.318,53.711,34.180,22.461,36.133,51.270,0
120231.322,43.945,28.809,22.461,27.344,53.711,0
120231.326,25.879,23.926,20.996,21.973,5.859,0
120231.330,27.832,27.832,23.926,25.879,0.000,0
120231.333,47.363,30.762,26.855,35.156,22.461,0
120231.337,41.504,30.273,20.508,29.297,31.738,0
120231.341,14.160,27.832,20.996,16.602,8.301,0
120231.345,20.508,26.855,22.461,17.090,6.836,0
120231.349,55.664,27.344,15.625,25.879,36.133,0
120231.351,60.547,26.367,15.625,27.832,53.223,0
120231.355,22.949,27.832,23.438,20.996,40.527,0
120231.359,12.695,26.367,30.273,18.066,-20.996,0
120231.363,41.992,24.414,29.297,25.391,-6.836,0
120231.367,46.387,25.391,24.414,31.738,36.621,0
120231.371,29.297,27.344,25.391,25.879,22.461,0
120231.375,11.230,28.320,24.902,16.602,-17.090,0
120231.379,23.438,29.297,22.949,22.949,-33.691,0
120231.382,50.781,28.809,22.949,33.691,32.715,0
120231.386,43.945,28.809,16.113,30.762,75.195,0
120231.390,30.273,28.809,15.625,24.902,7.324,0
120231.394,28.320,29.297,20.508,27.832,-27.344,0
120231.396,50.781,27.344,21.973,34.180,23.438,0
120231.400,65.918,27.832,26.367,35.645,41.992,0
120231.404,20.508,30.762,28.809,25.879,-18.066,0
120231.408,6.836,33.203,32.227,29.297,-32.715,0
120231.412,52.246,32.715,31.738,39.062,20.020,0
120231.416,61.035,28.320,20.508,29.297,4.883,0
120231.420,13.672,29.297,20.020,18.555,-31.738,0
120231.424,-7.812,26.367,21.484,11.719,-56.152,0
120231.427,20.996,25.879,20.996,17.578,-34.180,0
120231.431,44.922,28.809,22.461,26.855,39.551,0
120231.435,32.227,32.715,22.949,19.531,40.039,0
120231.439,12.207,34.180,21.484,11.230,9.277,0
120231.441,17.090,31.738,18.555,13.672,16.602,0
120231.445,42.969,28.809,22.461,21.973,52.734,0
120231.449,50.781,29.297,21.484,22.461,49.316,0
120231.453,19.531,31.250,16.113,17.090,8.789,0
120231.457,9.766,27.344,21.484,26.855,7.812,0
120231.461,44.434,23.926,26.367,33.203,22.949,0
120231.465,51.758,26.367,21.973,26.855,32.227,0
120231.469,9.277,30.762,21.484,20.996,6.348,0
120231.473,-2.441,33.203,20.996,24.414,-4.883,0
120231.477,31.250,31.250,24.902,34.668,46.875,0
120231.480,43.457,30.762,28.809,36.133,50.781,0
120231.484,24.414,32.227,25.391,29.297,15.625,0
120231.501,20.020,30.762,20.996,26.855,-27.344,0
120231.505,30.273,27.344,24.414,34.180,-55.664,0
120231.509,37.598,29.297,25.879,40.527,5.371,0
120231.513,39.062,29.785,22.949,33.203,45.410,0
120231.517,17.578,25.391,28.809,25.391,-6.836,0
120231.521,6.348,26.367,29.297,25.879,-29.785,0
120231.525,28.809,28.320,24.414,31.250,25.391,0
120231.528,41.504,28.809,28.320,30.273,25.391,0
120231.532,14.160,29.785,28.320,20.996,-29.297,0
120231.536,0.488,27.344,25.879,19.043,-7.812,0
120231.540,33.691,32.715,24.902,26.367,30.273,0
120231.544,53.223,32.715,21.484,30.762,47.363,0
120231.546,32.227,28.809,24.414,24.414,8.301,0
120231.550,0.488,32.227,22.949,22.461,-29.297,0
120231.554,20.020,33.691,22.949,32.715,21.484,0
120231.558,44.434,31.250,29.297,30.762,58.105,0
120231.562,27.832,27.832,30.762,19.531,12.207,0
120231.566,-1.953,29.297,29.785,17.090,-55.664,0
120231.570,6.836,30.273,28.809,25.391,-16.113,0
120231.573,45.410,31.250,25.391,32.227,41.992,0
120231.577,40.039,30.762,22.949,31.738,36.621,0
120231.581,8.301,27.832,23.926,23.438,-19.043,0
120231.585,14.648,28.809,24.902,22.949,-0.977,0
120231.589,56.641,27.344,20.020,33.691,45.410,0
120231.591,56.641,25.391,16.113,29.785,32.227,0
120231.595,19.043,24.414,22.949,23.438,-12.695,0
120231.599,7.324,29.297,25.879,25.391,-46.387,0
120231.603,30.762,32.227,26.855,29.785,6.836,0
120231.607,46.875,26.855,26.367,25.879,36.621,0
120231.611,13.184,26.367,23.438,10.742,-20.996,0
120231.615,-3.418,30.273,21.484,13.184,-32.227,0
120231.618,32.227,32.227,20.020,27.832,22.949,0
120231.622,40.039,29.297,23.926,31.250,73.242,0
120231.626,19.043,27.344,29.785,25.879,32.715,0
120231.630,7.324,31.738,27.344,25.391,5.371,0
120231.634,23.438,30.762,25.391,33.203,33.691,0
120231.636,62.500,26.855,33.203,43.457,51.758,0
120231.640,56.152,26.855,36.621,40.527,25.391,0
120231.644,12.695,28.809,29.297,31.738,-6.348,0
120231.648,11.719,28.809,22.949,36.621,9.766,0
120231.652,42.969,21.484,24.414,41.992,32.227,0
120231.656,49.805,21.973,30.273,34.668,14.648,0
120231.660,28.320,27.832,28.320,27.344,-14.160,0
120231.663,27.344,31.250,20.996,29.297,5.371,0
120231.667,47.363,34.180,24.902,35.156,38.086,0
120231.671,50.293,34.668,30.273,35.156,53.711,0
120231.675,28.320,31.738,28.809,29.297,60.059,0
120231.679,13.184,30.762,24.414,26.367,32.715,0
120231.682,38.574,35.156,24.902,36.621,42.969,0
120231.686,62.988,33.203,27.832,46.387,75.195,0
120231.690,44.922,29.297,26.855,38.086,62.988,0
120231.693,16.113,30.762,26.367,21.973,16.113,0
120231.697,27.832,29.297,24.414,22.949,14.648,0
120231.701,59.082,28.320,21.484,36.133,51.270,0
120231.705,65.918,25.879,21.484,33.203,33.691,0
120231.709,26.855,25.879,22.461,15.137,-28.809,0
120231.713,1.465,25.879,25.879,17.578,-59.570,0
120231.717,38.086,27.344,20.020,35.156,-16.113,0
120231.721,49.316,32.715,17.090,35.645,10.254,0
120231.725,26.367,33.691,25.391,28.320,2.930,0
120231.726,20.508,30.762,28.320,28.809,-8.789,0
120231.730,47.363,29.785,25.391,35.645,39.551,0
120231.734,61.035,31.250,26.855,33.691,72.754,0
120231.738,34.668,29.297,24.414,22.949,6.836,0
120231.742,9.766,30.273,21.484,24.902,-20.020,0
120231.746,28.809,32.227,24.414,35.645,24.414,0
120231.750,49.805,32.715,23.926,35.156,62.500,0
120231.754,31.250,32.227,25.879,23.926,4.883,0
120231.757,11.719,30.762,24.414,19.531,-49.316,0
120231.761,27.832,33.203,22.949,26.855,-19.531,0
120231.765,47.852,31.738,26.855,36.133,29.297,0
120231.769,44.434,32.227,29.297,36.621,29.297,0
120231.772,12.695,35.156,26.367,25.879,-9.766,0
120231.776,14.160,32.715,25.879,23.926,1.953,0
120231.780,50.781,31.250,26.855,34.180,28.320,0
120231.784,53.223,31.250,30.762,35.156,33.203,0
120231.788,25.391,29.785,31.738,28.809,-13.672,0
120231.792,11.719,27.832,24.414,24.902,-48.340,0
120231.796,41.992,32.227,23.438,27.832,-13.672,0
120231.800,49.805,35.645,28.809,35.645,1.953,0
120231.804,11.719,35.156,23.926,28.320,-10.254,0
120231.808,-3.418,32.715,21.973,20.508,-66.895,0
120231.812,17.578,28.809,27.832,28.320,-46.875,0
120231.815,42.969,27.832,24.414,33.691,27.344,0
120231.816,33.203,29.297,26.367,28.320,34.668,0
120231.820,6.348,31.250,31.738,21.973,-12.207,0
120231.824,17.090,36.133,26.367,24.414,-22.461,0
120231.828,50.293,37.109,22.461,30.273,36.133,0
120231.832,51.758,35.645,22.949,30.762,41.992,0
120231.836,16.602,35.156,22.461,27.832,4.395,0
120231.840,12.207,31.738,25.879,25.879,-44.922,0
120231.843,38.574,32.715,29.785,32.227,-24.414,0
120231.847,38.574,33.691,24.902,37.109,54.688,0
120231.851,21.973,35.156,20.020,28.809,61.523,0
120231.855,8.789,37.598,25.391,24.414,35.156,0
120231.859,35.156,35.645,25.879,35.645,49.316,0
120231.876,56.641,33.203,19.043,36.621,74.219,0
120231.880,29.297,32.715,20.996,22.949,44.434,0
120231.884,0.488,35.156,24.414,18.066,13.672,0
120231.888,28.320,38.574,21.484,26.855,43.457,0
120231.892,63.477,36.621,20.020,33.691,63.477,0
120231.896,45.898,30.273,23.438,27.344,58.105,0
120231.900,8.789,29.297,28.809,18.066,-8.301,0
120231.904,1.953,29.785,29.297,17.090,-19.043,0
120231.907,45.410,29.297,25.879,29.297,65.430,0
120231.911,54.199,33.691,20.508,29.785,23.438,0
120231.915,27.832,35.156,16.602,19.531,-56.152,0
120231.919,21.484,34.668,23.926,25.391,-71.777,0
120231.921,31.250,34.668,25.879,35.645,2.441,0
120231.925,38.574,31.738,17.578,33.203,35.645,0
120231.929,25.391,32.715,14.648,27.344,6.836,0
120231.933,15.137,35.156,19.531,23.438,2.930,0
120231.937,27.344,35.645,20.996,24.902,-9.277,0
120231.941,43.457,34.180,18.555,28.320,-9.277,0
120231.945,25.391,34.180,20.508,21.973,-23.926,0
120231.949,7.812,33.203,20.996,15.625,-47.852,0
120231.953,31.250,35.645,21.973,25.391,-13.184,0
120231.956,44.434,31.738,22.461,32.227,-10.742,0
120231.960,30.762,26.855,21.484,25.391,-21.973,0
120231.964,12.695,30.273,21.484,20.020,-21.484,0
120231.966,10.742,31.250,19.043,23.926,-10.254,0
120231.970,31.738,32.227,18.555,33.691,39.551,0
120231.974,45.410,32.715,20.020,37.598,32.715,0
120231.978,30.273,34.180,25.391,29.785,-33.203,0
120231.982,14.648,35.156,31.250,31.250,-41.016,0
120231.986,43.457,36.621,27.832,38.574,-4.883,0
120231.990,59.082,38.086,22.949,40.039,14.160,0
120231.994,32.715,40.039,20.996,35.156,39.551,0
120231.998,18.066,40.527,20.020,24.414,-0.488,0
120232.001,41.016,38.086,19.531,33.203,-9.277,0
120232.005,62.012,34.668,16.113,40.527,97.656,0
120232.009,42.969,37.598,20.020,30.762,96.680,0
120232.011,24.414,37.598,26.855,26.855,6.348,0
120232.015,36.133,36.621,26.367,33.691,30.762,0
120232.019,50.293,38.086,29.785,45.410,96.680,0
120232.023,40.039,39.551,28.809,41.504,70.312,0
120232.027,12.695,41.016,23.926,25.391,-15.625,0
120232.031,11.719,38.574,27.344,27.344,-20.996,0
120232.035,43.457,37.109,27.344,38.574,44.434,0
120232.039,53.223,37.109,25.879,39.062,65.918,0
120232.043,32.227,37.598,25.879,29.785,17.090,0
120232.046,21.973,37.109,21.484,28.320,-27.344,0
120232.050,50.781,36.133,26.367,41.504,14.648,0
120232.054,72.754,37.598,30.273,45.410,54.688,0
120232.056,38.574,39.062,25.879,36.133,41.504,0
120232.060,18.066,40.039,23.926,35.645,45.898,0
120232.064,36.133,42.969,20.996,42.480,54.688,0
120232.068,42.969,40.039,18.555,43.457,64.941,0
120232.072,33.203,35.156,20.508,36.133,33.691,0
120232.076,14.648,33.203,24.902,27.832,-16.602,0
120232.080,15.625,32.715,26.855,28.809,3.906,0
120232.084,54.199,32.227,25.391,40.039,13.184,0
120232.087,61.523,34.668,25.879,39.551,-4.395,0
120232.091,18.555,36.621,25.879,32.227,-1.465,0
120232.095,8.789,35.156,24.902,32.227,-22.949,0
120232.099,44.434,34.668,25.391,34.180,16.113,0
120232.102,54.688,35.156,28.320,35.156,30.273,0
120232.106,27.832,33.203,29.785,30.762,6.348,0
120232.110,15.137,29.785,24.902,24.902,-27.832,0
120232.114,36.621,33.691,26.367,29.785,-9.766,0
120232.118,59.082,34.668,26.367,34.180,37.109,0
120232.122,40.039,32.715,24.902,28.809,20.020,0
120232.126,21.973,37.598,31.738,26.367,-30.762,0
120232.130,28.809,33.691,30.273,29.297,-50.781,0
120232.134,34.180,21.484,25.391,35.645,12.207,0
120232.137,30.762,20.508,27.344,36.621,57.129,0
120232.141,7.324,27.832,27.344,25.391,3.906,0
120232.145,15.137,29.785,24.902,26.855,-55.176,0
120232.146,41.016,32.715,27.344,37.598,-0.977,0
120232.150,38.574,33.691,25.879,37.109,47.852,0
120232.154,16.113,32.227,19.531,27.832,-40.039,0
120232.158,18.066,30.273,27.832,26.855,-83.984,0
120232.162,41.016,30.273,32.715,39.062,-10.254,0
120232.166,49.316,27.344,30.273,41.504,34.180,0
120232.170,25.879,25.391,31.250,30.762,-24.902,0
120232.173,11.230,30.273,32.715,27.832,-71.289,0
120232.177,39.551,30.273,28.809,37.598,-17.578,0
120232.181,52.734,28.809,22.461,40.527,27.344,0
120232.185,40.527,36.133,18.066,31.250,29.785,0
120232.189,16.602,39.551,19.531,22.949,-14.160,0
120232.191,13.184,38.086,25.391,30.762,12.207,0
120232.195,42.480,38.574,25.879,37.109,62.500,0
120232.199,37.109,38.574,21.484,23.926,17.090,0
120232.203,7.812,35.156,22.949,12.695,-18.066,0
120232.207,13.672,30.762,24.902,12.207,13.672,0
120232.211,48.340,29.785,23.438,16.113,44.434,0
120232.215,49.316,28.809,21.484,17.578,22.461,0
120232.218,14.648,28.320,24.414,19.043,-20.996,0
120232.222,1.953,29.297,26.855,20.020,-39.551,0
120232.226,30.273,28.809,23.438,27.344,-7.812,0
120232.230,46.387,29.297,24.902,37.109,38.086,0
120232.234,25.391,31.738,34.180,35.156,13.184,0
120232.237,16.113,31.738,36.621,31.738,-6.836,0
120232.241,44.434,26.855,29.785,39.551,-4.395,0
120232.245,55.664,28.320,22.949,46.387,3.418,0
120232.249,36.133,31.250,25.879,40.039,-6.348,0
120232.253,16.113,32.227,30.273,30.762,-34.180,0
120232.257,15.625,30.762,26.855,29.297,-22.461,0
120232.261,45.898,28.809,25.391,34.180,11.719,0
120232.265,41.016,31.250,29.785,31.250,31.738,0
120232.269,9.277,32.715,28.320,18.066,-4.883,0
120232.273,15.625,33.691,20.508,12.695,-42.480,0
120232.277,47.363,32.715,16.602,18.555,18.066,0
120232.280,40.039,29.785,18.066,17.090,61.035,0
120232.296,6.836,28.320,24.414,13.672,12.695,0
120232.300,4.395,29.785,25.879,17.090,-18.066,0
120232.304,27.344,29.297,21.973,25.879,21.484,0
120232.308,43.945,29.785,20.508,33.203,35.156,0
120232.312,31.738,33.203,27.344,28.320,41.992,0
120232.316,12.695,33.203,30.762,22.949,-28.320,0
120232.320,23.438,29.297,26.855,28.809,-21.973,0
120232.323,45.898,25.879,23.926,34.668,74.707,0
120232.327,41.016,28.809,23.438,33.203,48.340,0
120232.331,19.043,31.738,24.902,27.832,20.508,0
120232.335,24.902,30.762,24.902,29.297,40.527,0
120232.339,56.152,30.762,27.344,38.574,75.195,0
120232.341,53.223,32.715,25.879,38.086,51.270,0
120232.345,28.809,33.691,23.438,28.809,5.859,0
120232.349,22.461,32.715,20.508,28.809,13.672,0
120232.353,39.062,27.832,22.461,36.133,45.410,0
120232.357,54.688,27.344,28.809,35.156,37.598,0
120232.361,32.227,31.738,27.832,28.809,5.371,0
120232.365,13.184,30.762,24.414,27.832,-18.555,0
120232.368,34.180,28.809,23.438,34.180,25.391,0
120232.372,46.875,26.855,23.926,35.156,40.039,0
120232.376,23.926,25.879,20.996,22.461,-7.812,0
120232.380,-2.930,31.250,20.996,15.137,-48.340,0
120232.384,22.461,37.109,24.414,24.902,-41.992,0
120232.386,38.574,38.086,24.414,30.273,29.785,0
120232.390,27.832,35.645,22.461,25.391,39.062,0
120232.394,25.391,32.715,20.508,21.484,6.836,0
120232.398,22.949,31.738,22.949,22.461,14.648,0
120232.402,39.551,31.738,25.879,30.273,40.039,0
120232.406,44.922,31.250,25.879,32.227,30.273,0
120232.410,7.812,26.855,25.879,26.367,0.488,0
120232.414,1.465,28.320,23.438,20.996,23.438,0
120232.418,36.133,34.180,22.461,27.832,24.902,0
120232.421,51.758,33.203,25.879,35.645,55.664,0
120232.425,27.832,39.551,29.785,26.855,49.316,0
120232.429,18.555,35.645,27.344,17.578,-6.836,0
120232.431,52.246,28.320,19.531,26.855,11.719,0
120232.435,58.594,34.668,22.461,32.715,53.223,0
120232.439,20.020,35.156,26.855,25.391,52.734,0
120232.443,7.812,30.762,24.414,19.531,7.812,0
120232.447,37.598,29.785,21.484,25.879,-15.137,0
120232.451,47.363,31.738,21.484,37.598,1.953,0
120232.455,41.504,34.180,23.926,34.668,13.672,0
120232.458,31.250,35.645,24.414,24.414,-34.668,0
120232.462,31.250,36.133,20.996,29.785,-38.086,0
120232.466,57.129,36.621,21.973,41.504,20.508,0
120232.470,67.871,37.109,29.785,42.480,7.812,0
120232.474,44.434,29.785,30.762,35.156,-25.879,0
120232.478,32.715,26.855,32.715,32.715,-34.668,0
120232.482,53.711,26.855,30.762,40.527,10.742,0
120232.485,60.547,29.785,25.391,47.363,58.594,0
120232.489,37.109,33.203,24.902,39.551,0.000,0
120232.493,15.137,28.320,22.949,25.879,-59.082,0
120232.497,40.039,30.762,19.531,28.809,-27.344,0
120232.501,61.035,34.668,17.578,35.645,58.594,0
120232.505,34.668,35.156,20.020,27.344,41.016,0
120232.509,15.625,36.133,22.949,22.461,-5.859,0
120232.513,29.785,33.691,22.949,27.832,4.395,0
120232.517,51.270,28.320,18.555,30.762,14.160,0
120232.521,45.898,26.367,17.578,28.320,4.395,0
120232.522,20.020,28.320,22.949,20.996,-19.043,0
120232.526,22.949,31.738,22.949,23.926,11.719,0
120232.530,42.969,33.203,17.090,32.715,53.223,0
120232.533,51.270,33.691,19.043,28.809,43.945,0
120232.537,38.574,34.180,20.996,21.484,16.113,0
120232.541,6.836,33.203,14.648,20.508,10.742,0
120232.545,23.438,30.762,18.066,25.391,29.297,0
120232.549,52.734,28.809,27.344,24.902,53.223,0
120232.553,33.691,30.762,30.273,20.508,14.648,0
120232.557,4.395,32.715,30.762,17.090,-10.742,0
120232.561,22.461,33.203,29.297,21.973,0.488,0
120232.565,48.340,30.273,21.484,27.344,14.648,0
120232.566,28.809,30.762,15.625,21.484,25.391,0
120232.570,2.441,34.180,14.648,12.695,-0.488,0
120232.574,10.254,34.180,17.578,12.207,9.277,0
120232.578,56.641,34.180,21.484,19.043,45.410,0
120232.582,50.293,34.180,23.438,20.508,39.551,0
120232.586,1.465,33.203,23.438,13.672,-1.465,0
120232.590,8.789,35.156,24.414,16.113,-41.016,0
120232.593,45.898,31.250,29.297,25.391,21.973,0
120232.597,52.246,29.297,29.785,27.344,100.586,0
120232.601,26.855,34.668,23.926,22.461,24.414,0
120232.605,13.184,34.180,23.438,20.020,-32.715,0
120232.609,29.297,30.762,25.879,29.785,16.113,0
120232.626,46.875,29.297,19.043,29.297,50.293,0
120232.630,29.297,31.250,19.043,16.113,-1.465,0
120232.634,3.418,30.273,25.391,14.160,-64.941,0
120232.638,19.043,30.273,23.438,20.020,-19.531,0
120232.642,39.062,32.227,27.832,27.832,31.250,0
120232.646,42.969,35.645,30.762,26.367,29.297,0
120232.650,20.508,36.133,19.043,18.066,-18.066,0
120232.653,12.695,34.668,17.578,18.555,-25.879,0
120232.657,40.527,35.156,23.926,28.320,36.133,0
120232.661,41.992,30.273,26.367,29.297,38.086,0
120232.665,19.531,24.414,27.832,19.531,8.301,0
120232.669,25.879,24.902,28.809,22.461,-0.977,0
120232.671,46.387,32.227,25.391,32.227,32.715,0
120232.675,40.527,36.133,23.438,30.273,68.359,0
120232.679,15.625,36.133,24.902,20.020,28.809,1
120232.683,3.418,37.109,22.461,16.602,14.160,0
120232.687,38.086,36.621,23.926,25.879,48.340,0
120232.691,60.059,35.156,25.391,30.762,54.199,0
120232.695,23.926,33.691,21.484,20.508,20.508,0
120232.698,2.441,35.645,24.902,15.625,-6.836,0
120232.702,18.555,37.109,34.180,22.949,5.859,0
120232.706,41.016,29.785,27.832,26.855,47.363,0
120232.710,33.203,25.879,18.555,21.973,56.641,0
120232.714,6.348,32.715,20.508,18.555,22.949,0
120232.716,14.648,30.762,24.414,20.508,20.996,0
120232.720,42.969,26.367,24.902,27.832,42.969,0
120232.724,42.480,30.273,25.391,29.297,62.988,0
120232.728,14.648,35.645,25.879,22.461,13.672,0
120232.732,5.859,36.133,27.344,22.461,-24.414,0
120232.736,31.738,31.250,27.344,32.227,14.160,0
120232.740,41.016,26.855,20.508,35.156,53.223,0
120232.743,30.762,24.902,20.020,21.484,16.602,0
120232.747,15.137,28.320,30.273,17.090,-62.988,0
120232.751,29.297,29.785,32.227,30.273,-2.441,0
120232.755,39.551,27.344,29.785,34.180,85.938,0
120232.759,16.113,29.785,27.832,27.344,17.090,0
120232.761,0.977,28.809,22.461,20.020,-82.031,0
120232.765,13.184,27.344,24.902,23.438,-26.367,0
120232.769,42.969,31.250,24.902,30.273,58.105,0
120232.773,42.480,32.227,16.602,28.320,24.414,0
120232.777,14.648,30.273,19.043,20.996,-38.086,0
120232.781,14.160,34.668,24.414,21.973,-41.016,0
120232.785,41.992,39.551,21.484,30.273,9.766,0
120232.789,50.781,38.086,21.484,32.715,3.418,0
120232.792,22.949,35.645,22.949,22.461,-64.941,0
120232.796,5.371,34.180,23.926,18.555,-39.062,0
120232.800,41.992,35.156,26.367,36.621,16.113,0
120232.804,53.711,33.691,23.438,40.527,39.062,0
120232.806,18.555,29.785,23.438,25.879,48.340,0
120232.810,5.859,33.203,21.973,23.438,-5.371,0
120232.814,22.949,31.250,22.461,29.297,5.371,0
120232.818,41.992,25.879,21.484,30.762,64.941,0
120232.822,33.691,32.715,20.020,26.367,53.223,0
120232.826,3.906,34.180,24.414,18.555,-2.930,0
120232.830,11.719,32.227,27.344,20.020,7.812,0
120232.833,39.551,33.691,23.926,28.320,83.496,0
120232.837,32.715,34.668,20.020,25.391,59.082,0
120232.841,3.906,35.156,24.414,16.113,5.859,0
120232.845,5.859,38.574,28.320,19.531,16.602,0
120232.849,40.039,40.039,28.809,32.715,37.109,0
120232.851,58.105,36.133,26.855,30.273,0.977,0
120232.855,30.762,37.598,24.414,22.949,-7.324,0
120232.859,7.324,41.504,24.902,23.926,0.977,0
120232.863,26.855,35.645,23.438,28.809,3.418,0
120232.867,53.711,34.180,20.020,37.598,40.527,0
120232.871,45.410,36.621,23.926,33.691,4.883,0
120232.875,15.137,35.156,32.227,21.484,-60.547,0
120232.878,26.367,36.621,31.250,22.461,-59.082,0
120232.882,54.688,40.039,30.762,36.133,1.465,0
120232.886,39.062,39.062,34.180,34.180,45.898,0
120232.890,22.949,36.133,27.344,16.113,0.488,0
120232.894,28.320,33.691,27.832,17.578,-22.461,0
120232.896,41.016,23.438,32.227,30.273,50.293,0
120232.900,49.316,21.973,27.344,31.250,68.359,0
120232.904,20.508,31.738,21.484,24.902,15.625,0
120232.908,11.230,36.621,23.438,29.785,-11.719,0
120232.912,35.156,35.156,28.809,34.180,14.648,0
120232.916,48.340,33.691,29.785,33.203,62.012,0
120232.920,20.508,31.738,30.762,26.855,0.488,0
120232.923,-1.953,32.227,31.738,21.484,-59.082,0
120232.927,29.297,34.668,29.297,31.738,21.484,0
120232.931,48.828,37.598,20.996,37.109,64.453,0
120232.935,29.785,39.062,26.367,28.320,14.160,0
120232.939,11.719,32.715,33.691,23.438,-37.598,0
120232.943,23.438,32.227,33.691,28.809,-3.418,0
120232.947,44.922,34.180,29.785,35.156,83.008,0
120232.951,52.246,36.133,22.949,33.691,68.848,0
120232.955,37.109,39.062,25.879,29.297,5.859,0
120232.959,17.090,38.086,28.809,33.691,17.090,0
120232.963,35.645,37.109,24.414,40.527,43.945,0
120232.967,50.781,40.527,26.855,34.668,20.508,0
120232.970,32.715,40.527,33.691,27.344,-0.977,0
120232.974,16.113,37.109,32.715,25.879,-6.836,0
120232.978,40.039,41.016,30.273,29.785,17.090,0
120232.982,57.129,41.016,26.855,34.180,91.309,0
120232.986,35.156,35.645,26.855,32.715,88.867,0
120233.001,14.648,38.086,29.785,28.320,25.879,0
120233.005,29.785,37.109,29.785,34.668,49.316,0
120233.009,51.758,30.273,27.344,44.922,71.289,0
120233.013,45.898,31.738,31.738,37.109,30.762,0
120233.017,31.250,40.039,30.273,26.855,-14.160,0
120233.021,29.785,44.922,21.973,26.855,-17.578,0
120233.025,50.781,40.039,26.367,31.738,20.508,0
120233.029,51.270,36.133,35.156,34.668,46.387,0
120233.032,21.484,42.969,33.203,26.367,12.207,0
120233.036,22.461,39.062,21.484,19.043,-8.789,0
120233.040,47.363,33.203,15.137,27.832,41.016,0
120233.044,42.969,34.668,18.066,34.180,64.453,0
120233.046,25.391,37.109,25.391,27.832,14.160,0
120233.050,18.555,35.156,31.738,26.367,-9.277,0
120233.054,39.551,32.715,33.691,34.668,61.523,0
120233.058,55.176,35.156,29.785,38.574,80.078,0
120233.062,36.133,38.574,28.320,33.203,34.668,0
120233.066,20.020,41.504,31.738,32.227,8.301,0
120233.070,45.898,40.039,31.250,38.574,23.926,0
120233.074,64.453,32.715,25.879,41.504,52.246,0
120233.077,36.621,31.738,27.344,37.109,8.301,0
120233.081,16.602,35.645,28.809,26.367,-48.340,0
120233.085,25.879,36.133,26.855,24.902,-28.320,0
120233.089,42.969,39.551,28.320,34.668,25.879,0
120233.091,42.969,43.457,27.832,34.668,16.602,0
120233.095,18.555,39.551,28.809,26.855,-11.719,0
120233.099,19.043,39.062,25.879,33.691,0.977,0
120233.103,50.293,42.480,21.973,49.316,47.363,0
120233.107,55.664,40.527,23.926,45.898,45.898,0
120233.111,31.250,40.039,28.320,37.109,-12.207,0
120233.115,20.508,39.551,33.203,39.551,-38.086,0
120233.119,44.434,43.457,33.691,49.316,8.301,0
120233.122,64.453,44.922,28.809,47.852,50.781,0
120233.126,53.223,39.551,26.367,39.062,10.742,0
120233.130,23.438,37.598,24.902,35.156,-42.969,0
120233.134,26.367,36.621,23.438,38.086,-50.293,0
120233.136,54.688,37.598,20.020,47.363,-12.207,0
120233.140,49.805,41.016,27.344,41.992,-24.902,0
120233.144,20.996,37.109,37.109,29.297,-76.660,0
120233.148,22.461,36.621,34.180,35.156,-79.590,0
120233.152,49.316,43.457,28.809,44.922,-12.207,0
120233.156,52.734,42.480,30.273,40.039,-4.395,0
120233.160,25.391,38.574,29.297,26.855,-50.293,0
120233.163,20.508,40.039,23.926,23.926,-62.988,0
120233.167,43.457,41.504,21.484,31.250,-25.391,0
120233.171,50.781,38.086,26.855,35.156,31.250,0
120233.175,31.250,34.668,33.203,27.344,25.879,0
120233.179,12.207,38.574,32.227,23.438,-23.926,0
120233.181,31.250,36.133,30.273,29.297,-31.250,0
120233.185,51.270,29.297,29.297,33.203,7.812,0
120233.189,35.156,35.645,29.297,25.879,16.602,0
120233.193,14.160,39.551,26.855,20.020,-23.926,0
120233.197,25.879,37.598,24.414,27.344,-12.695,0
120233.201,49.805,36.621,25.879,32.227,7.324,0
120233.205,41.992,35.156,25.879,29.297,4.395,0
120233.208,6.836,35.645,26.855,22.461,-43.457,0
120233.212,5.371,35.645,28.320,25.879,-33.691,0
120233.216,50.781,37.598,27.832,39.551,13.184,0
120233.220,47.363,36.133,28.809,35.156,4.395,0
120233.224,1.465,33.203,34.668,28.320,-23.926,0
120233.226,-1.953,35.645,30.762,28.320,-57.129,0
120233.230,33.691,35.156,20.508,36.621,-12.207,0
120233.234,50.781,30.762,19.531,36.621,24.902,0
120233.238,23.438,34.668,28.320,25.391,-6.348,0
120233.242,1.465,42.969,33.691,24.414,-10.254,0
120233.246,14.648,38.574,27.832,24.902,29.297,0
120233.250,40.039,34.180,23.926,23.926,53.223,0
120233.254,38.086,35.156,27.344,22.461,8.789,0
120233.257,17.578,34.180,27.832,18.066,-22.949,0
120233.261,22.461,34.668,23.438,24.414,1.953,0
120233.265,46.387,36.133,20.020,36.133,50.293,0
120233.269,40.527,37.109,20.508,32.715,48.828,0
120233.271,11.230,35.156,25.879,26.367,-26.855,0
120233.275,13.184,31.738,27.832,26.855,-61.035,0
120233.279,48.828,31.738,24.414,37.598,-26.855,0
120233.283,54.199,35.156,24.414,35.156,10.742,0
120233.287,23.926,40.039,21.484,22.461,-14.160,0
120233.291,19.043,35.645,17.090,21.973,-85.449,0
120233.295,36.621,33.691,18.555,31.738,-48.828,0
120233.298,47.852,33.691,19.531,36.621,22.949,0
120233.302,42.969,30.273,22.949,34.668,16.602,0
120233.306,10.254,34.180,26.855,30.762,-37.598,0
120233.310,18.066,37.109,26.367,36.133,-26.855,0
120233.314,56.152,36.621,25.391,45.898,43.945,0
120233.316,43.945,35.156,22.949,42.480,27.344,0
120233.320,10.254,31.250,20.020,28.320,-35.645,0
120233.324,20.996,28.809,21.484,30.273,-21.484,0
120233.328,53.223,26.855,17.578,40.039,23.926,0
120233.332,46.875,23.926,17.090,31.250,55.176,0
120233.336,12.695,24.414,23.438,22.461,-13.184,0
120233.340,8.301,28.320,22.461,23.926,-90.820,0
120233.343,39.551,26.855,23.438,33.691,-11.719,0
120233.347,52.246,22.461,22.949,34.180,39.062,0
120233.351,18.555,24.414,23.926,22.461,-21.484,0
120233.355,2.930,27.344,24.902,19.531,-26.855,0
120233.359,28.320,27.344,23.438,27.344,29.297,0
120233.376,50.781,32.227,25.391,33.691,58.105,0
120233.380,37.598,31.738,27.344,27.832,17.090,0
120233.384,13.672,29.785,20.996,19.043,-34.668,0
120233.388,28.320,31.738,14.160,25.391,-23.438,0
120233.392,52.246,30.762,21.973,31.738,41.016,0
120233.396,34.668,28.320,23.438,21.973,24.414,0
120233.400,8.301,24.414,22.461,19.043,-54.199,0
120233.404,22.949,27.832,29.785,23.926,-57.617,0
120233.407,57.129,34.668,28.320,32.715,26.855,0
120233.411,50.781,36.133,22.949,34.180,-0.488,0
120233.415,25.391,32.227,20.020,21.484,-85.449,0
120233.419,20.996,30.762,18.555,21.973,-67.383,0
120233.421,54.199,32.715,19.531,36.621,-12.207,0
120233.425,64.941,36.133,21.484,37.598,6.348,0
120233.429,32.227,34.180,26.367,28.320,-32.227,0
120233.433,12.695,31.738,27.832,25.879,-64.941,0
120233.437,32.715,33.203,24.414,36.621,-26.367,0
120233.441,60.059,30.762,20.508,39.551,8.789,0
120233.445,46.875,30.273,20.020,34.180,5.859,0
120233.448,24.902,34.668,24.902,28.320,-7.324,0
120233.452,30.762,41.504,30.762,31.738,23.438,0
120233.456,39.062,41.992,28.809,40.527,62.012,0
120233.460,35.156,40.039,25.879,35.645,80.078,0
120233.464,16.602,39.551,24.414,23.926,40.039,0
120233.466,16.113,37.598,23.926,23.438,-11.230,0
120233.470,52.734,36.621,18.066,30.762,25.879,0
120233.474,57.617,38.086,16.113,31.250,41.992,0
120233.478,18.555,37.109,20.020,21.484,-0.977,0
120233.482,6.348,37.109,21.484,17.090,-28.320,0
120233.486,26.855,33.691,22.461,26.367,17.090,0
120233.490,52.734,34.668,28.809,34.668,80.566,0
120233.494,31.250,41.992,29.297,27.832,74.219,0
120233.497,0.000,41.016,24.414,18.066,-1.953,0
120233.501,18.555,38.086,23.926,23.926,-14.160,0
120233.505,48.340,40.039,21.484,34.180,55.664,0
120233.509,45.410,37.598,19.043,26.367,43.457,0
120233.511,20.020,31.738,17.090,20.996,-23.926,0
120233.515,12.695,31.738,21.973,27.344,2.930,0
120233.519,33.203,34.668,26.367,34.668,30.762,0
120233.523,39.551,42.969,25.391,32.227,-10.742,0
120233.527,17.578,39.551,24.902,21.484,-51.758,0
120233.531,10.254,29.297,30.762,22.949,-42.480,0
120233.535,33.203,33.203,28.320,32.227,58.105,0
120233.538,40.039,40.039,19.531,33.691,105.469,0
120233.542,14.160,41.504,16.602,21.973,29.785,0
120233.546,7.812,36.133,15.625,20.020,-3.906,0
120233.550,45.898,35.645,20.508,38.574,53.223,0
120233.554,65.430,41.504,26.367,41.992,95.703,0
120233.556,29.785,35.156,24.902,31.738,51.270,0
120233.560,9.766,26.855,27.344,26.367,-5.859,0
120233.564,26.855,30.762,28.320,31.250,20.020,0
120233.568,44.922,34.180,23.438,35.645,60.059,0
120233.572,40.039,34.668,22.461,27.344,19.531,0
120233.576,17.578,31.738,20.020,18.555,-50.293,0
120233.580,22.949,30.762,22.949,24.902,-24.414,0
120233.583,48.828,39.062,26.855,31.250,43.457,0
120233.587,44.922,38.574,25.391,23.438,19.043,0
120233.591,19.531,36.621,19.043,18.066,-12.695,0
120233.595,34.180,38.574,16.602,22.461,-26.367,0
120233.599,51.270,33.203,19.043,24.902,-21.484,0
120233.601,43.457,31.738,18.555,25.391,6.836,0
120233.605,23.438,32.227,20.508,21.973,5.859,0
120233.609,4.883,30.273,22.461,20.996,-30.762,0
120233.613,37.109,32.227,23.438,30.273,0.977,0
120233.617,69.336,34.180,30.273,39.551,55.176,0
120233.621,41.016,32.227,30.273,33.203,6.348,0
120233.625,7.812,26.367,23.926,22.949,-84.961,0
120233.628,27.832,28.320,23.438,27.832,-80.078,0
120233.632,56.152,30.762,22.949,37.109,8.789,0
120233.636,50.781,28.809,18.555,37.598,18.555,0
120233.640,22.461,30.273,20.508,36.133,-50.293,0
120233.644,18.066,33.691,27.344,39.062,-33.203,0
120233.647,45.410,32.715,27.832,44.922,43.457,0
120233.651,55.176,32.227,26.855,43.457,30.762,0
120233.655,37.598,32.715,22.949,27.344,-35.156,0
120233.659,26.367,30.273,20.996,24.902,-55.176,0
120233.663,45.898,24.902,22.949,35.156,34.668,0
120233.667,54.688,26.855,19.531,32.715,90.332,0
120233.671,41.992,35.645,15.137,28.320,39.551,0
120233.675,20.508,37.109,16.602,24.902,-6.836,0
120233.679,26.855,38.086,19.531,31.250,30.273,0
120233.683,56.641,39.062,21.973,42.480,81.543,0
120233.687,43.945,35.156,22.461,36.621,66.895,0
120233.690,17.578,35.645,24.414,27.344,29.297,0
120233.691,25.391,32.715,19.531,32.227,48.828,0
120233.695,50.781,26.367,17.090,42.969,93.262,0
120233.699,48.828,20.020,24.902,37.598,41.992,0
120233.703,15.137,19.043,26.367,25.879,-9.277,0
120233.707,9.766,29.297,22.949,27.832,-0.977,0
120233.711,31.738,35.645,20.508,34.668,19.043,0
120233.715,29.785,32.227,17.090,28.809,25.391,0
120233.719,11.719,32.227,16.602,22.461,-10.254,0
120233.722,10.742,33.203,15.137,19.531,15.137,0
120233.726,28.809,28.809,15.625,22.461,67.383,0
120233.730,37.598,26.367,14.160,29.785,55.176,0
120233.734,21.484,30.762,12.695,22.949,11.230,0
120233.751,5.859,34.668,17.578,17.578,-26.855,0
120233.755,25.879,34.180,19.043,22.461,9.277,0
120233.759,56.641,33.203,20.996,27.832,65.430,0
120233.763,39.551,30.273,23.926,23.926,32.715,0
120233.767,7.324,27.344,20.508,17.578,-21.484,0
120233.771,27.344,32.227,15.625,21.484,-40.039,0
120233.775,44.434,37.598,17.578,33.203,21.484,0
120233.778,32.715,36.133,18.066,32.715,37.598,0
120233.782,13.672,34.180,11.719,21.973,-15.625,0
120233.786,11.719,36.621,14.648,24.414,-21.973,0
120233.790,35.645,37.598,21.973,31.738,26.367,0
120233.794,38.574,35.645,24.902,28.320,56.152,0
120233.796,13.672,31.738,26.855,21.973,-29.297,0
120233.800,7.324,30.762,22.461,24.902,-56.641,0
120233.804,35.645,33.203,20.508,35.156,-5.371,0
120233.808,50.781,26.367,24.414,34.668,23.926,0
120233.812,24.414,22.461,14.648,18.066,12.207,0
120233.816,-5.371,31.250,10.742,9.766,-26.367,0
120233.820,7.324,31.738,19.531,17.578,3.418,0
120233.823,35.156,32.227,20.996,24.414,69.824,0
120233.827,19.043,33.691,22.461,18.555,53.711,0
120233.831,-3.418,30.273,24.414,10.254,-27.832,0
120233.835,6.348,27.344,24.414,16.113,-32.715,0
120233.839,40.039,29.297,25.879,28.320,74.219,0
120233.841,43.457,34.668,22.461,29.785,70.801,0
120233.845,6.348,36.621,11.230,20.996,2.441,0
120233.849,5.859,35.645,6.836,24.414,24.414,0
120233.853,34.180,36.621,14.648,34.180,48.340,0
120233.857,43.945,36.133,21.484,31.738,52.246,0
120233.861,23.438,33.203,22.461,24.414,6.836,0
120233.865,7.812,34.180,25.879,23.926,-51.758,0
120233.868,34.180,40.527,24.414,33.691,14.160,0
120233.872,60.059,41.016,20.996,35.645,41.992,0
120233.876,41.504,36.621,25.879,25.879,-12.695,0
120233.880,11.230,37.598,25.391,24.414,-7.812,0
120233.884,22.461,36.133,16.602,31.250,-26.855,0
120233.886,63.477,31.738,19.531,37.598,2.930,0
120233.890,56.152,36.621,23.438,33.691,7.812,0
120233.894,10.254,42.969,19.043,24.414,-41.992,0
120233.898,16.113,41.016,22.949,27.344,-20.996,0
120233.902,46.875,39.062,27.832,36.133,27.344,0
120233.906,48.828,38.086,22.461,32.715,23.926,0
120233.910,30.273,39.551,20.996,26.855,-15.625,0
120233.913,19.531,40.039,27.832,29.785,-40.527,0
120233.917,35.156,37.109,31.738,35.645,3.418,0
120233.921,50.293,36.133,27.832,35.645,83.984,0
120233.925,33.691,37.598,22.461,29.297,58.105,0
120233.929,13.672,38.574,19.531,23.438,-7.324,0
120233.931,31.738,36.621,18.066,31.250,10.254,0
120233.935,52.246,32.227,20.996,39.551,65.430,0
120233.939,35.645,31.250,22.461,29.785,49.805,0
120233.943,9.766,29.785,20.996,20.020,7.324,0
120233.947,33.203,29.297,23.926,28.809,-1.465,0
120233.951,57.617,33.691,26.855,38.574,0.488,0
120233.955,38.574,33.691,29.297,36.133,35.645,0
120233.959,23.926,32.227,29.785,29.785,-10.742,0
120233.962,22.949,32.227,29.297,30.762,-42.969,0
120233.966,39.551,32.227,26.855,41.016,20.508,0
120233.970,45.898,33.691,23.926,41.504,3.906,0
120233.974,29.297,33.691,24.902,27.832,-19.531,0
120233.976,19.043,35.645,24.414,26.367,-26.855,0
120233.980,41.504,38.574,26.367,38.574,2.441,0
120233.984,46.387,35.156,23.926,34.180,39.551,0
120233.988,19.531,30.273,21.484,20.996,5.859,0
120233.992,10.742,32.227,23.926,21.973,-27.344,0
120233.996,24.902,34.180,26.855,26.367,-7.812,0
120234.000,43.457,33.691,32.227,26.367,22.949,0
120234.004,41.992,34.668,31.250,20.996,-32.715,0
120234.007,20.020,34.668,26.367,15.137,-97.656,0
120234.011,17.578,33.691,26.367,18.066,-24.414,0
120234.015,49.805,35.645,25.879,25.879,33.203,0
120234.019,41.992,39.551,23.926,25.391,-32.227,0
120234.021,9.277,33.203,25.391,20.508,-42.969,0
120234.025,19.043,31.250,25.391,20.020,-33.203,0
120234.029,47.363,33.203,20.020,27.832,14.160,0
120234.033,49.316,30.273,20.996,35.645,72.266,0
120234.037,27.832,33.203,27.832,27.832,-3.906,0
120234.041,12.695,30.762,34.668,24.414,-43.945,0
120234.045,32.227,29.785,39.062,36.133,-11.230,0
120234.049,41.504,33.691,31.250,35.645,-10.254,0
120234.052,30.762,35.156,21.484,30.762,-30.273,0
120234.056,20.508,38.086,21.484,30.273,-45.898,0
120234.060,23.438,38.574,22.949,36.133,-42.969,0
120234.064,42.480,37.109,26.367,40.039,26.855,0
120234.066,29.297,31.738,22.949,25.879,66.406,0
120234.070,2.930,26.855,16.602,14.648,-14.648,0
120234.074,18.555,29.785,20.020,20.996,-24.902,0
120234.078,45.410,32.227,23.438,32.715,51.758,0
120234.082,39.062,32.715,20.996,31.250,61.035,0
120234.086,12.207,32.227,19.531,21.484,20.508,0
120234.090,8.789,33.203,25.391,20.508,-35.156,0
120234.093,35.645,35.156,30.273,29.297,-23.926,0
120234.097,48.340,34.668,29.785,34.668,10.742,0
120234.101,30.273,32.715,26.855,29.297,-32.227,0
120234.105,18.066,29.297,22.461,25.391,-58.594,0
120234.109,35.156,33.203,22.949,32.715,15.137,0
120234.112,52.734,41.016,23.438,37.109,53.223,0
120234.116,37.109,37.598,19.531,27.832,-3.906,0
120234.120,20.996,25.879,22.949,23.926,-16.602,0
120234.124,32.227,16.602,23.926,30.273,37.598,0
120234.128,48.828,19.531,22.461,35.156,55.176,0
120234.132,43.945,36.133,26.367,30.273,4.883,0
120234.136,18.066,43.945,27.832,21.973,-44.922,0
120234.140,14.648,46.387,24.414,26.367,-16.602,0
120234.144,41.504,43.945,20.996,34.180,32.715,0
120234.148,44.434,39.551,21.484,29.297,25.391,0
120234.152,15.137,38.086,19.531,19.531,-4.883,0
120234.155,5.859,36.621,20.508,22.461,-27.832,0
120234.171,32.227,33.203,26.367,32.715,25.879,0
120234.175,44.434,28.809,25.391,35.156,47.852,0
120234.179,30.762,32.715,20.996,30.273,-12.695,0
120234.183,28.320,31.738,25.391,32.715,-31.250,0
120234.187,34.668,25.391,25.879,37.598,-9.766,0
120234.191,44.922,28.320,20.508,35.645,28.320,0
120234.195,29.785,35.645,22.949,24.902,21.484,0
120234.198,3.418,40.039,31.250,14.160,-20.508,0
120234.202,26.367,40.039,33.203,19.531,-34.180,0
120234.206,50.293,36.133,25.879,30.273,5.859,0
120234.210,38.086,28.809,18.555,23.926,26.855,0
120234.214,17.578,31.250,16.113,16.113,-7.812,0
120234.216,21.973,35.156,15.625,21.484,0.977,0
120234.220,52.246,35.645,14.160,32.227,39.062,0
120234.224,65.430,40.039,16.113,36.133,19.043,0
120234.228,38.574,41.016,26.855,28.320,-15.625,0
120234.232,28.809,43.457,32.227,29.297,-53.711,0
120234.236,55.176,46.875,28.809,41.504,-25.879,0
120234.240,63.477,43.945,29.785,45.410,10.254,0
120234.244,46.387,44.922,29.785,39.551,-6.836,0
120234.248,27.344,46.387,25.391,30.762,-67.383,0
120234.251,41.992,41.504,27.832,30.762,-84.961,0
120234.255,67.871,41.504,33.203,38.086,-29.297,0
120234.259,50.293,41.016,26.855,34.180,-35.645,0
120234.261,33.203,40.527,25.391,28.320,-79.102,0
120234.265,41.992,34.668,31.738,33.691,-65.430,0
120234.269,43.457,29.785,27.832,35.156,3.906,0
120234.273,38.086,42.480,27.344,31.738,-30.762,0
120234.277,19.531,47.852,29.785,27.344,-97.168,0
120234.281,20.996,41.504,32.227,30.762,-82.031,0
120234.285,49.805,36.133,30.273,43.457,8.789,0
120234.289,58.594,40.039,30.273,43.945,50.781,0
120234.292,30.762,47.852,23.926,31.738,-16.113,0
120234.296,12.695,47.852,19.043,25.391,-22.949,0
120234.300,34.668,43.457,28.320,34.180,30.762,0
120234.304,51.270,42.969,32.227,39.551,51.270,0
120234.306,38.574,42.969,27.832,30.273,21.973,0
120234.310,20.508,45.410,30.762,28.320,17.578,0
120234.314,26.367,41.504,32.227,35.156,40.039,0
120234.318,44.434,34.180,27.344,38.086,58.594,0
120234.322,40.039,34.180,29.297,36.621,30.273,0
120234.326,19.043,37.598,28.320,32.227,-10.254,0
120234.330,24.902,38.574,18.555,33.691,-4.883,0
120234.333,50.293,35.645,18.555,38.574,15.137,0
120234.337,42.969,35.645,25.391,29.297,4.395,0
120234.341,13.184,37.109,27.344,20.508,-9.766,0
120234.345,20.020,41.504,25.879,26.855,-21.973,0
120234.349,59.570,39.062,29.297,37.598,-16.113,0
120234.352,56.152,35.645,23.926,34.180,2.930,0
120234.356,19.531,41.504,13.672,24.414,24.902,0
120234.360,6.836,40.039,22.949,22.949,15.137,0
120234.364,29.785,34.668,33.691,30.273,25.391,0
120234.368,42.480,38.086,29.785,36.133,71.289,0
120234.372,26.855,37.598,21.973,26.367,12.207,0
120234.376,7.812,35.645,20.996,17.578,-58.594,0
120234.380,20.508,33.203,23.438,20.996,-50.781,0
120234.384,45.898,29.785,22.949,30.273,4.395,0
120234.388,39.551,35.156,15.137,27.832,19.043,0
120234.392,20.020,38.086,17.090,18.555,-12.695,0
120234.395,25.391,38.086,27.832,23.926,10.254,0
120234.396,44.434,38.086,31.250,36.133,37.598,0
120234.400,41.504,30.762,30.273,34.668,43.945,0
120234.404,19.531,23.438,30.273,25.391,-3.906,0
120234.408,14.160,27.344,25.879,25.879,-53.223,0
120234.412,43.457,35.645,20.508,38.574,-2.441,0
120234.416,56.152,40.527,25.879,43.457,29.785,0
120234.420,23.926,38.574,31.738,34.668,-36.133,0
120234.423,2.441,37.109,26.855,21.484,-91.309,0
120234.427,28.320,36.133,25.391,28.320,-22.949,0
120234.431,55.176,38.574,26.367,41.016,14.648,0
120234.435,31.250,36.621,25.879,31.738,-34.668,0
120234.439,3.418,30.273,28.320,23.438,-44.434,0
120234.441,22.461,32.227,22.949,28.320,8.789,0
120234.445,53.223,35.156,19.043,36.133,37.109,0
120234.449,42.969,31.250,24.902,34.668,1.953,0
120234.453,15.625,27.832,29.785,25.879,0.488,0
120234.457,23.926,29.297,24.414,28.320,27.344,0
120234.461,55.176,31.250,21.484,39.551,25.879,0
120234.465,44.434,30.273,23.926,31.738,10.254,0
120234.468,12.207,29.785,20.996,18.555,-10.742,0
120234.472,9.277,32.227,18.066,25.879,-28.320,0
120234.476,36.621,36.133,22.461,38.574,-4.883,0
120234.480,56.152,37.109,30.762,39.062,19.043,0
120234.484,37.109,35.645,31.738,31.738,-17.090,0
120234.501,11.230,28.320,22.949,24.902,-36.133,0
120234.505,25.391,26.855,16.602,24.902,15.625,0
120234.509,52.246,33.691,17.090,32.715,54.688,0
120234.513,42.969,34.668,21.973,30.762,41.504,0
120234.517,14.160,33.691,22.949,22.461,-0.488,0
120234.521,18.555,33.691,20.020,24.414,-35.156,0
120234.525,52.246,36.621,24.902,30.273,-8.301,0
120234.529,52.246,35.645,24.414,29.297,35.645,0
120234.533,17.090,30.273,23.926,23.926,0.977,0
120234.537,27.344,33.691,25.391,28.809,-60.059,0
120234.541,55.176,39.062,20.508,41.504,-38.574,0
120234.544,48.828,37.109,18.555,40.039,-5.859,0
120234.546,22.949,31.250,21.484,26.367,-44.434,0
120234.550,5.371,27.832,25.391,24.902,-71.777,0
120234.554,35.156,24.902,23.438,35.156,-29.297,0
120234.558,58.594,28.320,20.996,40.039,38.574,0
120234.562,33.203,30.762,22.461,31.250,-12.207,0
120234.566,-1.465,28.320,27.832,21.973,-77.148,0
120234.570,15.137,30.762,28.809,27.832,-28.320,0
120234.574,47.852,33.203,22.461,36.133,25.391,0
120234.577,47.363,30.273,24.414,31.738,18.555,0
120234.581,20.020,28.809,24.414,20.996,-47.363,0
120234.585,18.555,32.715,23.926,21.973,-24.902,0
120234.589,44.922,34.668,26.367,32.715,40.527,0
120234.591,45.898,31.250,22.461,32.227,18.555,0
120234.595,23.438,28.320,15.625,22.461,-39.062,0
120234.599,34.180,31.250,15.137,22.461,-74.707,0
120234.603,56.641,37.598,19.043,32.715,-29.297,0
120234.607,38.574,37.109,24.414,33.691,-3.418,0
120234.611,16.113,32.715,27.344,27.344,-24.902,0
120234.615,8.789,31.250,24.414,21.973,-48.828,0
120234.619,30.762,31.250,19.531,25.879,-3.418,0
120234.622,44.434,33.691,18.066,31.250,22.461,0
120234.626,25.391,32.715,23.438,25.879,-30.273,0
120234.630,4.395,30.273,24.902,20.020,-30.762,0
120234.634,16.113,27.344,18.555,21.484,-8.789,0
120234.636,46.875,26.367,18.555,29.297,-3.906,0
120234.640,41.504,31.250,24.414,28.320,-5.371,0
120234.644,12.207,33.691,25.391,20.996,-41.992,0
120234.648,18.555,32.715,20.996,25.391,-61.035,0
120234.652,54.688,33.203,12.695,33.203,12.207,0
120234.656,53.711,31.738,10.254,32.227,36.621,0
120234.660,17.090,31.738,16.113,23.438,-26.855,0
120234.663,13.672,29.785,20.020,24.414,-59.570,0
120234.667,40.527,27.832,22.461,35.645,-45.898,0
120234.671,49.316,31.250,21.484,36.621,6.836,0
120234.675,29.785,34.668,21.484,31.250,34.668,0
120234.679,12.695,31.738,18.555,28.320,-2.930,0
120234.681,35.645,25.879,20.020,34.180,9.277,0
120234.685,53.223,23.438,26.855,40.039,34.180,0
120234.689,23.438,25.879,28.320,34.180,1.953,0
120234.693,10.742,31.250,27.832,23.438,-51.270,0
120234.697,28.320,34.668,22.949,23.438,-28.320,0
120234.701,47.852,30.762,14.648,33.203,16.113,0
120234.705,55.664,25.879,17.090,33.203,13.184,0
120234.708,22.949,28.320,21.973,17.578,-10.742,0
120234.712,5.859,28.320,21.973,16.113,-14.160,0
120234.716,35.645,29.785,20.020,30.762,58.105,0
120234.720,43.945,23.926,21.973,32.227,53.711,0
120234.724,20.020,20.508,28.809,21.484,-42.969,0
120234.726,13.184,29.297,22.461,17.090,-71.777,0
120234.730,40.527,33.203,12.207,27.344,-26.367,0
120234.734,52.246,40.039,17.578,32.227,12.695,0
120234.738,36.133,38.086,26.855,24.414,-34.180,0
120234.742,24.414,33.203,25.879,21.973,-52.246,0
120234.746,36.133,37.598,20.996,31.250,14.648,0
120234.750,49.316,41.504,22.461,36.621,43.945,0
120234.753,26.367,34.180,24.902,28.809,19.043,0
120234.757,5.371,30.762,24.414,20.996,-10.254,0
120234.761,22.461,36.621,23.926,26.367,-3.906,0
120234.765,42.480,33.203,24.414,33.691,23.926,0
120234.769,36.621,28.809,24.414,30.273,45.410,0
120234.771,16.602,25.879,27.832,25.391,9.277,0
120234.775,18.066,24.414,31.738,28.809,-45.898,0
120234.779,45.410,25.391,31.250,34.668,-9.766,0
120234.783,55.176,29.297,22.949,33.691,20.020,0
120234.787,26.367,28.809,18.555,23.438,-23.926,0
120234.791,8.789,27.832,19.531,20.996,-48.340,0
120234.795,34.668,29.785,17.090,29.297,-27.832,0
120234.798,53.711,28.320,18.555,35.645,2.930,0
120234.802,44.434,30.762,22.949,30.762,0.488,0
120234.806,19.043,34.180,25.391,23.926,-35.156,0
120234.810,24.902,33.203,25.879,37.109,-15.137,0
120234.814,66.406,35.645,19.043,43.457,3.418,0
120234.817,54.688,38.574,18.066,34.180,-6.836,0
120234.821,13.184,38.086,22.949,26.367,-51.758,0
120234.825,19.043,32.227,22.949,28.809,-76.660,0
120234.829,53.711,29.297,20.508,38.574,-18.555,0
120234.833,62.012,32.715,19.043,33.203,-11.719,0
120234.837,32.227,31.250,17.578,20.996,-50.781,0
120234.841,11.230,31.250,17.578,24.414,-53.223,0
120234.845,34.180,32.227,18.555,33.203,8.789,0
120234.849,47.363,29.785,22.949,31.738,62.500,0
120234.853,33.203,31.738,29.785,30.762,20.020,0
120234.857,20.508,36.133,26.367,31.738,25.391,0
120234.860,53.711,38.574,20.508,39.062,64.453,0
120234.876,74.219,35.156,23.438,46.387,21.484,0
120234.880,42.480,29.297,27.832,41.992,-18.066,0
120234.884,24.902,32.227,26.855,36.133,-19.043,0
120234.888,46.875,37.109,26.367,47.363,6.348,0
120234.892,58.105,34.180,24.902,54.199,51.270,0
120234.896,35.645,30.273,20.996,42.480,-6.836,0
120234.900,6.836,31.738,21.484,29.297,-73.242,0
120234.904,5.371,26.855,23.438,26.367,-31.738,0
120234.907,37.598,23.438,20.020,40.039,29.297,0
120234.911,44.922,28.320,23.926,41.992,37.109,0
120234.915,32.715,29.297,28.320,32.715,-31.738,0
120234.919,26.855,28.320,22.949,31.738,-40.527,0
120234.921,43.945,34.668,26.367,38.086,18.555,0
120234.925,62.500,37.598,33.203,41.992,34.668,0
120234.929,39.062,30.762,25.391,34.668,-4.883,0
120234.933,26.367,30.273,14.160,31.250,-26.855,0
120234.937,46.387,26.367,14.648,39.551,8.301,0
120234.941,46.875,19.531,22.949,42.480,6.348,0
120234.945,30.762,25.879,23.926,30.762,-38.574,0
120234.948,15.625,30.762,22.949,26.367,-57.129,0
120234.952,29.297,33.203,23.438,34.180,-26.367,0
120234.956,64.453,35.156,27.832,40.527,-7.324,0
120234.960,55.176,34.668,28.320,38.574,4.395,0
120234.964,9.277,30.273,23.438,28.809,-3.418,0
120234.966,6.348,30.273,25.391,25.391,-24.414,0
120234.970,37.109,29.297,25.879,34.668,25.391,0
120234.974,48.828,26.855,20.508,40.527,50.293,0
120234.978,27.344,27.344,16.113,32.227,11.719,0
120234.982,7.812,22.461,17.578,24.902,-23.438,0
120234.986,30.273,18.555,21.973,32.227,-23.438,0
120234.990,50.781,23.438,24.414,37.598,-13.184,0
120234.994,31.250,28.809,20.508,27.832,-16.113,0
120234.997,31.250,34.668,19.531,21.973,-83.496,0
120235.001,44.434,32.715,24.414,32.227,-114.258,0
120235.005,46.387,26.855,20.508,35.156,-26.367,0
120235.009,33.203,30.273,10.742,22.949,-7.324,0
120235.011,9.766,30.762,16.602,16.602,-61.523,0
120235.015,23.926,29.785,26.367,27.344,-20.020,0
120235.019,51.758,32.715,25.879,37.598,47.852,0
120235.023,49.805,32.227,21.973,31.250,0.488,0
120235.027,26.855,29.785,20.508,22.949,-53.223,0
120235.031,17.578,31.250,21.484,28.809,-72.266,0
120235.035,41.504,33.203,22.949,33.203,-9.766,0
120235.038,58.105,33.203,22.949,28.809,28.809,0
120235.042,45.410,35.645,20.020,23.438,-60.547,0
120235.046,21.484,32.715,17.090,20.508,-47.363,0
120235.050,31.250,26.855,13.672,25.879,32.715,0
120235.054,51.270,27.832,18.555,30.762,61.523,0
120235.057,35.645,33.203,28.320,29.785,10.254,0
120235.061,20.020,30.762,30.762,30.762,-47.852,0
120235.065,33.691,28.320,22.949,33.203,-0.977,0
120235.069,65.430,24.902,19.531,36.133,39.551,0
120235.073,54.199,25.391,25.391,33.203,15.625,0
120235.077,13.672,34.180,29.785,28.320,-23.438,0
120235.081,25.879,37.598,24.414,35.645,-9.766,0
120235.085,54.688,36.133,22.461,43.945,36.621,0
120235.089,52.246,34.180,26.367,38.086,47.363,0
120235.093,23.438,32.715,27.832,24.902,9.766,0
120235.097,12.207,32.715,27.832,25.391,-17.578,0
120235.100,44.922,32.715,22.949,40.039,13.184,0
120235.101,61.523,33.691,18.555,38.574,29.785,0
120235.105,39.551,37.109,22.461,25.879,-3.418,0
120235.109,32.227,39.062,27.344,30.273,-59.082,0
120235.113,55.664,35.645,20.508,34.180,-41.992,0
120235.117,61.523,35.156,20.508,32.227,41.992,0
120235.121,40.527,40.527,22.949,35.156,25.391,0
120235.125,20.996,41.992,19.043,33.203,-29.297,0
120235.128,36.133,40.527,20.508,35.645,-24.902,0
120235.132,63.477,41.016,25.391,43.945,21.484,0
120235.136,44.922,39.551,23.926,39.551,53.223,0
120235.140,23.438,38.086,20.020,29.785,-17.578,0
120235.144,33.691,38.086,21.484,31.250,-60.059,0
120235.146,56.641,40.039,25.879,37.598,24.902,0
120235.150,54.688,42.480,27.344,37.598,41.504,0
120235.154,19.043,39.062,23.438,29.297,-40.527,0
120235.158,13.184,36.133,19.531,28.809,-71.777,0
120235.162,39.062,43.457,20.020,38.086,15.137,0
120235.166,51.758,48.340,21.484,37.598,45.898,0
120235.170,31.738,46.387,24.414,26.855,-45.898,0
120235.173,8.301,43.457,21.973,22.461,-70.312,0
120235.177,25.391,39.551,18.555,33.203,0.977,0
120235.181,47.852,37.109,18.555,41.016,48.828,0
120235.185,32.227,38.086,22.461,33.203,19.531,0
120235.189,14.648,39.062,23.438,25.879,-27.344,0
120235.191,33.203,38.086,22.949,34.180,-18.555,0
120235.195,47.852,37.598,24.902,41.016,24.902,0
120235.199,35.156,38.086,23.926,36.621,18.555,0
120235.203,12.207,35.645,25.391,25.879,-43.457,0
120235.207,11.719,35.645,23.438,24.414,-65.918,0
120235.211,41.016,36.133,19.531,36.133,-13.184,0
120235.215,43.457,32.715,20.020,33.203,-30.762,0
120235.218,20.020,38.574,27.344,26.855,-47.363,0
120235.222,12.695,43.457,30.273,28.809,-7.324,0
120235.226,29.785,40.039,24.902,29.785,-5.371,0
120235.230,47.363,34.668,28.320,36.133,-1.465,0
120235.234,50.293,31.738,33.691,36.621,25.391,0
120235.251,14.648,29.297,30.273,29.297,-8.789,0
120235.255,8.789,26.855,24.902,32.715,-22.949,0
120235.259,39.062,30.273,22.461,38.574,12.207,0
120235.263,30.273,34.180,23.926,33.691,34.668,0
120235.267,7.324,31.738,23.926,28.320,1.465,0
120235.271,18.555,28.320,24.902,32.715,-46.875,0
120235.275,43.457,31.738,27.832,38.574,-37.598,0
120235.278,37.109,33.691,30.762,35.645,39.551,0
120235.282,9.277,33.691,31.250,26.855,49.805,0
120235.286,14.160,35.156,25.391,27.832,-3.418,0
120235.290,45.410,30.762,22.461,37.109,26.855,0
120235.294,48.340,30.273,21.973,35.645,41.016,0
120235.296,21.484,31.738,20.508,28.809,-16.113,0
120235.300,13.184,32.715,24.414,23.926,-28.809,0
120235.304,42.969,36.621,22.949,32.227,23.926,0
120235.308,56.641,37.109,16.602,45.898,73.730,0
120235.312,34.668,36.621,17.578,36.133,35.645,0
120235.316,17.090,35.156,20.508,23.926,-20.020,0
120235.320,36.621,37.598,16.602,28.809,-16.113,0
120235.323,53.223,35.645,17.578,33.203,44.922,0
120235.327,37.598,29.297,22.461,27.344,69.336,0
120235.331,11.230,28.320,21.973,16.602,-30.273,0
120235.335,23.926,29.297,18.555,21.973,-54.199,0
120235.339,55.664,30.762,19.531,35.156,25.879,0
120235.341,39.062,30.273,24.902,28.809,36.133,0
120235.345,7.812,31.738,20.996,16.602,1.465,0
120235.349,13.184,36.133,16.113,20.508,-40.039,0
120235.353,49.805,37.109,18.555,29.297,-19.531,0
120235.357,57.617,33.691,23.926,28.809,0.000,0
120235.361,24.414,35.645,25.879,21.973,-36.133,0
120235.365,7.812,38.086,27.344,19.531,-32.715,0
120235.368,32.715,38.574,22.949,26.855,28.809,0
120235.372,47.852,40.527,20.020,29.785,29.297,0
120235.376,33.691,37.109,22.461,22.949,-24.902,0
120235.380,12.695,30.273,20.020,16.113,-37.109,0
120235.384,17.090,32.227,20.996,18.555,-10.742,0
120235.386,48.828,36.133,27.344,30.762,28.320,0
120235.390,53.711,36.133,26.367,28.320,45.410,0
120235.394,19.531,41.504,10.742,7.812,3.418,0
120235.398,15.625,44.922,3.418,5.859,-55.664,0
120235.402,38.574,39.551,12.207,15.625,-41.504,0
120235.406,26.367,37.598,18.555,10.742,0.488,0
120235.410,3.906,40.039,19.531,3.906,-31.738,0
120235.413,2.441,37.109,16.113,8.301,-57.129,0
120235.417,36.621,36.133,13.672,18.066,-38.086,0
120235.421,62.500,37.109,17.578,18.555,-1.953,0
120235.425,22.949,34.668,22.949,13.184,-2.930,0
120235.429,-6.348,38.574,21.973,9.277,-47.363,0
120235.431,17.090,39.551,18.066,15.625,-58.105,0
120235.435,40.527,35.156,21.973,25.879,-20.508,0
120235.439,37.598,35.645,27.344,22.949,-17.090,0
120235.443,9.766,36.133,23.926,14.160,-59.082,0
120235.447,12.695,35.156,6.348,20.996,-37.109,0
120235.451,44.922,36.621,-9.277,29.297,15.625,0
120235.455,34.668,36.621,4.395,23.926,4.395,0
120235.458,-2.930,34.180,26.367,14.648,-35.645,0
120235.462,0.000,33.691,35.645,14.648,-65.430,0
120235.466,33.691,31.738,37.109,29.297,-24.414,0
120235.470,37.109,30.762,38.574,33.691,18.066,0
120235.474,15.137,36.621,34.668,28.809,-18.555,0
120235.477,7.324,38.086,28.320,27.832,-64.453,0
120235.481,26.855,36.621,20.996,32.715,-26.367,0
120235.485,41.504,34.668,17.578,36.133,39.062,0
120235.488,26.367,33.691,20.996,29.785,24.902,0
120235.492,3.418,34.668,18.066,24.414,-20.020,0
120235.496,19.043,34.668,17.578,29.785,-20.996,0
120235.500,41.992,36.133,25.391,34.180,3.418,0
120235.504,31.250,37.109,23.926,25.391,-52.246,0
120235.508,7.324,33.203,23.438,16.113,-103.516,0
120235.512,9.277,34.180,36.133,22.461,-67.383,0
120235.516,42.480,38.574,41.504,33.691,8.789,0
120235.520,44.922,37.109,37.109,32.715,27.344,0
120235.522,20.020,38.574,40.039,26.855,-49.805,0
120235.526,27.344,44.434,31.738,32.715,-40.039,0
120235.530,52.246,42.480,16.602,41.504,8.789,0
120235.534,49.316,33.691,22.461,38.086,32.715,0
120235.538,23.926,33.691,31.250,24.414,0.488,0
120235.542,7.324,33.691,33.203,18.066,-31.738,0
120235.546,43.457,32.227,32.227,28.320,-12.695,0
120235.550,77.637,39.551,32.227,34.668,-15.625,0
120235.554,35.156,40.527,28.809,27.832,4.395,0
120235.558,-0.488,39.062,23.926,19.531,-8.789,0
120235.562,25.391,39.062,22.461,24.414,-25.391,0
120235.565,48.828,37.598,22.461,32.715,30.762,0
120235.566,34.668,38.086,25.391,27.832,45.410,0
120235.570,9.766,36.621,23.438,16.602,-19.043,0
120235.574,7.324,34.668,19.531,16.113,-18.066,0
120235.578,32.715,32.715,17.578,25.879,42.969,0
120235.582,47.363,34.668,20.508,23.438,31.250,0
120235.586,14.648,37.598,25.391,15.625,-23.926,0
120235.590,-1.953,35.156,24.902,18.555,-30.762,0
120235.593,27.832,33.691,13.184,25.391,8.789,0
120235.597,34.668,34.180,17.578,27.832,32.227,0
120235.601,18.066,36.621,26.367,20.020,-31.738,0
120235.605,5.859,35.156,26.367,20.508,-82.520,0
120235.609,19.531,27.344,32.227,31.250,-25.391,0
120235.626,42.969,34.180,38.574,34.668,20.508,0
120235.630,34.180,42.969,32.715,31.738,-32.227,0
120235.634,3.906,40.527,9.766,25.879,-47.363,0
120235.638,18.066,39.551,4.883,24.902,-8.789,0
120235.642,51.270,39.551,24.414,29.297,33.691,0
120235.646,34.180,33.203,38.574,21.484,15.625,0
120235.650,6.348,31.738,41.016,13.184,-62.500,0
120235.653,8.301,33.691,32.715,15.137,-40.527,0
120235.657,30.762,32.227,21.484,23.926,20.508,0
120235.661,41.504,34.180,25.879,26.367,17.578,0
120235.665,20.508,34.668,34.180,20.020,-25.879,0
120235.669,13.184,33.203,25.391,20.508,-47.852,0
120235.671,37.598,36.133,13.184,31.250,-53.711,0
120235.675,43.945,34.668,18.555,36.133,-61.523,0
120235.679,20.508,31.738,30.762,25.879,-27.832,0
120235.683,5.371,35.156,32.227,23.438,-3.906,0
120235.687,27.832,37.598,27.344,35.156,-6.348,0
120235.691,45.410,37.598,27.344,39.062,34.668,0
120235.695,27.344,35.156,29.785,28.320,25.879,0
120235.699,4.883,35.156,29.297,17.578,7.812,0
120235.702,13.184,36.621,29.297,20.996,5.371,0
120235.706,38.574,35.645,26.855,28.809,6.836,0
120235.710,41.504,36.133,25.879,29.297,26.855,0
120235.714,11.719,35.645,24.902,20.020,-19.043,0
120235.716,-0.488,34.668,23.438,16.113,-39.551,0
120235.720,25.391,31.250,22.949,19.531,52.246,0
120235.724,36.621,31.738,21.973,20.996,85.938,0
120235.728,21.484,31.250,25.391,18.555,23.438,0
120235.732,21.973,32.227,32.227,18.555,-11.230,0
120235.736,42.480,39.551,27.832,28.809,16.602,0
120235.740,47.852,40.039,21.484,29.297,14.648,0
120235.743,33.203,40.527,21.973,17.578,-19.043,0
120235.747,13.184,39.062,21.484,13.672,-63.965,0
120235.751,29.785,33.203,21.484,20.020,-26.367,0
120235.755,56.152,32.715,23.926,27.344,48.340,0
120235.759,31.250,38.086,22.461,26.367,18.555,0
120235.761,-3.418,35.156,24.902,17.578,-53.223,0
120235.765,9.766,33.203,24.414,16.602,-20.508,0
120235.769,47.363,35.645,25.879,33.203,61.035,0
120235.773,47.852,30.762,30.762,35.156,54.688,0
120235.777,19.531,28.809,23.926,20.020,-19.043,0
120235.781,9.277,32.715,18.555,20.508,-30.762,0
120235.785,36.621,35.156,20.508,29.785,28.809,0
120235.788,44.922,38.086,22.461,32.227,51.758,0
120235.792,19.531,37.598,21.484,22.949,-25.391,0
120235.796,18.555,35.645,23.926,18.555,-37.109,0
120235.800,40.039,35.156,26.855,31.250,32.227,0
120235.804,46.387,34.180,23.438,36.133,49.805,0
120235.806,28.320,35.156,26.855,23.438,37.598,0
120235.810,12.695,37.109,35.156,17.578,-6.836,0
120235.814,29.785,40.039,24.902,26.855,13.184,0
120235.818,66.406,39.551,16.113,31.738,71.289,0
120235.822,50.781,34.180,20.996,23.926,24.414,0
120235.826,6.348,34.180,28.320,18.555,-40.527,0
120235.830,21.484,39.551,31.738,20.508,-23.438,0
120235.834,49.316,39.062,26.367,28.320,-30.273,0
120235.837,42.480,36.133,25.879,31.738,-54.199,0
120235.841,23.438,38.574,26.855,24.414,-33.691,0
120235.845,17.090,38.086,20.020,19.043,-34.668,0
120235.849,34.668,34.668,19.531,27.344,-5.859,0
120235.851,43.945,34.180,25.879,27.344,38.086,0
120235.855,24.902,33.203,22.461,16.602,5.371,0
120235.859,19.531,31.738,16.602,16.602,-25.391,0
120235.863,38.086,29.785,17.090,26.855,35.156,0
120235.867,41.992,25.879,20.508,27.344,73.242,0
120235.871,20.020,25.879,21.484,19.043,23.438,0
120235.875,2.930,27.344,20.020,15.137,-46.875,0
120235.878,23.926,20.996,18.066,19.531,-57.617,0
120235.882,46.387,22.949,20.996,24.902,1.465,0
120235.886,21.973,27.832,22.949,22.461,36.621,0
120235.890,-7.324,26.855,16.113,15.137,-18.066,0
120235.894,3.418,32.227,14.648,19.531,8.789,0
120235.897,33.203,34.180,20.996,26.855,84.473,0
120235.901,40.039,33.691,23.438,22.461,61.523,0
120235.905,24.902,33.691,20.508,11.719,-7.324,0
120235.909,6.348,33.203,16.113,11.230,-27.832,0
120235.912,20.996,35.156,13.184,20.996,30.762,0
120235.916,38.574,34.668,15.625,24.414,58.594,0
120235.920,25.391,35.156,20.020,18.555,8.301,0
120235.924,11.230,36.133,18.555,15.137,-31.250,0
120235.928,31.738,34.668,17.578,17.578,28.320,0
120235.932,48.828,38.086,18.555,20.508,41.992,0
120235.936,24.902,36.133,19.531,14.648,-13.184,0
120235.940,0.000,32.227,24.414,10.742,-53.223,0
120235.941,15.625,35.156,27.344,19.531,-4.395,0
120235.945,58.594,37.598,25.391,31.250,14.160,0
120235.949,37.109,35.156,24.902,27.344,-13.672,0
120235.953,-5.859,34.668,28.809,19.531,-48.828,0
120235.957,10.254,35.156,21.973,18.555,-60.547,0
120235.961,42.480,35.156,19.531,29.785,6.836,0
120235.965,44.434,41.016,29.785,38.086,6.348,0
120235.968,20.996,45.410,29.785,32.227,-31.738,0
120235.972,7.324,46.875,32.227,29.297,-1.953,0
120235.976,25.879,44.922,36.621,37.109,8.789,0
120235.980,44.922,42.480,37.109,37.598,19.043,0
120235.984,23.438,39.062,36.133,26.367,8.789,0
120235.987,9.766,41.504,34.180,23.438,-51.270,0
120235.991,31.738,40.527,29.785,29.297,-53.223,0
120235.995,47.363,41.016,25.879,36.621,-4.395,0
120235.999,33.203,45.410,29.297,34.180,7.812,0
120236.003,14.160,41.992,29.297,26.855,-20.508,0
120236.007,20.020,37.109,27.344,35.645,-61.523,0
120236.011,42.969,36.621,33.691,44.434,-31.738,0
120236.015,48.828,37.598,34.180,39.062,32.715,0
120236.019,35.645,37.109,26.855,34.180,19.531,0
120236.023,18.066,36.621,21.484,27.832,-18.066,0
120236.027,30.273,37.109,25.879,35.645,6.348,0
120236.030,49.805,36.133,32.715,44.922,24.414,0
120236.046,29.297,38.574,32.227,34.180,-10.742,0
120236.050,15.625,37.598,24.902,25.879,-41.992,0
120236.054,35.156,34.668,21.973,31.250,-13.672,0
120236.058,47.363,34.180,24.902,36.621,13.672,0
120236.062,32.227,34.180,23.438,28.320,5.859,0
120236.066,16.113,36.621,21.973,20.020,-35.645,0
120236.070,25.391,36.621,21.973,26.855,-13.184,0
120236.074,48.828,34.668,25.879,35.156,68.848,0
120236.077,45.410,33.691,30.762,32.227,59.082,0
120236.081,14.160,36.133,35.156,26.367,-6.348,0
120236.085,15.137,36.133,26.855,29.785,-3.906,0
120236.089,51.270,33.691,17.578,46.875,32.227,0
120236.091,57.617,34.668,25.391,48.828,54.199,0
120236.095,19.043,32.227,30.762,32.715,14.648,0
120236.099,6.348,35.645,29.297,29.297,-31.738,0
120236.103,37.109,39.062,26.855,38.086,41.016,0
120236.107,58.594,37.109,22.949,39.551,43.457,0
120236.111,32.715,35.156,23.438,25.391,-12.207,0
120236.115,1.953,36.133,24.414,22.461,-16.602,0
120236.118,24.414,35.645,21.484,33.203,9.766,0
120236.122,38.574,33.203,20.020,35.645,25.391,0
