timestamps,TP9,AF7,AF8,TP10,Right AUX,Frequency,Contrast,Orientation
489996.751,-173.828,38.086,17.090,-227.539,-173.828,0.000,0.000,0.000
489996.755,-171.387,49.316,14.160,-227.539,-176.270,0.000,0.000,0.000
489996.759,-144.531,63.965,9.766,-217.285,-169.922,0.000,0.000,0.000
489996.763,-129.883,63.965,3.906,-212.402,-166.504,0.000,0.000,0.000
489996.767,-156.738,55.664,-0.488,-219.238,-171.875,0.000,0.000,0.000
489996.771,-176.758,58.594,0.488,-227.539,-177.734,0.000,0.000,0.000
489996.775,-148.926,75.684,-13.184,-234.375,-170.898,0.000,0.000,0.000
489996.778,-126.465,87.891,-19.531,-229.492,-175.781,0.000,0.000,0.000
489996.782,-143.555,81.543,-5.371,-211.426,-166.992,0.000,0.000,0.000
489996.786,-158.691,68.359,0.977,-207.520,-154.297,0.000,0.000,0.000
489996.790,-137.695,80.078,-9.277,-201.660,-148.926,0.000,0.000,0.000
489996.794,-103.027,82.031,-9.766,-178.711,-133.789,0.000,0.000,0.000
489996.798,-97.656,67.383,-2.441,-173.340,-134.277,0.000,0.000,0.000
489996.802,-119.629,54.688,-5.371,-173.828,-126.465,0.000,0.000,0.000
489996.806,-112.305,53.711,-7.812,-153.809,-104.004,0.000,0.000,0.000
489996.810,-82.031,56.641,4.395,-143.555,-93.750,0.000,0.000,0.000
489996.814,-62.988,51.758,9.277,-139.160,-78.125,0.000,0.000,0.000
489996.818,-62.012,39.062,7.324,-125.000,-76.172,0.000,0.000,0.000
489996.821,-74.219,30.762,14.648,-114.746,-74.219,0.000,0.000,0.000
489996.825,-52.734,39.062,19.531,-102.539,-42.969,0.000,0.000,0.000
489996.829,-21.484,29.785,20.508,-87.402,-32.227,0.000,0.000,0.000
489996.833,-23.438,14.160,20.508,-73.242,23.926,0.000,0.000,0.000
489996.837,-20.508,20.020,24.902,-85.449,66.406,0.000,0.000,0.000
489996.841,12.695,18.555,27.344,-49.316,12.207,0.000,0.000,0.000
489996.845,58.105,16.113,30.273,7.812,-25.879,0.000,0.000,0.000
489996.849,60.059,12.207,42.969,11.230,-12.207,0.000,0.000,0.000
489996.853,49.805,7.324,50.293,16.113,19.531,0.000,0.000,0.000
489996.857,75.684,4.395,42.480,16.113,47.852,0.000,0.000,0.000
489996.861,111.328,4.883,41.016,35.645,57.129,0.000,0.000,0.000
489996.864,105.957,-2.441,54.688,34.668,68.359,0.000,0.000,0.000
489996.868,83.496,-3.906,53.711,46.875,71.289,0.000,0.000,0.000
489996.872,89.355,2.930,50.293,79.590,64.941,0.000,0.000,0.000
489996.876,120.117,7.812,50.293,69.824,73.730,0.000,0.000,0.000
489996.880,125.977,21.973,41.016,60.059,82.031,0.000,0.000,0.000
489996.884,107.422,18.555,38.574,68.359,89.355,0.000,0.000,0.000
489996.888,98.633,10.254,46.875,72.266,100.098,0.000,0.000,0.000
489996.892,114.746,9.766,51.758,77.637,105.957,0.000,0.000,0.000
489996.896,134.277,13.672,49.805,85.449,102.539,0.000,0.000,0.000
489996.900,104.004,9.277,50.781,82.520,98.633,0.000,0.000,0.000
489996.903,80.566,-0.488,42.480,78.125,93.262,0.000,0.000,0.000
489996.907,108.398,4.395,39.551,72.266,89.355,0.000,0.000,0.000
489996.911,124.512,7.812,44.922,83.984,85.938,0.000,0.000,0.000
489996.915,104.004,3.418,41.504,69.336,80.078,0.000,0.000,0.000
489996.919,84.473,-4.395,39.062,50.293,97.656,0.000,0.000,0.000
489996.923,83.496,-0.488,41.504,53.223,104.980,0.000,0.000,0.000
489996.927,103.516,23.438,37.598,53.223,96.680,0.000,0.000,0.000
489996.931,107.422,20.020,30.273,51.758,105.957,0.000,0.000,0.000
489996.935,85.449,8.301,39.062,49.805,126.953,0.000,0.000,0.000
489996.939,83.008,9.766,38.574,49.316,88.867,0.000,0.000,0.000
489996.943,107.910,11.230,33.691,47.852,65.430,0.000,0.000,0.000
489996.946,110.352,3.906,36.621,56.641,103.516,0.000,0.000,0.000
489996.950,98.145,-1.465,37.598,51.758,79.590,0.000,0.000,0.000
489996.954,91.309,1.465,35.645,50.781,59.570,0.000,0.000,0.000
489996.958,103.027,3.418,32.227,59.570,67.871,0.000,0.000,0.000
489996.962,118.652,3.418,32.227,57.129,75.195,0.000,0.000,0.000
489996.966,99.121,-1.953,41.016,59.570,97.656,0.000,0.000,0.000
489996.970,76.660,5.859,43.457,45.898,99.609,0.000,0.000,0.000
489996.974,81.543,8.789,40.039,44.922,92.285,0.000,0.000,0.000
489996.978,102.539,6.348,41.992,60.547,99.609,0.000,0.000,0.000
489996.982,95.215,14.160,44.434,57.617,91.309,0.000,0.000,0.000
489996.986,75.195,10.254,43.457,53.711,90.332,0.000,0.000,0.000
489996.989,81.543,7.324,40.527,55.176,87.891,0.000,0.000,0.000
489996.993,97.656,14.160,40.039,56.641,87.891,0.000,0.000,0.000
489996.997,102.539,10.742,41.504,59.570,100.586,0.000,0.000,0.000
489997.001,78.613,0.977,41.016,49.805,95.703,0.000,0.000,0.000
489997.005,61.523,-0.977,36.133,35.156,64.453,0.000,0.000,0.000
489997.009,83.496,3.906,33.203,38.574,41.992,0.000,0.000,0.000
489997.013,102.539,17.578,33.203,36.621,48.828,0.000,0.000,0.000
489997.017,75.684,15.137,34.668,32.715,59.570,0.000,0.000,0.000
489997.021,56.152,7.812,34.668,35.156,76.172,0.000,0.000,0.000
489997.025,82.520,7.812,32.227,32.227,83.496,0.000,0.000,0.000
489997.028,93.750,10.254,29.785,32.227,89.355,0.000,0.000,0.000
489997.032,72.754,15.137,30.273,28.809,89.355,0.000,0.000,0.000
489997.036,55.664,10.742,34.668,21.973,84.961,0.000,0.000,0.000
489997.040,62.988,12.695,38.086,20.996,81.055,0.000,0.000,0.000
489997.044,88.379,29.785,39.062,26.367,58.594,0.000,0.000,0.000
489997.048,73.730,29.785,35.645,23.926,24.414,0.000,0.000,0.000
489997.052,41.504,11.230,29.297,10.254,20.508,0.000,0.000,0.000
489997.056,51.270,5.859,32.227,3.906,58.594,0.000,0.000,0.000
489997.060,70.312,26.855,37.598,6.836,78.125,0.000,0.000,0.000
489997.064,66.895,36.621,40.527,12.207,46.875,0.000,0.000,0.000
489997.068,52.734,17.578,37.598,8.789,32.227,0.000,0.000,0.000
489997.071,48.340,12.207,27.832,9.277,41.016,0.000,0.000,0.000
489997.075,70.801,19.043,30.762,16.602,45.898,0.000,0.000,0.000
489997.079,84.961,18.066,37.598,13.184,49.316,0.000,0.000,0.000
489997.083,66.406,15.137,37.109,11.230,67.383,0.000,0.000,0.000
489997.087,49.316,17.090,34.180,16.113,88.379,0.000,0.000,0.000
489997.091,61.035,19.043,31.738,21.484,79.102,0.000,0.000,0.000
489997.095,83.496,20.020,30.762,25.391,67.871,0.000,0.000,0.000
489997.099,65.430,5.371,34.668,17.578,70.312,0.000,0.000,0.000
489997.103,42.480,3.906,42.969,12.207,74.707,0.000,0.000,0.000
489997.107,47.852,23.926,39.062,17.578,71.289,0.000,0.000,0.000
489997.111,76.172,28.320,30.762,21.973,56.152,0.000,0.000,0.000
489997.114,87.402,24.414,31.250,26.855,62.988,0.000,0.000,0.000
489997.118,58.105,19.043,38.086,15.137,65.918,0.000,0.000,0.000
489997.122,33.691,20.020,42.969,4.883,45.898,0.000,0.000,0.000
489997.126,42.969,28.320,39.062,2.441,43.457,0.000,0.000,0.000
489997.130,62.012,26.855,33.203,14.648,54.688,0.000,0.000,0.000
489997.134,52.734,26.367,32.715,19.043,48.828,0.000,0.000,0.000
489997.138,31.250,24.902,35.645,6.836,25.391,0.000,0.000,0.000
489997.142,48.828,19.043,37.109,14.648,22.949,0.000,0.000,0.000
489997.146,75.684,25.879,31.250,24.902,42.480,0.000,0.000,0.000
489997.150,51.758,26.367,24.902,18.066,26.855,0.000,0.000,0.000
489997.153,28.320,23.438,27.832,8.301,13.672,0.000,0.000,0.000
489997.157,44.434,22.461,37.109,12.695,45.898,0.000,0.000,0.000
489997.161,67.871,19.531,41.992,17.090,56.641,0.000,0.000,0.000
489997.165,63.965,31.738,39.062,13.184,45.410,0.000,0.000,0.000
489997.169,41.504,28.809,32.715,6.836,26.855,0.000,0.000,0.000
489997.173,40.039,16.113,33.691,8.789,22.461,0.000,0.000,0.000
489997.177,68.848,26.367,33.691,23.438,41.504,0.000,0.000,0.000
489997.181,72.754,23.438,25.879,24.414,33.203,0.000,0.000,0.000
489997.185,30.762,10.254,26.367,11.719,28.809,0.000,0.000,0.000
489997.189,16.113,12.695,26.367,9.277,44.922,0.000,0.000,0.000
489997.193,46.387,20.508,30.762,11.230,61.523,0.000,0.000,0.000
489997.196,58.594,25.391,32.715,11.719,45.410,0.000,0.000,0.000
489997.200,47.363,29.297,31.738,3.906,11.230,0.000,0.000,0.000
489997.204,48.340,19.043,36.621,0.488,19.043,0.000,0.000,0.000
489997.208,62.500,19.531,32.227,1.953,28.320,0.000,0.000,0.000
489997.212,69.336,40.527,30.762,6.348,21.973,0.000,0.000,0.000
489997.216,52.246,32.715,33.203,5.859,26.855,0.000,0.000,0.000
489997.220,34.668,18.066,34.180,2.441,37.598,0.000,0.000,0.000
489997.224,40.527,20.996,33.691,13.672,48.828,0.000,0.000,0.000
489997.228,52.246,29.297,28.809,11.230,50.293,0.000,0.000,0.000
489997.232,45.410,33.691,34.180,3.418,27.832,0.000,0.000,0.000
489997.235,20.508,30.762,36.133,4.395,20.508,0.000,0.000,0.000
489997.239,17.578,29.297,31.250,2.441,28.320,0.000,0.000,0.000
489997.243,49.805,36.621,30.273,-2.441,20.996,0.000,0.000,0.000
489997.247,59.082,31.738,27.832,-0.488,37.109,0.000,0.000,0.000
489997.251,28.809,14.160,28.809,-1.953,81.055,0.000,0.000,0.000
489997.255,28.809,29.297,33.203,-4.883,75.684,0.000,0.000,0.000
489997.259,62.012,41.016,30.273,3.418,39.551,0.000,0.000,0.000
489997.263,65.430,31.738,22.949,6.348,30.762,0.000,0.000,0.000
489997.267,33.203,26.367,25.879,-3.906,41.992,0.000,0.000,0.000
489997.271,27.832,30.762,32.227,-13.672,60.547,0.000,0.000,0.000
489997.275,54.688,36.621,31.250,-5.859,39.551,0.000,0.000,0.000
489997.278,83.496,39.062,31.738,8.301,29.297,0.000,0.000,0.000
489997.282,72.754,35.645,31.250,5.371,55.176,0.000,0.000,0.000
489997.286,47.363,27.832,30.273,-3.418,67.383,0.000,0.000,0.000
489997.290,54.199,29.785,32.227,7.324,41.016,0.000,0.000,0.000
489997.294,74.219,27.344,21.484,12.695,28.320,0.000,0.000,0.000
489997.298,60.059,30.273,14.160,-0.488,71.777,0.000,0.000,0.000
489997.302,17.578,34.180,23.926,-11.230,81.055,0.000,0.000,0.000
489997.306,12.207,28.809,30.762,-9.766,10.742,0.000,0.000,0.000
489997.310,44.922,33.203,26.367,-7.812,-20.508,0.000,0.000,0.000
489997.314,50.781,32.715,27.832,-14.160,4.883,0.000,0.000,0.000
489997.318,14.648,27.832,32.227,-12.695,8.301,0.000,0.000,0.000
489997.321,10.742,22.949,30.273,-10.254,3.906,0.000,0.000,0.000
489997.325,41.504,23.926,33.203,-14.648,11.719,0.000,0.000,0.000
489997.329,53.711,29.785,25.879,-8.789,11.719,0.000,0.000,0.000
489997.333,39.062,27.832,22.461,-5.859,15.137,0.000,0.000,0.000
489997.337,24.414,21.973,26.855,-14.648,20.020,0.000,0.000,0.000
489997.341,40.527,20.508,26.367,-13.672,27.344,0.000,0.000,0.000
489997.345,55.664,32.715,37.598,-10.742,30.762,0.000,0.000,0.000
489997.349,42.969,37.598,40.527,-13.672,26.855,0.000,0.000,0.000
489997.353,22.461,23.438,37.109,-20.508,22.461,0.000,0.000,0.000
489997.357,28.320,26.855,38.086,-16.602,24.414,0.000,0.000,0.000
489997.360,54.199,43.457,37.109,0.000,31.738,0.000,0.000,0.000
489997.364,46.387,39.062,33.203,-3.906,35.156,0.000,0.000,0.000
489997.368,28.809,32.227,31.250,-15.137,35.156,0.000,0.000,0.000
489997.372,34.668,35.645,24.414,-10.742,32.715,0.000,0.000,0.000
489997.376,55.664,43.457,23.438,-2.930,39.551,0.000,0.000,0.000
489997.380,63.477,41.504,35.645,-0.488,46.387,0.000,0.000,0.000
489997.384,45.898,29.785,38.086,-4.883,48.828,0.000,0.000,0.000
489997.388,24.414,34.668,35.156,-11.230,46.875,0.000,0.000,0.000
489997.392,34.180,46.875,36.621,-8.789,46.875,0.000,0.000,0.000
489997.396,58.105,42.480,31.738,-5.371,83.008,0.000,0.000,0.000
489997.400,46.875,31.250,25.879,-11.230,139.160,0.000,0.000,0.000
489997.403,25.391,23.438,20.996,-19.531,82.031,0.000,0.000,0.000
489997.407,33.203,43.457,20.020,-13.184,-27.344,0.000,0.000,0.000
489997.411,53.711,48.340,21.973,-4.395,-34.180,0.000,0.000,0.000
489997.415,44.922,35.645,17.578,-17.578,-22.949,0.000,0.000,0.000
489997.419,25.879,37.598,22.949,-18.555,-0.488,0.000,0.000,0.000
489997.423,22.949,40.039,27.344,-8.789,32.227,0.000,0.000,0.000
489997.427,40.039,36.621,29.297,-4.395,-2.930,0.000,0.000,0.000
489997.431,54.199,32.227,30.762,-6.836,-17.578,0.000,0.000,0.000
489997.435,35.156,37.598,31.250,-12.207,6.348,0.000,0.000,0.000
489997.439,22.949,38.574,33.691,-8.789,16.602,0.000,0.000,0.000
489997.443,52.734,32.715,33.691,-5.371,28.809,0.000,0.000,0.000
489997.446,65.430,34.668,31.250,-1.465,33.203,0.000,0.000,0.000
489997.450,39.551,29.785,34.668,-9.766,28.809,0.000,0.000,0.000
489997.454,21.484,20.996,39.062,-11.719,35.156,0.000,0.000,0.000
489997.458,37.109,22.949,37.109,-1.953,42.969,0.000,0.000,0.000
489997.462,54.688,30.273,39.062,0.977,42.480,0.000,0.000,0.000
489997.466,40.527,32.715,40.039,-7.812,39.551,0.000,0.000,0.000
489997.470,23.926,27.344,37.598,-13.184,38.086,0.000,0.000,0.000
489997.474,31.250,17.578,36.621,-4.883,37.598,0.000,0.000,0.000
489997.478,58.105,24.902,35.156,-0.977,47.852,0.000,0.000,0.000
489997.482,52.734,36.621,33.203,-0.488,77.148,0.000,0.000,0.000
489997.485,13.672,27.344,28.320,-6.836,82.520,0.000,0.000,0.000
489997.489,14.160,25.879,26.855,-6.348,48.340,0.000,0.000,0.000
489997.493,48.340,36.133,30.762,-3.906,5.371,0.000,0.000,0.000
489997.497,48.340,45.410,34.180,-14.648,10.742,0.000,0.000,0.000
489997.501,31.738,36.133,33.203,-21.484,45.898,0.000,0.000,0.000
489997.505,31.738,26.367,30.273,-23.926,52.734,0.000,0.000,0.000
489997.509,44.434,35.645,29.297,-21.484,50.293,0.000,0.000,0.000
489997.513,56.641,42.480,30.273,-18.555,27.344,0.000,0.000,0.000
489997.517,41.992,28.320,30.762,-20.020,6.836,0.000,0.000,0.000
489997.521,28.320,15.137,26.855,-18.066,7.324,0.000,0.000,0.000
489997.525,43.945,28.320,26.855,-17.578,6.836,0.000,0.000,0.000
489997.528,58.105,37.598,32.227,-19.531,15.137,0.000,0.000,0.000
489997.532,48.340,25.879,33.203,-26.367,42.480,0.000,0.000,0.000
489997.536,29.785,15.625,33.691,-23.926,54.199,0.000,0.000,0.000
489997.540,29.785,31.250,28.320,-28.809,31.738,0.000,0.000,0.000
489997.544,51.270,42.969,20.020,-30.762,12.207,0.000,0.000,0.000
489997.548,48.828,35.645,29.785,-26.367,17.578,0.000,0.000,0.000
489997.552,26.855,27.832,34.668,-30.762,23.438,0.000,0.000,0.000
489997.556,33.203,28.809,33.203,-24.902,35.156,0.000,0.000,0.000
489997.560,59.082,32.227,30.762,-12.695,47.363,0.000,0.000,0.000
489997.564,59.570,28.809,29.785,-28.809,49.316,0.000,0.000,0.000
489997.568,39.551,16.113,32.715,-40.039,48.340,0.000,0.000,0.000
489997.571,22.461,15.625,32.227,-39.551,32.227,0.000,0.000,0.000
489997.575,35.645,25.391,27.832,-53.711,7.812,0.000,0.000,0.000
489997.579,58.105,22.461,24.414,-50.293,13.672,0.000,0.000,0.000
489997.583,54.199,22.949,24.902,-45.410,31.250,0.000,0.000,0.000
489997.587,38.574,28.320,27.832,-46.875,51.758,0.000,0.000,0.000
489997.591,51.270,24.902,28.809,-45.410,62.500,0.000,0.000,0.000
489997.595,75.195,28.320,27.832,-31.250,47.363,0.000,0.000,0.000
489997.599,66.895,29.297,29.785,-22.949,49.805,0.000,0.000,0.000
489997.603,41.504,27.344,31.738,-24.414,45.898,0.000,0.000,0.000
489997.607,32.715,21.973,35.156,-35.645,55.176,0.000,0.000,0.000
489997.610,57.617,20.020,34.668,-29.297,70.312,0.000,0.000,0.000
489997.614,67.871,25.391,32.715,-15.625,35.645,0.000,0.000,0.000
489997.618,22.461,25.879,30.762,-39.062,9.277,0.000,0.000,0.000
489997.622,-5.859,23.438,28.320,-66.895,5.371,0.000,0.000,0.000
489997.626,16.113,23.926,25.879,-69.336,-1.465,0.000,0.000,0.000
489997.630,44.922,41.016,22.461,-69.336,-4.395,0.000,0.000,0.000
489997.634,24.902,39.062,24.414,-84.473,-1.465,0.000,0.000,0.000
489997.638,-2.441,24.414,20.996,-90.332,2.441,0.000,0.000,0.000
489997.642,30.762,38.574,20.020,-87.402,2.930,0.000,0.000,0.000
489997.646,46.387,55.176,18.066,-82.031,-11.230,0.000,0.000,0.000
489997.650,19.043,45.898,14.160,-75.684,-11.230,0.000,0.000,0.000
489997.653,3.906,39.551,17.090,-70.801,-4.395,0.000,0.000,0.000
489997.657,15.137,41.504,16.113,-72.266,-5.859,0.000,0.000,0.000
489997.661,43.945,40.527,13.184,-68.848,-4.395,0.000,0.000,0.000
489997.665,59.082,43.457,17.090,-58.594,-2.930,0.000,0.000,0.000
489997.669,32.227,39.551,21.484,-51.758,14.160,0.000,0.000,0.000
489997.673,37.109,35.156,19.531,-51.270,25.879,0.000,0.000,0.000
489997.677,47.852,43.945,20.020,-62.012,32.715,0.000,0.000,0.000
489997.681,16.602,45.898,21.973,-53.223,44.922,0.000,0.000,0.000
489997.685,-12.695,34.180,20.020,-39.062,72.754,0.000,0.000,0.000
489997.689,-2.441,33.203,20.996,-39.062,73.730,0.000,0.000,0.000
489997.693,31.738,40.039,26.367,-17.090,21.973,0.000,0.000,0.000
489997.696,30.762,35.645,29.785,-15.625,13.672,0.000,0.000,0.000
489997.700,2.930,36.621,26.367,-42.969,37.598,0.000,0.000,0.000
489997.704,0.977,40.527,22.461,-47.852,60.059,0.000,0.000,0.000
489997.708,27.832,39.062,22.461,-27.832,74.707,0.000,0.000,0.000
489997.712,37.598,36.621,24.414,-25.391,51.270,0.000,0.000,0.000
489997.716,33.691,38.086,27.832,-41.016,15.625,0.000,0.000,0.000
489997.720,31.250,49.316,25.879,-49.805,-12.207,0.000,0.000,0.000
489997.724,29.785,41.016,26.367,-41.992,-23.926,0.000,0.000,0.000
489997.728,42.480,38.086,27.832,-27.832,-9.277,0.000,0.000,0.000
489997.732,48.828,52.734,27.832,-41.016,8.301,0.000,0.000,0.000
489997.735,30.273,50.293,23.438,-48.340,31.738,0.000,0.000,0.000
489997.739,29.297,47.363,28.809,-45.410,62.988,0.000,0.000,0.000
489997.743,49.805,60.547,31.738,-44.434,37.598,0.000,0.000,0.000
489997.747,50.781,50.293,30.762,-38.086,1.465,0.000,0.000,0.000
489997.751,28.809,26.367,35.645,-31.738,10.254,0.000,0.000,0.000
489997.755,15.137,34.668,35.645,-27.832,23.438,0.000,0.000,0.000
489997.759,33.691,34.180,34.180,-29.785,37.109,0.000,0.000,0.000
489997.763,44.434,34.668,29.297,-27.344,16.113,0.000,0.000,0.000
489997.767,30.762,39.062,25.391,-28.809,13.184,0.000,0.000,0.000
489997.771,16.602,27.832,23.438,-26.855,41.992,0.000,0.000,0.000
489997.775,26.367,24.414,19.531,-26.367,46.387,0.000,0.000,0.000
489997.778,61.035,37.109,15.137,-26.855,43.457,0.000,0.000,0.000
489997.782,49.805,39.062,21.973,-26.367,34.668,0.000,0.000,0.000
489997.786,19.043,27.832,23.926,-27.344,26.367,0.000,0.000,0.000
489997.790,19.531,26.855,17.578,-21.973,17.090,0.000,0.000,0.000
489997.794,49.805,40.039,19.531,-28.320,-10.254,0.000,0.000,0.000
489997.798,58.594,37.109,24.414,-38.086,-8.789,0.000,0.000,0.000
489997.802,31.738,15.625,27.344,-33.691,23.438,0.000,0.000,0.000
489997.806,27.832,20.508,18.066,-33.691,17.090,0.000,0.000,0.000
489997.810,46.387,37.598,11.230,-32.715,-10.742,0.000,0.000,0.000
489997.814,37.109,32.715,20.508,-22.461,1.953,0.000,0.000,0.000
489997.817,37.598,23.926,23.926,-19.531,24.414,0.000,0.000,0.000
489997.821,46.875,16.113,21.973,-24.902,38.574,0.000,0.000,0.000
489997.825,52.734,32.715,25.879,-20.996,41.016,0.000,0.000,0.000
489997.829,67.871,39.062,28.320,-7.812,36.621,0.000,0.000,0.000
489997.833,48.340,23.926,29.297,0.488,41.992,0.000,0.000,0.000
489997.837,35.156,23.926,25.879,-9.277,43.945,0.000,0.000,0.000
489997.841,54.688,37.598,22.949,-20.996,14.160,0.000,0.000,0.000
489997.845,67.383,34.180,28.320,-8.301,30.762,0.000,0.000,0.000
489997.849,51.270,20.996,28.809,0.488,45.898,0.000,0.000,0.000
489997.853,26.367,31.250,21.484,-2.441,9.766,0.000,0.000,0.000
489997.857,42.969,42.969,21.973,-2.441,22.949,0.000,0.000,0.000
489997.860,45.410,40.039,24.902,-11.230,17.578,0.000,0.000,0.000
489997.864,28.320,43.945,22.949,-18.066,-2.441,0.000,0.000,0.000
489997.868,19.531,39.551,24.902,-19.531,12.207,0.000,0.000,0.000
489997.872,20.020,33.203,26.855,-7.812,39.551,0.000,0.000,0.000
489997.876,65.430,38.574,29.785,3.906,21.973,0.000,0.000,0.000
489997.880,68.359,43.457,32.227,7.812,-10.254,0.000,0.000,0.000
489997.884,30.762,39.062,32.227,7.324,3.418,0.000,0.000,0.000
489997.888,30.273,33.203,34.668,2.441,18.555,0.000,0.000,0.000
489997.892,60.059,41.992,34.180,0.977,30.762,0.000,0.000,0.000
489997.896,80.566,40.527,33.691,6.348,49.805,0.000,0.000,0.000
489997.900,64.941,25.391,36.621,9.766,52.734,0.000,0.000,0.000
489997.903,16.602,18.066,35.156,-1.465,33.691,0.000,0.000,0.000
489997.907,33.203,22.949,32.227,4.883,40.527,0.000,0.000,0.000
489997.911,71.777,23.438,33.691,15.137,65.430,0.000,0.000,0.000
489997.915,47.852,20.020,35.645,8.789,56.152,0.000,0.000,0.000
489997.919,15.137,16.113,32.227,-4.395,41.016,0.000,0.000,0.000
489997.923,21.484,15.625,27.344,-2.441,51.270,0.000,0.000,0.000
489997.927,41.016,19.043,33.691,11.719,22.949,0.000,0.000,0.000
489997.931,44.922,21.973,40.527,2.930,34.668,0.000,0.000,0.000
489997.935,35.156,16.602,40.527,-9.766,31.250,0.000,0.000,0.000
489997.939,15.625,7.324,39.551,-9.766,-18.066,0.000,0.000,0.000
489997.942,31.738,11.230,39.062,-6.836,-12.695,0.000,0.000,0.000
489997.946,49.805,12.207,40.039,1.465,4.395,0.000,0.000,0.000
489997.950,28.809,13.672,35.156,-3.418,14.648,0.000,0.000,0.000
489997.954,-7.324,5.859,32.227,-8.301,37.109,0.000,0.000,0.000
489997.958,21.484,19.531,36.621,0.000,70.801,0.000,0.000,0.000
489997.962,73.242,32.227,38.574,-1.465,43.457,0.000,0.000,0.000
489997.966,55.176,15.137,35.156,1.465,7.812,0.000,0.000,0.000
489997.970,31.250,8.301,35.156,-0.488,30.762,0.000,0.000,0.000
489997.974,35.645,13.672,39.551,-8.301,50.781,0.000,0.000,0.000
489997.978,60.059,19.043,42.480,-3.906,46.875,0.000,0.000,0.000
489997.982,49.805,12.207,41.016,-1.465,34.180,0.000,0.000,0.000
489997.985,16.602,7.812,37.109,-0.977,32.715,0.000,0.000,0.000
489997.989,32.715,8.789,35.156,-2.930,35.156,0.000,0.000,0.000
489997.993,69.336,16.113,32.715,-1.465,42.480,0.000,0.000,0.000
489997.997,68.359,22.949,31.738,5.859,47.363,0.000,0.000,0.000
489998.001,39.551,10.254,33.691,1.953,59.082,0.000,0.000,0.000
489998.005,37.598,19.043,32.227,-7.324,49.316,0.000,0.000,0.000
489998.009,58.105,29.297,36.133,-3.418,32.715,0.000,0.000,0.000
489998.013,57.617,25.879,34.180,-3.418,62.500,0.000,0.000,0.000
489998.017,33.203,18.555,29.785,-4.883,50.781,0.000,0.000,0.000
489998.021,18.555,18.066,32.227,-10.742,6.836,0.000,0.000,0.000
489998.025,30.273,20.020,34.668,-2.441,-1.465,0.000,0.000,0.000
489998.028,65.918,22.949,40.527,23.926,36.621,0.000,0.000,0.000
489998.032,53.711,22.949,39.062,4.883,47.852,0.000,0.000,0.000
489998.036,17.578,15.625,39.551,-12.695,29.297,0.000,0.000,0.000
489998.040,27.344,26.367,37.109,-4.883,22.949,0.000,0.000,0.000
489998.044,31.250,27.832,33.203,-3.906,20.020,0.000,0.000,0.000
489998.048,23.926,20.508,33.691,-13.184,14.648,0.000,0.000,0.000
489998.052,9.277,31.250,30.273,-28.320,8.301,0.000,0.000,0.000
489998.056,27.344,27.344,28.320,-17.578,24.414,0.000,0.000,0.000
489998.060,46.875,23.926,33.691,-6.348,37.109,0.000,0.000,0.000
489998.064,34.180,33.691,33.691,-12.695,30.273,0.000,0.000,0.000
489998.067,41.016,28.809,36.133,-11.719,27.344,0.000,0.000,0.000
489998.071,40.527,8.301,40.039,-13.672,20.996,0.000,0.000,0.000
489998.075,61.035,14.160,36.621,-12.207,35.645,0.000,0.000,0.000
489998.079,67.871,28.809,30.762,1.465,36.621,0.000,0.000,0.000
489998.083,45.410,30.762,31.250,0.488,16.113,0.000,0.000,0.000
489998.087,35.645,17.578,33.203,-11.719,40.039,0.000,0.000,0.000
489998.091,43.945,17.090,35.156,-13.184,46.387,0.000,0.000,0.000
489998.095,51.270,37.598,33.203,-8.789,14.160,0.000,0.000,0.000
489998.099,49.805,37.598,30.762,-8.301,16.602,0.000,0.000,0.000
489998.103,20.996,27.344,31.738,-14.648,28.320,0.000,0.000,0.000
489998.107,25.879,36.621,25.391,-15.625,20.508,0.000,0.000,0.000
489998.110,24.902,44.922,20.020,-4.395,6.836,0.000,0.000,0.000
489998.114,20.508,35.156,23.926,-18.066,3.906,0.000,0.000,0.000
489998.118,26.855,25.391,25.879,-38.574,16.602,0.000,0.000,0.000
489998.122,26.855,26.367,27.344,-27.344,32.227,0.000,0.000,0.000
489998.126,61.523,34.668,22.461,-17.090,34.180,0.000,0.000,0.000
489998.130,73.730,25.879,20.020,-6.348,35.156,0.000,0.000,0.000
489998.134,46.875,9.766,27.832,-10.742,35.645,0.000,0.000,0.000
489998.138,29.297,14.648,27.832,-26.367,17.090,0.000,0.000,0.000
489998.142,30.273,28.320,25.391,-20.996,4.883,0.000,0.000,0.000
489998.146,51.758,30.273,25.879,-3.906,27.832,0.000,0.000,0.000
489998.150,49.805,22.461,25.391,-4.395,66.406,0.000,0.000,0.000
489998.153,27.344,20.508,22.949,-12.695,73.242,0.000,0.000,0.000
489998.157,24.414,20.996,26.367,-7.324,43.945,0.000,0.000,0.000
489998.161,47.852,28.320,28.809,9.277,46.875,0.000,0.000,0.000
489998.165,66.406,25.879,32.227,16.113,45.898,0.000,0.000,0.000
489998.169,54.688,12.695,37.598,10.254,30.273,0.000,0.000,0.000
489998.173,62.500,8.301,35.645,19.043,42.480,0.000,0.000,0.000
489998.177,82.520,11.719,35.156,20.020,43.945,0.000,0.000,0.000
489998.181,61.035,15.625,39.551,12.695,59.570,0.000,0.000,0.000
489998.185,29.785,23.926,42.480,9.766,71.777,0.000,0.000,0.000
489998.189,32.227,27.344,42.480,10.742,59.082,0.000,0.000,0.000
489998.192,40.527,17.578,41.992,21.973,53.223,0.000,0.000,0.000
489998.196,58.105,20.996,37.598,19.531,44.922,0.000,0.000,0.000
489998.200,56.641,20.020,36.621,18.066,20.508,0.000,0.000,0.000
489998.204,37.109,13.184,32.715,21.484,10.742,0.000,0.000,0.000
489998.208,51.270,21.484,28.320,17.578,19.043,0.000,0.000,0.000
489998.212,67.383,26.367,32.227,20.508,26.367,0.000,0.000,0.000
489998.216,47.852,19.043,39.551,20.020,41.992,0.000,0.000,0.000
489998.220,25.391,21.484,37.109,14.648,50.293,0.000,0.000,0.000
489998.224,51.270,20.020,30.273,13.184,42.969,0.000,0.000,0.000
489998.228,88.867,22.949,28.809,3.418,47.852,0.000,0.000,0.000
489998.232,67.871,34.668,26.855,2.441,63.477,0.000,0.000,0.000
489998.235,35.645,29.297,26.855,0.977,55.664,0.000,0.000,0.000
489998.239,31.738,28.809,28.320,-3.906,32.227,2.000,1.000,45.000
489998.243,38.086,31.738,26.367,6.348,26.855,0.000,0.000,0.000
489998.247,22.949,33.691,27.832,6.348,26.367,0.000,0.000,0.000
489998.251,8.301,40.527,30.762,-6.836,21.973,0.000,0.000,0.000
489998.255,39.062,41.504,30.762,-7.812,24.902,0.000,0.000,0.000
489998.259,48.828,36.621,28.320,-2.441,31.738,0.000,0.000,0.000
489998.263,63.965,39.062,26.855,0.977,42.480,0.000,0.000,0.000
489998.267,56.152,35.645,31.738,8.789,50.781,0.000,0.000,0.000
489998.271,22.949,31.250,28.320,-6.836,34.668,0.000,0.000,0.000
489998.275,47.363,37.109,24.902,-17.578,24.414,0.000,0.000,0.000
489998.278,59.082,44.922,25.391,-8.789,65.918,0.000,0.000,0.000
489998.282,38.086,39.062,23.438,-2.930,54.199,0.000,0.000,0.000
489998.286,26.367,30.762,21.484,7.812,-9.277,0.000,0.000,0.000
489998.290,42.480,47.363,24.902,10.742,-5.371,0.000,0.000,0.000
489998.294,69.336,64.453,30.762,-3.418,40.039,0.000,0.000,0.000
489998.298,58.105,53.711,29.785,2.441,48.828,0.000,0.000,0.000
489998.302,49.316,44.434,25.391,1.465,20.996,0.000,0.000,0.000
489998.306,55.176,46.387,20.020,-7.324,20.020,0.000,0.000,0.000
489998.310,66.895,49.316,26.855,0.000,26.367,0.000,0.000,0.000
489998.314,64.941,46.387,31.738,4.883,20.996,0.000,0.000,0.000
489998.317,43.457,35.156,27.344,-4.395,21.973,0.000,0.000,0.000
489998.321,21.484,38.574,24.902,-15.625,15.137,0.000,0.000,0.000
489998.325,40.527,45.410,22.949,-12.695,10.742,0.000,0.000,0.000
489998.329,80.566,37.109,22.949,-4.395,31.738,0.000,0.000,0.000
489998.333,50.781,37.109,25.879,7.324,40.527,0.000,0.000,0.000
489998.337,11.230,33.691,30.762,0.488,32.715,0.000,0.000,0.000
489998.341,19.531,27.344,29.297,-1.953,39.551,0.000,0.000,0.000
489998.345,39.551,29.785,25.391,14.648,38.086,0.000,0.000,0.000
489998.349,25.391,32.715,26.367,8.789,33.203,0.000,0.000,0.000
489998.353,1.465,29.297,27.832,-4.395,49.316,0.000,0.000,0.000
489998.357,3.418,18.555,31.738,0.000,52.246,0.000,0.000,0.000
489998.360,25.391,14.160,31.738,3.418,39.551,0.000,0.000,0.000
489998.364,21.484,10.742,28.809,3.906,38.574,0.000,0.000,0.000
489998.368,-1.953,14.160,21.973,-7.324,47.852,0.000,0.000,0.000
489998.372,13.184,19.531,21.484,-4.395,71.777,0.000,0.000,0.000
489998.376,29.785,14.648,23.926,-14.648,33.203,0.000,0.000,0.000
489998.380,21.484,26.367,18.066,-23.926,6.836,0.000,0.000,0.000
489998.384,0.000,31.738,15.137,-18.066,12.207,0.000,0.000,0.000
489998.388,-5.859,26.855,12.695,-29.785,-24.414,0.000,0.000,0.000
489998.392,23.926,35.156,10.742,-32.715,-44.922,0.000,0.000,0.000
489998.396,25.391,39.062,8.301,-44.434,-52.734,0.000,0.000,0.000
489998.400,1.953,33.203,7.812,-48.340,-62.012,0.000,0.000,0.000
489998.403,-18.555,32.715,7.812,-51.270,-72.754,0.000,0.000,0.000
489998.407,-25.879,36.621,4.395,-57.617,-50.781,0.000,0.000,0.000
489998.411,-4.883,35.645,6.836,-44.434,-24.414,0.000,0.000,0.000
489998.415,1.465,30.762,6.836,-32.715,-1.465,0.000,0.000,0.000
489998.419,-13.184,23.438,3.418,-43.945,20.020,0.000,0.000,0.000
489998.423,-0.488,30.762,9.766,-42.969,8.301,0.000,0.000,0.000
489998.427,22.949,47.852,16.602,-25.879,-11.719,0.000,0.000,0.000
489998.431,28.809,43.457,14.160,-21.973,0.977,0.000,0.000,0.000
489998.435,8.301,27.832,14.160,-23.438,35.645,0.000,0.000,0.000
489998.439,-0.977,25.391,22.461,-19.531,52.246,0.000,0.000,0.000
489998.442,27.832,34.180,24.902,-11.719,33.203,0.000,0.000,0.000
489998.446,39.062,41.016,21.484,-8.301,21.973,0.000,0.000,0.000
489998.450,28.809,36.133,20.996,-15.137,29.297,0.000,0.000,0.000
489998.454,16.113,34.180,20.508,-23.438,36.133,0.000,0.000,0.000
489998.458,24.902,37.598,20.020,-19.531,21.484,0.000,0.000,0.000
489998.462,53.711,47.852,19.531,-16.602,3.906,0.000,0.000,0.000
489998.466,51.270,45.898,18.066,-21.484,23.926,0.000,0.000,0.000
489998.470,17.578,44.434,19.531,-26.367,30.762,0.000,0.000,0.000
489998.474,6.836,48.828,25.391,-18.066,30.762,0.000,0.000,0.000
489998.478,34.668,49.316,28.320,-10.742,33.691,0.000,0.000,0.000
489998.482,46.875,48.828,27.832,-6.348,4.395,0.000,0.000,0.000
489998.485,22.949,50.781,24.902,-3.906,-4.395,0.000,0.000,0.000
489998.489,15.137,47.852,24.902,-13.672,-11.230,0.000,0.000,0.000
489998.493,36.621,43.945,23.438,-12.695,-20.508,0.000,0.000,0.000
489998.497,37.109,50.781,17.090,-9.766,-7.812,0.000,0.000,0.000
489998.501,14.160,44.922,22.461,-13.184,24.414,0.000,0.000,0.000
489998.505,8.301,41.016,24.902,-11.719,60.059,0.000,0.000,0.000
489998.509,37.598,38.574,22.949,-7.812,31.738,0.000,0.000,0.000
489998.513,58.105,44.922,27.832,0.000,5.859,0.000,0.000,0.000
489998.517,49.805,54.688,27.344,-4.395,35.156,0.000,0.000,0.000
489998.521,19.531,42.969,29.297,-4.395,67.383,0.000,0.000,0.000
489998.524,31.738,41.016,33.691,4.883,53.223,0.000,0.000,0.000
489998.528,78.125,52.246,28.809,6.348,17.578,0.000,0.000,0.000
489998.532,59.082,47.852,22.949,-0.977,18.555,0.000,0.000,0.000
489998.536,16.113,36.133,26.855,-4.883,50.781,0.000,0.000,0.000
489998.540,30.273,32.227,32.227,2.930,41.992,0.000,0.000,0.000
489998.544,59.570,46.387,24.902,1.953,8.301,0.000,0.000,0.000
489998.548,57.617,46.387,22.949,-8.301,2.441,0.000,0.000,0.000
489998.552,28.809,28.809,33.203,-3.906,13.672,0.000,0.000,0.000
489998.556,15.137,20.996,35.156,3.418,42.480,0.000,0.000,0.000
489998.560,49.805,34.180,30.762,4.395,31.250,0.000,0.000,0.000
489998.564,62.988,43.945,30.762,13.672,0.488,0.000,0.000,0.000
489998.567,39.062,33.203,32.715,11.230,12.207,0.000,0.000,0.000
489998.571,28.809,31.250,29.785,6.348,20.020,0.000,0.000,0.000
489998.575,48.340,40.527,24.414,11.719,19.043,0.000,0.000,0.000
489998.579,65.430,41.016,27.832,15.137,33.203,0.000,0.000,0.000
489998.583,43.945,37.598,33.691,15.137,41.504,0.000,0.000,0.000
489998.587,24.902,39.551,31.738,16.113,37.598,0.000,0.000,0.000
489998.591,46.875,38.086,30.762,25.879,59.082,0.000,0.000,0.000
489998.595,69.824,40.527,32.227,21.484,50.781,0.000,0.000,0.000
489998.599,62.500,29.785,35.156,11.719,11.230,0.000,0.000,0.000
489998.603,40.527,24.902,37.109,11.230,23.926,0.000,0.000,0.000
489998.607,43.457,37.598,35.645,15.625,32.227,0.000,0.000,0.000
489998.610,58.594,44.922,33.691,20.020,16.602,0.000,0.000,0.000
489998.614,54.199,41.992,30.273,16.602,25.879,0.000,0.000,0.000
489998.618,35.156,32.227,33.691,12.695,41.504,0.000,0.000,0.000
489998.622,27.344,34.668,30.762,9.766,44.434,0.000,0.000,0.000
489998.626,59.570,41.504,19.531,7.324,48.340,0.000,0.000,0.000
489998.630,73.242,38.574,23.926,15.625,42.480,0.000,0.000,0.000
489998.634,41.992,33.203,34.180,24.414,36.621,0.000,0.000,0.000
489998.638,35.645,31.250,40.527,11.230,43.457,0.000,0.000,0.000
489998.642,52.246,30.762,37.598,6.836,47.852,0.000,0.000,0.000
489998.646,63.477,29.785,33.203,12.207,45.898,0.000,0.000,0.000
489998.649,47.363,27.832,30.273,6.836,34.668,4.000,1.000,45.000
489998.653,24.414,30.762,31.738,7.812,23.438,0.000,0.000,0.000
489998.657,32.715,24.902,32.715,13.672,20.508,0.000,0.000,0.000
489998.661,55.176,22.461,29.297,13.184,20.508,0.000,0.000,0.000
489998.665,45.898,31.250,29.785,14.160,27.344,0.000,0.000,0.000
489998.669,20.020,28.809,31.250,11.719,39.551,0.000,0.000,0.000
489998.673,20.508,22.461,31.250,6.836,34.668,0.000,0.000,0.000
489998.677,47.363,28.809,28.320,12.207,31.738,0.000,0.000,0.000
489998.681,53.223,37.598,23.438,12.207,37.109,0.000,0.000,0.000
489998.685,25.391,38.086,27.344,4.883,12.695,0.000,0.000,0.000
489998.689,15.625,26.367,29.297,6.348,6.348,0.000,0.000,0.000
489998.692,39.551,29.785,31.738,10.254,24.902,0.000,0.000,0.000
489998.696,61.523,41.016,33.691,16.113,27.832,0.000,0.000,0.000
489998.700,35.156,32.715,33.691,12.695,48.340,0.000,0.000,0.000
489998.704,11.719,17.090,31.250,3.418,61.523,0.000,0.000,0.000
489998.708,32.715,21.484,27.832,5.371,35.156,0.000,0.000,0.000
489998.712,41.504,40.039,31.250,11.719,45.410,0.000,0.000,0.000
489998.716,38.086,34.180,28.809,16.602,49.316,0.000,0.000,0.000
489998.720,16.113,27.832,22.461,3.418,10.254,0.000,0.000,0.000
489998.724,27.832,34.180,26.367,-3.906,20.508,0.000,0.000,0.000
489998.728,55.664,38.574,29.785,12.695,35.645,0.000,0.000,0.000
489998.732,50.293,35.645,22.949,10.742,24.902,0.000,0.000,0.000
489998.735,31.738,28.320,23.926,3.906,22.949,0.000,0.000,0.000
489998.739,29.297,30.273,30.273,4.395,18.066,0.000,0.000,0.000
489998.743,46.875,42.969,30.762,4.883,20.996,0.000,0.000,0.000
489998.747,48.340,46.875,29.297,20.996,37.598,0.000,0.000,0.000
489998.751,35.645,36.621,31.738,24.414,42.969,0.000,0.000,0.000
489998.755,27.832,35.156,32.227,9.277,32.227,0.000,0.000,0.000
489998.759,36.621,40.527,29.297,6.348,20.020,0.000,0.000,0.000
489998.763,57.129,32.227,29.785,12.695,34.180,0.000,0.000,0.000
489998.767,47.363,21.484,35.645,12.207,42.969,0.000,0.000,0.000
489998.771,21.973,33.203,32.715,8.301,5.859,0.000,0.000,0.000
489998.774,31.738,41.992,27.832,14.160,-1.465,0.000,0.000,0.000
489998.778,54.199,38.574,34.668,18.066,23.438,0.000,0.000,0.000
489998.782,43.945,34.180,37.598,13.184,26.855,0.000,0.000,0.000
489998.786,25.391,28.809,34.180,12.207,25.879,0.000,0.000,0.000
489998.790,35.645,29.785,32.715,13.672,33.691,0.000,0.000,0.000
489998.794,52.246,32.715,30.273,15.137,38.086,0.000,0.000,0.000
489998.798,56.641,28.320,30.273,18.066,41.016,0.000,0.000,0.000
489998.802,38.574,30.273,30.762,10.254,51.758,0.000,0.000,0.000
489998.806,27.344,30.273,28.809,4.395,30.762,0.000,0.000,0.000
489998.810,41.992,32.715,31.738,12.207,6.836,0.000,0.000,0.000
489998.814,47.852,39.551,33.203,20.508,5.371,0.000,0.000,0.000
489998.817,33.691,34.180,30.762,7.812,-2.930,0.000,0.000,0.000
489998.821,24.902,26.855,27.832,-5.371,3.906,0.000,0.000,0.000
489998.825,39.062,34.180,24.414,9.277,12.207,0.000,0.000,0.000
489998.829,52.246,41.016,25.391,14.648,46.387,0.000,0.000,0.000
489998.833,41.992,34.180,25.391,-2.441,67.383,0.000,0.000,0.000
489998.837,27.832,17.578,26.367,-5.859,23.926,0.000,0.000,0.000
489998.841,38.086,13.672,32.227,2.441,11.719,0.000,0.000,0.000
489998.845,61.523,34.668,31.738,4.395,15.625,0.000,0.000,0.000
489998.849,54.199,40.039,30.273,12.695,9.277,0.000,0.000,0.000
489998.853,37.109,21.973,34.180,20.996,23.438,0.000,0.000,0.000
489998.857,29.785,29.785,31.250,12.695,35.645,0.000,0.000,0.000
489998.860,54.199,35.645,30.762,10.254,43.945,0.000,0.000,0.000
489998.864,68.359,30.762,34.668,18.555,48.828,0.000,0.000,0.000
489998.868,41.992,31.250,27.832,19.531,38.574,0.000,0.000,0.000
489998.872,36.621,37.109,22.949,9.766,23.438,0.000,0.000,0.000
489998.876,43.945,44.922,23.438,9.766,25.879,0.000,0.000,0.000
489998.880,52.246,36.621,25.879,15.625,35.156,0.000,0.000,0.000
489998.884,50.781,22.461,28.320,14.648,27.344,0.000,0.000,0.000
489998.888,41.992,22.461,26.367,16.602,25.879,0.000,0.000,0.000
489998.892,46.875,38.086,27.832,7.812,59.570,0.000,0.000,0.000
489998.896,64.453,42.480,30.762,9.766,54.199,0.000,0.000,0.000
489998.899,57.129,44.434,27.832,12.695,6.348,0.000,0.000,0.000
489998.903,43.945,37.598,26.367,5.859,9.277,0.000,0.000,0.000
489998.907,44.922,32.227,26.855,5.371,23.926,0.000,0.000,0.000
489998.911,61.523,39.062,27.832,8.301,23.438,0.000,0.000,0.000
489998.915,54.688,34.668,32.227,2.930,25.879,0.000,0.000,0.000
489998.919,20.996,20.508,28.809,3.906,50.781,0.000,0.000,0.000
489998.923,14.648,15.137,24.902,7.812,56.641,0.000,0.000,0.000
489998.927,47.852,22.949,28.809,8.301,39.062,0.000,0.000,0.000
489998.931,62.988,23.438,32.715,1.465,81.543,0.000,0.000,0.000
489998.935,30.273,21.973,31.738,-9.766,58.105,0.000,0.000,0.000
489998.939,24.414,21.484,30.273,-9.277,-22.461,0.000,0.000,0.000
489998.942,47.852,23.926,28.809,-8.789,-17.090,0.000,0.000,0.000
489998.946,60.059,28.809,25.879,-4.883,-5.859,0.000,0.000,0.000
489998.950,37.109,22.949,27.832,-3.418,15.625,0.000,0.000,0.000
489998.954,21.973,18.066,25.391,-2.930,50.781,0.000,0.000,0.000
489998.958,37.598,13.184,29.297,0.977,58.105,0.000,0.000,0.000
489998.962,52.246,16.602,30.273,-1.465,26.367,0.000,0.000,0.000
489998.966,42.480,23.438,24.414,-0.488,20.996,0.000,0.000,0.000
489998.970,30.273,13.672,28.320,4.395,54.199,0.000,0.000,0.000
489998.974,45.898,5.859,33.691,6.836,48.340,0.000,0.000,0.000
489998.978,64.453,17.578,35.645,9.766,41.016,0.000,0.000,0.000
489998.982,53.711,26.367,38.086,6.836,35.156,0.000,0.000,0.000
489998.985,19.043,18.066,37.598,-7.324,16.113,0.000,0.000,0.000
489998.989,18.066,10.254,36.133,-10.742,11.230,0.000,0.000,0.000
489998.993,49.316,20.508,34.668,-4.395,13.184,0.000,0.000,0.000
489998.997,54.688,28.809,33.203,-8.301,18.555,0.000,0.000,0.000
489999.001,26.855,15.625,34.668,-10.254,33.691,2.000,1.000,0.000
489999.005,14.160,9.766,35.645,1.953,42.969,0.000,0.000,0.000
489999.009,29.297,19.531,30.762,-9.277,26.367,0.000,0.000,0.000
489999.013,44.434,19.043,33.691,-23.438,19.531,0.000,0.000,0.000
489999.017,29.297,10.254,39.062,-12.207,37.598,0.000,0.000,0.000
489999.021,9.766,4.395,37.598,-5.859,45.410,0.000,0.000,0.000
489999.024,32.227,7.324,37.109,-3.418,54.688,0.000,0.000,0.000
489999.028,66.895,26.367,34.180,6.348,77.148,0.000,0.000,0.000
489999.032,46.387,27.344,32.227,8.301,56.641,0.000,0.000,0.000
489999.036,22.949,15.137,31.738,3.906,9.277,0.000,0.000,0.000
489999.040,29.785,15.625,30.273,2.441,-6.348,0.000,0.000,0.000
489999.044,40.039,26.855,36.621,8.301,8.789,0.000,0.000,0.000
489999.048,44.922,20.020,41.016,10.742,39.062,0.000,0.000,0.000
489999.052,16.602,8.789,40.527,1.465,53.711,0.000,0.000,0.000
489999.056,9.277,20.020,37.109,1.953,37.109,0.000,0.000,0.000
489999.060,40.527,28.320,32.227,-0.977,35.645,0.000,0.000,0.000
489999.064,46.387,30.273,30.273,-4.395,33.691,0.000,0.000,0.000
489999.067,25.391,20.996,32.227,2.930,40.527,0.000,0.000,0.000
489999.071,19.043,20.020,35.156,-9.277,47.852,0.000,0.000,0.000
489999.075,38.574,30.762,35.156,-5.859,33.203,0.000,0.000,0.000
489999.079,59.570,28.320,33.203,2.441,43.457,0.000,0.000,0.000
489999.083,35.645,25.879,33.203,-10.254,41.016,0.000,0.000,0.000
489999.087,10.742,33.203,29.297,-11.230,24.414,0.000,0.000,0.000
489999.091,31.738,37.598,27.344,-10.742,25.879,0.000,0.000,0.000
489999.095,52.734,40.039,31.250,-11.719,30.762,0.000,0.000,0.000
489999.099,39.062,39.551,27.344,-10.742,24.902,0.000,0.000,0.000
489999.103,8.789,35.645,21.484,-12.695,2.441,0.000,0.000,0.000
489999.106,10.254,31.250,22.949,-13.184,0.000,0.000,0.000,0.000
489999.110,36.133,40.039,30.762,-10.742,16.602,0.000,0.000,0.000
489999.114,39.062,40.527,35.156,-11.719,33.691,0.000,0.000,0.000
489999.118,16.602,39.551,30.762,-20.020,23.438,0.000,0.000,0.000
489999.122,7.812,35.156,27.832,-25.879,-1.465,0.000,0.000,0.000
489999.126,26.367,27.832,32.227,-21.484,-12.207,0.000,0.000,0.000
489999.130,36.621,45.898,37.109,-8.301,-16.113,0.000,0.000,0.000
489999.134,26.367,50.781,37.109,-3.418,-6.348,0.000,0.000,0.000
489999.138,15.137,38.086,35.645,-11.719,7.812,0.000,0.000,0.000
489999.142,21.484,39.551,32.715,-18.555,15.137,0.000,0.000,0.000
489999.146,37.109,49.805,30.273,-18.555,29.785,0.000,0.000,0.000
489999.149,25.879,42.480,31.250,-15.625,36.133,0.000,0.000,0.000
489999.153,-3.418,29.785,30.762,-17.090,48.340,0.000,0.000,0.000
489999.157,4.395,27.832,26.855,-13.184,54.199,0.000,0.000,0.000
489999.161,34.668,28.320,26.855,-6.348,19.531,0.000,0.000,0.000
489999.165,32.715,31.738,28.320,-1.465,22.949,0.000,0.000,0.000
489999.169,19.043,24.902,26.367,0.977,55.664,0.000,0.000,0.000
489999.173,19.531,22.949,17.578,-17.578,47.852,0.000,0.000,0.000
489999.177,36.621,41.504,23.438,-21.973,25.391,0.000,0.000,0.000
489999.181,47.852,36.133,34.180,-11.230,16.602,0.000,0.000,0.000
489999.185,26.367,24.414,30.762,-20.020,14.160,0.000,0.000,0.000
489999.189,11.230,26.855,26.855,-23.438,20.508,0.000,0.000,0.000
489999.192,23.926,33.203,25.879,-12.207,20.996,0.000,0.000,0.000
489999.196,42.480,33.691,25.391,-7.324,22.461,0.000,0.000,0.000
489999.200,34.668,29.785,26.367,-12.695,29.297,0.000,0.000,0.000
489999.204,13.672,28.809,30.762,-12.207,24.902,0.000,0.000,0.000
489999.208,26.367,27.344,31.250,-10.254,43.457,0.000,0.000,0.000
489999.212,49.316,21.973,29.785,-13.672,53.223,0.000,0.000,0.000
489999.216,32.715,12.207,27.832,-16.113,17.578,0.000,0.000,0.000
489999.220,12.695,21.973,28.809,-14.160,-11.230,0.000,0.000,0.000
489999.224,20.996,29.785,26.367,-10.742,-3.906,0.000,0.000,0.000
489999.228,54.199,24.414,22.949,-11.719,18.066,0.000,0.000,0.000
489999.231,58.594,21.973,25.879,-14.648,33.203,0.000,0.000,0.000
489999.235,31.250,21.973,28.320,-12.695,46.387,0.000,0.000,0.000
489999.239,28.809,27.832,32.227,-12.695,38.086,0.000,0.000,0.000
489999.243,45.898,32.227,34.668,-15.137,26.367,0.000,0.000,0.000
489999.247,56.152,41.016,31.738,-9.766,39.062,0.000,0.000,0.000
489999.251,36.133,43.457,33.691,-7.812,42.969,0.000,0.000,0.000
489999.255,8.789,33.203,36.621,-7.324,42.969,0.000,0.000,0.000
489999.259,20.020,30.762,31.738,-3.906,48.340,0.000,0.000,0.000
489999.263,40.039,34.180,29.785,-7.812,52.246,0.000,0.000,0.000
489999.267,20.020,39.551,30.762,-20.020,39.551,0.000,0.000,0.000
489999.271,0.488,26.855,26.855,-21.484,33.203,0.000,0.000,0.000
489999.274,9.766,20.996,27.344,-20.020,44.922,0.000,0.000,0.000
489999.278,27.344,41.992,34.668,-20.996,29.297,0.000,0.000,0.000
489999.282,29.785,48.828,34.180,-16.602,17.578,0.000,0.000,0.000
489999.286,10.254,31.738,36.133,-15.625,22.461,0.000,0.000,0.000
489999.290,4.395,33.203,38.574,-19.531,3.906,0.000,0.000,0.000
489999.294,30.273,49.316,34.668,-5.371,5.371,0.000,0.000,0.000
489999.298,45.410,45.410,32.715,-1.953,21.484,0.000,0.000,0.000
489999.302,22.461,33.691,33.203,-19.531,26.367,0.000,0.000,0.000
489999.306,8.789,33.203,31.738,-22.949,55.176,0.000,0.000,0.000
489999.310,32.715,48.340,27.344,-18.066,53.711,0.000,0.000,0.000
489999.314,39.551,51.758,25.879,-18.555,-5.371,0.000,0.000,0.000
489999.317,11.719,32.227,23.926,-26.855,0.977,0.000,0.000,0.000
489999.321,1.465,25.391,23.438,-31.250,23.926,0.000,0.000,0.000
489999.325,26.367,40.039,31.250,-24.902,5.859,0.000,0.000,0.000
489999.329,51.270,42.969,32.715,-14.648,19.043,0.000,0.000,0.000
489999.333,48.340,32.715,31.738,-10.254,79.102,0.000,0.000,0.000
489999.337,32.227,32.715,30.273,-15.625,56.641,0.000,0.000,0.000
489999.341,41.016,41.016,28.809,-11.719,-3.418,0.000,0.000,0.000
489999.345,66.406,47.852,31.738,-3.906,13.672,0.000,0.000,0.000
489999.349,56.641,39.062,33.203,-5.371,23.926,0.000,0.000,0.000
489999.353,21.484,33.691,29.297,-14.648,15.137,0.000,0.000,0.000
489999.356,19.531,45.410,27.344,-17.578,19.043,0.000,0.000,0.000
489999.360,55.664,54.199,30.762,-7.324,26.367,0.000,0.000,0.000
489999.364,62.988,53.223,28.809,-5.859,34.668,0.000,0.000,0.000
489999.368,29.297,44.922,30.273,-10.254,45.410,0.000,0.000,0.000
489999.372,13.184,41.016,33.203,6.836,45.410,0.000,0.000,0.000
489999.376,31.738,49.316,32.227,10.254,39.551,0.000,0.000,0.000
489999.380,47.852,53.223,31.250,-4.883,32.227,0.000,0.000,0.000
489999.384,36.133,44.434,33.691,-8.789,57.617,0.000,0.000,0.000
489999.388,10.742,33.691,36.621,-1.953,65.918,0.000,0.000,0.000
489999.392,20.996,32.227,38.574,9.277,51.758,4.000,1.000,0.000
489999.396,42.969,39.062,37.598,9.766,62.500,0.000,0.000,0.000
489999.399,35.645,40.527,33.691,5.371,32.715,0.000,0.000,0.000
489999.403,22.461,42.969,30.762,-0.977,14.160,0.000,0.000,0.000
489999.407,30.273,41.016,32.715,-0.977,21.484,0.000,0.000,0.000
489999.411,56.152,39.062,33.203,3.906,20.996,0.000,0.000,0.000
489999.415,50.781,46.387,27.832,-1.953,44.434,0.000,0.000,0.000
489999.419,23.438,40.527,26.855,-9.277,56.641,0.000,0.000,0.000
489999.423,26.367,36.133,28.809,-13.184,16.602,0.000,0.000,0.000
489999.427,49.805,44.922,26.367,-13.672,-15.137,0.000,0.000,0.000
489999.431,56.152,48.340,24.902,-11.230,-4.395,0.000,0.000,0.000
489999.435,41.016,37.109,29.785,-10.742,10.742,0.000,0.000,0.000
489999.439,28.320,29.297,33.691,-8.789,34.668,0.000,0.000,0.000
489999.442,41.016,33.691,36.133,-1.465,32.715,0.000,0.000,0.000
489999.446,57.129,36.133,36.621,2.930,11.230,0.000,0.000,0.000
489999.450,47.363,37.598,33.203,-7.324,18.066,0.000,0.000,0.000
489999.454,20.508,28.320,30.762,-13.184,20.996,0.000,0.000,0.000
489999.458,20.020,29.785,33.203,-0.977,19.043,0.000,0.000,0.000
489999.462,44.922,49.805,35.156,1.953,36.133,0.000,0.000,0.000
489999.466,41.016,41.504,33.691,-7.324,71.289,0.000,0.000,0.000
489999.470,9.277,23.438,31.250,-9.277,102.539,0.000,0.000,0.000
489999.474,6.348,23.438,27.832,-16.602,45.410,0.000,0.000,0.000
489999.478,27.344,29.297,24.902,-13.672,-28.320,0.000,0.000,0.000
489999.481,32.227,20.996,26.855,-8.301,-19.043,0.000,0.000,0.000
489999.485,18.066,14.160,27.832,-14.648,5.371,0.000,0.000,0.000
489999.489,20.508,12.207,25.391,-15.137,19.043,0.000,0.000,0.000
489999.493,44.434,20.508,24.902,-10.742,31.738,0.000,0.000,0.000
489999.497,47.852,22.949,28.320,-13.672,28.809,0.000,0.000,0.000
489999.501,36.133,5.371,27.832,-16.113,24.902,0.000,0.000,0.000
489999.505,22.949,12.695,29.297,-1.465,28.320,0.000,0.000,0.000
489999.509,38.574,26.855,32.715,0.488,43.945,0.000,0.000,0.000
489999.513,53.223,28.809,27.832,-13.184,74.707,0.000,0.000,0.000
489999.517,32.227,25.391,22.949,-18.555,75.195,0.000,0.000,0.000
489999.521,9.766,26.367,27.832,-9.766,31.250,0.000,0.000,0.000
489999.524,27.344,29.297,28.320,-5.371,0.977,0.000,0.000,0.000
489999.528,47.363,30.762,26.855,-6.836,32.715,0.000,0.000,0.000
489999.532,33.691,28.809,26.855,-7.812,48.340,0.000,0.000,0.000
489999.536,21.484,14.160,26.855,-0.488,61.523,0.000,0.000,0.000
489999.540,19.531,11.719,28.809,3.418,37.598,0.000,0.000,0.000
489999.544,43.457,14.160,28.320,-13.184,-4.883,0.000,0.000,0.000
489999.548,51.758,14.160,30.762,-20.996,-1.465,0.000,0.000,0.000
489999.552,22.461,20.996,35.645,-20.508,-38.574,0.000,0.000,0.000
489999.556,23.438,17.578,37.598,-12.207,-22.949,0.000,0.000,0.000
489999.560,44.434,14.160,34.180,-9.277,9.277,0.000,0.000,0.000
489999.564,52.734,13.672,31.738,-9.766,-15.137,0.000,0.000,0.000
489999.567,41.992,14.160,31.738,-10.254,-7.812,0.000,0.000,0.000
489999.571,22.461,11.719,30.762,-6.348,43.457,0.000,0.000,0.000
489999.575,21.484,15.137,29.297,-0.977,53.223,0.000,0.000,0.000
489999.579,44.434,20.996,28.320,-4.395,31.250,0.000,0.000,0.000
489999.583,37.598,13.672,30.762,3.906,16.602,0.000,0.000,0.000
489999.587,27.344,8.789,31.250,1.953,23.926,0.000,0.000,0.000
489999.591,41.992,7.324,30.762,2.930,56.641,0.000,0.000,0.000
489999.595,47.852,19.531,28.320,15.137,63.477,0.000,0.000,0.000
489999.599,49.316,27.344,22.461,12.695,46.387,0.000,0.000,0.000
489999.603,33.203,19.043,28.320,2.441,40.039,0.000,0.000,0.000
489999.606,20.508,23.438,32.227,-7.812,44.922,0.000,0.000,0.000
489999.610,45.898,28.809,30.273,-2.441,39.551,0.000,0.000,0.000
489999.614,58.105,27.832,33.691,4.395,20.508,0.000,0.000,0.000
489999.618,25.391,21.484,35.645,-5.859,16.113,0.000,0.000,0.000
489999.622,9.766,15.625,34.668,-4.883,30.762,0.000,0.000,0.000
489999.626,29.297,25.879,28.809,-5.371,41.992,0.000,0.000,0.000
489999.630,44.922,30.273,24.902,-1.953,52.734,0.000,0.000,0.000
489999.634,25.391,13.672,25.391,-7.324,52.246,0.000,0.000,0.000
489999.638,9.766,16.602,28.320,-22.949,38.086,0.000,0.000,0.000
489999.642,24.902,37.598,32.715,-16.113,15.137,0.000,0.000,0.000
489999.646,41.504,38.574,33.691,-1.953,21.973,0.000,0.000,0.000
489999.649,34.180,27.832,29.785,-5.859,37.109,0.000,0.000,0.000
489999.653,12.207,23.926,26.855,-10.742,24.414,0.000,0.000,0.000
489999.657,24.902,31.738,27.832,-8.789,33.691,0.000,0.000,0.000
489999.661,55.176,40.527,24.414,-0.488,46.387,0.000,0.000,0.000
489999.665,53.223,36.621,26.855,8.301,37.109,0.000,0.000,0.000
489999.669,27.344,32.227,35.156,-4.395,56.641,0.000,0.000,0.000
489999.673,26.367,35.156,37.598,-6.348,81.055,0.000,0.000,0.000
489999.677,43.945,29.785,35.156,6.348,68.359,0.000,0.000,0.000
489999.681,42.969,27.344,33.203,9.766,41.504,0.000,0.000,0.000
489999.685,32.715,35.645,31.738,-0.488,18.555,0.000,0.000,0.000
489999.688,25.879,33.691,28.809,-7.324,29.297,0.000,0.000,0.000
489999.692,36.621,22.461,29.297,-0.977,58.105,0.000,0.000,0.000
489999.696,48.828,19.531,27.344,7.812,97.656,0.000,0.000,0.000
489999.700,31.738,25.391,27.832,4.395,66.406,0.000,0.000,0.000
489999.704,18.066,27.344,30.273,0.488,10.742,0.000,0.000,0.000
489999.708,22.461,19.043,25.391,-3.906,12.695,0.000,0.000,0.000
489999.712,45.410,20.996,28.809,0.977,17.578,0.000,0.000,0.000
489999.716,40.039,32.227,28.320,1.465,29.785,0.000,0.000,0.000
489999.720,16.602,28.809,26.367,-2.930,36.621,0.000,0.000,0.000
489999.724,30.762,20.996,32.227,2.930,30.273,0.000,0.000,0.000
489999.728,55.664,32.227,32.715,-0.977,34.180,0.000,0.000,0.000
489999.731,44.922,44.922,31.738,-3.418,33.691,0.000,0.000,0.000
489999.735,22.461,34.180,29.785,-8.789,35.645,0.000,0.000,0.000
489999.739,15.137,29.297,28.809,-16.113,37.109,0.000,0.000,0.000
489999.743,36.133,36.133,31.738,-14.160,16.602,0.000,0.000,0.000
489999.747,52.246,43.457,30.273,-9.277,5.371,2.000,1.000,90.000
489999.751,35.156,35.645,27.832,-9.277,33.691,0.000,0.000,0.000
489999.755,24.414,25.879,25.391,-17.090,47.363,0.000,0.000,0.000
489999.759,41.016,34.668,23.926,-15.137,31.250,0.000,0.000,0.000
489999.763,60.547,37.598,25.391,-8.301,30.762,0.000,0.000,0.000
489999.767,35.156,29.785,27.344,-8.789,51.270,0.000,0.000,0.000
489999.771,2.930,19.043,25.879,-12.207,47.852,0.000,0.000,0.000
489999.774,12.695,19.531,27.344,-15.625,16.113,0.000,0.000,0.000
489999.778,38.086,32.227,27.344,-15.625,23.438,0.000,0.000,0.000
489999.782,33.691,29.297,23.926,-11.719,48.828,0.000,0.000,0.000
489999.786,1.953,13.184,24.414,-6.836,38.574,0.000,0.000,0.000
489999.790,7.324,23.926,23.438,-13.184,39.551,0.000,0.000,0.000
489999.794,39.062,33.691,21.973,-21.484,23.926,0.000,0.000,0.000
489999.798,43.945,26.367,24.414,-22.461,-7.812,0.000,0.000,0.000
489999.802,32.715,25.879,24.902,-23.438,-0.488,0.000,0.000,0.000
489999.806,22.461,27.344,28.809,-28.320,10.254,0.000,0.000,0.000
489999.810,28.809,28.320,28.320,-24.902,3.906,0.000,0.000,0.000
489999.813,46.387,30.762,28.320,-17.090,1.465,0.000,0.000,0.000
489999.817,28.320,20.996,30.273,-17.090,38.574,0.000,0.000,0.000
489999.821,11.230,17.578,28.320,-17.090,39.062,0.000,0.000,0.000
489999.825,34.668,31.250,27.344,-14.648,2.441,0.000,0.000,0.000
489999.829,46.387,25.879,31.738,-7.812,17.578,0.000,0.000,0.000
489999.833,30.273,18.555,38.086,-10.254,37.598,0.000,0.000,0.000
489999.837,11.719,33.203,38.574,-19.531,25.879,0.000,0.000,0.000
489999.841,20.996,33.203,38.574,-12.695,26.855,0.000,0.000,0.000
489999.845,46.387,34.180,34.668,4.883,41.016,0.000,0.000,0.000
489999.849,43.457,38.086,31.250,-7.812,42.480,0.000,0.000,0.000
489999.853,19.043,31.250,30.273,-32.227,25.879,0.000,0.000,0.000
489999.856,21.484,25.391,28.809,-24.902,43.945,0.000,0.000,0.000
489999.860,40.527,28.809,30.762,-12.695,75.684,0.000,0.000,0.000
489999.864,54.199,34.180,30.273,-17.578,39.551,0.000,0.000,0.000
489999.868,34.668,36.133,25.391,-22.949,1.953,0.000,0.000,0.000
489999.872,21.973,30.273,28.809,-12.695,21.973,0.000,0.000,0.000
489999.876,47.363,20.508,31.250,-5.371,35.645,0.000,0.000,0.000
489999.880,55.664,38.574,28.320,-16.113,31.738,0.000,0.000,0.000
489999.884,39.062,48.340,29.785,-17.578,29.785,0.000,0.000,0.000
489999.888,20.020,38.574,30.273,-6.348,15.137,0.000,0.000,0.000
489999.892,34.668,41.992,29.785,-18.066,-14.648,0.000,0.000,0.000
489999.896,62.988,48.340,25.879,-24.414,-17.578,0.000,0.000,0.000
489999.899,57.617,47.852,25.879,-8.301,13.184,0.000,0.000,0.000
489999.903,37.598,38.086,37.109,-10.742,43.945,0.000,0.000,0.000
489999.907,30.762,35.645,36.621,-13.672,76.660,0.000,0.000,0.000
489999.911,55.176,38.574,34.180,-6.836,73.730,0.000,0.000,0.000
489999.915,52.734,32.715,33.203,-6.348,43.945,0.000,0.000,0.000
489999.919,26.855,16.602,28.809,-13.672,41.504,0.000,0.000,0.000
489999.923,27.832,17.090,31.738,-17.578,57.617,0.000,0.000,0.000
489999.927,43.457,38.086,32.227,-7.324,60.547,0.000,0.000,0.000
489999.931,54.199,40.527,29.297,4.395,41.992,0.000,0.000,0.000
489999.935,36.621,28.320,28.320,-4.395,50.293,0.000,0.000,0.000
489999.938,30.762,20.508,31.250,-15.137,67.871,0.000,0.000,0.000
489999.942,57.129,27.832,32.715,-9.766,68.848,0.000,0.000,0.000
489999.946,53.711,30.273,30.762,-5.859,56.641,0.000,0.000,0.000
489999.950,17.090,24.902,26.367,-7.324,33.691,0.000,0.000,0.000
489999.954,8.301,25.391,26.855,-10.742,32.227,0.000,0.000,0.000
489999.958,23.438,28.320,30.273,-9.766,43.457,0.000,0.000,0.000
489999.962,51.270,31.738,31.738,-8.301,28.809,0.000,0.000,0.000
489999.966,45.898,22.949,32.227,-7.812,17.578,0.000,0.000,0.000
489999.970,9.766,24.414,32.227,-20.996,31.738,0.000,0.000,0.000
489999.974,7.324,29.297,32.227,-21.973,25.879,0.000,0.000,0.000
489999.978,34.668,25.391,32.715,-7.812,7.324,0.000,0.000,0.000
489999.981,43.457,28.809,32.715,-9.277,20.508,0.000,0.000,0.000
489999.985,16.113,33.691,31.250,-24.414,27.344,0.000,0.000,0.000
489999.989,8.301,27.344,27.832,-25.391,21.484,0.000,0.000,0.000
489999.993,34.180,21.484,29.297,-13.184,15.137,0.000,0.000,0.000
489999.997,55.664,32.227,27.344,-3.906,19.043,0.000,0.000,0.000
490000.001,38.574,30.273,26.367,-9.277,18.066,0.000,0.000,0.000
490000.005,7.324,19.531,27.344,-17.090,3.906,0.000,0.000,0.000
490000.009,14.648,20.996,27.832,-12.207,11.230,0.000,0.000,0.000
490000.013,41.016,23.438,27.344,-11.719,16.113,0.000,0.000,0.000
490000.017,34.668,32.715,26.855,-18.555,11.719,0.000,0.000,0.000
490000.021,17.578,26.855,27.832,-21.484,27.344,0.000,0.000,0.000
490000.024,18.555,24.414,26.367,-16.602,35.645,0.000,0.000,0.000
490000.028,36.621,30.762,25.879,-11.230,46.875,0.000,0.000,0.000
490000.032,41.016,21.484,27.344,-5.371,83.496,0.000,0.000,0.000
490000.036,9.766,15.137,30.273,-0.488,55.176,0.000,0.000,0.000
490000.040,4.395,16.602,29.297,-6.836,-8.301,0.000,0.000,0.000
490000.044,32.715,24.902,27.344,-3.906,-4.395,0.000,0.000,0.000
490000.048,42.969,26.855,28.320,-3.418,8.301,0.000,0.000,0.000
490000.052,14.648,13.184,24.902,-10.254,28.320,0.000,0.000,0.000
490000.056,9.277,1.953,21.973,-5.371,39.551,0.000,0.000,0.000
490000.060,39.551,19.531,22.949,-3.418,21.484,0.000,0.000,0.000
490000.063,53.711,38.086,20.996,-0.488,26.855,0.000,0.000,0.000
490000.067,39.551,25.391,22.949,-3.418,41.016,0.000,0.000,0.000
490000.071,27.344,17.090,27.344,-10.742,23.438,0.000,0.000,0.000
490000.075,41.016,28.320,30.762,-6.836,19.043,0.000,0.000,0.000
490000.079,55.664,29.785,32.227,-1.465,32.227,0.000,0.000,0.000
490000.083,37.109,20.508,33.203,-2.930,26.855,0.000,0.000,0.000
490000.087,19.531,19.531,33.691,3.906,35.156,0.000,0.000,0.000
490000.091,27.832,23.926,32.227,6.836,62.988,0.000,0.000,0.000
490000.095,54.199,31.250,32.227,7.324,58.105,0.000,0.000,0.000
490000.099,64.453,30.273,32.715,9.766,32.227,0.000,0.000,0.000
490000.103,34.668,24.414,34.180,2.441,42.969,0.000,0.000,0.000
490000.106,14.160,26.855,39.062,-5.371,28.809,0.000,0.000,0.000
490000.110,31.250,28.809,41.504,-2.441,5.371,0.000,0.000,0.000
490000.114,60.059,19.531,37.598,4.395,40.527,0.000,0.000,0.000
490000.118,38.086,14.160,39.551,-1.953,70.801,0.000,0.000,0.000
490000.122,8.789,25.391,41.504,-9.766,75.684,0.000,0.000,0.000
490000.126,32.227,27.344,41.016,-4.395,29.297,0.000,0.000,0.000
490000.130,53.711,24.902,38.086,0.000,7.812,0.000,0.000,0.000
490000.134,39.551,28.320,36.621,-3.906,44.434,0.000,0.000,0.000
490000.138,19.531,29.297,41.016,-4.395,46.387,0.000,0.000,0.000
490000.142,38.086,28.320,38.574,-4.883,33.691,0.000,0.000,0.000
490000.146,70.801,28.809,32.715,-5.371,37.109,0.000,0.000,0.000
490000.149,60.547,24.902,32.715,-2.930,30.762,0.000,0.000,0.000
490000.153,37.598,25.391,28.320,-9.766,11.719,4.000,1.000,90.000
490000.157,43.945,23.926,27.344,-15.137,19.531,0.000,0.000,0.000
490000.161,58.105,20.508,28.809,-9.766,30.762,0.000,0.000,0.000
490000.165,51.758,31.738,25.879,-6.836,25.391,0.000,0.000,0.000
490000.169,23.926,29.297,25.391,-15.625,22.461,0.000,0.000,0.000
490000.173,18.066,18.066,31.250,-13.184,36.621,0.000,0.000,0.000
490000.177,44.434,18.066,33.203,-12.695,62.012,0.000,0.000,0.000
490000.181,63.965,21.973,30.762,-15.625,72.266,0.000,0.000,0.000
490000.185,37.598,11.230,30.273,-14.160,40.527,0.000,0.000,0.000
490000.188,15.137,2.930,28.320,-21.973,21.973,0.000,0.000,0.000
490000.192,23.926,1.953,27.832,-18.066,47.852,0.000,0.000,0.000
490000.196,46.875,10.254,30.762,-9.277,60.547,0.000,0.000,0.000
490000.200,44.434,15.137,34.668,-4.883,87.891,0.000,0.000,0.000
490000.204,25.879,4.883,33.691,-13.184,84.961,0.000,0.000,0.000
490000.208,46.875,6.348,30.762,-20.508,17.090,0.000,0.000,0.000
490000.212,75.684,24.414,36.133,6.836,25.879,0.000,0.000,0.000
490000.216,61.035,31.250,36.133,8.301,94.238,0.000,0.000,0.000
490000.220,31.738,24.902,31.250,-2.930,41.992,0.000,0.000,0.000
490000.224,39.551,17.090,35.645,19.531,-19.043,0.000,0.000,0.000
490000.228,65.430,24.902,38.086,14.160,26.855,0.000,0.000,0.000
490000.231,80.566,27.344,33.203,-2.930,25.391,0.000,0.000,0.000
490000.235,79.590,15.137,28.320,-11.719,11.719,0.000,0.000,0.000
490000.239,75.195,19.531,25.391,-27.344,26.855,0.000,0.000,0.000
490000.243,80.078,24.902,26.367,-14.160,35.645,0.000,0.000,0.000
490000.247,82.031,26.855,31.250,-0.488,41.504,0.000,0.000,0.000
490000.251,51.270,20.996,33.691,-11.719,51.270,0.000,0.000,0.000
490000.255,32.227,23.926,31.250,-18.066,46.387,0.000,0.000,0.000
490000.259,54.688,40.527,35.645,-4.883,41.016,0.000,0.000,0.000
490000.263,68.359,37.598,38.574,-1.953,42.480,0.000,0.000,0.000
490000.267,51.758,27.832,35.156,-8.789,39.551,0.000,0.000,0.000
490000.270,38.086,29.297,32.715,-7.812,41.016,0.000,0.000,0.000
490000.274,70.801,34.668,30.273,-9.766,40.527,0.000,0.000,0.000
490000.278,73.730,33.203,25.879,-11.230,35.645,0.000,0.000,0.000
490000.282,37.598,27.832,29.785,-4.883,38.574,0.000,0.000,0.000
490000.286,5.859,20.508,33.691,-2.930,52.734,0.000,0.000,0.000
490000.290,5.371,20.996,30.273,-9.766,49.805,0.000,0.000,0.000
490000.294,40.039,28.320,26.855,-11.719,40.527,0.000,0.000,0.000
490000.298,47.852,30.273,23.926,-10.742,33.203,0.000,0.000,0.000
490000.302,-1.465,30.762,26.855,-24.414,13.184,0.000,0.000,0.000
490000.306,-44.922,31.738,27.832,-40.039,-3.418,0.000,0.000,0.000
490000.310,14.160,25.391,25.391,-25.391,12.207,0.000,0.000,0.000
490000.313,35.645,20.508,34.180,-22.949,12.207,0.000,0.000,0.000
490000.317,12.207,24.414,24.414,-29.297,8.301,0.000,0.000,0.000
490000.321,42.480,19.531,17.578,-13.184,20.996,0.000,0.000,0.000
490000.325,59.082,27.344,20.996,-14.160,6.348,0.000,0.000,0.000
490000.329,47.852,33.691,24.902,-18.555,9.277,0.000,0.000,0.000
490000.333,57.129,26.367,22.461,-25.391,29.785,0.000,0.000,0.000
490000.337,37.598,23.438,19.043,-25.879,15.625,0.000,0.000,0.000
490000.341,37.598,13.184,30.273,-15.625,-3.418,0.000,0.000,0.000
490000.345,78.613,32.715,31.250,-19.531,5.371,0.000,0.000,0.000
490000.349,67.383,51.270,25.879,-23.926,12.207,0.000,0.000,0.000
490000.353,40.527,34.668,28.809,-20.996,23.926,0.000,0.000,0.000
490000.356,49.805,34.668,30.762,-14.160,40.527,0.000,0.000,0.000
490000.360,65.430,41.504,35.645,-4.883,50.293,0.000,0.000,0.000
490000.364,75.195,41.504,34.668,-4.395,54.688,0.000,0.000,0.000
490000.368,72.266,32.715,30.762,-8.789,57.617,0.000,0.000,0.000
490000.372,50.781,27.344,33.691,-7.812,59.570,0.000,0.000,0.000
490000.376,58.594,30.273,33.691,-8.789,54.688,0.000,0.000,0.000
490000.380,47.852,24.902,34.180,-10.742,45.410,0.000,0.000,0.000
490000.384,35.156,12.207,33.691,-4.395,47.363,0.000,0.000,0.000
490000.388,42.480,10.254,32.227,5.859,53.711,0.000,0.000,0.000
490000.392,54.199,28.809,36.133,2.441,58.594,0.000,0.000,0.000
490000.395,82.520,40.039,29.297,-1.465,64.453,0.000,0.000,0.000
490000.399,75.684,37.598,26.855,-0.488,57.129,0.000,0.000,0.000
490000.403,41.504,29.297,28.320,-22.949,38.086,0.000,0.000,0.000
490000.407,49.316,27.344,22.949,-30.762,30.273,0.000,0.000,0.000
490000.411,72.754,27.344,18.555,-14.648,35.645,0.000,0.000,0.000
490000.415,70.801,24.902,16.602,-9.277,50.781,0.000,0.000,0.000
490000.419,46.875,18.555,19.531,-9.766,54.199,0.000,0.000,0.000
490000.423,30.273,14.648,21.484,-19.043,37.109,0.000,0.000,0.000
490000.427,48.340,23.926,19.043,-12.207,41.504,0.000,0.000,0.000
490000.431,70.312,30.273,15.625,4.883,42.969,0.000,0.000,0.000
490000.435,41.992,38.086,15.625,-18.066,33.203,0.000,0.000,0.000
490000.438,20.996,37.598,17.578,-28.320,78.125,2.000,1.000,135.000
490000.442,43.457,30.273,21.973,-18.066,80.078,0.000,0.000,0.000
490000.446,63.477,43.457,26.855,-17.090,21.484,0.000,0.000,0.000
490000.450,52.246,46.387,21.973,-26.367,18.555,0.000,0.000,0.000
490000.454,20.508,36.621,19.043,-33.691,40.039,0.000,0.000,0.000
490000.458,16.602,32.227,19.531,-42.969,29.785,0.000,0.000,0.000
490000.462,39.062,36.133,20.996,-48.340,14.648,0.000,0.000,0.000
490000.466,35.645,41.016,18.066,-42.969,31.738,0.000,0.000,0.000
490000.470,-0.488,30.762,13.672,-44.434,35.156,0.000,0.000,0.000
490000.474,13.672,13.672,17.090,-44.922,16.602,0.000,0.000,0.000
490000.478,47.363,19.043,21.484,-37.109,9.277,0.000,0.000,0.000
490000.481,31.250,31.738,20.020,-38.086,7.812,0.000,0.000,0.000
490000.485,14.160,32.715,17.578,-46.875,33.203,0.000,0.000,0.000
490000.489,6.348,24.902,20.996,-41.016,41.504,0.000,0.000,0.000
490000.493,13.184,26.367,20.508,-41.016,30.762,0.000,0.000,0.000
490000.497,32.227,33.691,22.461,-39.551,79.590,0.000,0.000,0.000
490000.501,17.090,25.391,31.250,-44.922,61.035,0.000,0.000,0.000
490000.505,-0.977,25.391,31.250,-57.617,-37.598,0.000,0.000,0.000
490000.509,22.461,35.156,33.203,-42.480,-46.875,0.000,0.000,0.000
490000.513,45.898,33.691,32.227,-28.320,-9.766,0.000,0.000,0.000
490000.517,27.344,29.785,30.273,-30.273,-6.348,0.000,0.000,0.000
490000.520,10.254,22.461,26.855,-35.156,4.395,0.000,0.000,0.000
490000.524,23.926,24.414,28.320,-39.551,21.484,0.000,0.000,0.000
490000.528,48.828,42.480,26.855,-33.691,26.855,0.000,0.000,0.000
490000.532,39.551,27.832,17.578,-32.227,41.504,0.000,0.000,0.000
490000.536,8.301,8.301,19.531,-41.016,8.789,0.000,0.000,0.000
490000.540,-3.418,25.391,21.973,-41.992,-21.973,0.000,0.000,0.000
490000.544,31.738,41.504,27.832,-30.273,0.977,0.000,0.000,0.000
490000.548,54.199,34.180,29.297,-25.391,15.137,0.000,0.000,0.000
490000.552,23.926,28.809,28.320,-26.855,22.949,0.000,0.000,0.000
490000.556,12.207,25.391,29.785,-26.855,16.602,0.000,0.000,0.000
490000.560,44.434,21.484,28.809,-25.879,25.391,0.000,0.000,0.000
490000.563,63.477,25.879,28.320,-19.043,41.016,0.000,0.000,0.000
490000.567,41.016,17.090,26.855,-20.020,21.973,0.000,0.000,0.000
490000.571,19.043,19.043,23.438,-30.762,0.000,0.000,0.000,0.000
490000.575,24.414,31.250,22.461,-27.832,-3.418,0.000,0.000,0.000
490000.579,33.203,22.949,22.461,-15.625,-6.836,0.000,0.000,0.000
490000.583,26.855,18.066,24.902,-13.672,4.395,0.000,0.000,0.000
490000.587,8.789,25.879,24.414,-17.090,-4.395,0.000,0.000,0.000
490000.591,17.090,28.320,21.484,-6.348,-33.203,0.000,0.000,0.000
490000.595,45.410,32.715,23.438,-5.859,-14.160,0.000,0.000,0.000
490000.599,48.828,31.738,24.902,-13.672,16.113,0.000,0.000,0.000
490000.603,25.391,24.414,25.879,-6.348,34.180,0.000,0.000,0.000
490000.606,24.902,20.020,27.832,0.488,50.293,0.000,0.000,0.000
490000.610,36.621,17.578,27.344,0.488,50.781,0.000,0.000,0.000
490000.614,47.852,14.160,32.227,1.465,49.316,0.000,0.000,0.000
490000.618,33.691,26.367,34.180,2.441,55.664,0.000,0.000,0.000
490000.622,23.438,29.297,30.273,7.324,63.965,0.000,0.000,0.000
490000.626,43.945,19.043,27.344,8.789,65.430,0.000,0.000,0.000
490000.630,55.176,34.668,30.273,5.371,60.059,0.000,0.000,0.000
490000.634,42.969,40.527,35.156,3.906,67.383,0.000,0.000,0.000
490000.638,13.184,25.391,34.668,3.906,74.219,0.000,0.000,0.000
490000.642,8.301,25.391,30.762,1.465,72.266,0.000,0.000,0.000
490000.645,39.551,36.621,23.926,-2.930,61.035,0.000,0.000,0.000
490000.649,41.016,34.668,25.879,-3.418,26.855,0.000,0.000,0.000
490000.653,17.578,22.461,27.344,-0.488,35.156,0.000,0.000,0.000
490000.657,20.996,20.508,27.832,-1.953,36.133,0.000,0.000,0.000
490000.661,39.062,22.461,28.809,-2.930,0.488,0.000,0.000,0.000
490000.665,37.598,23.438,31.250,3.906,5.371,0.000,0.000,0.000
490000.669,14.160,17.090,34.180,-9.277,11.719,0.000,0.000,0.000
490000.673,9.766,7.324,34.180,-12.207,4.883,0.000,0.000,0.000
490000.677,39.551,22.949,34.180,4.395,12.207,0.000,0.000,0.000
490000.681,65.918,36.621,36.621,16.113,31.250,0.000,0.000,0.000
490000.685,44.434,27.344,40.527,14.160,38.086,0.000,0.000,0.000
490000.688,12.695,18.555,39.062,4.883,30.273,0.000,0.000,0.000
490000.692,31.738,24.902,31.250,9.766,19.531,0.000,0.000,0.000
490000.696,53.223,24.414,27.344,20.508,13.184,0.000,0.000,0.000
490000.700,33.691,20.996,30.762,17.578,20.508,0.000,0.000,0.000
490000.704,17.090,20.996,41.992,11.230,36.621,0.000,0.000,0.000
490000.708,36.621,16.602,36.133,11.719,26.367,0.000,0.000,0.000
490000.712,62.500,19.043,24.902,14.160,25.879,0.000,0.000,0.000
490000.716,46.875,16.113,33.203,12.207,43.457,0.000,0.000,0.000
490000.720,28.320,26.855,43.945,12.207,49.805,0.000,0.000,0.000
490000.724,34.180,27.344,41.504,8.789,36.133,0.000,0.000,0.000
490000.728,48.828,16.113,35.156,11.230,29.785,0.000,0.000,0.000
490000.731,64.941,22.461,42.480,18.555,39.551,0.000,0.000,0.000
490000.735,28.320,23.926,37.598,19.043,41.504,0.000,0.000,0.000
490000.739,-6.348,29.297,24.902,21.973,41.504,0.000,0.000,0.000
490000.743,24.902,26.855,26.367,11.719,35.156,0.000,0.000,0.000
490000.747,48.828,27.344,24.414,5.859,28.320,0.000,0.000,0.000
490000.751,38.086,28.320,32.715,11.719,34.180,0.000,0.000,0.000
490000.755,18.066,23.926,28.320,16.602,42.969,0.000,0.000,0.000
490000.759,33.691,23.438,11.230,20.508,45.898,0.000,0.000,0.000
490000.763,43.945,23.926,31.738,12.695,35.645,0.000,0.000,0.000
490000.767,23.926,25.879,41.992,-1.953,24.902,0.000,0.000,0.000
490000.770,16.113,18.066,46.387,-5.371,24.414,0.000,0.000,0.000
490000.774,31.738,23.438,62.500,1.953,34.668,0.000,0.000,0.000
490000.778,52.246,27.832,53.223,11.719,33.203,0.000,0.000,0.000
490000.782,48.340,24.902,30.762,11.230,40.039,0.000,0.000,0.000
490000.786,42.480,31.250,32.227,10.742,97.656,0.000,0.000,0.000
490000.790,54.199,24.902,31.738,0.977,62.012,0.000,0.000,0.000
490000.794,94.238,26.367,28.809,-8.789,-35.156,0.000,0.000,0.000
490000.798,113.281,33.691,25.879,-9.766,-28.809,0.000,0.000,0.000
490000.802,90.332,26.367,32.715,-0.488,5.859,0.000,0.000,0.000
490000.806,43.457,11.719,35.156,18.066,23.438,0.000,0.000,0.000
490000.810,20.996,23.438,27.344,22.949,27.344,0.000,0.000,0.000
490000.813,62.012,41.504,32.715,14.648,41.992,0.000,0.000,0.000
490000.817,51.758,22.949,37.109,6.348,59.570,0.000,0.000,0.000
490000.821,-12.695,14.160,30.762,1.953,83.008,0.000,0.000,0.000
490000.825,-3.418,30.273,30.762,7.324,61.035,0.000,0.000,0.000
490000.829,10.742,36.133,31.250,15.137,-11.719,0.000,0.000,0.000
490000.833,-24.902,27.344,29.785,10.254,-15.137,0.000,0.000,0.000
490000.837,-11.719,29.785,33.203,7.812,12.207,0.000,0.000,0.000
490000.841,17.578,38.086,34.180,10.254,24.414,0.000,0.000,0.000
490000.845,34.668,33.691,29.785,8.789,26.855,4.000,1.000,135.000
490000.849,38.574,31.250,29.785,20.996,44.434,0.000,0.000,0.000
490000.852,21.484,28.809,30.762,13.184,65.430,0.000,0.000,0.000
490000.856,15.137,34.668,27.832,-6.836,51.270,0.000,0.000,0.000
490000.860,37.109,53.711,30.762,-1.953,23.438,0.000,0.000,0.000
490000.864,65.430,50.781,37.109,0.977,30.273,0.000,0.000,0.000
490000.868,62.012,42.480,29.785,-7.324,21.484,0.000,0.000,0.000
490000.872,48.340,50.293,22.461,-10.742,1.953,0.000,0.000,0.000
490000.876,36.133,48.340,27.344,-2.930,10.742,0.000,0.000,0.000
490000.880,40.527,51.270,28.320,6.836,27.344,0.000,0.000,0.000
490000.884,47.852,51.270,27.832,7.812,41.016,0.000,0.000,0.000
490000.888,15.625,45.410,33.691,1.953,48.340,0.000,0.000,0.000
490000.892,4.883,40.039,33.691,2.930,29.785,0.000,0.000,0.000
490000.895,33.691,37.109,27.832,2.441,25.391,0.000,0.000,0.000
490000.899,39.062,41.504,34.180,-1.465,36.621,0.000,0.000,0.000
490000.903,23.926,48.340,37.109,0.000,20.996,0.000,0.000,0.000
490000.907,10.742,43.945,25.879,-3.906,17.578,0.000,0.000,0.000
490000.911,32.227,40.039,22.461,-7.324,26.367,0.000,0.000,0.000
490000.915,40.527,49.805,24.902,-7.812,37.598,0.000,0.000,0.000
490000.919,33.691,48.340,25.879,-7.324,58.594,0.000,0.000,0.000
490000.923,35.156,38.086,29.297,-7.812,52.246,0.000,0.000,0.000
490000.927,36.133,39.062,28.809,-10.742,36.133,0.000,0.000,0.000
490000.931,38.086,50.293,32.715,-3.418,66.406,0.000,0.000,0.000
490000.935,18.555,48.828,36.621,2.930,87.402,0.000,0.000,0.000
490000.938,18.066,39.551,30.762,-20.020,0.000,0.000,0.000,0.000
490000.942,47.852,41.504,27.344,-29.785,-51.270,0.000,0.000,0.000
490000.946,53.223,47.852,27.832,-9.277,-19.043,0.000,0.000,0.000
490000.950,34.668,49.805,27.344,-6.836,-12.207,0.000,0.000,0.000
490000.954,17.578,37.109,27.832,-19.531,-9.277,0.000,0.000,0.000
490000.958,26.855,39.551,22.461,-25.879,2.441,0.000,0.000,0.000
490000.962,47.363,58.594,20.508,-14.648,24.414,0.000,0.000,0.000
490000.966,44.434,50.781,31.250,-5.859,36.621,0.000,0.000,0.000
490000.970,24.902,38.086,34.668,-17.090,41.992,0.000,0.000,0.000
490000.974,31.250,42.969,32.227,-20.020,35.645,0.000,0.000,0.000
490000.977,48.340,50.781,32.715,-12.695,30.273,0.000,0.000,0.000
490000.981,39.062,48.340,32.227,-0.977,45.410,0.000,0.000,0.000
490000.985,18.555,34.180,30.273,0.977,39.551,0.000,0.000,0.000
490000.989,14.648,31.250,29.785,-15.137,27.344,0.000,0.000,0.000
490000.993,12.695,39.551,32.715,-19.531,22.949,0.000,0.000,0.000
490000.997,29.297,32.227,36.621,-6.836,25.879,0.000,0.000,0.000
490001.001,26.367,18.555,37.109,-7.812,35.645,0.000,0.000,0.000
490001.005,14.160,27.344,29.785,-22.949,42.969,0.000,0.000,0.000
490001.009,33.691,32.715,22.461,-25.391,50.781,0.000,0.000,0.000
490001.013,55.664,26.367,23.438,-14.160,44.922,0.000,0.000,0.000
490001.017,48.828,23.438,28.809,-16.113,32.715,0.000,0.000,0.000
490001.020,20.508,22.461,34.668,-24.414,22.949,0.000,0.000,0.000
490001.024,17.090,20.996,34.180,-16.113,39.062,0.000,0.000,0.000
490001.028,37.109,26.855,29.785,6.348,53.711,0.000,0.000,0.000
490001.032,48.340,32.715,29.785,1.465,56.152,0.000,0.000,0.000
490001.036,32.715,25.391,33.691,-14.648,71.289,0.000,0.000,0.000
490001.040,21.973,15.625,34.668,-12.207,24.902,0.000,0.000,0.000
490001.044,41.016,13.672,34.180,-10.742,-12.207,0.000,0.000,0.000
490001.048,57.617,18.555,33.691,-5.859,42.969,0.000,0.000,0.000
490001.052,40.039,24.902,31.738,-8.789,73.242,0.000,0.000,0.000
490001.056,22.949,26.367,27.344,-16.602,41.016,0.000,0.000,0.000
490001.060,43.457,28.320,28.320,-8.301,8.301,0.000,0.000,0.000
490001.063,64.453,33.691,30.762,-13.672,-8.301,0.000,0.000,0.000
490001.067,35.645,27.344,24.414,-9.766,-0.977,0.000,0.000,0.000
490001.071,5.859,15.137,23.926,0.977,13.672,0.000,0.000,0.000
490001.075,32.715,19.043,28.809,-23.926,21.973,0.000,0.000,0.000
490001.079,55.664,28.320,28.320,-26.855,36.133,0.000,0.000,0.000
490001.083,31.738,21.973,29.297,-16.602,50.781,0.000,0.000,0.000
490001.087,4.883,19.531,27.832,-21.484,52.734,0.000,0.000,0.000
490001.091,12.695,23.926,24.414,-23.926,42.969,0.000,0.000,0.000
490001.095,38.574,35.156,20.996,-23.926,35.156,0.000,0.000,0.000
490001.099,36.621,40.039,20.996,-15.137,32.715,0.000,0.000,0.000
490001.102,18.555,23.926,17.578,-15.137,43.457,0.000,0.000,0.000
490001.106,8.301,20.020,15.625,-6.836,21.973,0.000,0.000,0.000
490001.110,23.438,31.250,23.926,-4.395,-15.137,0.000,0.000,0.000
490001.114,40.527,36.621,23.926,-22.949,-8.301,0.000,0.000,0.000
490001.118,15.625,25.879,21.484,-32.715,14.648,0.000,0.000,0.000
490001.122,-7.812,20.020,26.855,-29.297,66.895,0.000,0.000,0.000
490001.126,20.020,25.391,33.691,-19.043,80.078,0.000,0.000,0.000
490001.130,44.922,21.973,29.297,-15.137,-3.418,0.000,0.000,0.000
490001.134,34.180,12.695,25.879,-15.625,-14.648,0.000,0.000,0.000
490001.138,34.180,12.695,28.320,-17.578,-1.953,0.000,0.000,0.000
490001.142,37.598,14.648,28.320,-18.555,-27.344,0.000,0.000,0.000
490001.145,53.223,20.996,29.297,-22.949,13.672,0.000,0.000,0.000
490001.149,70.312,17.090,27.832,-26.855,39.062,0.000,0.000,0.000
490001.153,20.996,10.254,25.391,-23.926,8.301,0.000,0.000,0.000
490001.157,-11.230,19.531,23.438,-23.438,-10.742,0.000,0.000,0.000
490001.161,25.879,20.020,18.555,-15.137,-9.277,0.000,0.000,0.000
490001.165,38.574,22.949,17.090,-8.301,1.465,0.000,0.000,0.000
490001.169,3.906,25.391,17.090,-24.414,24.902,0.000,0.000,0.000
490001.173,-9.277,22.461,21.484,-31.250,22.949,0.000,0.000,0.000
490001.177,22.461,22.949,25.879,-24.414,5.859,0.000,0.000,0.000
490001.181,36.621,20.996,26.855,-17.578,5.371,0.000,0.000,0.000
490001.185,8.789,25.391,24.414,-11.719,11.719,0.000,0.000,0.000
490001.188,-15.137,29.785,26.367,-17.090,10.254,0.000,0.000,0.000
490001.192,11.719,25.391,26.367,-23.438,19.043,0.000,0.000,0.000
490001.196,35.156,26.855,24.414,-17.578,29.785,0.000,0.000,0.000
490001.200,25.879,28.320,27.344,-18.066,20.996,0.000,0.000,0.000
490001.204,15.137,25.391,25.879,-25.391,-6.348,0.000,0.000,0.000
490001.208,41.992,22.949,22.461,-22.949,3.418,0.000,0.000,0.000
490001.212,79.102,30.762,20.996,-14.648,37.598,0.000,0.000,0.000
490001.216,62.988,39.551,22.949,-23.438,32.715,0.000,0.000,0.000
490001.220,22.949,33.203,23.926,-24.902,49.316,0.000,0.000,0.000
490001.224,5.859,17.578,22.949,-23.438,41.992,0.000,0.000,0.000
490001.227,39.551,22.461,24.902,-24.414,-0.488,0.000,0.000,0.000
490001.231,48.340,38.086,23.926,-21.973,1.953,1.000,1.000,45.000
490001.235,19.531,23.926,21.973,-23.926,12.207,0.000,0.000,0.000
490001.239,5.859,9.766,23.438,-21.484,4.883,0.000,0.000,0.000
490001.243,25.879,21.973,23.926,-15.625,12.695,0.000,0.000,0.000
490001.247,37.109,29.297,24.902,-10.254,11.719,0.000,0.000,0.000
490001.251,19.531,11.230,27.344,-17.578,5.371,0.000,0.000,0.000
490001.255,19.531,4.395,30.273,-19.531,21.973,0.000,0.000,0.000
490001.259,27.344,12.695,31.738,-9.277,27.344,0.000,0.000,0.000
490001.263,28.320,23.438,35.156,2.930,28.320,0.000,0.000,0.000
490001.267,25.391,26.367,37.109,0.977,57.617,0.000,0.000,0.000
490001.270,8.301,20.508,33.203,-3.418,51.270,0.000,0.000,0.000
490001.274,20.020,24.902,27.832,-7.324,22.461,0.000,0.000,0.000
490001.278,46.387,34.180,28.809,-6.348,15.625,0.000,0.000,0.000
490001.282,42.480,32.227,34.668,4.395,12.207,0.000,0.000,0.000
490001.286,31.738,20.508,37.598,-8.301,20.996,0.000,0.000,0.000
490001.290,24.902,21.484,38.574,-17.090,22.949,0.000,0.000,0.000
490001.294,33.203,37.109,39.062,-8.301,25.391,0.000,0.000,0.000
490001.298,50.781,35.156,33.203,-14.160,26.855,0.000,0.000,0.000
490001.302,35.645,22.461,29.785,-21.484,20.020,0.000,0.000,0.000
490001.306,11.230,26.367,30.273,-17.578,13.184,0.000,0.000,0.000
490001.310,14.160,29.785,31.738,-13.184,20.020,0.000,0.000,0.000
490001.313,21.484,26.855,32.715,-7.324,38.086,0.000,0.000,0.000
490001.317,18.555,22.949,33.203,-10.254,58.594,0.000,0.000,0.000
490001.321,2.441,18.555,35.645,-12.207,58.594,0.000,0.000,0.000
490001.325,10.742,29.297,31.738,-3.906,22.949,0.000,0.000,0.000
490001.329,39.551,32.227,30.273,-0.488,3.906,0.000,0.000,0.000
490001.333,34.180,28.809,32.715,-2.930,19.043,0.000,0.000,0.000
490001.337,11.719,35.156,36.621,-6.348,41.504,0.000,0.000,0.000
490001.341,26.855,34.180,40.039,-9.277,55.176,0.000,0.000,0.000
490001.345,62.012,32.227,37.598,-2.441,53.711,0.000,0.000,0.000
490001.349,59.570,29.297,36.621,15.137,58.594,0.000,0.000,0.000
490001.352,29.297,28.320,37.598,15.625,40.039,0.000,0.000,0.000
490001.356,26.855,26.367,34.180,4.883,26.367,0.000,0.000,0.000
490001.360,53.711,30.273,27.832,17.578,43.457,0.000,0.000,0.000
490001.364,70.312,30.273,28.320,21.973,53.223,0.000,0.000,0.000
490001.368,51.270,29.297,35.645,2.930,72.754,0.000,0.000,0.000
490001.372,38.574,32.227,39.062,-2.441,78.613,0.000,0.000,0.000
490001.376,59.570,25.391,41.016,3.418,33.691,0.000,0.000,0.000
490001.380,72.266,33.203,38.574,3.906,18.066,0.000,0.000,0.000
490001.384,47.852,36.133,32.715,4.395,44.434,0.000,0.000,0.000
490001.388,23.438,22.949,33.691,6.836,59.570,0.000,0.000,0.000
490001.392,29.785,21.973,36.133,7.324,56.641,0.000,0.000,0.000
490001.395,59.570,36.621,33.203,3.906,26.367,0.000,0.000,0.000
490001.399,58.105,38.574,24.414,1.465,18.555,0.000,0.000,0.000
490001.403,23.926,25.391,23.438,-0.488,59.570,0.000,0.000,0.000
490001.407,13.184,24.902,26.367,-4.883,48.828,0.000,0.000,0.000
490001.411,36.621,35.645,26.367,0.977,14.160,0.000,0.000,0.000
490001.415,41.504,37.598,24.902,8.789,19.531,0.000,0.000,0.000
490001.419,9.277,17.578,23.438,1.953,21.973,0.000,0.000,0.000
490001.423,6.348,10.742,23.926,-10.254,24.414,0.000,0.000,0.000
490001.427,35.645,31.738,23.438,-7.812,21.973,0.000,0.000,0.000
490001.431,43.457,33.691,22.461,-0.488,20.996,0.000,0.000,0.000
490001.434,20.020,23.438,20.020,-3.418,34.180,0.000,0.000,0.000
490001.438,6.348,20.996,22.461,-4.395,39.551,0.000,0.000,0.000
490001.442,17.090,27.832,25.879,-2.930,32.227,0.000,0.000,0.000
490001.446,39.062,30.273,26.855,0.977,30.762,0.000,0.000,0.000
490001.450,41.992,22.949,26.367,0.977,33.691,0.000,0.000,0.000
490001.454,11.230,15.625,26.855,-1.953,37.598,0.000,0.000,0.000
490001.458,7.324,19.043,30.762,-9.277,40.039,0.000,0.000,0.000
490001.462,39.551,26.855,31.250,-8.301,29.297,0.000,0.000,0.000
490001.466,44.922,20.020,31.738,6.836,23.926,0.000,0.000,0.000
490001.470,20.020,23.438,33.691,-1.953,28.320,0.000,0.000,0.000
490001.474,5.859,25.879,33.691,-12.695,33.691,0.000,0.000,0.000
490001.477,26.855,22.461,32.227,-0.977,50.781,0.000,0.000,0.000
490001.481,39.062,25.391,34.180,2.930,52.734,0.000,0.000,0.000
490001.485,6.348,18.555,38.086,4.883,45.898,0.000,0.000,0.000
490001.489,-15.137,13.672,37.598,3.418,49.316,0.000,0.000,0.000
490001.493,22.949,16.602,35.156,7.324,22.949,0.000,0.000,0.000
490001.497,50.293,21.973,29.785,15.137,-1.465,0.000,0.000,0.000
490001.501,37.109,22.461,28.809,16.602,16.113,0.000,0.000,0.000
490001.505,36.621,17.090,33.203,16.113,56.152,0.000,0.000,0.000
490001.509,28.809,14.160,31.250,1.953,54.199,0.000,0.000,0.000
490001.513,46.387,21.484,30.273,-0.977,47.852,0.000,0.000,0.000
490001.517,49.316,32.227,37.598,-0.488,53.711,0.000,0.000,0.000
490001.520,10.254,25.879,35.645,-10.254,21.484,0.000,0.000,0.000
490001.524,22.949,20.508,28.320,-12.695,8.301,0.000,0.000,0.000
490001.528,51.758,28.809,31.250,-2.930,20.508,0.000,0.000,0.000
490001.532,54.688,29.785,34.668,10.254,33.203,0.000,0.000,0.000
490001.536,27.832,19.043,31.738,23.926,57.617,0.000,0.000,0.000
490001.540,28.809,15.137,32.715,20.508,62.988,0.000,0.000,0.000
490001.544,50.293,24.414,35.156,7.324,41.016,0.000,0.000,0.000
490001.548,54.199,27.832,37.598,15.625,15.137,0.000,0.000,0.000
490001.552,42.969,19.043,37.109,19.043,9.766,0.000,0.000,0.000
490001.556,26.367,11.230,32.715,15.625,28.809,0.000,0.000,0.000
490001.559,47.363,25.879,37.598,23.926,40.039,0.000,0.000,0.000
490001.563,63.965,35.156,42.480,33.691,51.758,0.000,0.000,0.000
490001.567,41.992,27.832,43.457,33.203,64.941,0.000,0.000,0.000
490001.571,27.344,17.578,41.992,36.133,75.684,0.000,0.000,0.000
490001.575,46.875,24.414,39.551,29.297,74.219,0.000,0.000,0.000
490001.579,69.336,38.574,40.527,28.320,50.293,0.000,0.000,0.000
490001.583,56.152,31.738,40.039,30.273,42.480,0.000,0.000,0.000
490001.587,38.086,23.438,39.062,21.484,52.246,0.000,0.000,0.000
490001.591,42.480,26.855,36.133,26.367,58.105,0.000,0.000,0.000
490001.595,62.500,36.621,36.133,23.926,69.336,0.000,0.000,0.000
490001.599,60.547,24.902,35.156,13.672,92.285,0.000,0.000,0.000
490001.602,25.879,12.695,31.738,7.324,79.102,0.000,0.000,0.000
490001.606,22.461,23.438,36.133,3.906,84.473,0.000,0.000,0.000
490001.610,47.363,31.250,35.156,13.672,63.477,0.000,0.000,0.000
490001.614,57.617,28.809,32.227,19.531,-17.090,0.000,0.000,0.000
490001.618,41.016,22.949,36.133,11.719,-25.391,0.000,0.000,0.000
490001.622,28.320,31.250,34.668,12.695,2.930,3.000,1.000,45.000
490001.626,46.875,34.668,31.738,13.672,15.625,0.000,0.000,0.000
490001.630,56.641,35.645,32.227,14.160,27.344,0.000,0.000,0.000
490001.634,43.945,39.551,30.762,15.137,40.039,0.000,0.000,0.000
490001.638,15.625,33.691,33.203,6.836,43.457,0.000,0.000,0.000
490001.642,8.301,33.691,35.645,4.395,61.523,0.000,0.000,0.000
490001.645,27.344,32.227,34.180,11.230,50.781,0.000,0.000,0.000
490001.649,30.762,32.715,33.691,7.812,24.414,0.000,0.000,0.000
490001.653,17.090,39.062,33.691,1.953,18.555,0.000,0.000,0.000
490001.657,8.301,35.156,33.203,0.000,26.367,0.000,0.000,0.000
490001.661,28.809,37.109,28.809,0.488,37.109,0.000,0.000,0.000
490001.665,40.039,51.758,28.809,1.953,36.133,0.000,0.000,0.000
490001.669,33.691,43.457,32.227,0.488,41.016,0.000,0.000,0.000
490001.673,26.367,36.133,30.762,-0.488,44.922,0.000,0.000,0.000
490001.677,36.621,49.316,29.785,9.766,42.480,0.000,0.000,0.000
490001.681,57.617,56.152,30.762,15.625,34.668,0.000,0.000,0.000
490001.684,47.363,45.898,26.855,-3.418,35.645,0.000,0.000,0.000
490001.688,36.621,32.715,24.902,-5.371,42.969,0.000,0.000,0.000
490001.692,48.828,36.621,27.832,4.395,41.016,0.000,0.000,0.000
490001.696,67.871,48.340,28.320,9.766,35.156,0.000,0.000,0.000
490001.700,74.707,48.828,26.367,5.371,43.457,0.000,0.000,0.000
490001.704,52.246,35.645,28.320,-0.488,45.410,0.000,0.000,0.000
490001.708,39.062,34.180,33.691,5.371,34.668,0.000,0.000,0.000
490001.712,47.363,57.129,36.133,7.812,27.344,0.000,0.000,0.000
490001.716,36.133,48.828,35.156,17.578,40.039,0.000,0.000,0.000
490001.720,11.719,32.227,35.156,18.066,60.547,0.000,0.000,0.000
490001.724,18.066,39.551,35.156,15.625,54.199,0.000,0.000,0.000
490001.727,44.922,41.992,34.180,29.785,34.180,0.000,0.000,0.000
490001.731,56.641,41.992,35.645,27.832,40.527,0.000,0.000,0.000
490001.735,36.133,30.762,38.574,15.625,48.340,0.000,0.000,0.000
490001.739,7.324,25.391,39.551,10.742,38.086,0.000,0.000,0.000
490001.743,41.016,31.738,37.598,12.695,32.227,0.000,0.000,0.000
490001.747,61.035,41.992,37.598,11.719,43.457,0.000,0.000,0.000
490001.751,32.227,29.785,37.598,0.488,61.523,0.000,0.000,0.000
490001.755,24.414,31.738,36.621,5.371,49.316,0.000,0.000,0.000
490001.759,47.363,47.852,35.645,11.719,37.598,0.000,0.000,0.000
490001.763,68.848,43.945,33.203,16.602,49.316,0.000,0.000,0.000
490001.767,62.500,40.527,37.109,23.438,45.410,0.000,0.000,0.000
490001.770,48.828,40.527,40.527,22.461,41.992,0.000,0.000,0.000
490001.774,45.898,36.621,36.621,16.113,58.105,0.000,0.000,0.000
490001.778,75.195,40.039,34.668,24.414,72.754,0.000,0.000,0.000
490001.782,75.684,42.480,37.598,37.598,68.848,0.000,0.000,0.000
490001.786,27.832,33.203,38.574,30.273,96.680,0.000,0.000,0.000
490001.790,20.996,26.855,33.203,13.184,130.859,0.000,0.000,0.000
490001.794,48.828,24.902,32.715,24.902,113.281,0.000,0.000,0.000
490001.798,59.570,31.250,36.133,32.227,55.176,0.000,0.000,0.000
490001.802,31.738,38.574,36.133,24.414,6.348,0.000,0.000,0.000
490001.806,22.461,32.227,34.180,21.484,42.969,0.000,0.000,0.000
490001.809,38.574,28.320,32.227,16.113,73.242,0.000,0.000,0.000
490001.813,56.641,36.621,27.344,6.836,41.504,0.000,0.000,0.000
490001.817,48.340,32.715,26.367,11.230,14.160,0.000,0.000,0.000
490001.821,25.391,17.090,21.484,-0.488,1.953,0.000,0.000,0.000
490001.825,34.180,20.020,21.973,-6.836,27.344,0.000,0.000,0.000
490001.829,61.523,33.203,33.203,14.648,54.688,0.000,0.000,0.000
490001.833,57.617,28.809,28.320,9.766,38.574,0.000,0.000,0.000
490001.837,28.320,21.484,23.926,-1.953,29.297,0.000,0.000,0.000
490001.841,33.691,17.578,21.484,-6.348,38.086,0.000,0.000,0.000
490001.845,45.410,25.879,30.273,-5.371,29.785,0.000,0.000,0.000
490001.849,33.691,39.062,39.551,-3.418,17.578,0.000,0.000,0.000
490001.852,24.414,28.809,29.297,-14.160,24.902,0.000,0.000,0.000
490001.856,8.789,16.113,27.832,-37.598,24.414,0.000,0.000,0.000
490001.860,12.207,16.113,36.133,-35.156,16.113,0.000,0.000,0.000
490001.864,31.738,15.137,69.824,-25.879,10.254,0.000,0.000,0.000
490001.868,15.625,13.184,38.086,-30.762,23.438,0.000,0.000,0.000
490001.872,3.906,18.555,1.465,-23.926,28.809,0.000,0.000,0.000
490001.876,19.531,24.414,25.391,-10.742,20.996,0.000,0.000,0.000
490001.880,35.645,28.320,20.508,-0.488,32.715,0.000,0.000,0.000
490001.884,33.691,24.902,12.207,0.000,41.504,0.000,0.000,0.000
490001.888,10.742,30.762,9.766,-11.719,47.852,0.000,0.000,0.000
490001.892,11.230,36.621,20.020,-10.742,24.414,0.000,0.000,0.000
490001.895,40.527,38.574,27.832,-7.812,1.465,0.000,0.000,0.000
490001.899,57.129,36.133,23.926,-7.324,23.926,0.000,0.000,0.000
490001.903,27.344,25.391,23.438,-10.742,42.480,0.000,0.000,0.000
490001.907,6.348,36.133,24.902,-11.719,36.133,0.000,0.000,0.000
490001.911,30.762,40.527,23.438,-1.953,31.738,0.000,0.000,0.000
490001.915,33.203,40.527,26.855,1.953,39.062,0.000,0.000,0.000
490001.919,19.043,45.898,25.879,-6.348,41.504,0.000,0.000,0.000
490001.923,23.438,46.875,16.602,-5.859,52.734,0.000,0.000,0.000
490001.927,40.527,48.828,16.602,3.418,60.547,0.000,0.000,0.000
490001.931,45.898,48.340,20.996,0.488,47.852,0.000,0.000,0.000
490001.934,24.902,42.480,19.531,8.301,30.273,1.000,1.000,45.000
490001.938,18.066,32.715,20.508,-0.977,20.508,0.000,0.000,0.000
490001.942,29.785,25.391,20.508,-18.555,25.879,0.000,0.000,0.000
490001.946,44.434,22.949,19.043,-13.672,34.668,0.000,0.000,0.000
490001.950,36.133,32.715,20.020,-20.996,33.203,0.000,0.000,0.000
490001.954,9.766,33.691,18.555,-26.367,23.926,0.000,0.000,0.000
490001.958,21.973,26.855,18.555,-25.879,18.555,0.000,0.000,0.000
490001.962,33.203,27.832,22.949,-16.113,17.090,0.000,0.000,0.000
490001.966,26.855,31.250,22.461,-7.324,20.508,0.000,0.000,0.000
490001.970,23.438,25.391,19.531,-22.461,24.414,0.000,0.000,0.000
490001.974,25.391,14.160,22.949,-20.508,32.227,0.000,0.000,0.000
490001.977,38.574,30.273,18.555,-9.277,36.621,0.000,0.000,0.000
490001.981,34.668,42.969,19.043,-12.695,33.691,0.000,0.000,0.000
490001.985,10.742,30.762,22.949,-22.949,27.832,0.000,0.000,0.000
490001.989,0.000,25.391,20.508,-20.020,36.621,0.000,0.000,0.000
490001.993,24.414,35.156,24.902,-9.277,46.387,0.000,0.000,0.000
490001.997,51.270,47.363,25.391,0.977,31.250,0.000,0.000,0.000
490002.001,40.527,45.410,22.461,6.836,20.020,0.000,0.000,0.000
490002.005,10.742,39.551,17.090,-9.766,30.273,0.000,0.000,0.000
490002.009,31.250,40.039,20.508,-28.809,59.570,0.000,0.000,0.000
490002.013,41.504,45.410,27.832,-24.414,46.387,0.000,0.000,0.000
490002.017,-4.395,37.598,26.367,-7.324,8.789,0.000,0.000,0.000
490002.020,-10.254,26.367,29.297,-8.789,19.531,0.000,0.000,0.000
490002.024,-4.883,29.297,33.203,-27.832,30.762,0.000,0.000,0.000
490002.028,3.418,42.480,34.668,-20.508,8.789,0.000,0.000,0.000
490002.032,26.855,39.551,29.785,-7.812,-18.555,0.000,0.000,0.000
490002.036,1.465,20.508,25.879,-13.184,-3.906,0.000,0.000,0.000
490002.040,-9.766,29.785,26.855,-22.949,39.062,0.000,0.000,0.000
490002.044,21.973,42.480,25.879,-22.949,38.086,0.000,0.000,0.000
490002.048,36.133,38.574,23.438,-17.578,-0.488,0.000,0.000,0.000
490002.052,6.836,32.715,23.926,-16.113,7.324,0.000,0.000,0.000
490002.056,-4.395,34.180,24.902,-23.438,12.207,0.000,0.000,0.000
490002.059,29.785,40.527,19.531,-20.508,11.230,0.000,0.000,0.000
490002.063,55.664,41.016,18.066,-6.348,21.973,0.000,0.000,0.000
490002.067,41.016,30.273,24.902,-7.324,23.438,0.000,0.000,0.000
490002.071,11.719,28.809,30.273,-23.926,20.508,0.000,0.000,0.000
490002.075,11.719,33.691,28.320,-27.344,25.391,0.000,0.000,0.000
490002.079,42.969,40.039,26.855,-22.949,25.879,0.000,0.000,0.000
490002.083,32.715,44.434,26.855,-29.297,17.090,0.000,0.000,0.000
490002.087,8.301,46.387,24.902,-33.691,19.531,0.000,0.000,0.000
490002.091,25.391,52.734,21.484,-21.484,31.738,0.000,0.000,0.000
490002.095,51.270,44.922,20.508,-29.785,36.133,0.000,0.000,0.000
490002.099,51.270,43.945,21.484,-29.297,34.668,0.000,0.000,0.000
490002.102,27.832,53.711,19.531,-18.066,30.762,0.000,0.000,0.000
490002.106,11.719,41.992,18.555,-35.156,25.391,0.000,0.000,0.000
490002.110,21.484,33.203,25.391,-20.508,28.809,0.000,0.000,0.000
490002.114,25.879,29.785,32.715,-7.324,22.461,0.000,0.000,0.000
490002.118,10.742,20.996,32.227,-26.367,22.949,0.000,0.000,0.000
490002.122,0.000,19.043,28.320,-25.391,26.367,0.000,0.000,0.000
490002.126,16.113,21.973,29.297,-16.602,13.672,0.000,0.000,0.000
490002.130,39.551,38.086,32.227,-28.320,5.859,0.000,0.000,0.000
490002.134,30.762,41.992,28.809,-19.531,11.719,0.000,0.000,0.000
490002.138,13.672,26.367,26.367,-5.859,27.344,0.000,0.000,0.000
490002.141,16.602,27.344,34.180,-16.113,28.809,0.000,0.000,0.000
490002.145,32.227,35.156,32.715,-15.625,21.973,0.000,0.000,0.000
490002.149,26.855,33.691,29.297,-5.859,24.902,0.000,0.000,0.000
490002.153,-2.930,23.926,31.250,-4.883,27.832,0.000,0.000,0.000
490002.157,-3.906,24.414,28.809,-10.742,27.344,0.000,0.000,0.000
490002.161,35.156,34.180,22.461,-15.137,34.180,0.000,0.000,0.000
490002.165,48.340,40.527,21.973,-14.160,36.621,0.000,0.000,0.000
490002.169,24.414,32.715,30.273,-17.578,37.598,0.000,0.000,0.000
490002.173,21.484,21.973,34.180,-11.719,41.016,0.000,0.000,0.000
490002.177,39.551,30.273,34.668,0.488,40.039,0.000,0.000,0.000
490002.181,49.805,35.645,34.180,6.836,43.945,0.000,0.000,0.000
490002.184,44.434,30.762,28.809,5.371,46.875,0.000,0.000,0.000
490002.188,33.691,24.902,24.902,6.836,51.270,0.000,0.000,0.000
490002.192,26.855,20.996,31.738,5.859,43.945,0.000,0.000,0.000
490002.196,42.969,19.531,37.109,4.883,39.551,0.000,0.000,0.000
490002.200,51.270,19.043,28.809,1.465,40.039,0.000,0.000,0.000
490002.204,20.996,16.602,26.855,-3.418,33.203,0.000,0.000,0.000
490002.208,11.719,18.555,30.273,-5.371,32.715,0.000,0.000,0.000
490002.212,42.480,27.344,28.320,-5.371,35.645,0.000,0.000,0.000
490002.216,42.969,31.738,32.227,1.953,42.480,0.000,0.000,0.000
490002.220,17.578,28.320,29.297,-6.348,46.875,0.000,0.000,0.000
490002.224,12.695,25.879,22.949,-17.578,40.039,0.000,0.000,0.000
490002.227,31.250,20.996,26.855,-8.789,31.250,0.000,0.000,0.000
490002.231,41.016,19.043,25.879,-7.324,28.809,0.000,0.000,0.000
490002.235,11.719,26.367,23.438,-17.090,26.367,0.000,0.000,0.000
490002.239,1.465,30.273,29.785,-19.043,28.320,0.000,0.000,0.000
490002.243,25.391,20.996,29.785,-12.207,33.203,0.000,0.000,0.000
490002.247,34.668,23.926,32.715,-9.277,25.391,0.000,0.000,0.000
490002.251,20.996,27.832,36.621,-10.742,22.461,0.000,0.000,0.000
490002.255,0.488,18.066,25.391,-18.066,16.113,0.000,0.000,0.000
490002.259,0.000,19.531,21.484,-15.625,7.812,0.000,0.000,0.000
490002.263,22.949,25.879,27.832,-17.090,6.348,0.000,0.000,0.000
490002.266,19.043,32.715,30.762,-32.715,-3.418,0.000,0.000,0.000
490002.270,-5.859,24.414,29.785,-35.645,-3.418,0.000,0.000,0.000
490002.274,-11.719,21.484,27.344,-23.926,9.766,0.000,0.000,0.000
490002.278,19.043,27.344,27.832,-14.160,31.250,0.000,0.000,0.000
490002.282,27.344,32.227,26.367,-14.160,30.273,0.000,0.000,0.000
490002.286,7.324,25.879,33.691,-5.371,22.461,0.000,0.000,0.000
490002.290,3.418,24.902,39.062,4.395,33.691,0.000,0.000,0.000
490002.294,22.461,35.645,31.250,-2.930,17.090,0.000,0.000,0.000
490002.298,30.762,37.109,27.344,-6.836,-4.883,0.000,0.000,0.000
490002.302,22.949,27.832,30.762,-11.230,-2.441,0.000,0.000,0.000
490002.306,20.996,19.531,33.691,-14.648,6.836,0.000,0.000,0.000
490002.309,18.555,32.227,31.738,-1.465,8.301,0.000,0.000,0.000
490002.313,22.461,47.852,31.738,7.324,15.625,0.000,0.000,0.000
490002.317,16.113,29.297,34.180,-3.418,25.391,0.000,0.000,0.000
490002.321,0.000,20.996,26.855,-3.906,22.949,0.000,0.000,0.000
490002.325,6.836,37.598,28.320,3.906,23.926,0.000,0.000,0.000
490002.329,29.297,40.527,37.109,9.766,30.762,3.000,1.000,45.000
490002.333,28.320,35.645,36.133,13.184,31.250,0.000,0.000,0.000
490002.337,21.973,34.180,35.156,-0.977,30.762,0.000,0.000,0.000
490002.341,24.902,39.551,34.668,-8.789,32.227,0.000,0.000,0.000
490002.345,29.785,41.992,32.227,-5.859,28.320,0.000,0.000,0.000
490002.349,25.879,33.691,32.227,7.324,34.180,0.000,0.000,0.000
490002.352,1.465,27.832,30.762,8.789,52.734,0.000,0.000,0.000
490002.356,-8.301,38.574,29.785,-11.230,71.777,0.000,0.000,0.000
490002.360,16.113,46.387,28.320,0.488,64.453,0.000,0.000,0.000
490002.364,38.086,40.527,27.832,18.555,23.438,0.000,0.000,0.000
490002.368,24.902,35.645,28.809,2.441,6.348,0.000,0.000,0.000
490002.372,8.301,38.086,29.297,-15.137,7.812,0.000,0.000,0.000
490002.376,17.578,35.156,31.738,-4.883,17.090,0.000,0.000,0.000
490002.380,40.039,37.109,33.203,7.324,21.973,0.000,0.000,0.000
490002.384,43.945,39.551,33.691,17.090,24.902,0.000,0.000,0.000
490002.388,19.531,37.598,34.668,12.695,38.086,0.000,0.000,0.000
490002.391,27.344,39.062,29.297,5.371,31.738,0.000,0.000,0.000
490002.395,60.547,41.504,21.484,12.207,36.621,0.000,0.000,0.000
490002.399,55.664,40.527,27.832,21.484,48.828,0.000,0.000,0.000
490002.403,42.480,35.645,33.691,13.184,47.363,0.000,0.000,0.000
490002.407,36.621,25.879,33.691,6.348,37.598,0.000,0.000,0.000
490002.411,55.664,23.438,33.203,15.137,34.668,0.000,0.000,0.000
490002.415,62.988,40.039,30.273,25.391,38.574,0.000,0.000,0.000
490002.419,36.621,36.133,32.227,20.508,43.457,0.000,0.000,0.000
490002.423,12.207,26.855,33.203,7.812,45.410,0.000,0.000,0.000
490002.427,37.109,34.668,29.785,12.695,42.969,0.000,0.000,0.000
490002.431,76.172,45.410,27.832,13.672,55.664,0.000,0.000,0.000
490002.434,34.668,38.574,31.250,14.160,56.641,0.000,0.000,0.000
490002.438,7.324,29.785,34.180,9.766,23.438,0.000,0.000,0.000
490002.442,39.062,31.250,35.645,8.301,18.066,0.000,0.000,0.000
490002.446,52.734,35.156,36.133,15.625,27.832,0.000,0.000,0.000
490002.450,34.180,35.645,35.156,16.113,36.133,0.000,0.000,0.000
490002.454,9.766,19.043,31.738,12.207,46.387,0.000,0.000,0.000
490002.458,16.602,23.438,27.344,8.301,52.246,0.000,0.000,0.000
490002.462,44.434,42.480,33.691,10.742,46.387,0.000,0.000,0.000
490002.466,54.688,42.480,35.645,12.695,44.922,0.000,0.000,0.000
490002.470,27.832,38.574,26.367,0.000,79.102,0.000,0.000,0.000
490002.474,16.113,38.574,24.902,-4.395,65.918,0.000,0.000,0.000
490002.477,48.340,44.922,31.250,-1.953,0.000,0.000,0.000,0.000
490002.481,58.594,47.363,31.738,-7.324,-6.348,0.000,0.000,0.000
490002.485,38.086,39.062,26.367,-0.488,12.695,0.000,0.000,0.000
490002.489,25.879,29.297,24.902,-5.859,21.973,0.000,0.000,0.000
490002.493,33.691,35.156,29.297,-5.859,25.879,0.000,0.000,0.000
490002.497,57.617,43.945,28.320,4.395,22.949,0.000,0.000,0.000
490002.501,49.805,32.227,28.320,-5.859,27.344,0.000,0.000,0.000
490002.505,19.531,37.109,25.879,-14.160,31.250,0.000,0.000,0.000
490002.509,26.855,50.781,21.973,-15.137,30.762,0.000,0.000,0.000
490002.513,48.828,38.574,28.809,-2.441,35.156,0.000,0.000,0.000
490002.516,44.922,32.715,31.738,-3.418,33.691,0.000,0.000,0.000
490002.520,23.926,40.527,30.273,-10.254,38.086,0.000,0.000,0.000
490002.524,20.020,38.086,28.320,-4.883,37.598,0.000,0.000,0.000
490002.528,50.293,38.086,26.855,-11.719,34.180,0.000,0.000,0.000
490002.532,49.316,41.992,30.273,-14.160,32.715,0.000,0.000,0.000
490002.536,23.438,30.762,28.320,-17.090,29.785,0.000,0.000,0.000
490002.540,26.855,28.320,25.879,-19.043,36.133,0.000,0.000,0.000
490002.544,50.293,29.297,27.344,-16.113,40.527,0.000,0.000,0.000
490002.548,50.293,28.320,28.809,-10.742,33.691,0.000,0.000,0.000
490002.552,32.227,29.297,34.180,-14.160,26.855,0.000,0.000,0.000
490002.556,21.484,28.809,34.668,-14.648,32.227,0.000,0.000,0.000
490002.559,22.949,31.250,31.250,-0.488,37.109,0.000,0.000,0.000
490002.563,46.875,36.133,32.715,-1.953,46.875,0.000,0.000,0.000
490002.567,38.574,41.504,32.715,-15.137,53.711,0.000,0.000,0.000
490002.571,19.043,29.785,34.180,-20.020,37.109,0.000,0.000,0.000
490002.575,25.391,27.832,36.133,-18.066,27.344,0.000,0.000,0.000
490002.579,47.363,41.016,33.691,-8.789,32.715,0.000,0.000,0.000
490002.583,43.457,34.180,33.691,-3.906,29.785,0.000,0.000,0.000
490002.587,23.438,24.414,37.598,-9.277,36.133,0.000,0.000,0.000
490002.591,20.508,18.066,32.715,-17.578,47.852,0.000,0.000,0.000
490002.595,26.367,25.879,28.320,-14.160,32.227,0.000,0.000,0.000
490002.599,32.715,32.715,32.227,-4.395,25.391,0.000,0.000,0.000
490002.602,18.066,24.414,36.133,-8.301,34.180,0.000,0.000,0.000
490002.606,12.695,24.414,32.715,-18.066,26.367,0.000,0.000,0.000
490002.610,35.645,32.715,33.691,-17.090,38.574,0.000,0.000,0.000
490002.614,55.664,40.039,30.762,-10.742,49.805,0.000,0.000,0.000
490002.618,37.109,32.227,26.367,-14.160,35.645,0.000,0.000,0.000
490002.622,18.555,26.855,33.203,-13.672,40.527,0.000,0.000,0.000
490002.626,37.598,33.691,33.691,-3.906,53.223,0.000,0.000,0.000
490002.630,53.711,29.785,27.832,-5.371,27.344,0.000,0.000,0.000
490002.634,44.922,20.508,30.762,-5.859,6.348,0.000,0.000,0.000
490002.638,23.438,23.438,30.273,-16.602,9.277,0.000,0.000,0.000
490002.641,19.043,25.879,26.855,-27.344,7.812,0.000,0.000,0.000
490002.645,40.527,31.738,27.832,-19.531,15.625,0.000,0.000,0.000
490002.649,31.250,25.879,30.273,-9.766,35.645,0.000,0.000,0.000
490002.653,0.488,20.508,28.809,-14.648,38.574,0.000,0.000,0.000
490002.657,7.812,29.785,25.879,-18.066,34.180,1.000,1.000,0.000
490002.661,49.316,22.461,27.344,-3.418,40.527,0.000,0.000,0.000
490002.665,62.988,27.344,24.902,5.371,47.852,0.000,0.000,0.000
490002.669,36.133,35.645,22.949,-0.977,52.246,0.000,0.000,0.000
490002.673,18.066,21.973,28.320,-8.301,51.758,0.000,0.000,0.000
490002.677,30.273,20.508,33.203,-2.930,51.270,0.000,0.000,0.000
490002.681,43.457,25.879,30.762,7.324,46.875,0.000,0.000,0.000
490002.684,23.926,29.785,26.855,-7.324,28.809,0.000,0.000,0.000
490002.688,12.207,29.297,24.902,-22.949,24.902,0.000,0.000,0.000
490002.692,36.621,24.902,24.414,-12.207,34.180,0.000,0.000,0.000
490002.696,49.316,33.203,27.832,-7.812,25.391,0.000,0.000,0.000
490002.700,40.527,36.621,27.832,-8.301,20.020,0.000,0.000,0.000
490002.704,25.879,30.273,27.832,-1.465,27.344,0.000,0.000,0.000
490002.708,19.531,28.809,33.203,-10.254,29.297,0.000,0.000,0.000
490002.712,37.598,34.668,34.668,-16.113,39.551,0.000,0.000,0.000
490002.716,50.781,40.039,34.668,-7.324,61.035,0.000,0.000,0.000
490002.720,28.809,30.762,32.715,-9.277,50.293,0.000,0.000,0.000
490002.723,13.672,19.531,26.855,-11.719,25.391,0.000,0.000,0.000
490002.727,47.363,28.809,27.832,-1.953,27.344,0.000,0.000,0.000
490002.731,55.664,41.504,31.250,-7.324,23.438,0.000,0.000,0.000
490002.735,20.996,37.598,25.391,-23.926,17.090,0.000,0.000,0.000
490002.739,11.230,29.785,20.020,-19.531,21.973,0.000,0.000,0.000
490002.743,34.668,32.227,25.879,-7.812,37.109,0.000,0.000,0.000
490002.747,45.410,40.039,30.273,-4.395,42.480,0.000,0.000,0.000
490002.751,39.062,33.691,30.762,-3.418,25.391,0.000,0.000,0.000
490002.755,24.414,23.926,29.297,-9.766,7.324,0.000,0.000,0.000
490002.759,27.344,26.367,28.320,-18.555,15.137,0.000,0.000,0.000
490002.763,52.734,32.227,29.297,-10.742,37.598,0.000,0.000,0.000
490002.766,44.922,23.438,28.809,-3.418,33.203,0.000,0.000,0.000
490002.770,13.184,16.602,32.715,7.812,37.598,0.000,0.000,0.000
490002.774,19.043,20.508,34.668,5.859,52.734,0.000,0.000,0.000
490002.778,44.434,31.250,31.250,-7.324,43.945,0.000,0.000,0.000
490002.782,37.109,33.691,26.367,-7.812,46.875,0.000,0.000,0.000
490002.786,25.879,23.438,27.832,-5.371,47.363,0.000,0.000,0.000
490002.790,21.484,28.809,27.344,2.930,34.668,0.000,0.000,0.000
490002.794,37.109,31.738,20.996,15.137,43.457,0.000,0.000,0.000
490002.798,50.781,28.320,24.414,14.160,41.504,0.000,0.000,0.000
490002.802,41.016,25.879,23.926,2.441,24.902,0.000,0.000,0.000
490002.806,30.762,25.879,20.020,-3.418,32.227,0.000,0.000,0.000
490002.809,25.391,26.367,21.484,-4.395,35.156,0.000,0.000,0.000
490002.813,39.062,30.273,24.414,-1.465,26.855,0.000,0.000,0.000
490002.817,37.109,25.879,23.926,-2.930,31.250,0.000,0.000,0.000
490002.821,17.090,21.973,23.926,-11.719,38.574,0.000,0.000,0.000
490002.825,36.133,32.227,21.484,-11.719,42.969,0.000,0.000,0.000
490002.829,64.453,28.320,13.672,-4.883,41.992,0.000,0.000,0.000
490002.833,48.828,28.809,16.113,-4.395,37.598,0.000,0.000,0.000
490002.837,24.902,39.062,21.973,-0.977,39.551,0.000,0.000,0.000
490002.841,25.391,38.574,22.461,13.184,46.387,0.000,0.000,0.000
490002.845,44.434,45.898,28.320,8.789,37.598,0.000,0.000,0.000
490002.848,52.734,51.270,31.738,-7.324,26.367,0.000,0.000,0.000
490002.852,42.969,42.480,32.227,-10.742,36.133,0.000,0.000,0.000
490002.856,8.789,33.691,25.879,-12.207,42.480,0.000,0.000,0.000
490002.860,5.859,34.668,22.461,-4.883,65.430,0.000,0.000,0.000
490002.864,34.180,36.621,23.926,-6.348,80.078,0.000,0.000,0.000
490002.868,25.391,32.227,24.902,-12.695,51.270,0.000,0.000,0.000
490002.872,14.160,21.973,27.344,-10.254,13.672,0.000,0.000,0.000
490002.876,25.391,15.625,27.832,-5.859,-10.254,0.000,0.000,0.000
490002.880,42.969,30.273,29.297,-7.812,-9.277,0.000,0.000,0.000
490002.884,25.879,33.203,28.809,-8.789,-4.883,0.000,0.000,0.000
490002.888,12.207,20.996,27.344,-6.348,2.441,0.000,0.000,0.000
490002.891,25.879,22.461,28.320,0.977,11.230,0.000,0.000,0.000
490002.895,40.039,33.691,25.879,9.277,16.602,0.000,0.000,0.000
490002.899,37.109,36.621,24.902,0.000,24.902,0.000,0.000,0.000
490002.903,16.113,25.879,27.832,-4.395,27.344,0.000,0.000,0.000
490002.907,1.953,21.973,26.367,-8.301,20.020,0.000,0.000,0.000
490002.911,30.762,29.785,24.902,-3.906,21.973,0.000,0.000,0.000
490002.915,48.828,35.645,26.855,8.789,26.367,0.000,0.000,0.000
490002.919,33.203,28.320,23.926,6.348,27.832,0.000,0.000,0.000
490002.923,34.668,26.855,18.555,8.301,40.527,0.000,0.000,0.000
490002.927,44.434,44.922,21.973,9.277,51.270,0.000,0.000,0.000
490002.931,46.387,52.734,27.344,14.160,57.129,0.000,0.000,0.000
490002.934,47.852,53.223,28.809,18.066,49.805,0.000,0.000,0.000
490002.938,33.691,49.316,27.344,15.625,54.688,0.000,0.000,0.000
490002.942,26.855,45.898,26.855,19.531,70.801,0.000,0.000,0.000
490002.946,47.852,45.410,25.391,21.973,44.434,0.000,0.000,0.000
490002.950,37.109,36.133,25.879,20.020,20.996,0.000,0.000,0.000
490002.954,7.324,27.832,26.855,17.090,28.320,0.000,0.000,0.000
490002.958,25.391,25.391,28.809,13.672,45.898,0.000,0.000,0.000
490002.962,63.477,28.809,30.762,17.578,46.387,0.000,0.000,0.000
490002.966,42.480,23.438,33.691,24.902,31.738,0.000,0.000,0.000
490002.970,2.930,23.926,35.645,22.461,26.855,0.000,0.000,0.000
490002.973,-2.441,32.227,34.668,13.672,23.438,0.000,0.000,0.000
490002.977,19.043,23.926,29.297,8.301,20.996,0.000,0.000,0.000
490002.981,24.414,21.973,24.902,3.418,18.066,0.000,0.000,0.000
490002.985,3.418,20.996,25.391,-3.906,16.602,0.000,0.000,0.000
490002.989,-2.441,13.672,27.344,-6.348,25.391,0.000,0.000,0.000
490002.993,7.324,19.043,30.762,1.465,44.922,0.000,0.000,0.000
490002.997,33.691,23.438,32.227,14.160,46.875,0.000,0.000,0.000
490003.001,28.320,15.625,35.156,14.648,9.277,0.000,0.000,0.000
490003.005,-0.488,14.648,36.133,2.441,-2.441,0.000,0.000,0.000
490003.009,9.766,12.695,32.715,-1.465,13.184,0.000,0.000,0.000
490003.013,44.922,18.555,31.738,3.906,24.414,0.000,0.000,0.000
490003.016,36.621,35.156,34.668,4.395,39.551,0.000,0.000,0.000
490003.020,7.324,27.832,31.250,-1.465,42.969,0.000,0.000,0.000
490003.024,16.113,22.949,31.250,0.488,29.297,0.000,0.000,0.000
490003.028,41.992,32.715,35.645,14.648,23.926,0.000,0.000,0.000
490003.032,49.316,36.133,38.574,16.113,22.461,0.000,0.000,0.000
490003.036,31.738,26.367,38.574,2.930,34.668,0.000,0.000,0.000
490003.040,17.578,26.855,36.621,-0.488,35.645,3.000,1.000,0.000
490003.044,37.109,39.551,34.180,8.789,12.207,0.000,0.000,0.000
490003.048,49.316,39.551,34.180,14.160,20.996,0.000,0.000,0.000
490003.052,24.414,24.902,36.133,6.836,33.203,0.000,0.000,0.000
490003.056,10.742,16.113,37.598,7.812,34.180,0.000,0.000,0.000
490003.059,27.832,30.273,38.574,14.648,37.109,0.000,0.000,0.000
490003.063,41.504,44.434,34.668,13.672,26.367,0.000,0.000,0.000
490003.067,46.875,33.203,34.180,13.672,32.227,0.000,0.000,0.000
490003.071,28.809,28.320,32.227,9.277,66.406,0.000,0.000,0.000
490003.075,19.531,31.738,33.203,8.301,68.359,0.000,0.000,0.000
490003.079,38.574,37.598,36.621,10.742,33.691,0.000,0.000,0.000
490003.083,40.039,35.645,39.062,4.883,22.461,0.000,0.000,0.000
490003.087,20.508,27.344,41.016,5.371,30.762,0.000,0.000,0.000
490003.091,20.020,31.738,40.039,10.254,27.344,0.000,0.000,0.000
490003.095,49.316,28.320,41.504,16.113,19.531,0.000,0.000,0.000
490003.098,56.641,17.578,41.016,16.602,29.785,0.000,0.000,0.000
490003.102,21.484,18.555,35.645,6.836,31.250,0.000,0.000,0.000
490003.106,5.371,24.414,36.133,9.766,19.531,0.000,0.000,0.000
490003.110,27.832,29.297,36.133,15.137,23.926,0.000,0.000,0.000
490003.114,40.039,25.879,32.227,5.371,44.434,0.000,0.000,0.000
490003.118,39.062,19.531,35.645,-3.906,26.855,0.000,0.000,0.000
490003.122,13.672,20.020,36.621,-6.836,9.277,0.000,0.000,0.000
490003.126,7.812,20.020,35.156,-1.465,25.879,0.000,0.000,0.000
490003.130,44.922,22.949,35.645,9.277,35.645,0.000,0.000,0.000
490003.134,52.734,25.391,38.086,12.695,29.785,0.000,0.000,0.000
490003.138,27.832,20.996,35.645,10.742,30.762,0.000,0.000,0.000
490003.141,20.996,21.484,32.715,16.602,53.223,0.000,0.000,0.000
490003.145,45.410,24.902,34.668,17.578,41.992,0.000,0.000,0.000
490003.149,42.969,26.367,35.156,15.625,19.043,0.000,0.000,0.000
490003.153,22.949,27.832,34.668,10.254,28.809,0.000,0.000,0.000
490003.157,20.996,18.066,34.180,13.184,57.129,0.000,0.000,0.000
490003.161,44.434,18.555,34.180,24.414,54.199,0.000,0.000,0.000
490003.165,52.246,36.621,34.180,22.461,34.180,0.000,0.000,0.000
490003.169,25.879,29.297,33.691,7.324,35.645,0.000,0.000,0.000
490003.173,22.461,18.066,37.109,8.301,39.551,0.000,0.000,0.000
490003.177,35.645,25.391,37.598,5.859,54.199,0.000,0.000,0.000
490003.181,57.129,36.133,35.645,1.953,44.922,0.000,0.000,0.000
490003.184,43.457,32.715,33.691,1.953,14.648,0.000,0.000,0.000
490003.188,21.484,21.973,32.715,-3.418,19.043,0.000,0.000,0.000
490003.192,43.945,29.297,30.762,3.906,34.668,0.000,0.000,0.000
490003.196,59.570,42.480,27.832,5.859,41.016,0.000,0.000,0.000
490003.200,50.781,46.387,27.832,-3.906,38.574,0.000,0.000,0.000
490003.204,24.902,33.203,29.297,-4.883,51.270,0.000,0.000,0.000
490003.208,20.508,33.691,31.250,4.395,62.500,0.000,0.000,0.000
490003.212,42.969,49.805,31.250,10.254,40.527,0.000,0.000,0.000
490003.216,48.340,43.457,30.273,8.789,27.344,0.000,0.000,0.000
490003.220,26.855,28.809,28.809,1.953,30.273,0.000,0.000,0.000
490003.223,13.672,28.809,30.762,-2.441,30.273,0.000,0.000,0.000
490003.227,31.738,38.574,31.738,4.395,41.504,0.000,0.000,0.000
490003.231,31.738,43.457,30.273,5.859,70.312,0.000,0.000,0.000
490003.235,17.090,35.645,30.273,4.883,73.242,0.000,0.000,0.000
490003.239,15.625,29.785,29.297,4.395,20.996,0.000,0.000,0.000
490003.243,31.250,33.203,31.250,2.441,3.906,0.000,0.000,0.000
490003.247,39.551,39.062,35.156,7.812,-0.488,0.000,0.000,0.000
490003.251,24.902,32.715,34.668,15.137,3.418,0.000,0.000,0.000
490003.255,10.742,32.227,33.691,11.230,22.949,0.000,0.000,0.000
490003.259,24.414,44.434,31.250,2.930,23.438,0.000,0.000,0.000
490003.263,37.109,40.039,30.762,11.719,23.438,0.000,0.000,0.000
490003.266,35.156,34.668,31.250,16.113,31.250,0.000,0.000,0.000
490003.270,14.648,37.109,28.809,6.348,34.668,0.000,0.000,0.000
490003.274,9.766,37.598,27.832,5.859,35.156,0.000,0.000,0.000
490003.278,41.504,41.992,28.320,14.160,33.203,0.000,0.000,0.000
490003.282,42.480,40.527,27.832,13.672,29.785,0.000,0.000,0.000
490003.286,18.066,26.855,28.809,13.672,30.762,0.000,0.000,0.000
490003.290,14.648,28.809,30.762,9.766,43.457,0.000,0.000,0.000
490003.294,31.738,26.855,28.320,7.812,46.875,0.000,0.000,0.000
490003.298,41.504,27.344,24.902,14.160,29.785,0.000,0.000,0.000
490003.302,35.156,36.621,27.344,13.184,20.020,0.000,0.000,0.000
490003.305,23.926,26.855,29.297,2.930,19.531,0.000,0.000,0.000
490003.309,18.555,31.738,27.832,5.371,18.066,0.000,0.000,0.000
490003.313,41.992,39.551,29.297,15.137,28.320,0.000,0.000,0.000
490003.317,39.062,36.621,29.297,10.742,57.129,0.000,0.000,0.000
490003.321,16.113,25.391,25.879,11.719,62.012,0.000,0.000,0.000
490003.325,21.973,21.484,24.902,6.836,28.320,0.000,0.000,0.000
490003.329,45.410,26.367,26.855,-2.930,16.113,0.000,0.000,0.000
490003.333,45.898,24.414,30.273,3.418,19.043,0.000,0.000,0.000
490003.337,31.250,18.066,28.320,5.371,10.254,0.000,0.000,0.000
490003.341,28.320,14.160,26.855,2.930,13.672,0.000,0.000,0.000
490003.345,40.527,27.344,29.785,11.230,35.645,0.000,0.000,0.000
490003.348,36.133,38.086,29.785,16.602,28.320,0.000,0.000,0.000
490003.352,22.461,21.484,32.227,19.043,17.578,0.000,0.000,0.000
490003.356,14.648,14.648,32.715,19.043,28.809,0.000,0.000,0.000
490003.360,37.598,21.973,29.785,10.742,35.156,0.000,0.000,0.000
490003.364,44.434,22.949,31.738,30.762,37.109,0.000,0.000,0.000
490003.368,23.926,18.066,30.273,34.180,37.109,0.000,0.000,0.000
490003.372,20.020,13.672,30.273,6.836,37.109,0.000,0.000,0.000
490003.376,31.250,18.555,29.785,-4.883,31.250,0.000,0.000,0.000
490003.380,45.410,14.648,31.738,16.113,28.320,2.000,1.000,45.000
490003.384,53.223,3.906,33.203,14.160,31.250,0.000,0.000,0.000
490003.388,32.715,5.371,30.762,-3.418,38.086,0.000,0.000,0.000
490003.391,8.789,23.438,27.344,-1.465,41.992,0.000,0.000,0.000
490003.395,41.992,28.320,29.297,8.301,42.969,0.000,0.000,0.000
490003.399,57.617,27.344,31.250,13.184,41.992,0.000,0.000,0.000
490003.403,30.762,26.367,30.762,7.324,44.922,0.000,0.000,0.000
490003.407,9.766,23.438,35.645,-0.977,55.176,0.000,0.000,0.000
490003.411,31.738,27.832,36.621,10.742,48.340,0.000,0.000,0.000
490003.415,48.828,30.273,36.621,20.996,39.062,0.000,0.000,0.000
490003.419,30.762,21.973,34.180,10.742,41.992,0.000,0.000,0.000
490003.423,19.043,19.043,27.832,12.695,41.504,0.000,0.000,0.000
490003.427,33.203,21.484,27.344,13.184,39.551,0.000,0.000,0.000
490003.430,57.617,19.531,29.785,13.672,39.062,0.000,0.000,0.000
490003.434,41.504,26.367,35.156,10.742,32.227,0.000,0.000,0.000
490003.438,19.043,30.273,33.203,-10.742,34.180,0.000,0.000,0.000
490003.442,31.738,22.461,27.832,-5.371,46.387,0.000,0.000,0.000
490003.446,40.527,21.484,31.250,15.137,49.316,0.000,0.000,0.000
490003.450,28.809,24.414,30.762,12.695,39.551,0.000,0.000,0.000
490003.454,24.902,19.043,30.762,-7.812,27.832,0.000,0.000,0.000
490003.458,18.555,11.719,33.203,5.859,30.762,0.000,0.000,0.000
490003.462,28.320,16.113,31.250,14.160,36.133,0.000,0.000,0.000
490003.466,45.898,20.020,30.273,-10.742,34.668,0.000,0.000,0.000
490003.470,17.578,10.254,26.855,-4.395,34.180,0.000,0.000,0.000
490003.473,23.926,-0.488,26.367,-1.953,37.598,0.000,0.000,0.000
490003.477,47.363,0.977,31.738,-5.859,37.109,0.000,0.000,0.000
490003.481,45.410,13.184,30.762,-4.395,27.344,0.000,0.000,0.000
490003.485,30.273,11.230,30.762,-26.855,23.926,0.000,0.000,0.000
490003.489,4.395,2.930,32.715,-25.391,22.461,0.000,0.000,0.000
490003.493,15.625,7.812,33.691,-18.555,20.508,0.000,0.000,0.000
490003.497,35.645,17.090,33.691,-10.742,25.879,0.000,0.000,0.000
490003.501,16.113,16.602,29.785,-6.836,37.109,0.000,0.000,0.000
490003.505,5.371,7.324,30.762,-5.859,75.684,0.000,0.000,0.000
490003.509,13.184,10.742,33.691,-5.859,97.656,0.000,0.000,0.000
490003.513,27.344,23.438,29.297,-11.230,10.254,0.000,0.000,0.000
490003.516,31.738,19.043,30.273,-10.254,-69.824,0.000,0.000,0.000
490003.520,5.859,11.230,32.227,-13.184,-50.781,0.000,0.000,0.000
490003.524,16.113,20.020,33.203,5.371,-22.461,0.000,0.000,0.000
490003.528,35.645,29.785,36.133,2.930,1.953,0.000,0.000,0.000
490003.532,34.668,25.879,33.203,-4.883,13.184,0.000,0.000,0.000
490003.536,20.508,11.230,30.762,1.953,0.000,0.000,0.000,0.000
490003.540,3.906,16.602,32.227,-4.883,-2.441,0.000,0.000,0.000
490003.544,28.809,27.344,34.668,6.836,24.902,0.000,0.000,0.000
490003.548,42.969,26.855,32.227,9.277,37.598,0.000,0.000,0.000
490003.552,26.855,20.508,28.809,-10.254,47.852,0.000,0.000,0.000
490003.555,10.254,18.555,30.762,-7.812,39.062,0.000,0.000,0.000
490003.559,24.414,27.832,31.250,2.441,16.602,0.000,0.000,0.000
490003.563,57.129,27.832,30.273,-2.441,11.230,0.000,0.000,0.000
490003.567,37.598,20.020,30.762,-11.230,16.113,0.000,0.000,0.000
490003.571,-0.488,20.996,28.809,-4.395,26.855,0.000,0.000,0.000
490003.575,7.812,32.227,29.297,3.418,24.902,0.000,0.000,0.000
490003.579,40.527,28.320,29.297,6.836,26.855,0.000,0.000,0.000
490003.583,43.945,23.926,27.832,0.977,29.297,0.000,0.000,0.000
490003.587,13.672,32.227,27.832,-11.230,22.949,0.000,0.000,0.000
490003.591,14.160,31.250,25.879,-10.742,23.926,0.000,0.000,0.000
490003.595,46.875,31.250,28.320,1.953,22.949,0.000,0.000,0.000
490003.598,37.598,31.738,32.715,3.418,20.508,0.000,0.000,0.000
490003.602,12.207,26.855,34.668,-1.953,26.367,0.000,0.000,0.000
490003.606,7.812,21.484,34.180,9.766,28.320,0.000,0.000,0.000
490003.610,19.043,21.973,29.785,9.277,29.297,0.000,0.000,0.000
490003.614,39.551,23.438,32.227,4.883,29.785,0.000,0.000,0.000
490003.618,20.020,25.879,31.738,3.418,30.762,0.000,0.000,0.000
490003.622,0.488,22.949,27.832,0.977,33.203,0.000,0.000,0.000
490003.626,24.902,27.344,23.926,15.137,34.180,0.000,0.000,0.000
490003.630,20.020,41.016,22.461,12.695,55.664,0.000,0.000,0.000
490003.634,21.484,37.109,30.273,14.648,60.547,0.000,0.000,0.000
490003.638,62.988,25.391,32.715,27.832,28.320,0.000,0.000,0.000
490003.641,49.316,23.438,28.809,18.066,26.855,0.000,0.000,0.000
490003.645,40.527,40.527,29.297,16.113,36.621,0.000,0.000,0.000
490003.649,54.688,41.016,30.273,22.949,55.176,0.000,0.000,0.000
490003.653,29.297,24.902,26.367,20.508,53.711,0.000,0.000,0.000
490003.657,31.738,25.391,27.344,6.348,25.391,0.000,0.000,0.000
490003.661,53.711,31.738,29.785,15.625,26.367,0.000,0.000,0.000
490003.665,44.434,28.809,30.273,25.391,25.391,0.000,0.000,0.000
490003.669,37.598,22.949,30.273,5.371,22.949,0.000,0.000,0.000
490003.673,24.414,25.391,27.344,-2.441,32.227,0.000,0.000,0.000
490003.677,37.109,24.414,29.297,11.230,23.926,0.000,0.000,0.000
490003.680,56.152,25.879,29.785,10.742,6.348,0.000,0.000,0.000
490003.684,42.969,19.043,28.320,3.906,17.090,0.000,0.000,0.000
490003.688,27.832,18.066,29.785,11.719,33.691,0.000,0.000,0.000
490003.692,37.109,32.715,30.762,18.066,35.156,0.000,0.000,0.000
490003.696,62.500,34.180,33.691,21.973,41.992,0.000,0.000,0.000
490003.700,61.035,33.203,33.691,21.484,30.273,0.000,0.000,0.000
490003.704,38.574,30.762,30.762,10.254,16.602,0.000,0.000,0.000
490003.708,26.367,29.297,30.273,4.883,22.949,0.000,0.000,0.000
490003.712,52.246,36.133,29.297,17.090,23.438,0.000,0.000,0.000
490003.716,75.195,40.039,29.785,20.508,20.996,0.000,0.000,0.000
490003.720,42.969,40.039,31.250,16.602,17.578,0.000,0.000,0.000
490003.723,22.461,32.715,30.273,11.230,22.949,0.000,0.000,0.000
490003.727,41.504,29.785,25.879,15.137,28.809,0.000,0.000,0.000
490003.731,57.129,33.691,27.832,28.320,30.762,0.000,0.000,0.000
490003.735,31.738,34.180,29.297,23.438,32.227,0.000,0.000,0.000
490003.739,10.254,26.367,26.367,13.672,33.203,0.000,0.000,0.000
490003.743,38.086,25.391,29.297,19.043,29.297,0.000,0.000,0.000
490003.747,47.852,30.762,34.180,27.344,26.855,0.000,0.000,0.000
490003.751,29.785,23.926,33.691,25.879,28.809,0.000,0.000,0.000
490003.755,15.625,10.742,32.715,19.531,22.461,0.000,0.000,0.000
490003.759,19.531,8.301,29.785,8.789,24.902,0.000,0.000,0.000
490003.763,32.227,18.555,28.809,17.090,31.250,0.000,0.000,0.000
490003.766,26.855,29.297,29.785,16.113,11.719,0.000,0.000,0.000
490003.770,11.719,15.137,31.250,0.000,2.930,0.000,0.000,0.000
490003.774,-1.465,11.230,31.738,3.418,4.883,0.000,0.000,0.000
490003.778,17.578,21.484,27.344,6.348,11.719,0.000,0.000,0.000
490003.782,35.156,25.879,25.879,7.812,19.531,4.000,1.000,45.000
490003.786,17.090,20.508,28.809,17.090,7.812,0.000,0.000,0.000
490003.790,14.160,16.113,30.762,21.973,17.090,0.000,0.000,0.000
490003.794,29.785,26.367,27.344,21.973,28.809,0.000,0.000,0.000
490003.798,43.945,33.203,27.832,21.484,20.996,0.000,0.000,0.000
490003.802,25.879,22.949,27.344,13.672,26.367,0.000,0.000,0.000
490003.805,18.066,8.789,20.508,8.789,44.434,0.000,0.000,0.000
490003.809,36.133,21.484,19.043,10.742,39.062,0.000,0.000,0.000
490003.813,40.039,37.598,18.555,12.695,35.645,0.000,0.000,0.000
490003.817,27.832,20.020,23.438,13.184,34.668,0.000,0.000,0.000
490003.821,19.043,13.184,30.762,12.695,12.695,0.000,0.000,0.000
490003.825,31.738,22.949,31.250,15.625,15.137,0.000,0.000,0.000
490003.829,64.941,13.672,30.273,27.344,26.855,0.000,0.000,0.000
490003.833,61.035,1.465,28.809,35.156,33.691,0.000,0.000,0.000
490003.837,37.109,20.020,28.809,32.715,37.109,0.000,0.000,0.000
490003.841,25.879,38.086,26.855,20.020,33.203,0.000,0.000,0.000
490003.845,41.016,44.922,21.484,14.160,30.762,0.000,0.000,0.000
490003.848,56.152,34.180,18.555,20.020,22.949,0.000,0.000,0.000
490003.852,29.297,27.344,21.973,9.277,14.648,0.000,0.000,0.000
490003.856,2.441,41.016,28.809,7.324,14.160,0.000,0.000,0.000
490003.860,17.090,39.551,31.250,24.414,17.578,0.000,0.000,0.000
490003.864,41.016,30.762,34.180,37.598,23.438,0.000,0.000,0.000
490003.868,31.738,15.137,37.109,24.414,24.902,0.000,0.000,0.000
490003.872,20.020,8.789,36.621,9.766,24.414,0.000,0.000,0.000
490003.876,29.785,18.555,30.273,17.578,29.297,0.000,0.000,0.000
490003.880,37.598,26.367,25.879,13.672,32.227,0.000,0.000,0.000
490003.884,41.992,20.996,26.367,13.184,32.227,0.000,0.000,0.000
490003.887,16.602,20.020,24.902,19.043,14.648,0.000,0.000,0.000
490003.891,4.883,23.926,21.973,12.207,6.348,0.000,0.000,0.000
490003.895,29.785,37.109,20.020,18.066,16.602,0.000,0.000,0.000
490003.899,46.875,41.016,23.926,18.555,16.602,0.000,0.000,0.000
490003.903,20.996,33.203,25.879,5.859,10.742,0.000,0.000,0.000
490003.907,-1.953,23.926,29.297,12.695,24.902,0.000,0.000,0.000
490003.911,31.738,3.906,35.645,15.137,41.504,0.000,0.000,0.000
490003.915,42.480,11.719,34.180,10.742,24.414,0.000,0.000,0.000
490003.919,14.648,41.992,30.762,10.742,9.766,0.000,0.000,0.000
490003.923,-2.930,43.457,29.785,7.812,13.672,0.000,0.000,0.000
490003.927,16.113,31.738,31.738,7.324,20.020,0.000,0.000,0.000
490003.930,33.203,19.531,33.691,19.531,21.973,0.000,0.000,0.000
490003.934,23.438,20.020,33.691,32.715,14.648,0.000,0.000,0.000
490003.938,13.184,23.926,32.227,23.926,18.555,0.000,0.000,0.000
490003.942,26.367,22.949,26.855,19.531,27.832,0.000,0.000,0.000
490003.946,39.551,22.949,23.926,15.137,18.066,0.000,0.000,0.000
490003.950,38.574,29.297,30.273,17.578,14.648,0.000,0.000,0.000
490003.954,19.531,14.648,37.109,17.090,33.691,0.000,0.000,0.000
490003.958,8.789,8.789,30.762,6.348,38.086,0.000,0.000,0.000
490003.962,31.738,36.133,28.320,14.160,30.273,0.000,0.000,0.000
490003.966,36.621,42.969,33.691,26.367,34.180,0.000,0.000,0.000
490003.970,23.926,34.180,27.832,21.973,36.621,0.000,0.000,0.000
490003.973,21.973,33.691,28.320,6.836,32.715,0.000,0.000,0.000
490003.977,40.039,49.805,33.691,17.578,29.297,0.000,0.000,0.000
490003.981,46.387,48.828,30.762,24.414,32.715,0.000,0.000,0.000
490003.985,35.156,45.410,28.320,10.742,37.109,0.000,0.000,0.000
490003.989,23.926,39.551,30.273,10.742,40.527,0.000,0.000,0.000
490003.993,34.668,36.133,35.156,2.441,41.992,0.000,0.000,0.000
490003.997,51.270,39.062,34.180,11.230,35.156,0.000,0.000,0.000
490004.001,37.598,27.344,28.809,7.324,28.809,0.000,0.000,0.000
490004.005,19.043,33.691,28.320,-3.906,30.273,0.000,0.000,0.000
490004.009,32.227,48.340,32.227,0.977,33.203,0.000,0.000,0.000
490004.012,49.805,52.246,36.621,17.090,40.039,0.000,0.000,0.000
490004.016,39.062,44.434,38.086,26.855,44.922,0.000,0.000,0.000
490004.020,16.602,47.363,33.691,4.883,42.480,0.000,0.000,0.000
490004.024,24.902,57.617,26.855,6.836,65.918,0.000,0.000,0.000
490004.028,43.457,54.688,27.832,37.109,149.414,0.000,0.000,0.000
490004.032,45.410,53.223,30.762,19.531,117.676,0.000,0.000,0.000
490004.036,29.785,44.922,31.250,8.301,-8.301,0.000,0.000,0.000
490004.040,15.137,41.016,31.250,12.207,-18.555,0.000,0.000,0.000
490004.044,29.297,39.062,38.086,2.441,-6.836,0.000,0.000,0.000
490004.048,48.340,38.086,41.504,3.906,0.977,0.000,0.000,0.000
490004.052,50.781,52.246,36.133,4.395,25.879,0.000,0.000,0.000
490004.055,39.551,47.363,32.715,6.348,31.738,0.000,0.000,0.000
