timestamps,TP9,AF7,AF8,TP10,Right AUX,Frequency,Contrast,Orientation
489149.403,82.520,32.227,24.414,15.625,21.973,0.000,0.000,0.000
489149.406,-40.527,33.691,22.461,-19.531,16.113,0.000,0.000,0.000
489149.410,-36.621,31.250,20.508,-21.484,18.555,0.000,0.000,0.000
489149.414,77.637,31.250,19.531,8.789,21.973,0.000,0.000,0.000
489149.418,105.957,32.227,19.531,18.066,21.484,0.000,0.000,0.000
489149.422,-0.977,37.109,20.996,-8.301,26.367,0.000,0.000,0.000
489149.426,-61.035,31.738,21.973,-26.367,28.320,0.000,0.000,0.000
489149.430,40.527,27.832,21.973,-6.348,20.508,0.000,0.000,0.000
489149.434,103.027,33.691,21.484,8.301,16.602,0.000,0.000,0.000
489149.438,21.484,40.527,23.438,-7.324,24.414,0.000,0.000,0.000
489149.442,-65.430,37.598,25.391,-26.855,24.414,0.000,0.000,0.000
489149.445,12.207,24.902,22.461,-4.883,22.461,0.000,0.000,0.000
489149.449,104.492,30.762,23.926,24.414,21.484,0.000,0.000,0.000
489149.453,59.082,37.598,23.926,10.254,21.484,0.000,0.000,0.000
489149.457,-52.246,29.785,19.043,-20.996,23.926,0.000,0.000,0.000
489149.461,-15.625,29.785,18.555,-14.160,17.578,0.000,0.000,0.000
489149.465,96.680,31.250,20.996,14.648,11.230,0.000,0.000,0.000
489149.469,95.215,33.691,24.414,19.043,13.672,0.000,0.000,0.000
489149.473,-24.414,34.668,24.902,-15.625,11.719,0.000,0.000,0.000
489149.477,-38.574,30.273,24.414,-29.785,17.090,0.000,0.000,0.000
489149.481,70.801,30.762,24.414,2.441,17.090,0.000,0.000,0.000
489149.485,105.469,28.320,24.902,18.066,12.207,0.000,0.000,0.000
489149.488,2.441,24.902,28.320,-3.418,19.043,0.000,0.000,0.000
489149.492,-63.477,30.762,29.297,-10.742,23.438,0.000,0.000,0.000
489149.496,30.762,32.227,24.414,5.371,22.949,0.000,0.000,0.000
489149.500,102.051,30.762,20.020,21.973,19.043,0.000,0.000,0.000
489149.504,29.297,33.691,21.484,14.160,15.137,0.000,0.000,0.000
489149.508,-67.871,36.133,21.973,-15.625,17.578,0.000,0.000,0.000
489149.512,4.883,39.062,21.484,-8.301,12.207,0.000,0.000,0.000
489149.516,105.957,39.062,20.020,23.926,6.836,0.000,0.000,0.000
489149.520,69.336,40.527,20.020,13.184,1.953,0.000,0.000,0.000
489149.524,-51.758,37.109,21.484,-21.973,4.883,0.000,0.000,0.000
489149.528,-32.227,33.203,21.484,-14.648,7.812,0.000,0.000,0.000
489149.531,84.473,37.598,22.461,27.344,2.930,0.000,0.000,0.000
489149.535,97.168,34.668,23.438,35.156,3.906,0.000,0.000,0.000
489149.539,-20.508,33.691,24.414,-2.930,2.930,0.000,0.000,0.000
489149.543,-41.504,31.738,23.926,-15.625,2.441,0.000,0.000,0.000
489149.547,72.266,27.344,25.879,14.160,11.230,0.000,0.000,0.000
489149.551,109.375,35.156,30.273,36.621,12.207,0.000,0.000,0.000
489149.555,14.160,35.645,27.832,17.090,3.418,0.000,0.000,0.000
489149.559,-59.570,28.320,24.902,-7.324,4.883,0.000,0.000,0.000
489149.563,23.926,31.250,26.367,19.043,11.230,0.000,0.000,0.000
489149.567,104.004,30.762,24.902,45.898,11.719,0.000,0.000,0.000
489149.570,40.039,30.273,23.926,30.762,8.789,0.000,0.000,0.000
489149.574,-62.988,34.668,23.926,4.395,16.602,0.000,0.000,0.000
489149.578,1.465,33.691,24.902,21.484,22.949,0.000,0.000,0.000
489149.582,101.562,32.715,32.227,54.688,9.766,0.000,0.000,0.000
489149.586,74.707,39.551,40.527,49.316,-2.441,0.000,0.000,0.000
489149.590,-45.898,33.203,40.527,25.391,1.465,0.000,0.000,0.000
489149.594,-40.039,17.090,34.668,32.715,12.207,0.000,0.000,0.000
489149.598,73.242,23.438,29.785,67.871,12.695,0.000,0.000,0.000
489149.602,91.797,30.273,33.203,83.008,11.230,0.000,0.000,0.000
489149.606,-19.043,25.391,36.621,56.152,12.695,0.000,0.000,0.000
489149.610,-58.594,29.297,32.715,38.574,11.230,0.000,0.000,0.000
489149.613,50.293,28.809,31.250,64.453,4.395,0.000,0.000,0.000
489149.617,111.328,29.297,32.715,75.684,-1.953,0.000,0.000,0.000
489149.621,18.066,28.320,30.762,46.387,-8.301,0.000,0.000,0.000
489149.625,-71.777,20.996,31.738,25.879,-0.977,0.000,0.000,0.000
489149.629,7.812,20.020,33.691,44.922,2.441,0.000,0.000,0.000
489149.633,95.703,24.902,33.203,79.102,1.465,0.000,0.000,0.000
489149.637,56.152,26.367,35.156,73.242,5.859,0.000,0.000,0.000
489149.641,-45.410,28.320,36.621,48.828,8.789,0.000,0.000,0.000
489149.645,-14.160,30.762,37.109,56.152,11.230,0.000,0.000,0.000
489149.649,87.891,26.367,33.203,81.055,9.766,0.000,0.000,0.000
489149.652,80.078,22.949,33.691,79.102,8.301,0.000,0.000,0.000
489149.656,-41.016,28.809,37.598,49.316,19.531,0.000,0.000,0.000
489149.660,-52.246,33.203,34.668,52.734,33.203,0.000,0.000,0.000
489149.664,62.500,34.180,34.180,71.289,33.203,0.000,0.000,0.000
489149.668,91.797,28.320,35.645,79.590,20.020,0.000,0.000,0.000
489149.672,-18.066,25.391,34.180,59.082,12.207,0.000,0.000,0.000
489149.676,-72.266,28.320,34.668,31.250,16.113,0.000,0.000,0.000
489149.680,29.785,31.250,37.109,45.410,18.066,0.000,0.000,0.000
489149.684,97.656,30.762,34.668,63.965,11.719,0.000,0.000,0.000
489149.688,21.973,26.855,31.738,42.480,12.207,0.000,0.000,0.000
489149.692,-71.289,27.832,32.715,13.672,11.230,0.000,0.000,0.000
489149.695,-1.953,30.762,33.203,23.438,3.906,0.000,0.000,0.000
489149.699,101.562,39.062,32.715,49.316,4.395,0.000,0.000,0.000
489149.703,55.664,32.227,28.809,38.574,5.859,0.000,0.000,0.000
489149.707,-66.406,19.531,32.227,6.348,6.836,0.000,0.000,0.000
489149.711,-39.551,27.344,33.203,13.184,4.395,0.000,0.000,0.000
489149.715,75.195,30.762,29.785,39.551,4.883,0.000,0.000,0.000
489149.719,83.984,34.180,30.273,39.062,4.883,0.000,0.000,0.000
489149.723,-37.598,36.133,28.809,8.789,12.207,0.000,0.000,0.000
489149.727,-57.129,31.738,29.785,5.859,20.996,0.000,0.000,0.000
489149.731,58.105,24.902,25.879,45.898,19.531,0.000,0.000,0.000
489149.735,103.027,27.832,23.926,63.477,23.926,0.000,0.000,0.000
489149.738,1.953,35.645,29.785,38.574,25.879,0.000,0.000,0.000
489149.742,-60.547,38.086,29.297,18.555,28.320,0.000,0.000,0.000
489149.746,48.828,41.504,29.785,41.016,36.133,0.000,0.000,0.000
489149.750,126.953,39.551,29.297,58.105,33.203,0.000,0.000,0.000
489149.754,50.781,36.621,24.902,32.227,27.344,0.000,0.000,0.000
489149.758,-54.199,30.762,27.832,3.906,27.832,0.000,0.000,0.000
489149.762,3.418,26.367,27.832,21.484,32.715,0.000,0.000,0.000
489149.766,108.887,36.621,28.809,49.316,31.250,0.000,0.000,0.000
489149.770,79.590,38.086,27.344,35.645,24.902,0.000,0.000,0.000
489149.774,-44.434,30.273,22.949,-2.441,20.996,0.000,0.000,0.000
489149.777,-31.250,29.785,25.391,0.000,20.508,0.000,0.000,0.000
489149.781,79.102,26.855,22.949,27.832,16.113,0.000,0.000,0.000
489149.785,100.098,23.438,14.648,30.762,9.766,0.000,0.000,0.000
489149.789,-8.789,28.809,15.625,1.465,4.883,0.000,0.000,0.000
489149.793,-48.340,41.504,27.832,-10.254,10.254,0.000,0.000,0.000
489149.797,60.547,44.922,33.203,27.344,20.508,0.000,0.000,0.000
489149.801,112.793,36.621,34.180,52.734,16.602,0.000,0.000,0.000
489149.805,10.742,28.809,20.020,12.695,7.324,0.000,0.000,0.000
489149.809,-62.500,33.691,16.602,-21.484,8.789,0.000,0.000,0.000
489149.813,30.762,41.504,31.250,3.418,8.789,0.000,0.000,0.000
489149.817,103.027,29.785,22.461,27.344,-0.977,0.000,0.000,0.000
489149.820,49.805,32.227,21.973,17.578,-0.977,0.000,0.000,0.000
489149.824,-60.547,36.621,28.809,-10.742,2.930,0.000,0.000,0.000
489149.828,-28.809,24.902,25.879,-5.859,3.418,0.000,0.000,0.000
489149.832,82.031,24.414,30.762,25.391,5.371,0.000,0.000,0.000
489149.836,77.148,32.715,33.691,34.180,13.672,0.000,0.000,0.000
489149.840,-42.969,31.738,33.691,8.789,22.461,0.000,0.000,0.000
489149.844,-43.457,29.785,32.715,7.812,25.879,0.000,0.000,0.000
489149.848,83.008,38.086,35.645,45.898,29.785,0.000,0.000,0.000
489149.852,110.840,34.668,34.668,66.406,31.738,0.000,0.000,0.000
489149.856,-6.348,32.715,32.715,31.738,35.156,0.000,0.000,0.000
489149.860,-56.152,38.574,28.320,8.789,24.902,0.000,0.000,0.000
489149.863,44.434,34.180,18.555,31.738,9.277,0.000,0.000,0.000
489149.867,111.328,33.203,24.902,54.199,11.719,0.000,0.000,0.000
489149.871,26.367,35.645,31.738,30.273,4.883,0.000,0.000,0.000
489149.875,-65.430,31.738,29.297,10.254,5.371,0.000,0.000,0.000
489149.879,13.672,31.250,27.344,34.668,10.742,0.000,0.000,0.000
489149.883,102.539,26.367,28.809,56.152,3.906,0.000,0.000,0.000
489149.887,49.316,24.414,23.926,43.457,-0.977,0.000,0.000,0.000
489149.891,-66.406,28.809,23.926,14.648,3.418,0.000,0.000,0.000
489149.895,-22.949,36.621,27.832,25.879,1.465,0.000,0.000,0.000
489149.899,83.496,35.645,21.973,49.805,-10.254,0.000,0.000,0.000
489149.902,70.312,25.879,20.020,45.410,-13.672,0.000,0.000,0.000
489149.906,-40.527,33.203,25.879,19.043,-4.883,0.000,0.000,0.000
489149.910,-45.410,40.527,32.227,15.625,4.395,0.000,0.000,0.000
489149.914,64.453,33.691,29.785,46.387,7.324,0.000,0.000,0.000
489149.918,99.121,24.414,24.902,63.965,7.812,0.000,0.000,0.000
489149.922,0.977,23.438,28.320,42.969,12.207,0.000,0.000,0.000
489149.926,-57.129,27.344,34.668,13.672,16.602,0.000,0.000,0.000
489149.930,41.016,32.715,33.691,28.320,17.578,0.000,0.000,0.000
489149.934,112.793,31.250,32.227,62.012,21.484,0.000,0.000,0.000
489149.938,40.527,31.250,30.273,51.758,25.879,0.000,0.000,0.000
489149.942,-54.199,32.715,26.855,22.949,29.785,0.000,0.000,0.000
489149.945,16.113,32.227,26.855,33.203,31.250,0.000,0.000,0.000
489149.949,120.605,35.156,28.809,65.430,28.320,0.000,0.000,0.000
489149.953,84.961,36.621,28.809,61.035,25.879,0.000,0.000,0.000
489149.957,-32.227,41.992,31.250,31.738,28.320,0.000,0.000,0.000
489149.961,-8.789,42.969,31.738,39.551,26.855,0.000,0.000,0.000
489149.965,99.121,34.668,27.832,62.500,17.090,0.000,0.000,0.000
489149.969,103.027,37.598,29.297,62.012,11.719,0.000,0.000,0.000
489149.973,-19.531,44.434,32.227,38.574,14.648,0.000,0.000,0.000
489149.977,-42.969,42.969,31.738,19.531,19.043,0.000,0.000,0.000
489149.981,67.383,37.109,24.414,38.574,18.066,0.000,0.000,0.000
489149.985,111.328,35.156,22.949,58.594,14.648,0.000,0.000,0.000
489149.988,18.066,38.086,28.809,40.527,14.160,0.000,0.000,0.000
489149.992,-54.199,37.598,31.738,16.113,13.672,0.000,0.000,0.000
489149.996,35.156,39.062,31.738,32.227,13.672,0.000,0.000,0.000
489150.000,109.375,39.551,29.297,56.152,11.719,0.000,0.000,0.000
489150.004,36.621,36.133,26.855,39.062,3.418,0.000,0.000,0.000
489150.008,-66.406,29.297,24.902,10.742,4.883,0.000,0.000,0.000
489150.012,-6.836,24.414,21.484,21.973,9.766,0.000,0.000,0.000
489150.016,95.215,33.203,22.461,47.852,14.160,0.000,0.000,0.000
489150.020,69.824,34.668,26.367,41.016,13.184,0.000,0.000,0.000
489150.024,-43.945,34.180,27.832,2.930,15.137,0.000,0.000,0.000
489150.027,-27.832,39.062,27.832,-4.883,16.602,0.000,0.000,0.000
489150.031,82.031,34.180,24.414,22.461,9.766,0.000,0.000,0.000
489150.035,102.051,30.762,22.949,33.691,6.348,0.000,0.000,0.000
489150.039,-17.090,27.344,24.414,9.766,6.348,0.000,0.000,0.000
489150.043,-61.523,25.879,24.414,5.859,12.207,0.000,0.000,0.000
489150.047,56.152,24.414,25.391,45.898,30.762,0.000,0.000,0.000
489150.051,112.793,23.438,25.391,55.664,40.039,0.000,0.000,0.000
489150.055,17.578,26.855,27.344,23.438,26.855,0.000,0.000,0.000
489150.059,-57.129,30.762,28.809,8.301,21.973,0.000,0.000,0.000
489150.063,36.133,33.691,25.879,31.738,24.902,0.000,0.000,0.000
489150.067,111.816,34.668,27.344,57.617,16.113,0.000,0.000,0.000
489150.070,44.434,28.320,30.273,35.156,9.277,0.000,0.000,0.000
489150.074,-61.523,32.715,32.227,0.488,12.207,0.000,0.000,0.000
489150.078,-14.648,34.180,27.832,3.906,11.719,0.000,0.000,0.000
489150.082,89.844,27.344,23.438,34.180,12.207,0.000,0.000,0.000
489150.086,83.984,32.227,22.461,38.086,19.043,0.000,0.000,0.000
489150.090,-27.344,34.180,24.414,6.348,23.926,0.000,0.000,0.000
489150.094,-38.086,29.297,28.320,1.953,13.184,0.000,0.000,0.000
489150.098,77.148,32.227,28.809,28.320,8.301,0.000,0.000,0.000
489150.102,114.746,36.621,30.762,41.016,13.672,0.000,0.000,0.000
489150.106,-0.977,37.109,33.691,20.996,10.254,0.000,0.000,0.000
489150.109,-58.105,39.062,33.203,2.441,8.301,0.000,0.000,0.000
489150.113,49.316,35.645,32.227,16.113,7.812,0.000,0.000,0.000
489150.117,118.652,33.203,25.879,44.434,10.742,0.000,0.000,0.000
489150.121,37.109,34.668,21.484,28.809,17.090,0.000,0.000,0.000
489150.125,-60.059,25.879,24.902,0.000,22.949,0.000,0.000,0.000
489150.129,24.414,27.344,22.461,20.508,33.691,0.000,0.000,0.000
489150.133,119.141,39.551,21.973,37.598,30.762,0.000,0.000,0.000
489150.137,62.012,33.203,20.508,15.625,21.484,0.000,0.000,0.000
489150.141,-56.641,31.738,19.043,-15.137,20.996,0.000,0.000,0.000
489150.145,-27.344,39.062,15.625,-16.602,15.625,0.000,0.000,0.000
489150.149,80.078,36.621,13.184,15.137,11.719,0.000,0.000,0.000
489150.152,81.055,35.156,13.184,21.973,17.578,0.000,0.000,0.000
489150.156,-38.574,38.086,11.719,-9.766,12.695,0.000,0.000,0.000
489150.160,-60.059,37.598,9.277,-25.879,-1.953,0.000,0.000,0.000
489150.164,58.105,32.227,10.254,7.812,3.906,0.000,0.000,0.000
489150.168,90.332,32.227,12.207,21.973,0.488,0.000,0.000,0.000
489150.172,-18.066,34.668,13.184,-18.555,-5.859,0.000,0.000,0.000
489150.176,-78.125,31.738,18.555,-34.668,-4.883,0.000,0.000,0.000
489150.180,18.066,31.738,18.555,-5.371,-11.230,0.000,0.000,0.000
489150.184,93.750,34.668,16.113,3.906,-9.277,0.000,0.000,0.000
489150.188,28.809,34.180,20.508,-18.066,-2.930,0.000,0.000,0.000
489150.192,-64.941,32.227,20.508,-39.551,8.789,0.000,0.000,0.000
489150.195,2.441,30.273,18.066,-27.344,18.555,0.000,0.000,0.000
489150.199,103.516,31.738,19.531,0.000,13.672,0.000,0.000,0.000
489150.203,73.242,32.715,21.484,-5.371,1.465,0.000,0.000,0.000
489150.207,-48.828,34.180,23.438,-27.344,2.441,0.000,0.000,0.000
489150.211,-32.227,32.715,24.902,-21.484,7.324,0.000,0.000,0.000
489150.215,80.566,29.785,25.391,9.766,10.254,0.000,0.000,0.000
489150.219,84.473,26.855,20.508,13.184,7.812,0.000,0.000,0.000
489150.223,-34.180,24.902,17.578,-21.484,6.836,0.000,0.000,0.000
489150.227,-60.547,27.344,18.555,-35.645,6.836,0.000,0.000,0.000
489150.231,58.105,35.156,20.996,-5.859,5.859,0.000,0.000,0.000
489150.234,110.352,36.133,24.414,20.020,10.254,0.000,0.000,0.000
489150.238,15.625,28.320,24.902,1.953,11.230,0.000,0.000,0.000
489150.242,-58.105,32.715,20.996,-21.484,11.230,0.000,0.000,0.000
489150.246,36.133,38.574,20.020,-4.395,15.137,0.000,0.000,0.000
489150.250,115.723,35.156,20.020,13.184,11.719,0.000,0.000,0.000
489150.254,51.270,41.016,22.461,-1.465,10.742,0.000,0.000,0.000
489150.258,-56.152,44.434,22.461,-29.785,16.113,0.000,0.000,0.000
489150.262,-11.719,30.273,19.043,-29.785,8.789,0.000,0.000,0.000
489150.266,90.332,25.391,20.996,7.324,7.812,0.000,0.000,0.000
489150.270,76.172,30.273,21.973,17.578,13.184,0.000,0.000,0.000
489150.274,-44.922,33.203,21.973,-17.090,15.625,0.000,0.000,0.000
489150.277,-42.480,33.691,24.414,-23.926,22.461,0.000,0.000,0.000
489150.281,76.172,34.180,26.855,20.508,32.227,0.000,0.000,0.000
489150.285,107.422,33.203,26.855,37.109,38.574,0.000,0.000,0.000
489150.289,-4.395,34.180,25.879,4.883,39.551,0.000,0.000,0.000
489150.293,-57.129,33.691,26.855,-3.906,41.504,0.000,0.000,0.000
489150.297,50.293,28.809,28.320,24.414,36.621,0.000,0.000,0.000
489150.301,115.234,28.809,28.320,38.574,29.785,0.000,0.000,0.000
489150.305,33.691,32.715,29.785,13.672,18.555,0.000,0.000,0.000
489150.309,-58.105,35.156,28.320,-11.719,11.719,0.000,0.000,0.000
489150.313,20.020,37.109,27.832,10.254,18.555,0.000,0.000,0.000
489150.317,106.934,36.133,26.855,46.387,17.578,0.000,0.000,0.000
489150.320,47.852,32.715,27.832,30.762,10.254,0.000,0.000,0.000
489150.324,-60.059,34.180,31.250,-5.371,11.230,0.000,0.000,0.000
489150.328,-7.324,43.457,34.668,10.254,19.531,0.000,0.000,0.000
489150.332,100.586,37.598,32.227,44.434,19.043,0.000,0.000,0.000
489150.336,85.938,25.879,31.250,41.992,15.137,0.000,0.000,0.000
489150.340,-32.715,30.273,33.691,10.254,20.020,0.000,0.000,0.000
489150.344,-36.621,35.645,34.180,3.418,17.578,0.000,0.000,0.000
489150.348,76.660,37.598,33.203,32.227,17.090,0.000,0.000,0.000
489150.352,104.492,38.086,31.738,49.805,20.996,0.000,0.000,0.000
489150.356,-2.930,40.039,31.250,28.320,20.508,0.000,0.000,0.000
489150.359,-53.223,31.738,30.762,5.859,26.367,0.000,0.000,0.000
489150.363,49.316,24.902,32.715,26.367,25.391,0.000,0.000,0.000
489150.367,111.816,33.203,33.691,46.387,21.484,0.000,0.000,0.000
489150.371,35.156,33.691,32.227,30.273,24.902,0.000,0.000,0.000
489150.375,-52.246,27.832,32.715,8.301,30.762,0.000,0.000,0.000
489150.379,19.043,33.691,30.762,24.414,28.320,0.000,0.000,0.000
489150.383,119.141,38.574,31.250,62.988,28.320,0.000,0.000,0.000
489150.387,77.148,34.668,31.250,56.152,30.273,0.000,0.000,0.000
489150.391,-40.527,31.250,27.344,8.789,24.414,0.000,0.000,0.000
489150.395,-12.207,31.738,27.832,2.930,20.508,0.000,0.000,0.000
489150.399,93.750,32.227,32.227,40.527,25.391,0.000,0.000,0.000
489150.402,98.633,36.133,32.227,48.828,28.809,0.000,0.000,0.000
489150.406,-22.949,31.738,30.273,17.578,25.391,0.000,0.000,0.000
489150.410,-52.246,27.832,28.809,5.859,21.484,0.000,0.000,0.000
489150.414,61.035,32.227,27.832,34.180,15.625,0.000,0.000,0.000
489150.418,109.863,33.691,28.320,49.805,16.113,0.000,0.000,0.000
489150.422,12.695,32.227,29.785,20.996,18.555,0.000,0.000,0.000
489150.426,-61.523,33.203,30.273,0.488,13.184,0.000,0.000,0.000
489150.430,30.762,36.621,27.832,22.949,9.277,0.000,0.000,0.000
489150.434,107.910,32.227,26.855,47.852,4.395,0.000,0.000,0.000
489150.438,36.621,24.902,24.902,29.297,-0.977,0.000,0.000,0.000
489150.442,-61.523,26.855,27.344,1.953,8.301,0.000,0.000,0.000
489150.445,-7.812,26.367,28.809,19.531,20.508,0.000,0.000,0.000
489150.449,95.703,21.484,27.832,58.105,19.531,0.000,0.000,0.000
489150.453,73.730,27.832,28.809,58.105,5.859,0.000,0.000,0.000
489150.457,-49.805,30.762,26.367,17.578,2.441,0.000,0.000,0.000
489150.461,-38.086,27.344,24.902,15.137,8.301,0.000,0.000,0.000
489150.465,78.613,24.414,23.438,46.875,11.719,0.000,0.000,0.000
489150.469,89.355,27.344,26.367,47.363,10.742,0.000,0.000,0.000
489150.473,-31.250,31.738,29.297,13.672,6.836,0.000,0.000,0.000
489150.477,-62.500,20.996,27.344,1.465,4.395,0.000,0.000,0.000
489150.481,52.246,20.508,26.367,25.391,8.789,0.000,0.000,0.000
489150.484,104.492,24.414,26.367,37.598,7.812,0.000,0.000,0.000
489150.488,14.648,20.508,26.855,10.742,6.348,0.000,0.000,0.000
489150.492,-58.105,21.484,27.832,-13.184,7.812,0.000,0.000,0.000
489150.496,26.367,26.367,27.344,6.348,12.695,0.000,0.000,0.000
489150.500,112.793,33.691,24.902,40.527,12.695,0.000,0.000,0.000
489150.504,56.641,33.203,26.367,26.855,0.977,0.000,0.000,0.000
489150.508,-56.641,25.391,23.438,-10.742,4.395,0.000,0.000,0.000
489150.512,-12.695,27.832,20.508,2.930,10.254,0.000,0.000,0.000
489150.516,87.891,34.180,24.414,33.203,6.836,0.000,0.000,0.000
489150.520,68.848,26.855,24.414,30.273,6.348,0.000,0.000,0.000
489150.524,-49.805,21.973,24.902,5.859,3.906,0.000,0.000,0.000
489150.527,-44.922,25.879,24.902,4.395,0.977,0.000,0.000,0.000
489150.531,70.312,28.809,23.438,29.785,2.441,0.000,0.000,0.000
489150.535,95.215,29.297,26.855,45.410,1.465,0.000,0.000,0.000
489150.539,-11.719,33.691,31.250,20.996,2.930,0.000,0.000,0.000
489150.543,-60.547,29.297,26.855,1.465,2.441,0.000,0.000,0.000
489150.547,46.875,28.320,24.902,22.949,0.488,0.000,0.000,0.000
489150.551,117.188,41.016,29.297,54.199,4.883,0.000,0.000,0.000
489150.555,31.250,47.363,26.367,31.250,1.465,0.000,0.000,0.000
489150.559,-68.359,39.551,20.508,4.395,-4.395,0.000,0.000,0.000
489150.563,9.277,40.527,20.508,26.367,0.488,0.000,0.000,0.000
489150.566,103.516,44.434,23.926,40.039,4.395,0.000,0.000,0.000
489150.570,51.758,41.504,22.461,29.297,2.930,0.000,0.000,0.000
489150.574,-61.523,38.086,23.438,-1.953,8.301,0.000,0.000,0.000
489150.578,-22.949,36.621,27.344,8.301,10.254,0.000,0.000,0.000
489150.582,88.867,36.133,30.273,43.457,17.578,0.000,0.000,0.000
489150.586,80.078,29.785,30.273,50.293,20.996,0.000,0.000,0.000
489150.590,-42.969,27.832,31.250,19.043,14.160,0.000,0.000,0.000
489150.594,-59.570,31.738,30.273,3.418,13.672,0.000,0.000,0.000
489150.598,52.734,28.320,24.414,31.250,11.719,0.000,0.000,0.000
489150.602,88.379,23.438,21.973,45.410,3.418,0.000,0.000,0.000
489150.606,-16.602,34.668,26.367,14.648,-4.395,0.000,0.000,0.000
489150.609,-73.242,40.039,24.414,-7.812,-3.418,0.000,0.000,0.000
489150.613,26.855,31.738,21.484,20.508,2.441,0.000,0.000,0.000
489150.617,98.633,40.527,25.879,48.340,2.441,0.000,0.000,0.000
489150.621,25.391,41.992,26.367,30.273,-2.930,0.000,0.000,0.000
489150.625,-74.219,28.320,24.902,0.977,-0.488,0.000,0.000,0.000
489150.629,-4.883,30.762,20.020,18.066,4.883,0.000,0.000,0.000
489150.633,101.562,36.133,18.555,49.805,5.859,0.000,0.000,0.000
489150.637,65.430,37.109,21.973,41.504,3.906,0.000,0.000,0.000
489150.641,-53.711,36.621,22.949,2.441,8.789,0.000,0.000,0.000
489150.645,-30.273,34.180,22.461,1.953,17.090,0.000,0.000,0.000
489150.649,81.055,34.180,19.531,33.691,12.207,0.000,0.000,0.000
489150.652,84.473,29.785,20.508,40.039,3.418,0.000,0.000,0.000
489150.656,-29.297,23.438,23.438,5.859,5.859,0.000,0.000,0.000
489150.660,-45.410,20.996,21.973,-7.812,15.625,0.000,0.000,0.000
489150.664,70.801,25.391,20.508,33.691,27.832,0.000,0.000,0.000
489150.668,116.699,27.832,24.902,62.500,28.320,0.000,0.000,0.000
489150.672,8.789,28.809,31.738,35.645,16.113,0.000,0.000,0.000
489150.676,-73.730,29.297,32.227,5.371,8.789,0.000,0.000,0.000
489150.680,17.578,20.508,31.250,21.973,11.230,0.000,0.000,0.000
489150.684,103.027,18.555,32.227,52.734,13.184,0.000,0.000,0.000
489150.688,41.016,28.320,36.621,41.504,17.578,0.000,0.000,0.000
489150.691,-63.477,26.367,32.227,6.348,16.602,0.000,0.000,0.000
489150.695,-7.324,24.414,26.367,13.184,5.859,0.000,0.000,0.000
489150.699,102.051,27.832,27.344,45.410,5.371,0.000,0.000,0.000
489150.703,80.078,29.297,28.320,57.617,12.695,0.000,0.000,0.000
489150.707,-44.434,34.668,33.203,33.203,14.160,0.000,0.000,0.000
489150.711,-34.180,31.250,31.738,29.785,16.602,0.000,0.000,0.000
489150.715,85.938,25.391,29.297,59.082,21.973,0.000,0.000,0.000
489150.719,107.910,26.855,31.738,64.453,17.090,0.000,0.000,0.000
489150.723,-11.230,25.391,26.855,35.156,10.254,0.000,0.000,0.000
489150.727,-48.828,24.414,23.926,29.785,18.555,0.000,0.000,0.000
489150.731,64.941,27.344,26.855,62.500,28.809,0.000,0.000,0.000
489150.734,119.629,29.297,27.832,76.660,33.203,0.000,0.000,0.000
489150.738,29.297,30.273,28.809,50.781,36.621,0.000,0.000,0.000
489150.742,-52.734,32.715,30.273,27.832,36.621,0.000,0.000,0.000
489150.746,33.691,32.227,33.203,47.852,35.156,0.000,0.000,0.000
489150.750,121.094,30.273,33.203,81.543,33.691,0.000,0.000,0.000
489150.754,50.293,23.926,26.855,68.848,25.879,0.000,0.000,0.000
489150.758,-65.918,20.996,27.832,34.668,30.273,0.000,0.000,0.000
489150.762,-12.695,29.785,26.367,37.109,31.250,0.000,0.000,0.000
489150.766,102.539,33.691,23.438,62.988,22.461,0.000,0.000,0.000
489150.770,95.215,33.691,24.902,70.801,27.832,0.000,0.000,0.000
489150.774,-28.320,28.320,20.996,32.715,30.762,0.000,0.000,0.000
489150.777,-26.367,26.367,21.973,32.227,39.551,0.000,0.000,0.000
489150.781,99.121,34.668,22.461,70.312,43.945,0.000,0.000,0.000
489150.785,124.023,34.180,20.996,77.148,34.180,0.000,0.000,0.000
489150.789,11.230,37.598,24.902,52.734,26.855,0.000,0.000,0.000
489150.793,-44.434,40.527,27.832,35.645,24.414,0.000,0.000,0.000
489150.797,51.758,37.598,23.438,52.246,21.484,0.000,0.000,0.000
489150.801,111.816,39.551,24.902,70.312,15.137,0.000,0.000,0.000
489150.805,25.391,42.480,25.879,49.316,15.137,0.000,0.000,0.000
489150.809,-62.988,33.203,20.020,16.113,19.043,0.000,0.000,0.000
489150.813,15.625,30.762,20.996,30.762,22.461,0.000,0.000,0.000
489150.816,113.281,40.527,25.879,61.035,24.902,0.000,0.000,0.000
489150.820,71.289,40.527,25.391,53.711,24.414,0.000,0.000,0.000
489150.824,-47.363,33.203,23.438,26.855,24.414,0.000,0.000,0.000
489150.828,-15.625,32.715,23.438,35.156,22.949,0.000,0.000,0.000
489150.832,106.934,41.016,27.832,67.871,23.926,0.000,0.000,0.000
489150.836,103.027,42.969,33.203,69.336,21.484,0.000,0.000,0.000
489150.840,-31.250,36.621,29.297,38.086,24.902,0.000,0.000,0.000
489150.844,-54.199,33.691,24.902,31.738,24.902,0.000,0.000,0.000
489150.848,51.270,31.250,26.855,56.152,14.160,0.000,0.000,0.000
489150.852,90.820,31.738,29.297,78.125,17.090,0.000,0.000,0.000
489150.856,-10.742,32.715,27.344,51.758,21.484,0.000,0.000,0.000
489150.859,-79.102,34.180,25.879,24.902,22.461,0.000,0.000,0.000
489150.863,18.555,37.109,29.297,49.805,21.973,0.000,0.000,0.000
489150.867,100.586,38.086,28.809,70.312,16.113,0.000,0.000,0.000
489150.871,23.926,36.133,24.414,48.828,13.672,0.000,0.000,0.000
489150.875,-77.148,31.738,27.832,29.297,20.996,0.000,0.000,0.000
489150.879,-13.184,24.902,27.832,47.363,17.578,2.000,1.000,45.000
489150.883,83.984,19.531,19.531,69.824,7.812,0.000,0.000,0.000
489150.887,52.734,22.461,19.043,46.875,6.836,0.000,0.000,0.000
489150.891,-63.477,30.762,21.973,13.184,9.766,0.000,0.000,0.000
489150.895,-39.062,31.250,22.461,24.414,11.230,0.000,0.000,0.000
489150.899,79.590,29.785,20.508,59.570,12.207,0.000,0.000,0.000
489150.902,95.215,37.598,24.414,66.406,14.160,0.000,0.000,0.000
489150.906,-24.414,39.551,27.344,28.320,14.160,0.000,0.000,0.000
489150.910,-55.664,30.762,23.926,15.137,12.695,0.000,0.000,0.000
489150.914,54.199,22.949,20.508,48.828,9.766,0.000,0.000,0.000
489150.918,106.445,28.320,21.973,65.918,5.859,0.000,0.000,0.000
489150.922,15.625,36.133,26.367,44.922,10.254,0.000,0.000,0.000
489150.926,-62.500,31.738,25.879,23.926,18.066,0.000,0.000,0.000
489150.930,28.320,31.250,21.973,45.410,25.879,0.000,0.000,0.000
489150.934,108.887,39.551,21.973,72.266,29.297,0.000,0.000,0.000
489150.938,48.828,41.504,22.949,56.641,25.391,0.000,0.000,0.000
489150.941,-62.012,35.645,23.438,33.691,24.902,0.000,0.000,0.000
489150.945,-12.207,30.762,22.949,40.039,21.973,0.000,0.000,0.000
489150.949,94.727,30.762,20.508,56.641,20.020,0.000,0.000,0.000
489150.953,67.383,28.320,20.508,51.270,23.926,0.000,0.000,0.000
489150.957,-44.434,26.855,26.855,27.344,28.320,0.000,0.000,0.000
489150.961,-37.109,28.320,24.414,24.902,17.090,0.000,0.000,0.000
489150.965,63.965,31.250,21.484,40.527,9.766,0.000,0.000,0.000
489150.969,87.891,31.250,22.949,47.363,14.160,0.000,0.000,0.000
489150.973,-14.160,34.180,24.414,26.367,21.484,0.000,0.000,0.000
489150.977,-51.758,40.527,25.391,12.695,25.391,0.000,0.000,0.000
489150.981,49.805,36.621,22.949,34.668,16.113,0.000,0.000,0.000
489150.984,104.980,35.156,21.973,50.781,17.578,0.000,0.000,0.000
489150.988,22.949,37.598,23.926,30.273,24.414,0.000,0.000,0.000
489150.992,-63.965,31.250,25.879,7.812,20.020,0.000,0.000,0.000
489150.996,16.602,34.180,26.855,23.926,20.508,0.000,0.000,0.000
489151.000,104.004,35.645,26.855,44.434,17.578,0.000,0.000,0.000
489151.004,58.105,31.738,27.344,36.621,6.836,0.000,0.000,0.000
489151.008,-57.129,37.109,26.367,5.371,-8.789,0.000,0.000,0.000
489151.012,-26.367,37.109,24.414,6.836,-22.949,0.000,0.000,0.000
489151.016,90.332,34.668,23.926,41.992,-19.043,0.000,0.000,0.000
489151.020,85.938,32.715,22.461,41.504,-13.672,0.000,0.000,0.000
489151.023,-28.320,38.086,25.391,13.672,-8.301,0.000,0.000,0.000
489151.027,-34.668,41.504,24.902,7.324,1.465,0.000,0.000,0.000
489151.031,69.336,31.738,20.996,29.785,10.254,0.000,0.000,0.000
489151.035,101.562,30.273,25.879,46.875,19.043,0.000,0.000,0.000
489151.039,-7.324,33.203,28.809,18.066,12.695,0.000,0.000,0.000
489151.043,-70.801,30.273,25.879,-7.812,0.977,0.000,0.000,0.000
489151.047,27.832,31.738,24.414,20.020,3.418,0.000,0.000,0.000
489151.051,101.074,37.109,25.879,42.969,12.695,0.000,0.000,0.000
489151.055,21.973,29.785,25.391,17.578,16.602,0.000,0.000,0.000
489151.059,-68.359,29.785,26.855,-4.883,21.484,0.000,0.000,0.000
489151.063,4.395,34.180,24.414,15.137,26.855,0.000,0.000,0.000
489151.066,92.773,27.832,20.996,47.852,26.855,0.000,0.000,0.000
489151.070,55.664,35.156,20.996,41.504,20.020,0.000,0.000,0.000
489151.074,-55.664,36.133,24.414,7.812,18.555,0.000,0.000,0.000
489151.078,-24.902,31.738,27.344,5.371,21.484,0.000,0.000,0.000
489151.082,81.543,33.203,22.461,36.133,20.508,0.000,0.000,0.000
489151.086,84.473,33.691,20.508,41.504,26.367,0.000,0.000,0.000
489151.090,-28.320,35.156,25.391,6.348,20.508,0.000,0.000,0.000
489151.094,-60.547,33.691,24.902,-4.395,10.254,0.000,0.000,0.000
489151.098,47.363,34.668,25.879,22.461,15.625,0.000,0.000,0.000
489151.102,98.633,38.086,29.297,40.527,21.973,0.000,0.000,0.000
489151.106,-1.953,32.715,31.250,20.996,16.113,0.000,0.000,0.000
489151.109,-69.824,31.738,30.273,0.488,12.207,0.000,0.000,0.000
489151.113,29.297,35.156,30.762,23.438,18.555,0.000,0.000,0.000
489151.117,104.004,30.762,31.738,47.363,22.949,0.000,0.000,0.000
489151.121,32.715,26.367,31.738,34.668,27.344,0.000,0.000,0.000
489151.125,-67.383,28.809,35.645,14.160,32.715,0.000,0.000,0.000
489151.129,-11.719,27.344,32.715,22.461,23.438,0.000,0.000,0.000
489151.133,95.215,23.926,24.902,50.781,16.602,0.000,0.000,0.000
489151.137,70.801,25.391,24.414,45.898,18.066,0.000,0.000,0.000
489151.141,-52.246,27.832,26.855,16.113,17.090,0.000,0.000,0.000
489151.145,-38.574,29.785,25.391,9.277,19.043,0.000,0.000,0.000
489151.148,72.754,24.902,24.414,32.715,18.555,0.000,0.000,0.000
489151.152,85.449,24.414,23.926,42.480,18.066,0.000,0.000,0.000
489151.156,-28.320,26.367,22.461,14.648,13.184,0.000,0.000,0.000
489151.160,-57.129,28.809,24.902,8.789,15.625,0.000,0.000,0.000
489151.164,43.457,28.809,22.949,25.879,11.230,0.000,0.000,0.000
489151.168,91.797,26.855,21.973,39.551,7.812,0.000,0.000,0.000
489151.172,2.441,26.855,20.996,23.926,4.395,0.000,0.000,0.000
489151.176,-73.730,27.832,21.484,0.977,1.953,0.000,0.000,0.000
489151.180,15.137,25.879,22.949,13.672,5.371,0.000,0.000,0.000
489151.184,96.680,26.855,20.996,32.227,1.953,0.000,0.000,0.000
489151.188,37.598,28.809,22.461,20.508,-3.906,0.000,0.000,0.000
489151.191,-70.801,31.250,24.414,-6.836,-4.883,0.000,0.000,0.000
489151.195,-18.555,29.785,22.949,4.883,0.000,0.000,0.000,0.000
489151.199,93.750,29.785,25.879,47.852,7.812,0.000,0.000,0.000
489151.203,77.637,30.762,29.297,47.852,10.254,0.000,0.000,0.000
489151.207,-48.340,23.926,26.855,5.371,6.836,0.000,0.000,0.000
489151.211,-48.340,17.578,23.438,4.395,6.836,0.000,0.000,0.000
489151.215,67.871,19.531,23.926,40.527,11.719,0.000,0.000,0.000
489151.219,99.121,26.855,27.344,50.781,19.043,0.000,0.000,0.000
489151.223,-10.742,31.250,28.809,16.602,11.230,0.000,0.000,0.000
489151.227,-63.965,31.250,28.809,2.930,0.000,0.000,0.000,0.000
489151.231,45.410,30.762,27.344,40.039,6.348,0.000,0.000,0.000
489151.234,107.910,37.109,28.320,62.500,9.766,0.000,0.000,0.000
489151.238,20.996,37.598,30.762,38.574,11.719,0.000,0.000,0.000
489151.242,-64.941,31.738,23.926,16.602,18.066,0.000,0.000,0.000
489151.246,13.184,24.902,21.973,36.133,18.066,0.000,0.000,0.000
489151.250,106.934,24.902,22.461,58.594,17.578,0.000,0.000,0.000
489151.254,62.500,29.297,20.020,43.457,19.043,0.000,0.000,0.000
489151.258,-47.363,28.320,22.949,20.508,23.438,0.000,0.000,0.000
489151.262,-10.742,27.832,23.926,24.414,27.344,0.000,0.000,0.000
489151.266,94.238,32.715,22.461,39.551,21.973,0.000,0.000,0.000
489151.270,87.402,36.133,26.367,46.387,19.531,0.000,0.000,0.000
489151.273,-32.227,33.203,26.367,20.020,17.090,4.000,1.000,45.000
489151.277,-49.805,23.438,23.438,4.395,13.184,0.000,0.000,0.000
489151.281,62.988,22.949,21.973,35.645,11.230,0.000,0.000,0.000
489151.285,109.863,27.344,21.973,55.664,16.113,0.000,0.000,0.000
489151.289,11.230,30.273,26.855,37.598,23.926,0.000,0.000,0.000
489151.293,-55.176,31.738,26.367,16.113,17.090,0.000,0.000,0.000
489151.297,43.457,29.297,22.949,37.109,15.625,0.000,0.000,0.000
489151.301,113.770,33.691,23.438,60.547,17.090,0.000,0.000,0.000
489151.305,35.156,38.086,23.926,41.016,10.742,0.000,0.000,0.000
489151.309,-66.895,27.344,23.438,16.113,9.277,0.000,0.000,0.000
489151.313,0.488,23.926,21.973,25.879,2.441,0.000,0.000,0.000
489151.316,98.633,27.832,21.484,52.246,0.488,0.000,0.000,0.000
489151.320,60.059,24.414,21.484,52.734,6.348,0.000,0.000,0.000
489151.324,-56.152,27.344,23.438,27.832,13.184,0.000,0.000,0.000
489151.328,-32.227,28.809,24.902,20.508,15.137,0.000,0.000,0.000
489151.332,79.590,25.879,20.508,46.387,14.160,0.000,0.000,0.000
489151.336,87.891,25.391,18.555,52.246,14.648,0.000,0.000,0.000
489151.340,-25.391,37.109,25.879,25.879,16.113,0.000,0.000,0.000
489151.344,-52.246,40.527,24.414,20.996,24.414,0.000,0.000,0.000
489151.348,59.570,31.250,18.555,41.992,37.598,0.000,0.000,0.000
489151.352,114.746,31.738,19.531,51.758,41.504,0.000,0.000,0.000
489151.356,14.648,33.691,21.484,20.020,20.020,0.000,0.000,0.000
489151.359,-63.965,31.738,20.508,-5.371,11.719,0.000,0.000,0.000
489151.363,29.297,30.762,22.461,22.949,18.066,0.000,0.000,0.000
489151.367,112.305,32.227,27.832,53.223,13.184,0.000,0.000,0.000
489151.371,43.457,29.297,22.949,39.551,9.277,0.000,0.000,0.000
489151.375,-61.523,29.785,21.973,14.160,13.672,0.000,0.000,0.000
489151.379,-2.441,35.156,25.879,23.926,18.555,0.000,0.000,0.000
489151.383,103.027,28.320,24.902,51.270,18.555,0.000,0.000,0.000
489151.387,83.496,28.320,22.949,51.270,20.996,0.000,0.000,0.000
489151.391,-37.598,31.738,26.855,22.949,23.926,0.000,0.000,0.000
489151.395,-28.809,33.691,32.227,25.391,29.785,0.000,0.000,0.000
489151.398,79.102,36.133,29.785,48.340,26.367,0.000,0.000,0.000
489151.402,85.449,28.809,24.902,43.457,15.137,0.000,0.000,0.000
489151.406,-28.809,24.414,26.367,20.508,17.090,0.000,0.000,0.000
489151.410,-65.918,31.738,25.879,9.766,19.531,0.000,0.000,0.000
489151.414,39.551,32.227,20.020,29.297,16.113,0.000,0.000,0.000
489151.418,90.332,20.996,16.113,44.922,10.254,0.000,0.000,0.000
489151.422,3.906,21.973,17.578,21.484,-1.953,0.000,0.000,0.000
489151.426,-72.754,27.344,23.926,-1.465,-12.207,0.000,0.000,0.000
489151.430,9.766,31.250,24.414,19.043,-15.137,0.000,0.000,0.000
489151.434,97.168,32.715,20.508,46.875,-13.184,0.000,0.000,0.000
489151.438,45.410,32.227,24.902,41.016,0.488,0.000,0.000,0.000
489151.441,-60.059,34.180,26.367,15.137,19.043,0.000,0.000,0.000
489151.445,-15.137,35.156,25.879,25.879,26.855,0.000,0.000,0.000
489151.449,88.867,32.715,27.344,57.129,32.715,0.000,0.000,0.000
489151.453,75.195,27.832,25.879,51.758,31.738,0.000,0.000,0.000
489151.457,-40.039,26.367,22.949,10.742,19.531,0.000,0.000,0.000
489151.461,-48.828,28.320,21.484,3.906,22.461,0.000,0.000,0.000
489151.465,54.199,29.785,23.926,39.062,29.297,0.000,0.000,0.000
489151.469,84.473,30.762,25.879,56.152,16.602,0.000,0.000,0.000
489151.473,-24.414,37.598,27.344,25.879,5.371,0.000,0.000,0.000
489151.477,-83.496,37.598,24.414,-8.301,2.930,0.000,0.000,0.000
489151.480,20.508,27.832,20.508,8.301,-1.953,0.000,0.000,0.000
489151.484,92.773,29.785,23.438,44.922,0.977,0.000,0.000,0.000
489151.488,20.508,31.738,26.855,35.156,7.324,0.000,0.000,0.000
489151.492,-62.500,32.715,29.297,7.812,10.254,0.000,0.000,0.000
489151.496,12.695,32.227,22.949,17.578,10.254,0.000,0.000,0.000
489151.500,102.051,29.785,20.508,51.758,16.602,0.000,0.000,0.000
489151.504,52.734,35.645,25.391,49.316,13.672,0.000,0.000,0.000
489151.508,-63.477,37.598,27.344,14.648,9.766,0.000,0.000,0.000
489151.512,-30.273,30.762,26.367,22.949,11.719,0.000,0.000,0.000
489151.516,81.055,30.273,26.367,51.758,9.766,0.000,0.000,0.000
489151.520,86.914,37.598,24.414,45.410,10.254,0.000,0.000,0.000
489151.523,-26.855,40.039,29.785,22.949,12.695,0.000,0.000,0.000
489151.527,-48.340,33.203,30.273,17.578,17.578,0.000,0.000,0.000
489151.531,67.383,26.855,24.902,43.945,20.508,0.000,0.000,0.000
489151.535,105.469,28.320,25.879,62.012,13.184,0.000,0.000,0.000
489151.539,-2.930,34.668,25.879,25.391,5.371,0.000,0.000,0.000
489151.543,-69.824,31.250,25.879,1.465,13.184,0.000,0.000,0.000
489151.547,27.832,24.902,28.320,24.414,18.066,0.000,0.000,0.000
489151.551,96.191,28.809,29.785,40.039,7.324,0.000,0.000,0.000
489151.555,20.508,27.344,28.809,19.531,4.395,0.000,0.000,0.000
489151.559,-74.219,29.297,32.715,3.906,11.719,0.000,0.000,0.000
489151.563,-15.625,27.832,31.250,15.625,9.277,0.000,0.000,0.000
489151.566,79.102,25.879,28.809,35.156,7.324,0.000,0.000,0.000
489151.570,54.688,31.250,28.809,39.062,9.766,0.000,0.000,0.000
489151.574,-58.594,32.227,27.832,8.301,8.789,0.000,0.000,0.000
489151.578,-39.551,34.668,26.855,4.883,11.719,0.000,0.000,0.000
489151.582,76.172,39.551,25.391,36.621,17.090,0.000,0.000,0.000
489151.586,92.285,29.785,25.879,37.598,15.137,0.000,0.000,0.000
489151.590,-24.902,22.461,26.855,10.254,16.602,0.000,0.000,0.000
489151.594,-55.664,27.344,28.809,2.441,19.531,0.000,0.000,0.000
489151.598,61.523,35.156,29.785,37.109,21.973,0.000,0.000,0.000
489151.602,110.352,39.062,32.227,53.223,24.902,0.000,0.000,0.000
489151.605,13.184,36.621,32.715,18.066,24.902,0.000,0.000,0.000
489151.609,-62.988,32.227,33.203,1.465,23.438,0.000,0.000,0.000
489151.613,22.461,31.250,32.227,25.879,21.973,0.000,0.000,0.000
489151.617,106.445,34.180,30.762,52.246,25.879,0.000,0.000,0.000
489151.621,48.828,34.180,29.297,45.898,24.414,2.000,1.000,0.000
489151.625,-54.199,40.527,31.250,20.508,25.391,0.000,0.000,0.000
489151.629,-6.348,44.434,29.785,24.902,23.438,0.000,0.000,0.000
489151.633,95.703,37.598,25.879,51.758,21.484,0.000,0.000,0.000
489151.637,74.219,34.668,27.344,51.758,21.484,0.000,0.000,0.000
489151.641,-53.223,36.133,27.344,7.812,12.695,0.000,0.000,0.000
489151.645,-49.805,32.227,27.832,-2.441,12.695,0.000,0.000,0.000
489151.648,72.266,29.785,24.902,32.715,11.719,0.000,0.000,0.000
489151.652,91.797,35.156,24.902,39.551,10.254,0.000,0.000,0.000
489151.656,-28.320,38.574,28.320,15.625,19.531,0.000,0.000,0.000
489151.660,-69.336,35.156,22.949,1.953,12.207,0.000,0.000,0.000
489151.664,38.574,31.250,18.066,20.996,1.953,0.000,0.000,0.000
489151.668,98.633,37.109,20.996,42.969,7.324,0.000,0.000,0.000
489151.672,14.160,42.969,20.996,19.043,9.766,0.000,0.000,0.000
489151.676,-68.848,36.133,16.113,-5.371,8.789,0.000,0.000,0.000
489151.680,9.277,35.156,16.113,18.555,10.254,0.000,0.000,0.000
489151.684,93.750,38.086,17.578,45.898,10.254,0.000,0.000,0.000
489151.688,45.410,34.668,24.414,38.086,11.719,0.000,0.000,0.000
489151.691,-61.523,36.621,26.855,19.043,22.949,0.000,0.000,0.000
489151.695,-21.484,40.527,22.461,26.367,23.438,0.000,0.000,0.000
489151.699,87.891,31.250,21.973,49.805,14.648,0.000,0.000,0.000
489151.703,86.426,30.273,25.879,60.059,16.113,0.000,0.000,0.000
489151.707,-27.832,36.133,27.344,37.109,16.113,0.000,0.000,0.000
489151.711,-38.574,33.691,23.926,18.555,9.766,0.000,0.000,0.000
489151.715,75.195,33.691,25.391,38.574,14.648,0.000,0.000,0.000
489151.719,108.398,36.133,30.762,59.082,22.949,0.000,0.000,0.000
489151.723,6.348,40.527,31.738,40.039,22.461,0.000,0.000,0.000
489151.727,-50.293,39.062,34.180,22.949,21.484,0.000,0.000,0.000
489151.730,41.504,27.832,30.273,38.086,18.555,0.000,0.000,0.000
489151.734,113.281,24.902,30.273,60.059,15.625,0.000,0.000,0.000
489151.738,35.156,26.367,32.227,42.969,10.254,0.000,0.000,0.000
489151.742,-76.660,28.809,29.297,9.766,3.418,0.000,0.000,0.000
489151.746,-10.742,30.273,28.320,19.043,-9.766,0.000,0.000,0.000
489151.750,84.961,27.344,31.250,43.457,-28.320,0.000,0.000,0.000
489151.754,44.922,23.926,29.785,27.832,-32.715,0.000,0.000,0.000
489151.758,-67.871,25.391,27.832,0.488,-26.367,0.000,0.000,0.000
489151.762,-32.715,27.832,30.273,7.812,-13.672,0.000,0.000,0.000
489151.766,92.285,32.715,34.180,41.504,13.184,0.000,0.000,0.000
489151.770,92.285,34.180,31.738,46.387,26.855,0.000,0.000,0.000
489151.773,-33.691,25.879,26.367,11.719,22.461,0.000,0.000,0.000
489151.777,-58.105,25.879,25.879,2.930,26.367,0.000,0.000,0.000
489151.781,58.105,31.738,22.949,31.250,30.762,0.000,0.000,0.000
489151.785,104.980,32.227,21.484,48.828,25.879,0.000,0.000,0.000
489151.789,1.953,34.180,25.879,23.438,28.320,0.000,0.000,0.000
489151.793,-64.453,32.715,25.391,-1.953,31.250,0.000,0.000,0.000
489151.797,31.738,28.320,27.344,29.297,23.926,0.000,0.000,0.000
489151.801,109.863,26.367,28.809,57.129,22.461,0.000,0.000,0.000
489151.805,41.016,22.949,28.809,27.832,20.996,0.000,0.000,0.000
489151.809,-66.406,28.809,28.320,-1.953,20.020,0.000,0.000,0.000
489151.813,-10.254,34.668,23.438,15.625,16.113,0.000,0.000,0.000
489151.816,87.891,31.738,23.926,46.875,9.277,0.000,0.000,0.000
489151.820,60.059,37.109,25.879,40.527,2.930,0.000,0.000,0.000
489151.824,-49.316,38.574,26.855,16.113,5.371,0.000,0.000,0.000
489151.828,-30.762,34.668,27.832,23.438,10.742,0.000,0.000,0.000
489151.832,82.520,32.227,27.344,49.316,11.719,0.000,0.000,0.000
489151.836,93.262,32.715,28.809,48.340,15.137,0.000,0.000,0.000
489151.840,-20.996,35.645,29.785,20.996,21.973,0.000,0.000,0.000
489151.844,-56.152,29.785,28.320,9.277,23.438,0.000,0.000,0.000
489151.848,48.340,30.273,27.344,37.109,16.113,0.000,0.000,0.000
489151.852,102.539,35.645,26.367,59.082,15.137,0.000,0.000,0.000
489151.855,16.113,36.133,26.367,35.645,18.555,0.000,0.000,0.000
489151.859,-57.617,34.668,27.832,12.207,21.484,0.000,0.000,0.000
489151.863,32.227,33.691,27.832,29.297,22.949,0.000,0.000,0.000
489151.867,112.305,36.133,29.785,53.711,22.461,0.000,0.000,0.000
489151.871,52.246,38.086,30.273,45.898,26.367,0.000,0.000,0.000
489151.875,-47.363,38.086,31.250,21.973,38.086,0.000,0.000,0.000
489151.879,-3.418,36.133,31.250,24.902,35.645,0.000,0.000,0.000
489151.883,96.680,32.227,28.809,49.316,25.391,0.000,0.000,0.000
489151.887,90.332,32.227,30.273,49.316,21.973,0.000,0.000,0.000
489151.891,-29.297,33.691,28.809,18.066,22.461,0.000,0.000,0.000
489151.895,-34.668,30.273,26.855,17.090,24.414,0.000,0.000,0.000
489151.898,83.496,41.016,26.367,53.711,27.344,0.000,0.000,0.000
489151.902,106.934,41.504,28.320,70.801,31.250,0.000,0.000,0.000
489151.906,-9.277,24.902,26.367,27.344,31.250,0.000,0.000,0.000
489151.910,-56.152,24.414,25.391,7.812,33.203,0.000,0.000,0.000
489151.914,52.246,28.320,29.297,37.109,29.297,0.000,0.000,0.000
489151.918,112.305,29.297,29.297,55.664,27.832,0.000,0.000,0.000
489151.922,28.809,27.344,33.203,36.621,28.809,0.000,0.000,0.000
489151.926,-62.012,29.297,34.668,11.230,21.484,0.000,0.000,0.000
489151.930,10.254,30.273,31.738,36.133,19.043,0.000,0.000,0.000
489151.934,104.004,31.250,30.762,56.152,19.531,0.000,0.000,0.000
489151.937,52.734,36.133,30.762,31.250,18.555,0.000,0.000,0.000
489151.941,-62.500,38.574,29.297,-0.977,20.020,0.000,0.000,0.000
489151.945,-25.391,34.668,26.855,2.930,15.137,0.000,0.000,0.000
489151.949,88.867,34.668,31.250,39.551,15.625,0.000,0.000,0.000
489151.953,85.938,30.762,32.715,54.688,13.672,0.000,0.000,0.000
489151.957,-35.156,27.344,30.273,25.391,8.301,0.000,0.000,0.000
489151.961,-45.898,28.320,24.902,-2.441,7.324,0.000,0.000,0.000
489151.965,69.336,29.297,24.902,11.719,4.395,0.000,0.000,0.000
489151.969,94.727,27.344,22.949,20.996,-3.418,0.000,0.000,0.000
489151.973,-14.648,31.738,20.508,-4.395,-8.789,0.000,0.000,0.000
489151.977,-70.801,36.133,20.508,-15.625,-1.953,0.000,0.000,0.000
489151.980,22.949,30.762,18.066,15.625,1.465,0.000,0.000,0.000
489151.984,95.215,32.227,21.973,46.875,5.859,0.000,0.000,0.000
489151.988,29.785,37.109,25.879,33.203,17.090,0.000,0.000,0.000
489151.992,-60.547,35.156,24.902,10.254,20.020,0.000,0.000,0.000
489151.996,16.113,30.273,21.484,21.484,19.531,0.000,0.000,0.000
489152.000,115.723,28.320,21.484,49.316,20.996,0.000,0.000,0.000
489152.004,75.195,37.109,26.367,45.410,19.531,0.000,0.000,0.000
489152.008,-43.457,35.645,23.926,13.184,15.625,0.000,0.000,0.000
489152.012,-24.902,25.879,18.555,13.672,14.160,0.000,0.000,0.000
489152.016,82.520,31.738,20.508,47.852,18.555,4.000,1.000,0.000
489152.020,86.426,33.691,22.949,50.293,19.531,0.000,0.000,0.000
489152.023,-27.832,31.250,21.973,10.254,17.578,0.000,0.000,0.000
489152.027,-43.457,37.109,23.438,7.324,16.602,0.000,0.000,0.000
489152.031,67.383,39.551,25.391,34.180,17.090,0.000,0.000,0.000
489152.035,115.723,36.621,25.391,46.875,25.879,0.000,0.000,0.000
489152.039,25.391,38.086,26.367,26.367,26.855,0.000,0.000,0.000
489152.043,-55.176,32.227,28.320,3.906,10.254,0.000,0.000,0.000
489152.047,22.461,30.273,25.391,19.043,-3.418,0.000,0.000,0.000
489152.051,97.656,31.738,21.484,41.016,-1.465,0.000,0.000,0.000
489152.055,38.574,27.344,21.484,26.855,3.418,0.000,0.000,0.000
489152.059,-64.453,26.855,22.949,1.953,-1.465,0.000,0.000,0.000
489152.062,-15.625,25.391,23.926,10.254,-4.883,0.000,0.000,0.000
489152.066,83.008,27.344,25.879,34.668,-2.930,0.000,0.000,0.000
489152.070,62.012,33.691,26.855,29.297,-4.395,0.000,0.000,0.000
489152.074,-46.387,29.785,26.855,2.441,0.977,0.000,0.000,0.000
489152.078,-34.668,24.414,26.367,10.742,4.395,0.000,0.000,0.000
489152.082,76.172,28.809,25.391,37.109,9.277,0.000,0.000,0.000
489152.086,103.027,32.715,25.879,39.062,19.043,0.000,0.000,0.000
489152.090,-10.742,34.668,30.273,19.531,15.137,0.000,0.000,0.000
489152.094,-54.688,35.156,31.738,7.812,9.766,0.000,0.000,0.000
489152.098,38.574,27.832,25.879,21.484,6.836,0.000,0.000,0.000
489152.102,93.262,25.391,23.926,35.645,5.371,0.000,0.000,0.000
489152.105,12.207,33.691,26.367,15.137,0.977,0.000,0.000,0.000
489152.109,-75.195,39.062,23.926,-10.742,-3.418,0.000,0.000,0.000
489152.113,4.883,38.086,20.020,8.789,0.977,0.000,0.000,0.000
489152.117,91.797,35.645,20.508,38.574,4.395,0.000,0.000,0.000
489152.121,42.969,27.344,23.438,24.902,5.859,0.000,0.000,0.000
489152.125,-64.453,29.785,22.949,-4.883,12.207,0.000,0.000,0.000
489152.129,-20.508,34.668,23.926,7.812,15.625,0.000,0.000,0.000
489152.133,89.844,30.273,27.344,45.898,19.531,0.000,0.000,0.000
489152.137,76.660,27.832,29.297,40.039,21.484,0.000,0.000,0.000
489152.141,-37.109,34.668,31.738,13.672,22.461,0.000,0.000,0.000
489152.145,-33.691,39.062,26.855,7.812,24.902,0.000,0.000,0.000
489152.148,72.754,29.785,23.438,25.391,20.508,0.000,0.000,0.000
489152.152,105.957,31.250,25.879,47.852,13.184,0.000,0.000,0.000
489152.156,-3.906,32.715,29.297,22.461,12.695,0.000,0.000,0.000
489152.160,-73.242,33.691,32.715,-10.254,9.766,0.000,0.000,0.000
489152.164,33.203,34.668,29.785,11.230,-7.812,0.000,0.000,0.000
489152.168,104.004,28.809,27.344,37.109,-18.555,0.000,0.000,0.000
489152.172,29.785,27.832,30.273,27.832,-13.672,0.000,0.000,0.000
489152.176,-60.547,35.156,36.621,8.789,-1.465,0.000,0.000,0.000
489152.180,12.207,33.203,30.762,15.625,6.348,0.000,0.000,0.000
489152.184,107.422,30.762,26.855,42.969,14.648,0.000,0.000,0.000
489152.187,62.500,34.668,31.250,38.574,22.461,0.000,0.000,0.000
489152.191,-55.664,34.180,30.273,0.977,19.531,0.000,0.000,0.000
489152.195,-29.785,36.133,30.273,4.395,14.648,0.000,0.000,0.000
489152.199,82.520,35.645,30.273,30.762,15.137,0.000,0.000,0.000
489152.203,87.402,34.668,32.227,28.320,20.508,0.000,0.000,0.000
489152.207,-34.180,38.086,35.156,1.953,22.949,0.000,0.000,0.000
489152.211,-53.711,33.203,28.809,-9.766,17.090,0.000,0.000,0.000
489152.215,60.059,28.320,24.902,19.043,22.461,0.000,0.000,0.000
489152.219,98.633,27.832,27.832,42.480,26.855,0.000,0.000,0.000
489152.223,4.883,25.391,28.809,23.926,21.973,0.000,0.000,0.000
489152.227,-53.711,27.832,30.762,0.488,21.484,0.000,0.000,0.000
489152.230,41.016,29.785,30.762,12.207,16.113,0.000,0.000,0.000
489152.234,114.258,29.297,30.273,42.969,13.672,0.000,0.000,0.000
489152.238,47.363,33.203,29.785,27.832,10.742,0.000,0.000,0.000
489152.242,-56.641,34.180,31.250,-10.742,7.324,0.000,0.000,0.000
489152.246,0.977,32.227,28.320,1.953,9.277,0.000,0.000,0.000
489152.250,102.051,34.180,24.414,45.898,23.926,0.000,0.000,0.000
489152.254,72.754,35.156,24.902,41.992,27.344,0.000,0.000,0.000
489152.258,-43.945,37.598,21.973,9.277,15.625,0.000,0.000,0.000
489152.262,-26.367,35.645,19.531,9.766,15.137,0.000,0.000,0.000
489152.266,80.078,31.250,18.555,24.902,14.160,0.000,0.000,0.000
489152.270,100.098,36.133,27.344,39.062,24.414,0.000,0.000,0.000
489152.273,-10.254,33.691,29.785,14.648,30.762,0.000,0.000,0.000
489152.277,-47.363,20.996,26.367,-0.488,22.461,0.000,0.000,0.000
489152.281,63.477,26.855,30.273,34.180,20.508,0.000,0.000,0.000
489152.285,110.352,34.180,32.227,52.734,15.625,0.000,0.000,0.000
489152.289,11.230,28.320,29.785,23.926,14.160,0.000,0.000,0.000
489152.293,-61.523,28.809,31.250,3.906,21.484,0.000,0.000,0.000
489152.297,21.484,29.785,29.785,19.043,22.461,0.000,0.000,0.000
489152.301,99.121,28.809,27.344,45.410,17.090,0.000,0.000,0.000
489152.305,48.340,29.785,30.762,37.598,19.531,0.000,0.000,0.000
489152.309,-49.805,31.250,33.691,7.812,27.344,0.000,0.000,0.000
489152.312,-6.836,31.250,33.203,19.531,28.809,0.000,0.000,0.000
489152.316,94.727,24.414,32.227,49.316,20.996,0.000,0.000,0.000
489152.320,83.984,25.391,35.156,44.434,14.160,0.000,0.000,0.000
489152.324,-33.691,30.273,34.180,12.695,16.113,0.000,0.000,0.000
489152.328,-30.762,29.297,31.738,12.695,18.066,0.000,0.000,0.000
489152.332,84.961,30.762,28.809,42.969,17.578,0.000,0.000,0.000
489152.336,109.375,30.762,24.902,52.734,13.672,0.000,0.000,0.000
489152.340,-3.418,30.273,26.367,26.855,12.207,0.000,0.000,0.000
489152.344,-54.688,32.715,25.879,1.953,11.230,0.000,0.000,0.000
489152.348,46.387,32.715,19.531,15.625,4.883,0.000,0.000,0.000
489152.352,103.516,33.691,20.020,39.551,7.324,0.000,0.000,0.000
489152.355,17.090,31.738,21.484,20.508,5.859,0.000,0.000,0.000
489152.359,-67.383,31.250,18.555,-0.488,3.906,0.000,0.000,0.000
489152.363,14.160,35.645,20.996,21.484,9.766,0.000,0.000,0.000
489152.367,108.398,36.621,22.949,51.270,13.672,0.000,0.000,0.000
489152.371,56.152,36.621,18.066,38.574,11.230,2.000,1.000,90.000
489152.375,-62.012,31.738,17.578,4.883,15.137,0.000,0.000,0.000
489152.379,-21.484,32.227,19.043,20.996,26.367,0.000,0.000,0.000
489152.383,92.285,31.738,20.508,50.781,29.785,0.000,0.000,0.000
489152.387,83.008,26.855,19.531,43.945,20.020,0.000,0.000,0.000
489152.391,-41.016,27.832,20.508,16.113,9.277,0.000,0.000,0.000
489152.394,-46.387,32.715,23.926,15.137,12.695,0.000,0.000,0.000
489152.398,66.406,27.832,26.367,50.781,16.113,0.000,0.000,0.000
489152.402,97.168,22.949,29.785,56.152,14.648,0.000,0.000,0.000
489152.406,-11.719,26.367,28.809,16.113,7.324,0.000,0.000,0.000
489152.410,-73.242,26.367,22.949,0.000,0.977,0.000,0.000,0.000
489152.414,27.344,21.973,20.508,28.809,6.836,0.000,0.000,0.000
489152.418,96.680,19.043,18.555,52.246,5.859,0.000,0.000,0.000
489152.422,29.785,23.438,18.066,31.250,0.977,0.000,0.000,0.000
489152.426,-63.477,24.902,17.090,6.348,3.906,0.000,0.000,0.000
489152.430,2.441,24.414,16.602,24.902,13.184,0.000,0.000,0.000
489152.434,104.492,28.320,19.531,56.152,17.090,0.000,0.000,0.000
489152.437,69.824,33.691,23.438,51.758,19.043,0.000,0.000,0.000
489152.441,-46.875,37.598,24.902,22.949,21.484,0.000,0.000,0.000
489152.445,-20.508,32.227,18.066,37.598,23.438,0.000,0.000,0.000
489152.449,102.051,25.879,16.113,64.941,26.367,0.000,0.000,0.000
489152.453,109.375,30.762,20.508,54.688,23.926,0.000,0.000,0.000
489152.457,-12.207,34.668,21.973,23.926,20.508,0.000,0.000,0.000
489152.461,-48.340,27.832,21.973,9.766,15.625,0.000,0.000,0.000
489152.465,47.363,29.785,20.508,31.250,5.859,0.000,0.000,0.000
489152.469,92.773,35.156,20.996,48.340,5.371,0.000,0.000,0.000
489152.473,3.418,28.809,22.461,20.020,6.348,0.000,0.000,0.000
489152.477,-63.477,27.832,25.879,2.930,6.836,0.000,0.000,0.000
489152.480,29.785,31.738,27.344,32.227,7.812,0.000,0.000,0.000
489152.484,110.352,29.297,27.832,58.105,11.230,0.000,0.000,0.000
489152.488,42.969,24.902,27.832,45.410,13.672,0.000,0.000,0.000
489152.492,-55.176,27.344,27.832,20.996,17.090,0.000,0.000,0.000
489152.496,4.395,34.668,25.879,24.902,14.160,0.000,0.000,0.000
489152.500,96.191,40.039,25.391,46.387,12.207,0.000,0.000,0.000
489152.504,74.219,41.016,25.391,41.992,5.371,0.000,0.000,0.000
489152.508,-42.480,38.086,24.414,5.371,-15.137,0.000,0.000,0.000
489152.512,-38.086,36.133,25.391,0.000,-23.438,0.000,0.000,0.000
489152.516,71.777,36.621,29.785,34.180,-22.949,0.000,0.000,0.000
489152.519,87.402,33.203,26.855,44.434,-22.461,0.000,0.000,0.000
489152.523,-21.973,26.367,22.949,14.160,-11.719,0.000,0.000,0.000
489152.527,-55.664,31.250,22.949,5.371,5.371,0.000,0.000,0.000
489152.531,59.082,34.668,21.484,36.133,18.555,0.000,0.000,0.000
489152.535,119.141,43.945,23.438,57.129,29.785,0.000,0.000,0.000
489152.539,24.414,44.434,23.438,36.133,37.109,0.000,0.000,0.000
489152.543,-62.012,33.691,23.438,8.789,38.086,0.000,0.000,0.000
489152.547,21.484,41.992,22.949,23.926,38.574,0.000,0.000,0.000
489152.551,102.051,42.969,25.879,47.852,40.527,0.000,0.000,0.000
489152.555,39.062,37.109,28.320,39.551,28.809,0.000,0.000,0.000
489152.559,-65.918,37.598,31.250,18.066,20.508,0.000,0.000,0.000
489152.562,-11.719,38.574,34.180,26.855,26.367,0.000,0.000,0.000
489152.566,91.309,40.039,32.227,56.641,23.926,0.000,0.000,0.000
489152.570,73.242,36.133,28.809,55.664,23.926,0.000,0.000,0.000
489152.574,-42.969,37.598,26.855,17.578,25.391,0.000,0.000,0.000
489152.578,-41.992,41.016,22.949,13.184,21.484,0.000,0.000,0.000
489152.582,74.219,36.621,22.461,49.316,19.531,0.000,0.000,0.000
489152.586,96.191,36.133,26.367,62.012,20.508,0.000,0.000,0.000
489152.590,-20.020,39.062,27.344,31.738,20.996,0.000,0.000,0.000
489152.594,-64.453,40.039,28.320,9.766,23.438,0.000,0.000,0.000
489152.598,44.434,37.598,28.809,30.762,18.555,0.000,0.000,0.000
489152.602,109.863,37.598,27.344,49.805,13.672,0.000,0.000,0.000
489152.605,30.762,42.480,25.879,25.879,18.066,0.000,0.000,0.000
489152.609,-66.406,35.645,20.508,-0.977,15.137,0.000,0.000,0.000
489152.613,4.883,34.668,19.531,16.602,7.812,0.000,0.000,0.000
489152.617,98.633,40.527,21.973,45.410,5.371,0.000,0.000,0.000
489152.621,58.594,41.016,25.391,37.598,8.301,0.000,0.000,0.000
489152.625,-54.688,37.598,23.438,4.883,14.160,0.000,0.000,0.000
489152.629,-19.531,34.180,22.461,11.230,10.254,0.000,0.000,0.000
489152.633,90.332,34.180,27.832,45.898,3.418,0.000,0.000,0.000
489152.637,88.379,33.691,31.738,44.922,8.301,0.000,0.000,0.000
489152.641,-19.043,39.062,37.598,20.508,20.996,0.000,0.000,0.000
489152.644,-33.691,44.922,37.598,20.508,27.832,0.000,0.000,0.000
489152.648,77.637,37.598,30.762,44.922,20.996,0.000,0.000,0.000
489152.652,117.188,33.691,28.809,61.035,18.555,0.000,0.000,0.000
489152.656,9.766,36.133,29.785,35.645,22.461,0.000,0.000,0.000
489152.660,-54.199,32.715,29.785,6.348,16.113,0.000,0.000,0.000
489152.664,36.133,31.250,28.320,21.973,6.836,0.000,0.000,0.000
489152.668,104.492,34.180,28.320,49.316,4.883,0.000,0.000,0.000
489152.672,40.527,38.086,28.320,38.086,3.906,0.000,0.000,0.000
489152.676,-58.594,40.527,31.250,10.742,6.348,0.000,0.000,0.000
489152.680,6.348,38.574,32.227,29.297,4.883,0.000,0.000,0.000
489152.684,104.980,33.691,28.809,46.875,3.906,0.000,0.000,0.000
489152.687,67.383,33.691,26.367,33.691,3.906,0.000,0.000,0.000
489152.691,-46.875,40.039,26.367,8.789,4.395,0.000,0.000,0.000
489152.695,-27.344,41.016,25.391,14.648,11.230,0.000,0.000,0.000
489152.699,80.078,35.645,22.461,46.387,5.859,0.000,0.000,0.000
489152.703,89.844,37.109,21.484,46.875,0.977,0.000,0.000,0.000
489152.707,-22.461,36.621,21.973,13.672,4.883,0.000,0.000,0.000
489152.711,-51.270,38.574,24.902,8.301,13.672,0.000,0.000,0.000
489152.715,61.035,43.457,26.367,45.410,18.066,0.000,0.000,0.000
489152.719,105.957,34.180,26.855,64.453,9.766,0.000,0.000,0.000
489152.723,4.395,26.855,25.391,34.180,6.348,0.000,0.000,0.000
489152.727,-65.430,30.762,26.367,13.184,10.254,0.000,0.000,0.000
489152.730,29.785,34.180,26.855,35.645,11.719,0.000,0.000,0.000
489152.734,108.398,33.691,25.879,57.617,11.719,0.000,0.000,0.000
489152.738,41.992,32.227,25.879,43.945,12.695,0.000,0.000,0.000
489152.742,-59.082,33.691,29.297,20.020,19.043,0.000,0.000,0.000
489152.746,-2.441,34.180,28.809,21.973,19.043,0.000,0.000,0.000
489152.750,103.027,38.574,25.879,54.688,18.066,0.000,0.000,0.000
489152.754,75.195,35.645,27.344,50.293,6.836,0.000,0.000,0.000
489152.758,-43.945,30.762,26.367,12.695,2.441,0.000,0.000,0.000
489152.762,-39.062,32.715,28.809,18.066,10.742,0.000,0.000,0.000
489152.766,68.359,32.227,27.344,51.758,9.766,0.000,0.000,0.000
489152.769,96.680,36.621,24.902,68.848,8.789,0.000,0.000,0.000
489152.773,-3.418,41.504,28.320,31.250,14.160,4.000,1.000,90.000
489152.777,-43.945,39.551,26.855,12.695,20.508,0.000,0.000,0.000
489152.781,59.082,32.715,24.414,39.551,22.461,0.000,0.000,0.000
489152.785,112.793,28.809,26.367,59.082,25.391,0.000,0.000,0.000
489152.789,17.090,26.367,30.762,37.598,20.508,0.000,0.000,0.000
489152.793,-66.406,28.320,32.715,9.277,16.602,0.000,0.000,0.000
489152.797,17.090,32.715,29.297,28.320,13.184,0.000,0.000,0.000
489152.801,108.887,31.250,29.785,56.152,9.277,0.000,0.000,0.000
489152.805,57.617,30.273,32.227,45.898,8.301,0.000,0.000,0.000
489152.809,-53.711,34.668,29.785,18.555,13.184,0.000,0.000,0.000
489152.812,-12.207,37.598,25.879,27.832,15.137,0.000,0.000,0.000
489152.816,92.773,33.691,24.414,56.152,14.648,0.000,0.000,0.000
489152.820,91.309,32.227,26.367,54.199,19.043,0.000,0.000,0.000
489152.824,-28.320,34.668,28.320,16.113,23.438,0.000,0.000,0.000
489152.828,-39.062,36.621,26.855,10.254,21.484,0.000,0.000,0.000
489152.832,79.102,30.762,23.926,41.992,16.602,0.000,0.000,0.000
489152.836,103.516,25.391,23.438,55.176,13.184,0.000,0.000,0.000
489152.840,-7.324,31.250,26.367,23.926,13.672,0.000,0.000,0.000
489152.844,-59.082,35.156,29.785,9.766,21.484,0.000,0.000,0.000
489152.848,43.945,35.156,27.344,37.598,26.855,0.000,0.000,0.000
489152.851,111.816,35.156,21.484,52.246,25.391,0.000,0.000,0.000
489152.855,34.668,34.180,22.461,28.809,14.648,0.000,0.000,0.000
489152.859,-59.082,31.738,22.461,0.977,7.324,0.000,0.000,0.000
489152.863,10.742,31.250,21.484,18.066,10.742,0.000,0.000,0.000
489152.867,101.562,30.273,21.973,46.875,10.254,0.000,0.000,0.000
489152.871,51.270,25.391,23.438,39.551,2.930,0.000,0.000,0.000
489152.875,-62.500,27.832,27.344,10.742,2.441,0.000,0.000,0.000
489152.879,-29.297,34.180,26.855,7.324,5.371,0.000,0.000,0.000
489152.883,74.707,29.785,28.809,29.785,4.883,0.000,0.000,0.000
489152.887,72.754,27.344,31.250,36.621,5.859,0.000,0.000,0.000
489152.891,-47.852,27.344,24.414,4.883,4.883,0.000,0.000,0.000
489152.894,-65.918,25.879,21.973,4.395,6.836,0.000,0.000,0.000
489152.898,53.223,32.227,22.949,37.598,10.254,0.000,0.000,0.000
489152.902,100.586,38.574,21.973,45.410,15.137,0.000,0.000,0.000
489152.906,0.977,34.180,22.949,23.926,13.672,0.000,0.000,0.000
489152.910,-70.312,31.250,21.973,7.324,13.672,0.000,0.000,0.000
489152.914,29.297,33.203,22.461,25.391,19.043,0.000,0.000,0.000
489152.918,105.957,36.621,24.902,51.270,13.184,0.000,0.000,0.000
489152.922,35.645,36.133,24.902,36.133,4.883,0.000,0.000,0.000
489152.926,-68.848,28.809,21.484,4.883,0.488,0.000,0.000,0.000
489152.930,-10.254,26.367,23.438,16.113,-3.906,0.000,0.000,0.000
489152.934,92.285,28.320,26.367,54.199,-3.906,0.000,0.000,0.000
489152.937,58.105,27.832,20.996,51.270,-0.977,0.000,0.000,0.000
489152.941,-54.199,25.879,19.531,10.254,4.395,0.000,0.000,0.000
489152.945,-34.668,30.273,23.438,8.789,8.789,0.000,0.000,0.000
489152.949,76.660,34.668,22.461,39.551,11.230,0.000,0.000,0.000
489152.953,98.633,32.227,21.484,46.387,14.160,0.000,0.000,0.000
489152.957,-10.254,31.738,26.367,20.020,15.137,0.000,0.000,0.000
489152.961,-51.270,30.762,27.344,8.301,14.648,0.000,0.000,0.000
489152.965,50.781,29.297,25.879,41.016,11.719,0.000,0.000,0.000
489152.969,103.516,31.250,27.344,64.453,10.742,0.000,0.000,0.000
489152.973,11.230,33.691,28.320,37.109,10.742,0.000,0.000,0.000
489152.976,-66.406,30.273,28.809,14.160,12.207,0.000,0.000,0.000
489152.980,25.879,26.855,27.832,37.598,22.461,0.000,0.000,0.000
489152.984,109.375,31.250,27.832,60.059,32.715,0.000,0.000,0.000
489152.988,38.086,30.273,28.809,41.504,31.250,0.000,0.000,0.000
489152.992,-65.918,32.227,31.250,18.555,26.855,0.000,0.000,0.000
489152.996,-5.371,34.180,32.715,33.203,28.809,0.000,0.000,0.000
489153.000,95.703,23.926,27.344,59.082,25.879,0.000,0.000,0.000
489153.004,74.219,21.973,24.902,47.852,13.672,0.000,0.000,0.000
489153.008,-41.992,29.785,26.367,13.184,6.348,0.000,0.000,0.000
489153.012,-36.133,31.738,26.855,17.090,9.766,0.000,0.000,0.000
489153.016,80.566,32.227,24.414,42.969,11.230,0.000,0.000,0.000
489153.019,106.934,37.109,20.996,42.480,12.695,0.000,0.000,0.000
489153.023,-7.324,37.109,24.902,27.344,17.090,0.000,0.000,0.000
489153.027,-57.129,36.133,26.855,24.414,20.508,0.000,0.000,0.000
489153.031,47.363,35.645,23.438,39.551,18.555,0.000,0.000,0.000
489153.035,105.469,35.156,21.973,56.152,16.602,0.000,0.000,0.000
489153.039,16.602,39.551,22.949,36.133,17.578,0.000,0.000,0.000
489153.043,-64.941,36.621,25.879,11.719,21.484,0.000,0.000,0.000
489153.047,22.461,33.691,23.438,30.273,24.414,0.000,0.000,0.000
489153.051,114.258,38.574,24.414,61.523,21.973,0.000,0.000,0.000
489153.055,62.012,40.039,27.832,49.316,16.113,0.000,0.000,0.000
489153.059,-51.270,34.668,25.879,16.602,15.137,0.000,0.000,0.000
489153.062,-13.672,29.297,25.879,25.391,18.066,2.000,1.000,135.000
489153.066,97.656,33.691,30.762,48.340,18.555,0.000,0.000,0.000
489153.070,85.938,35.645,30.762,52.734,21.973,0.000,0.000,0.000
489153.074,-41.992,35.156,28.320,23.438,18.555,0.000,0.000,0.000
489153.078,-55.664,40.527,28.320,10.742,11.719,0.000,0.000,0.000
489153.082,57.617,37.598,25.879,42.480,7.812,0.000,0.000,0.000
489153.086,94.238,25.879,25.879,56.641,8.301,0.000,0.000,0.000
489153.090,-6.836,31.250,30.762,39.062,7.324,0.000,0.000,0.000
489153.094,-66.406,33.691,28.320,10.742,7.812,0.000,0.000,0.000
489153.098,25.391,30.762,25.391,21.484,6.348,0.000,0.000,0.000
489153.101,97.656,33.203,28.320,50.781,4.395,0.000,0.000,0.000
489153.105,31.250,32.227,31.250,33.691,8.789,0.000,0.000,0.000
489153.109,-61.523,39.062,32.227,10.254,15.137,0.000,0.000,0.000
489153.113,4.883,37.109,31.250,25.879,17.090,0.000,0.000,0.000
489153.117,100.586,22.461,24.902,41.992,13.184,0.000,0.000,0.000
489153.121,62.500,27.344,26.855,35.156,14.160,0.000,0.000,0.000
489153.125,-52.246,31.250,29.785,13.672,20.996,0.000,0.000,0.000
489153.129,-28.320,22.949,26.855,20.508,23.438,0.000,0.000,0.000
489153.133,84.961,26.855,24.902,40.039,24.902,0.000,0.000,0.000
489153.137,101.562,34.180,27.832,43.457,28.809,0.000,0.000,0.000
489153.141,-21.484,30.273,28.809,9.277,19.043,0.000,0.000,0.000
489153.144,-65.918,25.391,24.414,-6.348,10.742,0.000,0.000,0.000
489153.148,49.805,31.738,27.344,34.180,13.184,0.000,0.000,0.000
489153.152,100.098,36.621,27.832,58.594,11.230,0.000,0.000,0.000
489153.156,3.418,28.320,23.926,29.785,7.324,0.000,0.000,0.000
489153.160,-63.477,23.438,25.391,9.766,17.578,0.000,0.000,0.000
489153.164,25.879,25.879,25.879,39.062,22.461,0.000,0.000,0.000
489153.168,109.375,25.391,25.879,64.453,19.531,0.000,0.000,0.000
489153.172,52.734,25.879,29.297,45.898,20.996,0.000,0.000,0.000
489153.176,-50.781,31.738,30.273,16.113,23.926,0.000,0.000,0.000
489153.180,4.883,31.250,27.832,32.227,24.414,0.000,0.000,0.000
489153.184,105.469,25.391,27.832,59.082,14.160,0.000,0.000,0.000
489153.187,78.125,25.879,25.879,43.945,6.836,0.000,0.000,0.000
489153.191,-46.387,29.297,24.902,11.230,7.812,0.000,0.000,0.000
489153.195,-34.668,32.715,28.320,14.160,10.254,0.000,0.000,0.000
489153.199,78.125,32.715,28.320,41.016,3.418,0.000,0.000,0.000
489153.203,87.402,32.227,27.832,43.945,-16.602,0.000,0.000,0.000
489153.207,-22.461,37.109,29.785,15.625,-25.391,0.000,0.000,0.000
489153.211,-50.781,37.598,29.785,4.395,-27.832,0.000,0.000,0.000
489153.215,55.176,28.809,25.879,36.621,-22.949,0.000,0.000,0.000
489153.219,106.445,22.949,23.438,53.223,-6.348,0.000,0.000,0.000
489153.223,20.020,26.855,27.344,22.949,12.207,0.000,0.000,0.000
489153.226,-62.012,27.344,29.297,0.000,29.785,0.000,0.000,0.000
489153.230,22.461,26.367,27.344,25.879,38.574,0.000,0.000,0.000
489153.234,109.863,29.297,29.297,50.293,37.598,0.000,0.000,0.000
489153.238,59.570,28.809,28.320,29.297,33.203,0.000,0.000,0.000
489153.242,-53.711,33.203,25.879,-1.465,32.715,0.000,0.000,0.000
489153.246,-13.672,41.016,26.855,12.695,33.691,0.000,0.000,0.000
489153.250,95.215,28.809,28.809,42.969,33.203,0.000,0.000,0.000
489153.254,82.520,16.602,25.391,40.039,30.762,0.000,0.000,0.000
489153.258,-36.133,28.809,26.855,14.160,31.738,0.000,0.000,0.000
489153.262,-38.086,31.250,29.297,4.883,33.203,0.000,0.000,0.000
489153.266,80.566,22.949,27.832,41.992,37.598,0.000,0.000,0.000
489153.269,118.164,25.391,30.762,60.547,38.574,0.000,0.000,0.000
489153.273,2.930,30.762,30.273,16.602,26.855,0.000,0.000,0.000
489153.277,-61.035,34.180,24.414,-9.277,16.602,0.000,0.000,0.000
489153.281,44.434,34.668,21.973,16.113,18.066,0.000,0.000,0.000
489153.285,114.258,29.785,24.414,39.062,19.043,0.000,0.000,0.000
489153.289,32.715,33.203,27.344,21.973,20.996,0.000,0.000,0.000
489153.293,-62.500,35.156,28.320,-4.883,22.461,0.000,0.000,0.000
489153.297,4.395,21.484,24.902,3.418,12.695,0.000,0.000,0.000
489153.301,104.004,20.996,24.414,29.785,13.672,0.000,0.000,0.000
489153.305,66.406,30.273,26.855,23.926,20.020,0.000,0.000,0.000
489153.308,-54.199,28.809,25.879,-4.395,18.555,0.000,0.000,0.000
489153.312,-21.484,24.414,23.926,6.348,21.484,0.000,0.000,0.000
489153.316,84.961,27.832,23.926,36.133,23.926,0.000,0.000,0.000
489153.320,84.473,32.715,24.902,36.621,20.508,0.000,0.000,0.000
489153.324,-31.738,31.250,24.902,3.906,20.020,0.000,0.000,0.000
489153.328,-51.270,28.320,26.367,1.953,27.344,0.000,0.000,0.000
489153.332,62.012,24.902,25.391,46.387,27.832,0.000,0.000,0.000
489153.336,109.863,21.973,26.367,60.547,24.902,0.000,0.000,0.000
489153.340,17.578,25.879,25.879,21.484,29.785,0.000,0.000,0.000
489153.344,-52.246,24.902,23.926,-7.812,26.855,0.000,0.000,0.000
489153.348,32.227,23.438,23.438,9.766,20.996,0.000,0.000,0.000
489153.351,105.469,29.297,26.367,43.945,20.020,0.000,0.000,0.000
489153.355,42.969,32.715,26.367,28.320,26.367,0.000,0.000,0.000
489153.359,-58.594,34.668,24.414,-3.906,38.086,0.000,0.000,0.000
489153.363,2.441,30.273,23.926,14.648,34.180,0.000,0.000,0.000
489153.367,108.887,23.926,21.973,51.758,29.785,0.000,0.000,0.000
489153.371,78.613,27.832,24.902,49.316,35.156,0.000,0.000,0.000
489153.375,-36.621,30.273,27.344,15.625,31.738,0.000,0.000,0.000
489153.379,-16.602,28.809,24.902,16.113,28.320,0.000,0.000,0.000
489153.383,84.961,29.297,23.438,38.574,23.438,0.000,0.000,0.000
489153.387,96.680,28.320,27.344,45.898,20.508,0.000,0.000,0.000
489153.391,-13.672,29.297,31.738,18.066,20.020,0.000,0.000,0.000
489153.394,-48.828,29.785,27.344,0.000,19.531,0.000,0.000,0.000
489153.398,61.035,25.391,24.414,32.227,20.996,0.000,0.000,0.000
489153.402,114.746,27.832,27.344,60.059,27.344,0.000,0.000,0.000
489153.406,19.043,31.250,26.367,38.086,31.250,0.000,0.000,0.000
489153.410,-62.988,32.227,24.902,16.602,33.203,0.000,0.000,0.000
489153.414,20.996,34.180,26.367,32.227,31.738,0.000,0.000,0.000
489153.418,104.004,30.273,25.879,54.199,27.832,0.000,0.000,0.000
489153.422,44.922,33.691,29.297,36.621,27.344,0.000,0.000,0.000
489153.426,-59.570,35.156,29.785,4.395,23.438,0.000,0.000,0.000
489153.430,-13.672,28.809,26.367,11.719,16.602,0.000,0.000,0.000
489153.433,87.891,29.297,26.855,39.551,13.184,0.000,0.000,0.000
489153.437,65.918,25.879,24.902,35.156,9.277,0.000,0.000,0.000
489153.441,-59.570,18.555,24.414,-5.371,3.906,0.000,0.000,0.000
489153.445,-48.340,19.531,26.367,-12.207,6.348,0.000,0.000,0.000
489153.449,62.012,28.320,24.902,25.879,2.930,0.000,0.000,0.000
489153.453,83.984,31.738,25.879,43.457,3.418,0.000,0.000,0.000
489153.457,-22.461,28.809,26.367,10.254,5.859,0.000,0.000,0.000
489153.461,-67.383,34.668,26.367,-10.742,5.371,0.000,0.000,0.000
489153.465,44.922,37.109,25.879,18.066,8.301,0.000,0.000,0.000
489153.469,112.305,33.691,25.879,44.922,4.883,4.000,1.000,135.000
489153.473,20.508,33.203,23.438,19.043,-1.953,0.000,0.000,0.000
489153.476,-60.059,27.344,21.484,-2.441,3.418,0.000,0.000,0.000
489153.480,28.809,29.785,25.391,31.738,9.766,0.000,0.000,0.000
489153.484,114.746,36.621,23.926,60.059,10.742,0.000,0.000,0.000
489153.488,66.895,34.180,22.949,45.410,13.672,0.000,0.000,0.000
489153.492,-43.457,33.203,23.926,5.859,20.020,0.000,0.000,0.000
489153.496,-3.906,37.109,22.949,16.113,25.879,0.000,0.000,0.000
489153.500,101.074,38.574,24.414,46.387,25.391,0.000,0.000,0.000
489153.504,87.891,36.133,23.438,43.457,17.578,0.000,0.000,0.000
489153.508,-26.855,37.598,25.391,22.461,22.461,0.000,0.000,0.000
489153.512,-30.762,41.992,26.855,13.672,27.344,0.000,0.000,0.000
489153.516,70.801,37.109,18.555,33.203,13.184,0.000,0.000,0.000
489153.519,102.051,33.691,13.672,48.828,13.184,0.000,0.000,0.000
489153.523,0.488,32.715,18.066,20.020,15.625,0.000,0.000,0.000
489153.527,-62.012,35.156,18.555,0.977,12.695,0.000,0.000,0.000
489153.531,41.016,38.086,19.043,33.691,17.090,0.000,0.000,0.000
489153.535,108.398,28.809,19.043,48.828,11.230,0.000,0.000,0.000
489153.539,31.738,34.668,20.508,26.855,6.836,0.000,0.000,0.000
489153.543,-55.176,39.062,20.996,3.906,7.812,0.000,0.000,0.000
489153.547,8.789,31.738,18.555,14.160,4.883,0.000,0.000,0.000
489153.551,99.121,34.668,19.043,43.945,7.324,0.000,0.000,0.000
489153.555,64.941,39.062,21.484,37.598,12.207,0.000,0.000,0.000
489153.558,-46.387,38.574,25.391,4.883,15.625,0.000,0.000,0.000
489153.562,-17.090,34.180,25.391,9.766,19.043,0.000,0.000,0.000
489153.566,96.680,32.227,26.855,46.387,23.926,0.000,0.000,0.000
489153.570,108.398,38.574,32.227,53.223,28.809,0.000,0.000,0.000
489153.574,-5.859,40.527,30.273,20.508,26.855,0.000,0.000,0.000
489153.578,-36.133,35.645,25.879,11.230,20.996,0.000,0.000,0.000
489153.582,71.777,38.086,24.902,35.645,20.508,0.000,0.000,0.000
489153.586,114.258,41.992,24.414,48.340,18.555,0.000,0.000,0.000
489153.590,12.695,42.969,25.391,20.996,16.113,0.000,0.000,0.000
489153.594,-55.176,36.133,22.949,-5.859,16.113,0.000,0.000,0.000
489153.598,38.574,30.273,20.508,23.926,18.555,0.000,0.000,0.000
489153.601,114.258,28.809,22.461,56.641,19.043,0.000,0.000,0.000
489153.605,46.387,29.297,25.879,31.738,17.578,0.000,0.000,0.000
489153.609,-62.012,31.738,30.762,2.441,15.625,0.000,0.000,0.000
489153.613,-4.883,32.715,28.320,23.438,4.395,0.000,0.000,0.000
489153.617,94.727,37.109,26.367,46.875,-11.719,0.000,0.000,0.000
489153.621,63.965,33.691,27.344,28.809,-25.879,0.000,0.000,0.000
489153.625,-45.898,38.086,24.902,-0.977,-25.879,0.000,0.000,0.000
489153.629,-31.738,36.621,21.484,-0.977,-18.555,0.000,0.000,0.000
489153.633,79.102,25.879,17.578,24.414,-10.254,0.000,0.000,0.000
489153.637,99.609,29.297,18.555,35.645,8.301,0.000,0.000,0.000
489153.640,-12.207,34.668,23.926,17.090,24.414,0.000,0.000,0.000
489153.644,-39.551,34.668,26.367,11.719,31.250,0.000,0.000,0.000
489153.648,72.266,32.715,26.367,36.133,31.738,0.000,0.000,0.000
489153.652,117.188,32.227,22.461,49.316,24.902,0.000,0.000,0.000
489153.656,17.578,29.297,21.973,34.668,22.949,0.000,0.000,0.000
489153.660,-61.523,31.250,26.367,17.578,30.762,0.000,0.000,0.000
489153.664,28.809,34.180,26.367,31.738,29.297,0.000,0.000,0.000
489153.668,109.863,29.785,24.414,55.664,25.391,0.000,0.000,0.000
489153.672,44.922,26.367,24.414,39.551,20.508,0.000,0.000,0.000
489153.676,-62.988,24.902,25.391,8.301,15.625,0.000,0.000,0.000
489153.680,-12.207,30.273,25.879,19.043,15.137,0.000,0.000,0.000
489153.683,88.379,31.738,24.414,49.316,8.301,0.000,0.000,0.000
489153.687,79.590,31.738,28.320,47.852,7.812,0.000,0.000,0.000
489153.691,-35.645,33.691,25.391,6.348,9.766,0.000,0.000,0.000
489153.695,-39.062,30.273,20.508,-3.418,1.465,0.000,0.000,0.000
489153.699,75.684,32.227,20.508,29.297,0.488,0.000,0.000,0.000
489153.703,111.816,36.621,21.484,39.551,10.254,0.000,0.000,0.000
489153.707,-6.348,28.809,20.020,6.348,7.324,0.000,0.000,0.000
489153.711,-55.664,34.668,19.531,-6.836,6.348,0.000,0.000,0.000
489153.715,53.223,35.645,18.555,22.949,17.090,0.000,0.000,0.000
489153.719,103.027,26.855,18.555,44.922,20.020,0.000,0.000,0.000
489153.723,25.391,34.180,22.461,31.738,19.531,0.000,0.000,0.000
489153.726,-61.523,33.691,19.531,4.883,22.461,0.000,0.000,0.000
489153.730,17.090,26.855,17.578,26.855,26.367,0.000,0.000,0.000
489153.734,111.816,23.438,18.066,61.035,25.391,0.000,0.000,0.000
489153.738,62.988,26.367,23.438,42.480,22.461,0.000,0.000,0.000
489153.742,-49.316,30.762,26.367,14.648,20.508,0.000,0.000,0.000
489153.746,-23.438,24.902,25.391,20.508,18.555,0.000,0.000,0.000
489153.750,81.055,22.949,24.414,45.410,18.066,0.000,0.000,0.000
489153.754,81.543,22.461,23.438,48.828,12.207,0.000,0.000,0.000
489153.758,-38.086,25.879,26.855,20.508,11.230,0.000,0.000,0.000
489153.762,-50.293,25.391,24.414,18.066,18.066,0.000,0.000,0.000
489153.765,65.918,19.043,20.996,48.340,20.996,0.000,0.000,0.000
489153.769,103.027,23.438,26.367,54.688,17.578,0.000,0.000,0.000
489153.773,-2.930,24.902,27.344,23.926,17.090,0.000,0.000,0.000
489153.777,-61.523,22.949,28.320,12.207,20.508,0.000,0.000,0.000
489153.781,41.016,28.809,28.320,41.016,19.531,0.000,0.000,0.000
489153.785,108.887,31.250,24.902,58.105,12.695,0.000,0.000,0.000
489153.789,41.504,38.574,22.949,34.668,7.324,0.000,0.000,0.000
489153.793,-55.664,36.133,19.531,8.301,5.371,0.000,0.000,0.000
489153.797,-5.859,22.461,12.695,17.090,-3.418,0.000,0.000,0.000
489153.801,87.402,26.855,12.695,41.504,-10.742,0.000,0.000,0.000
489153.805,63.477,30.762,16.113,32.715,-7.324,0.000,0.000,0.000
489153.808,-47.363,29.785,20.020,5.859,3.906,0.000,0.000,0.000
489153.812,-27.832,26.855,22.949,22.461,11.230,0.000,0.000,0.000
489153.816,84.473,27.344,25.391,44.922,13.184,0.000,0.000,0.000
489153.820,93.750,33.203,26.367,44.434,13.672,0.000,0.000,0.000
489153.824,-24.414,29.297,29.297,20.996,15.137,0.000,0.000,0.000
489153.828,-56.641,22.461,31.738,10.254,19.531,0.000,0.000,0.000
489153.832,56.152,24.902,33.203,42.480,21.973,0.000,0.000,0.000
489153.836,100.098,23.438,32.227,62.012,19.043,0.000,0.000,0.000
489153.840,8.301,23.438,32.227,50.781,24.414,0.000,0.000,0.000
489153.844,-58.594,24.414,30.762,21.973,23.438,0.000,0.000,0.000
489153.848,32.715,27.344,31.250,26.367,17.578,0.000,0.000,0.000
489153.851,112.793,32.227,33.203,66.895,21.484,0.000,0.000,0.000
489153.855,43.945,27.832,33.691,57.617,19.531,1.000,1.000,45.000
489153.859,-59.082,30.273,34.180,21.973,20.020,0.000,0.000,0.000
489153.863,-1.953,40.527,33.691,35.645,24.902,0.000,0.000,0.000
489153.867,102.051,35.645,32.715,62.500,22.461,0.000,0.000,0.000
489153.871,83.496,27.832,32.715,58.105,18.555,0.000,0.000,0.000
489153.875,-31.250,29.785,31.738,31.250,18.066,0.000,0.000,0.000
489153.879,-26.367,26.855,27.344,26.367,19.043,0.000,0.000,0.000
489153.883,81.543,22.461,26.855,50.781,20.996,0.000,0.000,0.000
489153.887,104.980,25.391,28.320,63.477,24.902,0.000,0.000,0.000
489153.890,-9.766,29.785,27.832,35.156,21.484,0.000,0.000,0.000
489153.894,-53.711,34.668,28.320,22.461,17.578,0.000,0.000,0.000
489153.898,49.805,38.574,29.785,52.246,24.414,0.000,0.000,0.000
489153.902,106.445,35.156,28.320,60.059,26.367,0.000,0.000,0.000
489153.906,20.996,34.668,28.809,27.344,24.414,0.000,0.000,0.000
489153.910,-57.129,36.133,27.344,9.766,26.367,0.000,0.000,0.000
489153.914,26.855,34.180,24.414,30.273,24.902,0.000,0.000,0.000
489153.918,108.398,32.715,23.438,53.223,20.020,0.000,0.000,0.000
489153.922,57.129,34.668,24.414,50.781,22.461,0.000,0.000,0.000
489153.926,-54.199,41.992,27.344,23.438,23.438,0.000,0.000,0.000
489153.930,-19.531,43.945,23.926,19.043,20.996,0.000,0.000,0.000
489153.933,86.426,38.086,21.484,42.480,18.555,0.000,0.000,0.000
489153.937,76.660,36.621,27.344,45.898,6.348,0.000,0.000,0.000
489153.941,-44.434,34.668,27.344,15.137,1.465,0.000,0.000,0.000
489153.945,-48.340,32.715,26.367,10.742,3.418,0.000,0.000,0.000
489153.949,68.359,33.691,29.297,49.316,0.488,0.000,0.000,0.000
489153.953,94.238,25.879,25.391,50.293,-1.953,0.000,0.000,0.000
489153.957,-11.230,25.879,22.461,15.137,-1.953,0.000,0.000,0.000
489153.961,-61.523,30.762,21.484,6.836,4.883,0.000,0.000,0.000
489153.965,41.016,32.715,22.461,27.832,9.766,0.000,0.000,0.000
489153.969,107.422,35.156,23.438,46.387,15.625,0.000,0.000,0.000
489153.973,30.762,29.297,24.902,30.762,25.391,0.000,0.000,0.000
489153.976,-59.082,29.785,28.809,6.836,31.738,0.000,0.000,0.000
489153.980,13.672,33.203,28.809,20.996,34.180,0.000,0.000,0.000
489153.984,113.770,34.180,26.855,54.688,33.691,0.000,0.000,0.000
489153.988,69.824,34.180,26.855,54.199,32.227,0.000,0.000,0.000
489153.992,-46.875,37.598,27.832,25.391,36.621,0.000,0.000,0.000
489153.996,-14.160,36.621,26.855,21.484,36.621,0.000,0.000,0.000
489154.000,94.238,38.574,25.391,47.363,27.832,0.000,0.000,0.000
489154.004,87.891,33.691,22.461,49.316,23.926,0.000,0.000,0.000
489154.008,-29.297,26.367,24.414,11.230,23.926,0.000,0.000,0.000
489154.012,-44.922,29.785,27.832,-1.465,20.996,0.000,0.000,0.000
489154.015,65.430,31.738,28.809,27.344,20.508,0.000,0.000,0.000
489154.019,106.934,30.273,25.879,45.410,20.020,0.000,0.000,0.000
489154.023,3.418,26.855,24.414,22.949,15.137,0.000,0.000,0.000
489154.027,-66.895,32.715,26.367,0.488,9.277,0.000,0.000,0.000
489154.031,24.414,36.133,28.320,26.855,6.836,0.000,0.000,0.000
489154.035,109.375,30.273,28.320,52.246,6.348,0.000,0.000,0.000
489154.039,41.504,34.180,29.785,30.273,6.348,0.000,0.000,0.000
489154.043,-70.312,41.016,32.227,4.395,3.906,0.000,0.000,0.000
489154.047,-8.789,30.273,28.809,11.230,-1.465,0.000,0.000,0.000
489154.051,96.191,21.973,27.832,39.062,0.000,0.000,0.000,0.000
489154.055,70.312,27.832,30.762,40.527,6.836,0.000,0.000,0.000
489154.058,-46.875,29.297,29.785,6.836,11.719,0.000,0.000,0.000
489154.062,-33.203,27.344,26.855,7.812,14.648,0.000,0.000,0.000
489154.066,81.055,29.785,29.785,49.805,17.578,0.000,0.000,0.000
489154.070,92.773,34.180,29.785,53.711,15.625,0.000,0.000,0.000
489154.074,-26.367,27.344,27.832,8.301,10.254,0.000,0.000,0.000
489154.078,-61.035,29.297,29.297,-4.883,6.836,0.000,0.000,0.000
489154.082,48.828,37.598,29.297,25.391,8.301,0.000,0.000,0.000
489154.086,101.562,34.180,31.250,40.527,10.254,0.000,0.000,0.000
489154.090,9.766,33.203,33.203,20.508,12.695,0.000,0.000,0.000
489154.094,-66.406,28.809,28.809,0.977,19.531,0.000,0.000,0.000
489154.097,20.508,28.320,24.902,20.020,20.508,0.000,0.000,0.000
489154.101,109.375,32.227,26.367,58.105,17.090,0.000,0.000,0.000
489154.105,57.617,30.273,29.785,42.969,20.020,0.000,0.000,0.000
489154.109,-56.641,35.645,29.785,1.953,25.391,0.000,0.000,0.000
489154.113,-16.113,34.668,26.367,14.160,20.020,0.000,0.000,0.000
489154.117,88.867,27.344,24.902,38.574,8.301,0.000,0.000,0.000
489154.121,68.359,32.715,25.879,33.691,7.324,0.000,0.000,0.000
489154.125,-45.410,31.250,26.367,6.348,14.160,0.000,0.000,0.000
489154.129,-29.785,29.297,28.320,11.719,18.555,0.000,0.000,0.000
489154.133,78.613,33.691,28.809,41.992,15.625,0.000,0.000,0.000
489154.137,93.750,33.691,26.855,45.898,14.160,0.000,0.000,0.000
489154.140,-16.113,35.645,24.902,18.066,9.277,0.000,0.000,0.000
489154.144,-64.941,35.156,25.879,8.301,13.672,0.000,0.000,0.000
489154.148,39.551,36.133,26.855,38.086,20.020,0.000,0.000,0.000
489154.152,105.469,32.715,28.809,64.453,19.043,0.000,0.000,0.000
489154.156,18.066,26.855,29.785,39.551,16.113,0.000,0.000,0.000
489154.160,-73.730,21.973,26.367,3.906,14.160,0.000,0.000,0.000
489154.164,7.324,22.461,25.879,22.949,8.301,0.000,0.000,0.000
489154.168,102.051,25.879,22.949,50.293,8.789,0.000,0.000,0.000
489154.172,54.199,31.738,26.855,39.062,18.066,0.000,0.000,0.000
489154.176,-62.500,35.156,29.785,4.395,15.625,0.000,0.000,0.000
489154.180,-25.391,24.902,24.902,7.812,11.719,0.000,0.000,0.000
489154.183,82.031,24.902,21.973,39.062,7.324,0.000,0.000,0.000
489154.187,77.148,34.668,23.438,37.598,4.395,0.000,0.000,0.000
489154.191,-38.086,35.645,24.414,8.789,9.277,0.000,0.000,0.000
489154.195,-45.898,34.180,21.484,12.695,14.648,0.000,0.000,0.000
489154.199,64.453,35.645,22.949,47.852,16.113,0.000,0.000,0.000
489154.203,95.703,36.133,27.344,53.223,20.020,0.000,0.000,0.000
489154.207,-11.719,35.645,28.320,23.438,19.531,0.000,0.000,0.000
489154.211,-73.730,29.785,28.809,11.719,19.531,0.000,0.000,0.000
489154.215,29.785,23.438,24.414,37.598,22.949,0.000,0.000,0.000
489154.219,104.492,23.438,20.508,47.363,16.113,0.000,0.000,0.000
489154.222,17.090,29.785,21.973,20.508,8.301,0.000,0.000,0.000
489154.226,-82.520,32.715,25.391,0.488,16.602,0.000,0.000,0.000
489154.230,-1.953,33.203,30.273,24.414,24.902,0.000,0.000,0.000
489154.234,93.262,35.156,27.344,50.293,14.160,0.000,0.000,0.000
489154.238,53.711,41.504,24.902,36.621,5.859,0.000,0.000,0.000
489154.242,-57.617,36.621,27.344,3.906,8.789,0.000,0.000,0.000
489154.246,-31.250,26.367,28.809,3.418,11.230,3.000,1.000,45.000
489154.250,80.078,31.250,25.879,31.250,13.184,0.000,0.000,0.000
489154.254,87.891,31.738,23.926,40.039,13.672,0.000,0.000,0.000
489154.258,-29.785,25.391,23.438,11.719,14.648,0.000,0.000,0.000
489154.262,-56.152,23.438,22.461,-1.465,13.672,0.000,0.000,0.000
489154.265,55.176,31.250,23.926,24.902,13.672,0.000,0.000,0.000
489154.269,110.352,37.598,31.250,46.875,20.996,0.000,0.000,0.000
489154.273,15.625,29.785,33.691,20.996,20.508,0.000,0.000,0.000
489154.277,-62.988,21.973,30.273,-0.488,19.043,0.000,0.000,0.000
489154.281,29.297,22.949,29.297,27.832,18.066,0.000,0.000,0.000
489154.285,109.375,27.344,27.344,48.828,15.625,0.000,0.000,0.000
489154.289,45.410,31.250,30.273,29.297,17.090,0.000,0.000,0.000
489154.293,-60.059,27.344,31.250,2.930,16.113,0.000,0.000,0.000
489154.297,-3.906,21.973,27.832,18.555,13.672,0.000,0.000,0.000
489154.301,103.516,27.832,28.809,48.828,9.277,0.000,0.000,0.000
489154.305,71.289,34.668,27.344,38.574,9.277,0.000,0.000,0.000
489154.308,-56.152,35.645,28.320,9.277,11.230,0.000,0.000,0.000
489154.312,-44.434,31.738,25.391,7.812,4.395,0.000,0.000,0.000
489154.316,67.383,25.391,21.484,31.250,1.465,0.000,0.000,0.000
489154.320,83.984,27.832,24.902,30.273,2.930,0.000,0.000,0.000
489154.324,-30.273,26.367,26.855,-4.395,1.465,0.000,0.000,0.000
489154.328,-62.988,24.414,31.250,-13.184,3.906,0.000,0.000,0.000
489154.332,44.922,33.203,30.762,19.531,6.348,0.000,0.000,0.000
489154.336,90.820,26.367,26.855,33.203,1.465,0.000,0.000,0.000
489154.340,7.324,22.949,25.879,7.812,-1.465,0.000,0.000,0.000
489154.344,-70.801,31.250,22.461,-14.648,3.418,0.000,0.000,0.000
489154.347,10.742,34.180,23.438,10.254,6.348,0.000,0.000,0.000
489154.351,103.516,36.621,23.926,39.062,8.789,0.000,0.000,0.000
489154.355,45.898,31.250,20.996,12.695,4.395,0.000,0.000,0.000
489154.359,-64.941,30.273,22.949,-14.160,6.836,0.000,0.000,0.000
489154.363,-12.695,37.598,28.809,6.348,15.137,0.000,0.000,0.000
489154.367,102.051,32.715,30.762,38.086,18.066,0.000,0.000,0.000
489154.371,90.332,24.902,27.832,33.203,16.113,0.000,0.000,0.000
489154.375,-37.109,26.367,27.832,1.953,17.578,0.000,0.000,0.000
489154.379,-44.434,25.391,26.855,-5.859,20.996,0.000,0.000,0.000
489154.383,71.777,27.344,28.809,22.461,20.996,0.000,0.000,0.000
489154.387,103.027,28.809,30.273,37.109,13.184,0.000,0.000,0.000
489154.390,-6.836,26.367,27.344,12.207,12.695,0.000,0.000,0.000
489154.394,-59.570,29.297,28.809,-3.906,20.996,0.000,0.000,0.000
489154.398,48.340,36.621,30.762,19.043,22.461,0.000,0.000,0.000
489154.402,113.281,31.738,25.391,40.039,20.020,0.000,0.000,0.000
489154.406,32.227,23.926,23.926,26.367,20.996,0.000,0.000,0.000
489154.410,-60.059,22.949,24.902,4.883,22.461,0.000,0.000,0.000
489154.414,12.695,26.855,23.926,8.789,21.973,0.000,0.000,0.000
489154.418,104.980,28.320,23.438,31.738,22.949,0.000,0.000,0.000
489154.422,58.594,31.250,25.879,26.855,21.484,0.000,0.000,0.000
489154.426,-51.758,35.645,30.273,-2.441,23.926,0.000,0.000,0.000
489154.430,-16.602,35.645,27.344,1.465,23.438,0.000,0.000,0.000
489154.433,90.820,39.551,26.367,32.227,15.625,0.000,0.000,0.000
489154.437,87.402,40.527,31.250,43.457,12.207,0.000,0.000,0.000
489154.441,-34.180,32.715,33.203,7.812,9.766,0.000,0.000,0.000
489154.445,-47.363,23.438,30.762,-4.883,5.859,0.000,0.000,0.000
489154.449,68.359,27.832,29.297,27.832,3.906,0.000,0.000,0.000
489154.453,102.051,30.762,30.273,45.410,8.789,0.000,0.000,0.000
489154.457,0.977,30.273,34.668,21.973,18.555,0.000,0.000,0.000
489154.461,-62.500,38.086,36.133,2.441,13.184,0.000,0.000,0.000
489154.465,34.668,43.457,36.133,31.250,8.789,0.000,0.000,0.000
489154.469,103.516,36.133,33.691,56.152,16.113,0.000,0.000,0.000
489154.472,25.879,26.855,31.250,35.156,14.648,0.000,0.000,0.000
489154.476,-74.219,25.879,32.227,9.766,14.648,0.000,0.000,0.000
489154.480,-5.371,28.320,28.320,20.020,22.461,0.000,0.000,0.000
489154.484,98.145,29.297,26.855,50.781,22.461,0.000,0.000,0.000
489154.488,65.430,29.785,30.762,52.734,23.926,0.000,0.000,0.000
489154.492,-48.828,31.250,31.250,24.902,25.391,0.000,0.000,0.000
489154.496,-23.926,31.738,32.715,20.020,28.320,0.000,0.000,0.000
489154.500,99.609,40.527,35.156,49.805,36.133,0.000,0.000,0.000
489154.504,107.422,43.457,33.203,57.129,32.715,0.000,0.000,0.000
489154.508,-17.090,33.691,28.809,17.578,27.832,0.000,0.000,0.000
489154.512,-43.457,34.180,28.320,12.207,33.691,0.000,0.000,0.000
489154.515,63.965,30.762,27.832,39.062,26.855,0.000,0.000,0.000
489154.519,109.863,28.320,26.855,41.016,18.066,0.000,0.000,0.000
489154.523,10.254,28.320,28.809,16.113,17.090,0.000,0.000,0.000
489154.527,-63.965,26.855,32.227,1.465,20.508,0.000,0.000,0.000
489154.531,25.879,31.250,36.621,27.344,19.531,0.000,0.000,0.000
489154.535,100.586,41.016,35.156,54.199,17.090,0.000,0.000,0.000
489154.539,31.738,32.227,30.273,32.715,6.348,0.000,0.000,0.000
489154.543,-74.219,24.414,34.668,5.371,9.766,0.000,0.000,0.000
489154.547,-11.719,31.250,37.109,23.438,20.508,0.000,0.000,0.000
489154.551,93.262,34.180,32.227,50.781,14.160,0.000,0.000,0.000
489154.554,74.707,35.156,31.250,43.457,14.160,0.000,0.000,0.000
489154.558,-36.621,32.715,31.738,13.184,14.648,1.000,1.000,45.000
489154.562,-35.645,30.762,29.297,10.254,13.672,0.000,0.000,0.000
489154.566,79.102,29.785,31.738,46.875,18.555,0.000,0.000,0.000
489154.570,103.027,30.762,36.133,63.965,20.020,0.000,0.000,0.000
489154.574,-16.602,23.926,34.668,31.250,19.531,0.000,0.000,0.000
489154.578,-58.594,23.926,33.203,16.113,25.391,0.000,0.000,0.000
489154.582,51.758,22.461,34.668,41.992,27.832,0.000,0.000,0.000
489154.586,116.211,29.785,33.691,61.035,28.809,0.000,0.000,0.000
489154.590,32.227,39.551,32.227,45.898,33.691,0.000,0.000,0.000
489154.594,-57.617,33.691,35.156,22.949,33.203,0.000,0.000,0.000
489154.597,22.461,31.250,36.133,28.320,25.391,0.000,0.000,0.000
489154.601,113.281,37.109,33.691,46.387,20.508,0.000,0.000,0.000
489154.605,61.523,38.086,35.645,40.039,17.578,0.000,0.000,0.000
489154.609,-49.316,37.109,39.551,17.578,20.996,0.000,0.000,0.000
489154.613,-18.555,34.180,36.133,23.926,20.020,0.000,0.000,0.000
489154.617,79.590,28.320,31.738,53.223,18.066,0.000,0.000,0.000
489154.621,73.242,30.762,33.203,50.781,15.137,0.000,0.000,0.000
489154.625,-41.504,37.109,33.203,14.648,14.160,0.000,0.000,0.000
489154.629,-44.434,34.180,25.879,8.789,20.508,0.000,0.000,0.000
489154.633,76.660,29.785,25.391,36.621,21.484,0.000,0.000,0.000
489154.637,109.863,34.668,28.320,52.246,23.438,0.000,0.000,0.000
489154.640,0.488,36.133,23.438,20.020,23.438,0.000,0.000,0.000
489154.644,-58.594,27.832,23.438,-0.977,22.461,0.000,0.000,0.000
489154.648,44.922,22.461,24.414,22.461,21.484,0.000,0.000,0.000
489154.652,116.699,24.902,27.344,46.875,20.020,0.000,0.000,0.000
489154.656,35.156,24.902,30.273,30.273,14.160,0.000,0.000,0.000
489154.660,-68.359,21.484,27.344,2.930,13.672,0.000,0.000,0.000
489154.664,-1.465,20.996,25.391,17.090,12.695,0.000,0.000,0.000
489154.668,95.215,20.508,23.926,40.039,5.859,0.000,0.000,0.000
489154.672,61.523,27.344,24.902,29.297,7.812,0.000,0.000,0.000
489154.676,-46.875,27.832,25.879,4.883,12.695,0.000,0.000,0.000
489154.679,-16.113,19.531,24.902,24.414,14.160,0.000,0.000,0.000
489154.683,95.215,20.508,25.879,46.387,17.578,0.000,0.000,0.000
489154.687,90.820,26.367,25.879,38.086,17.578,0.000,0.000,0.000
489154.691,-26.855,29.785,27.344,16.113,20.508,0.000,0.000,0.000
489154.695,-33.203,26.367,32.715,13.672,25.391,0.000,0.000,0.000
489154.699,74.707,25.879,28.320,41.992,19.531,0.000,0.000,0.000
489154.703,109.375,29.785,21.973,53.223,12.695,0.000,0.000,0.000
489154.707,13.184,33.203,24.902,30.273,19.043,0.000,0.000,0.000
489154.711,-57.617,31.738,26.855,4.883,22.949,0.000,0.000,0.000
489154.715,32.715,26.855,20.020,22.949,20.508,0.000,0.000,0.000
489154.719,109.863,23.438,20.020,51.270,21.973,0.000,0.000,0.000
489154.722,41.992,26.367,24.414,32.715,24.902,0.000,0.000,0.000
489154.726,-55.664,27.344,22.949,3.906,28.809,0.000,0.000,0.000
489154.730,7.324,26.367,25.391,15.625,31.738,0.000,0.000,0.000
489154.734,98.633,23.926,26.367,44.922,33.203,0.000,0.000,0.000
489154.738,68.359,20.996,26.367,40.527,28.320,0.000,0.000,0.000
489154.742,-49.316,30.762,28.320,4.395,20.020,0.000,0.000,0.000
489154.746,-44.434,30.762,22.949,-0.488,12.207,0.000,0.000,0.000
489154.750,69.336,21.484,21.973,27.832,6.836,0.000,0.000,0.000
489154.754,83.984,22.949,23.926,32.227,0.488,0.000,0.000,0.000
489154.758,-27.344,25.879,23.926,0.977,-2.930,0.000,0.000,0.000
489154.762,-54.199,29.297,21.484,-7.812,-1.953,0.000,0.000,0.000
489154.765,59.570,28.809,19.531,21.484,-0.488,0.000,0.000,0.000
489154.769,113.281,26.855,22.461,41.992,9.766,0.000,0.000,0.000
489154.773,21.484,30.762,25.391,21.484,16.113,0.000,0.000,0.000
489154.777,-59.082,38.574,24.414,0.977,13.672,0.000,0.000,0.000
489154.781,26.367,42.480,21.484,32.227,17.578,0.000,0.000,0.000
489154.785,119.141,44.434,25.391,60.059,23.438,0.000,0.000,0.000
489154.789,58.105,42.969,27.344,34.180,20.996,0.000,0.000,0.000
489154.793,-56.641,41.992,22.949,-0.977,14.160,0.000,0.000,0.000
489154.797,-6.836,43.945,23.438,9.277,12.695,0.000,0.000,0.000
489154.801,92.773,41.504,25.879,45.898,16.113,0.000,0.000,0.000
489154.804,73.730,37.109,26.855,40.039,12.695,0.000,0.000,0.000
489154.808,-47.852,37.598,27.344,1.465,6.348,0.000,0.000,0.000
489154.812,-54.199,32.715,27.344,0.488,8.789,0.000,0.000,0.000
489154.816,62.500,28.320,28.320,34.180,12.695,0.000,0.000,0.000
489154.820,91.797,38.086,29.785,45.410,10.254,0.000,0.000,0.000
489154.824,-21.973,32.715,25.391,15.625,10.254,0.000,0.000,0.000
489154.828,-68.848,25.391,21.973,-2.441,15.137,0.000,0.000,0.000
489154.832,33.691,22.949,19.531,19.531,13.672,0.000,0.000,0.000
489154.836,93.262,21.973,20.508,41.504,10.254,0.000,0.000,0.000
489154.840,12.207,25.879,22.949,22.949,12.207,0.000,0.000,0.000
489154.844,-76.172,25.879,23.926,-4.883,12.695,0.000,0.000,0.000
489154.847,-5.371,23.438,24.414,9.277,6.836,0.000,0.000,0.000
489154.851,83.008,27.832,23.926,32.227,-0.488,0.000,0.000,0.000
489154.855,44.434,32.227,21.973,20.508,-2.441,0.000,0.000,0.000
489154.859,-63.965,26.855,20.508,1.465,3.418,0.000,0.000,0.000
489154.863,-29.785,24.414,23.438,15.137,11.230,0.000,0.000,0.000
489154.867,73.730,24.414,21.484,37.598,13.672,0.000,0.000,0.000
489154.871,68.359,24.902,22.461,39.551,11.230,0.000,0.000,0.000
489154.875,-39.062,26.367,27.344,14.160,18.555,0.000,0.000,0.000
489154.879,-40.527,27.832,29.297,9.277,28.809,0.000,0.000,0.000
489154.883,75.684,25.391,29.785,34.668,22.461,0.000,0.000,0.000
489154.887,108.887,18.066,32.715,54.688,18.066,0.000,0.000,0.000
489154.890,1.465,14.648,35.156,29.297,20.508,0.000,0.000,0.000
489154.894,-55.176,18.555,34.668,0.000,18.555,0.000,0.000,0.000
489154.898,38.086,22.949,31.250,24.902,10.742,0.000,0.000,0.000
489154.902,103.516,19.043,30.762,51.758,8.789,0.000,0.000,0.000
489154.906,33.203,18.555,31.250,33.691,14.648,0.000,0.000,0.000
489154.910,-65.430,20.508,30.762,7.812,17.578,0.000,0.000,0.000
489154.914,5.371,23.926,30.273,19.043,18.555,0.000,0.000,0.000
489154.918,105.469,27.344,26.367,47.363,17.578,0.000,0.000,0.000
489154.922,66.406,23.438,25.391,41.504,14.648,0.000,0.000,0.000
489154.926,-52.246,28.809,25.391,8.301,14.648,0.000,0.000,0.000
489154.929,-24.902,32.227,20.996,8.789,20.508,0.000,0.000,0.000
489154.933,95.703,31.738,22.461,39.062,28.809,0.000,0.000,0.000
489154.937,102.539,30.273,20.508,46.387,28.320,0.000,0.000,0.000
489154.941,-16.602,25.879,23.438,19.043,26.367,0.000,0.000,0.000
489154.945,-40.039,30.762,25.879,11.230,30.273,0.000,0.000,0.000
489154.949,66.406,34.180,22.461,38.574,27.832,0.000,0.000,0.000
489154.953,114.258,35.645,26.367,54.688,27.832,3.000,1.000,45.000
489154.957,20.996,36.621,28.809,28.320,27.832,0.000,0.000,0.000
489154.961,-58.594,31.738,25.879,-1.953,18.066,0.000,0.000,0.000
489154.965,30.273,31.738,25.879,23.438,18.555,0.000,0.000,0.000
489154.969,109.375,37.598,26.367,50.781,17.578,0.000,0.000,0.000
489154.972,39.062,31.738,25.879,27.832,12.695,0.000,0.000,0.000
489154.976,-60.547,33.203,27.832,6.836,18.066,0.000,0.000,0.000
489154.980,-1.465,40.039,27.832,19.531,17.578,0.000,0.000,0.000
489154.984,93.262,33.691,25.879,44.922,9.766,0.000,0.000,0.000
489154.988,72.266,34.180,26.855,42.480,12.695,0.000,0.000,0.000
489154.992,-46.387,36.133,31.250,13.184,16.602,0.000,0.000,0.000
489154.996,-46.387,31.738,28.320,12.695,10.254,0.000,0.000,0.000
489155.000,62.012,30.762,23.926,41.504,7.812,0.000,0.000,0.000
489155.004,82.031,32.227,23.438,52.246,9.277,0.000,0.000,0.000
489155.008,-23.438,31.738,22.949,27.832,4.395,0.000,0.000,0.000
489155.011,-56.641,37.109,28.320,8.301,11.719,0.000,0.000,0.000
489155.015,44.922,40.039,28.809,24.902,12.695,0.000,0.000,0.000
489155.019,95.215,30.273,25.391,38.086,3.906,0.000,0.000,0.000
489155.023,7.812,33.691,24.902,16.602,9.277,0.000,0.000,0.000
489155.027,-73.730,38.086,25.391,-3.418,14.648,0.000,0.000,0.000
489155.031,5.859,33.691,22.949,9.766,10.742,0.000,0.000,0.000
489155.035,94.727,34.668,20.508,36.621,9.766,0.000,0.000,0.000
489155.039,43.945,35.156,21.484,28.320,9.766,0.000,0.000,0.000
489155.043,-66.895,39.062,20.508,1.465,11.230,0.000,0.000,0.000
489155.047,-17.090,46.875,20.508,11.719,14.648,0.000,0.000,0.000
489155.051,90.332,44.922,21.973,40.039,12.207,0.000,0.000,0.000
489155.054,77.148,41.504,22.949,36.133,11.230,0.000,0.000,0.000
489155.058,-41.016,39.062,23.438,1.465,9.766,0.000,0.000,0.000
489155.062,-40.039,36.133,21.973,-4.395,6.836,0.000,0.000,0.000
489155.066,70.312,33.691,23.438,32.715,6.348,0.000,0.000,0.000
489155.070,93.750,27.344,25.391,44.434,2.930,0.000,0.000,0.000
489155.074,-13.184,26.855,22.949,9.277,-0.488,0.000,0.000,0.000
489155.078,-67.871,32.227,21.973,-9.766,3.418,0.000,0.000,0.000
489155.082,38.574,29.297,21.484,16.602,9.277,0.000,0.000,0.000
489155.086,106.445,28.809,26.367,46.387,10.742,0.000,0.000,0.000
489155.090,20.020,29.785,28.320,29.785,3.418,0.000,0.000,0.000
489155.094,-67.383,30.273,27.832,4.395,7.812,0.000,0.000,0.000
489155.097,16.113,34.668,25.879,12.695,18.066,0.000,0.000,0.000
489155.101,109.863,32.227,22.949,39.062,18.555,0.000,0.000,0.000
489155.105,63.965,29.297,22.949,29.785,11.230,0.000,0.000,0.000
489155.109,-51.758,33.691,20.508,-1.465,9.766,0.000,0.000,0.000
489155.113,-19.043,35.156,20.996,11.230,13.184,0.000,0.000,0.000
489155.117,87.402,34.180,24.414,41.504,7.324,0.000,0.000,0.000
489155.121,87.402,34.180,26.855,43.945,8.301,0.000,0.000,0.000
489155.125,-27.344,36.133,30.273,12.207,12.695,0.000,0.000,0.000
489155.129,-49.316,40.527,33.203,5.371,16.113,0.000,0.000,0.000
489155.133,60.547,31.738,33.203,41.016,14.648,0.000,0.000,0.000
489155.136,97.656,25.879,33.203,66.406,10.742,0.000,0.000,0.000
489155.140,-2.441,33.691,36.621,38.574,13.184,0.000,0.000,0.000
489155.144,-63.965,28.809,34.668,8.789,14.648,0.000,0.000,0.000
489155.148,36.621,24.414,31.250,24.414,11.719,0.000,0.000,0.000
489155.152,107.910,23.926,33.203,44.922,7.812,0.000,0.000,0.000
489155.156,36.621,23.438,34.668,34.180,5.859,0.000,0.000,0.000
489155.160,-55.664,25.879,34.668,10.742,9.766,0.000,0.000,0.000
489155.164,4.883,29.785,35.156,21.973,12.695,0.000,0.000,0.000
489155.168,98.633,28.809,34.180,48.828,9.766,0.000,0.000,0.000
489155.172,65.918,19.531,33.691,44.434,13.184,0.000,0.000,0.000
489155.176,-49.805,24.414,36.133,13.672,19.531,0.000,0.000,0.000
489155.179,-33.691,30.762,33.691,12.207,20.020,0.000,0.000,0.000
489155.183,83.496,33.203,34.668,52.246,21.973,0.000,0.000,0.000
489155.187,94.238,33.203,33.203,60.059,20.020,0.000,0.000,0.000
489155.191,-24.414,33.203,29.785,15.137,18.555,0.000,0.000,0.000
489155.195,-54.199,36.133,30.273,-11.719,17.090,0.000,0.000,0.000
489155.199,55.664,41.504,29.297,13.184,14.648,0.000,0.000,0.000
489155.203,99.121,36.133,28.320,33.203,9.277,0.000,0.000,0.000
489155.207,-1.953,28.320,27.344,11.719,1.953,0.000,0.000,0.000
489155.211,-76.660,31.250,26.367,-9.766,0.977,0.000,0.000,0.000
489155.215,16.602,32.227,22.949,13.672,-0.977,0.000,0.000,0.000
489155.219,96.680,37.109,26.367,45.898,0.000,0.000,0.000,0.000
489155.222,27.344,36.621,25.391,29.297,-4.883,0.000,0.000,0.000
489155.226,-77.637,31.250,20.508,-3.906,-9.277,0.000,0.000,0.000
489155.230,-20.508,29.785,20.020,1.465,-4.395,0.000,0.000,0.000
489155.234,88.867,32.715,22.461,33.203,0.977,0.000,0.000,0.000
489155.238,65.918,29.297,20.020,29.785,-1.465,0.000,0.000,0.000
489155.242,-58.594,23.438,17.090,-10.742,-8.789,0.000,0.000,0.000
489155.246,-46.387,30.762,20.996,-6.836,-0.488,0.000,0.000,0.000
489155.250,71.289,33.203,24.902,28.320,7.324,0.000,0.000,0.000
489155.254,88.379,27.832,23.438,35.156,2.930,0.000,0.000,0.000
489155.258,-23.926,30.273,20.996,3.906,-0.488,0.000,0.000,0.000
489155.261,-62.988,32.715,18.066,-13.672,0.977,0.000,0.000,0.000
489155.265,42.969,37.598,17.578,7.812,1.465,0.000,0.000,0.000
489155.269,97.656,37.109,19.043,27.344,-2.930,0.000,0.000,0.000
489155.273,9.277,32.715,18.066,11.230,-7.812,0.000,0.000,0.000
489155.277,-73.730,30.762,19.531,-12.695,-4.883,1.000,1.000,0.000
489155.281,20.020,30.762,19.531,12.695,1.465,0.000,0.000,0.000
489155.285,116.699,36.133,20.996,42.480,4.883,0.000,0.000,0.000
489155.289,61.523,38.086,23.926,25.879,9.277,0.000,0.000,0.000
489155.293,-49.316,36.621,26.367,0.488,19.043,0.000,0.000,0.000
489155.297,-4.883,36.621,24.902,10.742,22.949,0.000,0.000,0.000
489155.301,102.539,34.668,22.461,38.574,11.719,0.000,0.000,0.000
489155.304,86.914,32.715,23.926,37.598,8.301,0.000,0.000,0.000
489155.308,-26.855,35.645,24.902,10.742,18.066,0.000,0.000,0.000
489155.312,-37.109,34.668,26.367,5.371,20.508,0.000,0.000,0.000
489155.316,67.383,30.273,28.320,36.133,17.578,0.000,0.000,0.000
489155.320,105.469,30.273,32.227,53.711,19.531,0.000,0.000,0.000
489155.324,3.906,30.273,34.668,22.949,17.578,0.000,0.000,0.000
489155.328,-57.129,32.227,33.203,10.254,16.113,0.000,0.000,0.000
489155.332,34.668,35.645,33.203,37.598,14.160,0.000,0.000,0.000
489155.336,101.074,30.273,31.738,44.922,-2.930,0.000,0.000,0.000
489155.340,20.020,27.344,29.785,17.578,-5.371,0.000,0.000,0.000
489155.344,-84.473,33.691,28.320,-17.578,-3.418,0.000,0.000,0.000
489155.347,-13.672,35.156,27.344,-5.859,-6.836,0.000,0.000,0.000
489155.351,84.961,33.691,29.785,31.738,-4.395,0.000,0.000,0.000
489155.355,40.527,31.738,31.738,26.855,-3.906,0.000,0.000,0.000
489155.359,-67.383,32.715,32.227,-6.836,-0.488,0.000,0.000,0.000
489155.363,-39.062,37.109,32.715,-0.977,1.953,0.000,0.000,0.000
489155.367,71.777,33.203,33.691,36.133,6.348,0.000,0.000,0.000
489155.371,80.566,27.344,35.156,42.480,11.719,0.000,0.000,0.000
489155.375,-43.945,31.738,33.691,8.301,8.789,0.000,0.000,0.000
489155.379,-62.988,31.738,28.809,-4.395,5.859,0.000,0.000,0.000
489155.383,57.617,39.062,26.855,28.320,10.742,0.000,0.000,0.000
489155.386,95.215,41.504,23.926,41.992,8.301,0.000,0.000,0.000
489155.390,-5.859,33.691,26.367,12.207,6.348,0.000,0.000,0.000
489155.394,-67.383,38.086,27.832,-1.953,11.719,0.000,0.000,0.000
489155.398,25.879,37.109,25.879,27.344,15.137,0.000,0.000,0.000
489155.402,104.492,30.273,23.926,46.875,11.719,0.000,0.000,0.000
489155.406,40.039,33.203,22.461,31.250,14.648,0.000,0.000,0.000
489155.410,-61.523,35.645,26.367,11.719,20.996,0.000,0.000,0.000
489155.414,-2.441,36.621,27.832,27.832,20.508,0.000,0.000,0.000
489155.418,97.656,40.039,28.809,55.664,19.531,0.000,0.000,0.000
489155.422,61.523,41.504,28.809,40.039,13.184,0.000,0.000,0.000
489155.426,-67.383,38.086,22.949,0.488,6.836,0.000,0.000,0.000
489155.429,-47.363,34.180,26.367,3.418,11.719,0.000,0.000,0.000
489155.433,67.383,33.691,30.762,34.668,8.789,0.000,0.000,0.000
489155.437,77.148,26.855,24.414,44.434,2.930,0.000,0.000,0.000
489155.441,-26.855,24.414,25.879,23.438,16.602,0.000,0.000,0.000
489155.445,-58.105,29.297,27.832,2.441,19.531,0.000,0.000,0.000
489155.449,44.434,33.691,26.367,23.438,14.648,0.000,0.000,0.000
489155.453,97.656,38.574,28.809,44.922,10.742,0.000,0.000,0.000
489155.457,3.418,39.551,25.391,20.020,5.371,0.000,0.000,0.000
489155.461,-75.195,36.133,22.949,-0.488,9.766,0.000,0.000,0.000
489155.465,11.230,35.645,23.438,16.113,12.207,0.000,0.000,0.000
489155.468,98.633,40.039,24.414,41.016,16.113,0.000,0.000,0.000
489155.472,49.316,34.668,26.367,30.762,15.137,0.000,0.000,0.000
489155.476,-60.059,25.879,23.926,-3.906,14.648,0.000,0.000,0.000
489155.480,-17.090,30.762,24.902,3.906,15.137,0.000,0.000,0.000
489155.484,86.914,34.668,21.973,36.621,13.184,0.000,0.000,0.000
489155.488,75.195,38.574,20.508,37.598,13.184,0.000,0.000,0.000
489155.492,-40.039,38.574,25.391,9.277,14.160,0.000,0.000,0.000
489155.496,-39.551,40.527,25.879,5.859,15.625,0.000,0.000,0.000
489155.500,73.730,41.504,22.949,36.133,15.137,0.000,0.000,0.000
489155.504,104.004,37.109,23.926,50.781,16.602,0.000,0.000,0.000
489155.508,0.488,39.062,26.855,23.926,20.996,0.000,0.000,0.000
489155.511,-50.781,41.016,27.344,8.301,16.602,0.000,0.000,0.000
489155.515,54.688,40.039,27.832,34.668,16.113,0.000,0.000,0.000
489155.519,116.211,33.203,28.320,53.711,20.020,0.000,0.000,0.000
489155.523,31.250,34.668,28.809,27.832,17.090,0.000,0.000,0.000
489155.527,-58.594,36.621,25.391,-1.465,14.648,0.000,0.000,0.000
489155.531,16.113,35.645,26.367,20.020,16.602,0.000,0.000,0.000
489155.535,105.469,33.691,25.879,47.363,15.137,0.000,0.000,0.000
489155.539,55.664,28.320,22.461,34.180,9.766,0.000,0.000,0.000
489155.543,-59.570,30.762,24.902,11.719,14.160,0.000,0.000,0.000
489155.547,-26.855,33.203,28.320,24.902,24.414,0.000,0.000,0.000
489155.551,80.078,34.180,24.902,48.340,25.879,0.000,0.000,0.000
489155.554,83.984,38.086,22.949,41.016,23.438,0.000,0.000,0.000
489155.558,-32.715,40.039,23.926,7.812,23.926,0.000,0.000,0.000
489155.562,-57.129,36.133,22.461,4.883,28.809,0.000,0.000,0.000
489155.566,54.199,37.598,23.438,39.551,24.902,0.000,0.000,0.000
489155.570,90.820,40.527,22.461,45.410,12.207,0.000,0.000,0.000
489155.574,-9.277,31.738,20.508,15.625,10.254,0.000,0.000,0.000
489155.578,-68.848,31.250,19.043,1.953,16.602,0.000,0.000,0.000
489155.582,29.297,33.203,18.555,23.438,17.090,0.000,0.000,0.000
489155.586,99.609,33.203,22.949,50.293,15.137,0.000,0.000,0.000
489155.590,24.414,36.621,24.902,28.320,13.672,0.000,0.000,0.000
489155.593,-72.754,34.668,25.879,-6.348,14.648,0.000,0.000,0.000
489155.597,-8.301,31.738,24.414,7.812,13.184,0.000,0.000,0.000
489155.601,88.379,25.391,20.996,36.133,11.230,0.000,0.000,0.000
489155.605,56.152,24.902,22.949,25.391,9.766,0.000,0.000,0.000
489155.609,-57.129,29.785,25.391,0.977,12.695,0.000,0.000,0.000
489155.613,-37.109,30.273,25.391,5.371,13.672,0.000,0.000,0.000
489155.617,71.289,24.902,20.996,23.926,7.812,0.000,0.000,0.000
489155.621,78.613,24.414,21.973,31.250,6.348,0.000,0.000,0.000
489155.625,-32.715,28.320,26.855,12.207,10.254,0.000,0.000,0.000
489155.629,-55.176,29.297,28.809,-1.465,16.113,0.000,0.000,0.000
489155.633,49.316,24.414,24.902,18.555,15.625,0.000,0.000,0.000
489155.636,94.238,28.809,20.020,32.715,13.672,0.000,0.000,0.000
489155.640,-0.977,24.414,21.484,11.230,11.719,0.000,0.000,0.000
489155.644,-76.172,21.973,22.949,-2.930,11.230,0.000,0.000,0.000
489155.648,11.230,26.855,22.461,10.742,8.789,0.000,0.000,0.000
489155.652,92.285,28.809,25.879,30.762,13.184,0.000,0.000,0.000
489155.656,27.832,31.738,23.438,15.137,13.184,0.000,0.000,0.000
489155.660,-81.543,34.180,24.414,-13.184,11.230,0.000,0.000,0.000
489155.664,-23.926,32.227,27.832,4.395,14.160,3.000,1.000,0.000
489155.668,75.195,22.461,22.949,34.668,12.207,0.000,0.000,0.000
489155.672,59.082,23.438,23.926,35.156,19.043,0.000,0.000,0.000
489155.676,-61.035,26.367,24.902,-2.930,18.555,0.000,0.000,0.000
489155.679,-60.059,25.879,24.414,-3.906,17.090,0.000,0.000,0.000
489155.683,55.664,24.414,28.320,30.762,18.066,0.000,0.000,0.000
489155.687,68.359,25.879,28.809,36.621,9.277,0.000,0.000,0.000
489155.691,-41.992,31.738,31.250,11.230,8.789,0.000,0.000,0.000
489155.695,-74.219,32.715,35.156,1.465,15.137,0.000,0.000,0.000
489155.699,29.785,31.250,31.738,26.855,17.090,0.000,0.000,0.000
489155.703,92.773,29.785,26.367,43.945,24.414,0.000,0.000,0.000
489155.707,11.230,31.738,22.949,21.484,24.902,0.000,0.000,0.000
489155.711,-76.660,31.738,22.461,-5.859,18.066,0.000,0.000,0.000
489155.715,5.371,29.785,26.367,14.648,21.973,0.000,0.000,0.000
489155.718,96.680,30.762,29.785,43.457,20.996,0.000,0.000,0.000
489155.722,41.504,38.086,31.738,33.203,17.578,0.000,0.000,0.000
489155.726,-71.777,36.133,29.297,3.906,19.531,0.000,0.000,0.000
489155.730,-27.832,28.320,28.320,12.695,18.066,0.000,0.000,0.000
489155.734,84.961,35.645,28.809,49.805,17.578,0.000,0.000,0.000
489155.738,81.543,38.086,30.273,47.852,14.648,0.000,0.000,0.000
489155.742,-40.527,33.203,29.785,7.812,14.648,0.000,0.000,0.000
489155.746,-47.852,36.133,29.297,0.977,18.555,0.000,0.000,0.000
489155.750,70.312,40.527,27.832,30.273,17.090,0.000,0.000,0.000
489155.754,101.074,38.574,25.879,46.875,18.066,0.000,0.000,0.000
489155.758,-4.883,31.738,27.832,22.949,19.531,0.000,0.000,0.000
489155.761,-58.105,32.227,24.414,3.418,22.461,0.000,0.000,0.000
489155.765,45.410,40.527,22.461,27.832,21.484,0.000,0.000,0.000
489155.769,112.305,37.598,28.809,57.617,17.578,0.000,0.000,0.000
489155.773,29.297,28.809,29.785,39.062,17.090,0.000,0.000,0.000
489155.777,-65.918,31.250,30.762,3.906,22.949,0.000,0.000,0.000
489155.781,1.953,33.691,32.715,11.719,27.832,0.000,0.000,0.000
489155.785,99.121,36.133,27.344,36.621,26.367,0.000,0.000,0.000
489155.789,66.895,34.668,25.391,32.227,22.949,0.000,0.000,0.000
489155.793,-48.340,31.250,25.879,2.930,24.902,0.000,0.000,0.000
489155.797,-19.043,32.227,22.461,5.371,24.902,0.000,0.000,0.000
489155.801,95.703,31.738,21.973,38.574,20.996,0.000,0.000,0.000
489155.804,102.539,33.691,25.879,49.805,23.438,0.000,0.000,0.000
489155.808,-13.184,41.016,29.785,22.949,23.438,0.000,0.000,0.000
489155.812,-32.715,38.574,26.855,7.324,18.555,0.000,0.000,0.000
489155.816,82.520,32.227,24.414,32.227,19.531,0.000,0.000,0.000
489155.820,122.070,38.574,23.438,45.898,19.531,0.000,0.000,0.000
489155.824,18.555,36.621,27.344,23.926,16.113,0.000,0.000,0.000
489155.828,-55.176,29.785,24.902,3.906,12.695,0.000,0.000,0.000
489155.832,41.016,29.785,16.113,25.879,16.602,0.000,0.000,0.000
489155.836,123.535,32.227,18.555,55.176,22.461,0.000,0.000,0.000
489155.840,56.641,33.691,25.879,35.645,18.066,0.000,0.000,0.000
489155.843,-44.434,35.156,26.367,5.859,19.043,0.000,0.000,0.000
489155.847,17.090,33.691,25.879,22.461,23.438,0.000,0.000,0.000
489155.851,116.699,33.691,25.391,50.293,25.391,0.000,0.000,0.000
489155.855,78.613,32.227,26.855,46.387,19.531,0.000,0.000,0.000
489155.859,-40.039,28.809,29.785,20.020,16.113,0.000,0.000,0.000
489155.863,-21.973,29.785,31.250,15.625,17.578,0.000,0.000,0.000
489155.867,88.867,27.832,33.691,51.270,16.602,0.000,0.000,0.000
489155.871,104.004,28.320,27.832,63.965,14.648,0.000,0.000,0.000
489155.875,-5.371,29.297,25.391,29.297,17.578,0.000,0.000,0.000
489155.879,-35.156,31.250,29.297,12.695,29.297,0.000,0.000,0.000
489155.883,68.359,38.574,36.133,44.922,31.738,0.000,0.000,0.000
489155.886,106.934,38.086,31.250,62.988,20.996,0.000,0.000,0.000
489155.890,6.836,26.367,28.809,34.668,15.625,0.000,0.000,0.000
489155.894,-70.312,23.438,31.738,10.254,17.578,0.000,0.000,0.000
489155.898,21.973,24.902,28.809,27.344,16.113,0.000,0.000,0.000
489155.902,99.609,23.926,29.297,46.875,11.230,0.000,0.000,0.000
489155.906,34.180,22.461,29.785,30.273,6.348,0.000,0.000,0.000
489155.910,-70.801,27.344,29.785,-1.465,8.789,0.000,0.000,0.000
489155.914,-15.625,33.203,30.273,4.395,14.648,0.000,0.000,0.000
489155.918,90.820,33.203,29.297,31.250,10.742,0.000,0.000,0.000
489155.922,72.754,30.273,32.227,37.109,6.348,0.000,0.000,0.000
489155.925,-47.363,29.785,32.227,5.859,11.230,0.000,0.000,0.000
489155.929,-40.039,31.250,26.855,-4.883,12.695,0.000,0.000,0.000
489155.933,77.637,32.715,29.297,31.738,7.324,0.000,0.000,0.000
489155.937,99.609,33.203,32.227,38.574,4.883,0.000,0.000,0.000
489155.941,-7.812,34.668,30.762,11.719,7.812,0.000,0.000,0.000
489155.945,-54.199,33.203,30.273,1.465,9.766,0.000,0.000,0.000
489155.949,48.828,37.598,32.715,30.762,10.742,0.000,0.000,0.000
489155.953,114.746,45.410,31.250,54.199,17.090,0.000,0.000,0.000
489155.957,28.320,35.156,27.344,23.926,16.113,0.000,0.000,0.000
489155.961,-69.336,32.715,28.809,0.000,14.648,0.000,0.000,0.000
489155.965,8.789,35.645,26.855,20.508,17.578,0.000,0.000,0.000
489155.968,102.051,28.320,26.367,43.945,20.020,0.000,0.000,0.000
489155.972,58.594,27.832,28.809,35.156,22.949,0.000,0.000,0.000
489155.976,-50.293,35.645,29.297,8.301,20.996,0.000,0.000,0.000
489155.980,-15.137,35.156,27.832,17.578,17.578,0.000,0.000,0.000
489155.984,91.309,25.879,26.855,42.969,10.254,0.000,0.000,0.000
489155.988,81.055,27.344,28.320,39.551,3.418,0.000,0.000,0.000
489155.992,-35.156,32.227,31.738,6.836,7.812,0.000,0.000,0.000
489155.996,-48.828,37.109,32.715,3.418,9.766,0.000,0.000,0.000
489156.000,63.965,34.668,34.180,37.109,8.301,0.000,0.000,0.000
489156.004,97.656,28.320,32.227,48.340,5.371,2.000,1.000,45.000
489156.008,-13.184,25.879,27.832,19.043,3.418,0.000,0.000,0.000
489156.011,-63.965,22.461,28.320,9.277,10.742,0.000,0.000,0.000
489156.015,35.156,26.855,27.832,29.297,11.230,0.000,0.000,0.000
489156.019,96.191,27.832,25.391,37.598,4.883,0.000,0.000,0.000
489156.023,23.926,26.855,25.879,15.625,7.324,0.000,0.000,0.000
489156.027,-70.801,28.809,27.344,-4.883,7.324,0.000,0.000,0.000
489156.031,-5.371,35.645,26.855,17.090,12.695,0.000,0.000,0.000
489156.035,96.191,38.574,26.855,41.016,16.602,0.000,0.000,0.000
489156.039,58.105,32.715,25.391,25.391,9.766,0.000,0.000,0.000
489156.043,-55.664,30.762,23.926,5.371,14.648,0.000,0.000,0.000
489156.047,-28.320,27.344,22.949,14.160,21.973,0.000,0.000,0.000
489156.050,81.055,28.320,23.438,32.227,18.066,0.000,0.000,0.000
489156.054,90.332,34.668,24.414,33.691,19.043,0.000,0.000,0.000
489156.058,-33.691,33.691,22.949,5.371,20.508,0.000,0.000,0.000
489156.062,-60.547,34.180,20.508,-2.930,16.602,0.000,0.000,0.000
489156.066,50.293,35.645,21.484,29.297,13.672,0.000,0.000,0.000
489156.070,87.891,36.133,25.391,44.922,6.836,0.000,0.000,0.000
489156.074,-7.812,36.621,28.809,16.113,1.953,0.000,0.000,0.000
489156.078,-80.078,26.855,26.855,-10.254,5.859,0.000,0.000,0.000
489156.082,7.324,23.438,21.484,10.742,6.836,0.000,0.000,0.000
489156.086,84.961,27.344,22.949,40.039,7.324,0.000,0.000,0.000
489156.090,21.484,25.391,24.414,29.297,8.789,0.000,0.000,0.000
489156.093,-74.707,23.438,23.438,-1.465,12.695,0.000,0.000,0.000
489156.097,-17.578,27.832,27.344,11.719,16.113,0.000,0.000,0.000
489156.101,81.055,28.809,26.367,45.898,12.207,0.000,0.000,0.000
489156.105,54.688,23.438,24.902,44.434,8.301,0.000,0.000,0.000
489156.109,-62.012,23.438,26.855,12.695,11.230,0.000,0.000,0.000
489156.113,-43.945,24.414,25.391,-1.465,6.348,0.000,0.000,0.000
489156.117,66.895,25.879,25.391,30.762,2.930,0.000,0.000,0.000
489156.121,83.008,29.297,25.879,46.875,8.789,0.000,0.000,0.000
489156.125,-26.367,31.738,26.367,12.695,10.254,0.000,0.000,0.000
489156.129,-66.895,26.855,25.391,-6.348,8.301,0.000,0.000,0.000
489156.133,41.504,24.414,21.484,21.973,7.812,0.000,0.000,0.000
489156.136,101.562,29.297,22.949,50.293,4.883,0.000,0.000,0.000
489156.140,11.230,30.762,26.367,27.344,-6.836,0.000,0.000,0.000
489156.144,-69.824,32.227,28.320,-1.953,-15.625,0.000,0.000,0.000
489156.148,10.742,31.250,27.832,11.230,-24.902,0.000,0.000,0.000
489156.152,85.938,28.320,26.367,33.691,-28.809,0.000,0.000,0.000
489156.156,35.645,31.250,30.273,25.879,-20.996,0.000,0.000,0.000
489156.160,-67.871,32.715,29.785,-0.488,-7.324,0.000,0.000,0.000
489156.164,-28.809,32.715,26.367,10.742,8.789,0.000,0.000,0.000
489156.168,78.613,31.250,24.902,46.875,20.508,0.000,0.000,0.000
489156.172,66.406,30.273,22.949,45.410,24.902,0.000,0.000,0.000
489156.175,-53.223,32.715,25.391,13.672,26.855,0.000,0.000,0.000
489156.179,-60.059,35.645,28.320,10.742,33.203,0.000,0.000,0.000
489156.183,48.340,37.109,28.809,38.574,31.250,0.000,0.000,0.000
489156.187,76.172,38.574,27.832,45.410,27.832,0.000,0.000,0.000
489156.191,-31.250,34.180,23.926,16.113,25.391,0.000,0.000,0.000
489156.195,-81.543,34.180,24.902,7.324,30.762,0.000,0.000,0.000
489156.199,25.391,40.039,25.879,36.133,36.133,0.000,0.000,0.000
489156.203,89.355,41.016,23.438,59.082,32.715,0.000,0.000,0.000
489156.207,13.672,36.133,21.973,41.016,31.738,0.000,0.000,0.000
489156.211,-73.242,35.156,28.320,10.254,34.180,0.000,0.000,0.000
489156.215,0.000,36.621,29.785,20.508,31.250,0.000,0.000,0.000
489156.218,95.215,35.156,22.461,43.945,28.809,0.000,0.000,0.000
489156.222,47.363,34.668,23.926,33.203,24.414,0.000,0.000,0.000
489156.226,-69.824,37.109,23.438,0.977,16.113,0.000,0.000,0.000
489156.230,-38.086,37.109,19.043,1.465,16.113,0.000,0.000,0.000
489156.234,73.242,37.598,20.996,33.691,20.020,0.000,0.000,0.000
489156.238,74.219,36.133,22.461,41.504,20.020,0.000,0.000,0.000
489156.242,-50.293,38.086,23.438,12.695,19.531,0.000,0.000,0.000
489156.246,-69.336,31.250,23.926,2.930,19.043,0.000,0.000,0.000
489156.250,45.898,22.461,22.461,32.715,20.996,0.000,0.000,0.000
489156.254,95.215,27.832,20.508,51.758,20.020,0.000,0.000,0.000
489156.258,-5.859,29.785,21.973,32.227,21.484,0.000,0.000,0.000
489156.261,-69.336,30.762,23.438,8.789,27.832,0.000,0.000,0.000
489156.265,29.785,32.715,19.531,21.973,27.832,0.000,0.000,0.000
489156.269,108.398,33.203,20.508,47.363,34.668,0.000,0.000,0.000
489156.273,41.504,35.645,24.414,34.668,38.574,0.000,0.000,0.000
489156.277,-66.895,35.156,26.855,7.812,30.762,0.000,0.000,0.000
489156.281,-3.418,34.180,24.902,20.996,27.832,0.000,0.000,0.000
489156.285,92.773,31.738,25.879,41.504,24.902,0.000,0.000,0.000
489156.289,45.410,26.855,27.344,28.320,13.184,0.000,0.000,0.000
489156.293,-70.801,26.855,26.367,-4.395,10.742,0.000,0.000,0.000
489156.297,-44.434,30.273,27.832,0.000,13.672,0.000,0.000,0.000
489156.300,66.406,36.621,28.809,35.645,11.230,0.000,0.000,0.000
489156.304,78.125,35.645,26.367,40.527,6.348,0.000,0.000,0.000
489156.308,-30.273,37.598,29.785,8.789,13.672,0.000,0.000,0.000
489156.312,-60.059,37.598,31.738,6.348,24.414,0.000,0.000,0.000
489156.316,44.922,33.691,28.320,40.527,21.973,0.000,0.000,0.000
489156.320,90.820,41.504,24.414,49.316,11.719,0.000,0.000,0.000
489156.324,-10.742,41.992,23.926,18.066,4.883,0.000,0.000,0.000
489156.328,-88.379,32.715,22.461,-6.348,2.930,0.000,0.000,0.000
489156.332,2.930,29.297,21.973,16.602,3.906,0.000,0.000,0.000
489156.336,85.449,31.250,25.391,44.922,8.789,0.000,0.000,0.000
489156.340,20.996,28.320,26.367,31.250,8.301,0.000,0.000,0.000
489156.343,-85.449,30.762,26.367,2.441,10.254,0.000,0.000,0.000
489156.347,-27.832,35.156,26.367,17.578,18.555,0.000,0.000,0.000
489156.351,76.172,32.227,24.902,46.875,20.508,0.000,0.000,0.000
489156.355,53.223,25.879,23.926,36.621,20.508,0.000,0.000,0.000
489156.359,-63.965,27.344,27.344,11.719,20.020,0.000,0.000,0.000
489156.363,-56.152,29.785,28.809,10.742,15.625,0.000,0.000,0.000
489156.367,54.688,32.227,25.879,35.645,16.113,0.000,0.000,0.000
489156.371,74.707,35.645,26.367,47.852,21.973,0.000,0.000,0.000
489156.375,-34.668,32.715,25.391,19.531,16.602,0.000,0.000,0.000
489156.379,-75.195,36.133,25.879,6.836,16.113,0.000,0.000,0.000
489156.382,28.320,36.133,26.367,25.391,13.672,0.000,0.000,0.000
489156.386,90.332,36.133,25.879,41.016,8.301,0.000,0.000,0.000
489156.390,8.789,39.551,30.273,26.367,11.719,0.000,0.000,0.000
489156.394,-79.590,36.621,34.180,5.859,14.648,0.000,0.000,0.000
489156.398,1.953,34.180,32.227,25.879,16.113,0.000,0.000,0.000
489156.402,93.750,35.645,27.344,53.711,16.602,0.000,0.000,0.000
489156.406,50.293,40.527,28.320,42.969,25.879,4.000,1.000,45.000
489156.410,-57.129,41.504,28.320,10.254,24.414,0.000,0.000,0.000
489156.414,-20.508,39.062,26.367,11.719,15.625,0.000,0.000,0.000
489156.418,89.355,34.180,26.855,47.363,13.672,0.000,0.000,0.000
489156.422,82.031,35.156,27.344,50.781,11.230,0.000,0.000,0.000
489156.425,-47.852,32.715,26.855,8.301,4.395,0.000,0.000,0.000
489156.429,-57.617,29.297,27.344,6.348,11.230,0.000,0.000,0.000
489156.433,61.523,35.156,30.762,43.945,22.949,0.000,0.000,0.000
489156.437,89.355,35.156,30.273,52.734,17.578,0.000,0.000,0.000
489156.441,-20.508,35.156,27.832,23.926,12.695,0.000,0.000,0.000
489156.445,-70.801,38.086,29.785,14.160,17.090,0.000,0.000,0.000
489156.449,30.273,39.062,30.273,33.691,16.113,0.000,0.000,0.000
489156.453,95.703,39.551,28.809,51.758,17.578,0.000,0.000,0.000
489156.457,19.043,37.109,25.879,37.109,18.555,0.000,0.000,0.000
489156.461,-74.707,31.738,25.391,14.648,19.043,0.000,0.000,0.000
489156.465,-5.371,27.832,28.320,26.855,20.508,0.000,0.000,0.000
489156.468,91.797,33.691,30.762,55.664,23.438,0.000,0.000,0.000
489156.472,57.617,41.016,30.273,45.898,28.320,0.000,0.000,0.000
489156.476,-60.547,35.156,30.273,13.184,32.227,0.000,0.000,0.000
489156.480,-28.809,30.273,28.320,17.578,33.203,0.000,0.000,0.000
489156.484,81.543,31.250,24.414,44.922,25.879,0.000,0.000,0.000
489156.488,83.496,37.598,26.367,47.363,20.508,0.000,0.000,0.000
489156.492,-29.297,38.086,28.809,14.648,22.461,0.000,0.000,0.000
489156.496,-50.781,34.668,28.809,1.465,14.160,0.000,0.000,0.000
489156.500,63.965,36.133,29.785,34.180,5.859,0.000,0.000,0.000
489156.504,107.910,38.574,30.273,52.734,8.301,0.000,0.000,0.000
489156.507,5.859,33.691,29.785,24.414,16.602,0.000,0.000,0.000
489156.511,-59.570,29.785,29.297,3.418,22.461,0.000,0.000,0.000
489156.515,38.574,35.645,30.273,26.855,18.066,0.000,0.000,0.000
489156.519,111.816,36.133,29.785,49.316,9.277,0.000,0.000,0.000
489156.523,36.621,33.691,27.832,27.344,4.395,0.000,0.000,0.000
489156.527,-70.312,31.738,28.809,-3.418,8.301,0.000,0.000,0.000
489156.531,-16.602,35.645,26.367,6.348,13.672,0.000,0.000,0.000
489156.535,82.520,35.156,24.902,46.387,15.625,0.000,0.000,0.000
489156.539,58.594,31.250,28.809,53.711,16.113,0.000,0.000,0.000
489156.543,-53.223,35.645,31.250,18.066,23.438,0.000,0.000,0.000
489156.547,-34.180,37.598,33.203,12.207,35.156,0.000,0.000,0.000
489156.550,81.055,38.086,29.785,45.410,30.762,0.000,0.000,0.000
489156.554,92.285,36.621,28.320,54.688,15.137,0.000,0.000,0.000
489156.558,-23.438,33.203,29.297,17.578,4.395,0.000,0.000,0.000
489156.562,-57.129,35.645,27.344,-0.977,0.488,0.000,0.000,0.000
489156.566,44.922,32.715,24.902,20.020,-2.441,0.000,0.000,0.000
489156.570,93.262,31.250,22.949,36.621,-1.465,0.000,0.000,0.000
489156.574,6.836,38.086,26.855,17.090,9.766,0.000,0.000,0.000
489156.578,-69.336,43.945,31.738,-1.953,19.531,0.000,0.000,0.000
489156.582,14.160,39.062,30.762,21.484,28.320,0.000,0.000,0.000
489156.586,95.703,35.156,29.785,42.969,31.250,0.000,0.000,0.000
489156.590,32.715,39.551,32.715,27.832,20.508,0.000,0.000,0.000
489156.593,-74.219,32.227,35.156,4.883,20.020,0.000,0.000,0.000
489156.597,-19.043,30.762,33.203,11.230,22.949,0.000,0.000,0.000
489156.601,84.961,35.156,32.227,40.527,23.926,0.000,0.000,0.000
489156.605,59.570,33.691,33.691,40.039,22.949,0.000,0.000,0.000
489156.609,-55.664,29.297,35.156,6.836,15.625,0.000,0.000,0.000
489156.613,-49.316,26.855,32.227,8.301,15.625,0.000,0.000,0.000
489156.617,59.570,37.598,30.273,37.598,14.648,0.000,0.000,0.000
489156.621,82.520,39.551,31.738,45.410,9.277,0.000,0.000,0.000
489156.625,-28.809,25.879,28.809,17.578,6.836,0.000,0.000,0.000
489156.629,-71.777,25.879,27.832,3.906,13.184,0.000,0.000,0.000
489156.632,35.645,29.785,32.227,38.086,15.137,0.000,0.000,0.000
489156.636,92.285,26.367,30.762,49.316,10.742,0.000,0.000,0.000
489156.640,7.812,27.344,28.320,18.555,11.230,0.000,0.000,0.000
489156.644,-78.613,29.297,27.344,-3.418,16.602,0.000,0.000,0.000
489156.648,-4.883,32.227,24.902,11.719,16.113,0.000,0.000,0.000
489156.652,85.449,35.645,27.832,39.551,11.719,0.000,0.000,0.000
489156.656,42.480,25.391,27.344,33.203,9.277,0.000,0.000,0.000
489156.660,-66.406,20.996,22.461,7.324,6.836,0.000,0.000,0.000
489156.664,-32.715,25.391,20.996,4.883,9.277,0.000,0.000,0.000
489156.668,81.055,30.273,23.926,28.809,12.695,0.000,0.000,0.000
489156.672,83.496,35.645,26.855,37.109,16.602,0.000,0.000,0.000
489156.675,-29.785,37.109,26.855,8.301,19.531,0.000,0.000,0.000
489156.679,-36.621,40.527,25.391,2.441,20.508,0.000,0.000,0.000
489156.683,67.871,41.016,22.949,28.809,19.531,0.000,0.000,0.000
489156.687,95.703,37.109,21.973,41.504,18.066,0.000,0.000,0.000
489156.691,-5.859,33.203,27.344,18.066,18.066,0.000,0.000,0.000
489156.695,-68.359,27.832,26.367,-2.441,17.090,1.000,1.000,135.000
489156.699,27.832,27.344,25.879,18.555,17.578,0.000,0.000,0.000
489156.703,99.609,30.273,29.785,42.480,18.555,0.000,0.000,0.000
