timestamps,TP9,AF7,AF8,TP10,Right AUX,Frequency,Contrast,Orientation
486255.536,70.312,27.832,37.598,69.336,40.527,0.000,0.000,0.000
486255.539,121.094,28.320,40.527,109.375,168.945,0.000,0.000,0.000
486255.543,-11.230,34.668,42.480,0.000,-1.953,0.000,0.000,0.000
486255.547,-80.566,38.086,42.969,-54.199,-137.207,0.000,0.000,0.000
486255.551,40.527,33.203,38.086,43.457,-40.039,0.000,0.000,0.000
486255.555,132.324,28.809,33.691,110.352,110.840,0.000,0.000,0.000
486255.559,27.344,32.227,35.156,19.043,49.316,0.000,0.000,0.000
486255.563,-93.750,30.762,37.109,-73.730,-133.301,0.000,0.000,0.000
486255.567,-6.836,28.809,39.551,-12.695,-122.559,0.000,0.000,0.000
486255.571,114.746,26.855,40.039,89.844,86.914,0.000,0.000,0.000
486255.575,50.293,25.391,38.574,42.969,133.301,0.000,0.000,0.000
486255.579,-91.797,31.250,42.480,-66.895,-98.633,0.000,0.000,0.000
486255.582,-59.082,30.762,42.969,-52.734,-126.465,0.000,0.000,0.000
486255.586,74.707,27.832,37.109,50.781,185.059,0.000,0.000,0.000
486255.590,81.543,30.762,39.062,57.129,302.246,0.000,0.000,0.000
486255.594,-61.523,38.574,45.410,-39.062,88.379,0.000,0.000,0.000
486255.598,-77.637,40.527,32.227,-59.570,-106.934,0.000,0.000,0.000
486255.602,65.430,31.738,25.391,38.574,-36.621,0.000,0.000,0.000
486255.606,125.977,33.203,29.297,91.309,106.445,0.000,0.000,0.000
486255.610,-2.930,42.969,35.645,12.207,-20.996,0.000,0.000,0.000
486255.614,-86.426,41.016,38.086,-49.805,-192.871,0.000,0.000,0.000
486255.618,28.809,33.691,29.785,17.090,-46.387,0.000,0.000,0.000
486255.621,132.812,37.598,28.809,106.445,167.480,0.000,0.000,0.000
486255.625,34.180,41.504,31.250,37.109,122.070,0.000,0.000,0.000
486255.629,-92.773,35.645,29.297,-63.965,-46.875,0.000,0.000,0.000
486255.633,-28.320,30.273,24.414,-23.926,-18.555,0.000,0.000,0.000
486255.637,101.562,35.156,25.879,84.473,174.805,0.000,0.000,0.000
486255.641,79.102,42.480,31.738,72.266,195.312,0.000,0.000,0.000
486255.645,-74.219,36.621,35.156,-43.457,-48.828,0.000,0.000,0.000
486255.649,-61.035,25.391,35.156,-42.480,-147.949,0.000,0.000,0.000
486255.653,89.355,22.461,34.180,71.777,63.477,0.000,0.000,0.000
486255.657,118.164,27.344,38.086,92.285,158.203,0.000,0.000,0.000
486255.661,-26.855,30.762,36.621,-16.602,-25.879,0.000,0.000,0.000
486255.664,-69.336,30.762,23.438,-63.965,-184.570,0.000,0.000,0.000
486255.668,64.941,29.297,17.090,36.621,-4.395,0.000,0.000,0.000
486255.672,141.113,32.227,21.973,106.934,275.391,0.000,0.000,0.000
486255.676,19.531,36.621,25.391,30.762,143.066,0.000,0.000,0.000
486255.680,-75.684,37.109,33.691,-42.480,-115.723,0.000,0.000,0.000
486255.684,33.203,36.621,34.180,19.043,-44.922,0.000,0.000,0.000
486255.688,145.996,30.762,27.344,106.934,217.285,0.000,0.000,0.000
486255.692,62.988,28.809,30.273,50.293,188.965,0.000,0.000,0.000
486255.696,-74.219,34.180,35.645,-45.898,-20.508,0.000,0.000,0.000
486255.700,-18.066,31.250,35.156,-10.742,-38.574,0.000,0.000,0.000
486255.703,115.723,26.367,28.809,90.332,121.094,0.000,0.000,0.000
486255.707,90.332,27.832,29.297,66.406,140.137,0.000,0.000,0.000
486255.711,-64.941,27.832,34.180,-46.387,-57.129,0.000,0.000,0.000
486255.715,-53.223,27.832,37.598,-37.598,-164.551,0.000,0.000,0.000
486255.719,89.355,31.250,38.086,73.730,9.277,0.000,0.000,0.000
486255.723,115.234,32.715,34.668,94.727,153.809,0.000,0.000,0.000
486255.727,-24.902,33.203,37.598,-1.465,-4.395,0.000,0.000,0.000
486255.731,-76.660,34.180,37.598,-41.992,-153.320,0.000,0.000,0.000
486255.735,48.340,32.227,34.668,53.711,-12.695,0.000,0.000,0.000
486255.739,132.324,32.715,35.645,127.930,177.734,0.000,0.000,0.000
486255.743,22.461,36.621,36.133,41.992,49.316,0.000,0.000,0.000
486255.746,-83.984,35.156,41.504,-41.992,-150.391,0.000,0.000,0.000
486255.750,13.672,29.297,42.969,24.414,-84.473,0.000,0.000,0.000
486255.754,128.906,27.832,38.086,111.816,151.855,0.000,0.000,0.000
486255.758,66.406,32.227,41.016,65.430,212.891,0.000,0.000,0.000
486255.762,-74.219,31.738,45.898,-35.645,3.418,0.000,0.000,0.000
486255.766,-40.039,31.250,39.062,-19.043,-40.527,0.000,0.000,0.000
486255.770,97.168,34.668,32.715,86.914,211.426,0.000,0.000,0.000
486255.774,95.215,37.598,31.738,83.008,233.887,0.000,0.000,0.000
486255.778,-55.664,44.434,39.551,-23.926,-45.898,0.000,0.000,0.000
486255.782,-66.895,43.945,41.504,-38.086,-197.754,0.000,0.000,0.000
486255.786,71.289,34.668,34.668,63.965,-49.316,0.000,0.000,0.000
486255.789,122.559,35.645,32.715,106.445,110.840,0.000,0.000,0.000
486255.793,-4.883,43.457,34.668,7.812,-55.176,0.000,0.000,0.000
486255.797,-81.543,38.086,31.738,-56.641,-223.145,0.000,0.000,0.000
486255.801,36.133,33.203,25.391,27.832,-66.895,0.000,0.000,0.000
486255.805,132.812,34.668,27.344,104.004,130.859,0.000,0.000,0.000
486255.809,28.320,40.527,33.691,30.273,58.594,0.000,0.000,0.000
486255.813,-94.727,39.062,33.691,-59.082,-134.766,0.000,0.000,0.000
486255.817,-16.113,33.691,30.273,-9.766,-84.473,0.000,0.000,0.000
486255.821,111.328,34.180,30.273,92.285,215.820,0.000,0.000,0.000
486255.825,66.406,36.133,36.133,61.523,254.395,0.000,0.000,0.000
486255.828,-79.590,35.645,37.598,-45.898,1.465,0.000,0.000,0.000
486255.832,-48.828,31.738,33.691,-30.762,-54.688,0.000,0.000,0.000
486255.836,100.586,30.273,31.250,86.426,86.426,0.000,0.000,0.000
486255.840,108.887,28.809,30.273,93.750,101.562,0.000,0.000,0.000
486255.844,-52.246,28.809,32.227,-24.414,-54.199,0.000,0.000,0.000
486255.848,-81.543,25.879,35.156,-47.852,-201.172,0.000,0.000,0.000
486255.852,58.105,22.949,36.133,60.547,-82.520,0.000,0.000,0.000
486255.856,117.676,25.879,40.039,99.609,142.090,0.000,0.000,0.000
486255.860,-11.230,31.250,41.016,-6.836,54.688,0.000,0.000,0.000
486255.864,-92.285,26.367,40.527,-72.266,-101.074,0.000,0.000,0.000
486255.868,19.531,19.043,32.715,4.883,35.156,0.000,0.000,0.000
486255.871,123.047,27.344,29.785,91.797,258.789,0.000,0.000,0.000
486255.875,36.133,35.156,38.574,32.227,171.875,0.000,0.000,0.000
486255.879,-91.309,33.691,38.574,-60.547,-39.062,0.000,0.000,0.000
486255.883,-17.090,31.250,34.668,-13.672,-34.180,0.000,0.000,0.000
486255.887,114.746,28.809,31.250,85.938,193.848,0.000,0.000,0.000
486255.891,78.613,32.715,32.715,58.594,249.512,0.000,0.000,0.000
486255.895,-66.406,42.969,36.621,-37.598,8.301,0.000,0.000,0.000
486255.899,-48.828,43.457,33.691,-29.785,-95.215,0.000,0.000,0.000
486255.903,86.914,32.227,25.879,59.570,132.812,0.000,0.000,0.000
486255.907,108.398,28.809,24.902,77.148,268.066,0.000,0.000,0.000
486255.911,-28.809,38.574,33.203,-20.508,44.922,0.000,0.000,0.000
486255.914,-67.871,38.574,38.086,-62.988,-88.379,0.000,0.000,0.000
486255.918,52.734,28.809,33.691,37.109,75.684,0.000,0.000,0.000
486255.922,122.559,26.367,32.715,107.910,253.418,0.000,0.000,0.000
486255.926,2.930,28.320,37.598,29.785,90.820,0.000,0.000,0.000
486255.930,-98.633,29.297,38.574,-45.898,-149.902,0.000,0.000,0.000
486255.934,7.812,27.344,35.156,24.902,-50.293,0.000,0.000,0.000
486255.938,125.977,21.973,31.250,116.211,154.785,0.000,0.000,0.000
486255.942,52.246,26.855,35.645,67.871,47.852,0.000,0.000,0.000
486255.946,-83.008,31.250,38.574,-28.320,-193.359,0.000,0.000,0.000
486255.950,-31.250,26.855,38.574,-4.395,-166.016,0.000,0.000,0.000
486255.953,106.445,24.414,40.527,113.281,73.242,0.000,0.000,0.000
486255.957,89.355,22.461,41.016,99.609,75.195,0.000,0.000,0.000
486255.961,-62.988,22.949,41.504,-23.926,-136.719,0.000,0.000,0.000
486255.965,-58.105,23.926,39.551,-33.203,-156.738,0.000,0.000,0.000
486255.969,95.215,21.973,38.086,78.613,55.176,0.000,0.000,0.000
486255.973,134.277,18.555,40.039,118.652,205.078,0.000,0.000,0.000
486255.977,-12.207,23.438,47.852,12.695,24.414,0.000,0.000,0.000
486255.981,-71.777,27.832,52.734,-41.016,-187.500,0.000,0.000,0.000
486255.985,45.898,22.949,49.316,46.387,-54.199,0.000,0.000,0.000
486255.989,127.930,19.531,44.922,114.258,160.645,0.000,0.000,0.000
486255.993,18.555,22.949,47.363,37.109,64.453,0.000,0.000,0.000
486255.996,-96.191,26.367,45.410,-54.199,-141.602,0.000,0.000,0.000
486256.000,3.418,29.297,47.363,3.418,-99.121,0.000,0.000,0.000
486256.004,124.023,25.879,44.922,103.516,105.469,0.000,0.000,0.000
486256.008,46.387,21.484,40.039,55.176,119.629,0.000,0.000,0.000
486256.012,-90.332,27.344,43.457,-41.504,-67.383,0.000,0.000,0.000
486256.016,-39.062,30.762,41.992,-10.254,-110.840,0.000,0.000,0.000
486256.020,91.797,23.438,38.574,92.285,97.168,0.000,0.000,0.000
486256.024,94.727,28.320,39.062,87.402,145.508,0.000,0.000,0.000
486256.028,-51.758,37.109,37.109,-25.879,-16.113,0.000,0.000,0.000
486256.032,-73.730,33.203,33.203,-44.922,-62.988,0.000,0.000,0.000
486256.035,65.918,29.297,36.133,62.500,68.359,0.000,0.000,0.000
486256.039,104.492,25.879,33.203,99.609,280.762,0.000,0.000,0.000
486256.043,-32.227,29.785,31.250,5.859,130.859,0.000,0.000,0.000
486256.047,-92.773,38.086,34.180,-46.875,-176.758,0.000,0.000,0.000
486256.051,25.391,35.156,31.250,32.715,-14.648,0.000,0.000,0.000
486256.055,117.188,26.367,28.320,106.445,283.691,0.000,0.000,0.000
486256.059,25.391,31.250,30.762,37.109,143.555,0.000,0.000,0.000
486256.063,-90.332,38.086,31.250,-49.805,-137.207,0.000,0.000,0.000
486256.067,-12.695,33.203,27.344,-1.465,-65.430,0.000,0.000,0.000
486256.071,118.164,31.250,26.855,98.633,219.238,0.000,0.000,0.000
486256.075,72.266,33.691,29.297,62.012,192.871,0.000,0.000,0.000
486256.078,-71.289,36.133,34.180,-37.109,-149.902,0.000,0.000,0.000
486256.082,-47.363,33.203,28.809,-33.691,-210.449,0.000,0.000,0.000
486256.086,92.285,25.391,20.996,61.523,33.203,0.000,0.000,0.000
486256.090,111.328,27.832,26.855,84.961,134.277,0.000,0.000,0.000
486256.094,-41.504,36.621,27.344,-22.461,-41.504,0.000,0.000,0.000
486256.098,-77.148,33.203,21.484,-56.152,-177.246,0.000,0.000,0.000
486256.102,61.523,29.785,19.043,46.387,51.270,0.000,0.000,0.000
486256.106,134.277,37.598,23.926,105.469,283.691,0.000,0.000,0.000
486256.110,1.953,38.086,32.715,15.137,99.121,0.000,0.000,0.000
486256.114,-90.820,35.645,29.785,-60.547,-160.645,0.000,0.000,0.000
486256.118,21.973,39.551,27.344,21.973,-88.867,0.000,0.000,0.000
486256.121,125.000,39.551,28.809,112.305,156.250,0.000,0.000,0.000
486256.125,37.598,40.039,30.273,51.270,89.355,0.000,0.000,0.000
486256.129,-93.750,40.039,32.715,-41.992,-143.555,0.000,0.000,0.000
486256.133,-15.625,40.527,35.645,0.488,-130.859,0.000,0.000,0.000
486256.137,116.699,40.039,31.738,101.562,95.703,0.000,0.000,0.000
486256.141,75.195,39.551,29.785,73.242,149.902,0.000,0.000,0.000
486256.145,-78.125,41.992,33.691,-37.109,-11.230,0.000,0.000,0.000
486256.149,-62.500,43.457,38.086,-35.156,-77.637,0.000,0.000,0.000
486256.153,84.961,38.086,37.598,70.312,153.809,0.000,0.000,0.000
486256.157,104.980,34.668,36.133,91.309,326.660,0.000,0.000,0.000
486256.160,-43.457,39.551,42.480,-15.137,136.719,0.000,0.000,0.000
486256.164,-81.543,41.504,43.457,-52.734,-62.500,0.000,0.000,0.000
486256.168,51.270,35.156,37.109,41.992,38.086,0.000,0.000,0.000
486256.172,113.281,28.809,28.320,89.844,229.980,0.000,0.000,0.000
486256.176,-12.695,32.227,23.926,-1.953,145.020,0.000,0.000,0.000
486256.180,-98.633,39.062,31.250,-66.895,-95.215,0.000,0.000,0.000
486256.184,3.418,37.109,30.762,6.836,-50.781,0.000,0.000,0.000
486256.188,111.816,30.273,24.902,87.891,120.605,0.000,0.000,0.000
486256.192,46.387,32.227,25.879,30.273,5.859,0.000,0.000,0.000
486256.196,-88.379,37.109,27.832,-59.570,-205.078,0.000,0.000,0.000
486256.200,-30.762,39.551,25.391,-30.273,-199.219,0.000,0.000,0.000
486256.203,97.656,35.156,21.973,69.824,45.898,0.000,0.000,0.000
486256.207,67.383,29.785,24.414,58.105,125.977,0.000,0.000,0.000
486256.211,-82.031,33.203,29.785,-46.875,-112.305,0.000,0.000,0.000
486256.215,-81.543,30.762,30.273,-58.594,-239.746,0.000,0.000,0.000
486256.219,53.711,23.926,29.297,38.574,-24.414,0.000,0.000,0.000
486256.223,95.703,25.879,26.367,76.172,180.176,0.000,0.000,0.000
486256.227,-33.203,34.180,27.832,-10.254,-37.109,0.000,0.000,0.000
486256.231,-94.238,34.180,32.227,-53.711,-252.930,0.000,0.000,0.000
486256.235,27.344,34.668,26.855,28.809,-66.895,0.000,0.000,0.000
486256.239,124.023,36.621,25.879,97.656,164.551,0.000,0.000,0.000
486256.243,25.391,40.039,32.227,28.320,83.984,0.000,0.000,0.000
486256.246,-86.914,43.457,31.250,-54.199,-169.434,0.000,0.000,0.000
486256.250,5.371,38.574,29.785,4.883,-153.809,0.000,0.000,0.000
486256.254,126.953,36.621,26.367,107.910,140.137,0.000,0.000,0.000
486256.258,61.035,41.016,26.855,61.035,143.555,0.000,0.000,0.000
486256.262,-80.566,42.480,30.273,-42.969,-96.680,0.000,0.000,0.000
486256.266,-34.180,40.039,32.227,-20.996,-95.703,0.000,0.000,0.000
486256.270,111.328,42.480,34.668,91.797,92.285,0.000,0.000,0.000
486256.274,106.934,37.109,33.203,98.145,103.027,0.000,0.000,0.000
486256.278,-55.664,36.133,35.645,-29.297,-95.215,0.000,0.000,0.000
486256.282,-77.637,37.109,32.227,-53.223,-203.613,0.000,0.000,0.000
486256.285,69.824,35.156,25.879,63.477,-54.688,0.000,0.000,0.000
486256.289,121.094,35.645,29.785,106.445,112.793,0.000,0.000,0.000
486256.293,-17.090,38.086,34.668,8.789,1.465,0.000,0.000,0.000
486256.297,-92.285,40.527,32.227,-54.199,-177.734,0.000,0.000,0.000
486256.301,19.531,40.527,29.785,30.273,-50.781,0.000,0.000,0.000
486256.305,122.559,36.133,29.297,110.352,197.754,0.000,0.000,0.000
486256.309,31.738,31.738,33.203,35.645,125.977,0.000,0.000,0.000
486256.313,-92.773,32.715,33.691,-49.316,-112.305,0.000,0.000,0.000
486256.317,-12.695,33.691,29.785,7.812,-132.324,0.000,0.000,0.000
486256.321,113.281,33.203,29.785,105.469,26.367,0.000,0.000,0.000
486256.325,59.082,36.133,25.391,56.152,122.070,0.000,0.000,0.000
486256.328,-81.543,34.668,26.855,-47.852,-15.137,0.000,0.000,0.000
486256.332,-42.969,31.738,32.715,-29.785,-64.453,0.000,0.000,0.000
486256.336,96.191,33.691,27.344,78.125,178.223,0.000,0.000,0.000
486256.340,113.770,38.574,27.832,97.656,246.582,0.000,0.000,0.000
486256.344,-31.738,38.086,31.250,-11.719,1.465,0.000,0.000,0.000
486256.348,-74.219,35.645,27.832,-44.434,-150.879,0.000,0.000,0.000
486256.352,63.965,32.715,24.902,62.012,20.508,0.000,0.000,0.000
486256.356,129.395,32.715,26.855,112.793,216.797,0.000,0.000,0.000
486256.360,0.000,37.598,30.762,23.438,63.965,0.000,0.000,0.000
486256.364,-81.543,38.574,28.809,-51.758,-189.941,0.000,0.000,0.000
486256.367,17.090,32.715,21.973,3.418,-114.258,0.000,0.000,0.000
486256.371,114.746,31.738,26.367,94.238,168.457,0.000,0.000,0.000
486256.375,36.621,37.109,30.762,38.086,147.461,0.000,0.000,0.000
486256.379,-96.680,31.738,32.227,-58.594,-92.773,0.000,0.000,0.000
486256.383,-39.551,24.902,25.391,-27.832,-91.309,0.000,0.000,0.000
486256.387,93.750,25.391,18.555,80.566,110.840,0.000,0.000,0.000
486256.391,69.824,30.273,23.926,72.266,172.852,0.000,0.000,0.000
486256.395,-83.496,32.227,25.879,-42.969,-49.805,0.000,0.000,0.000
486256.399,-74.219,26.855,20.996,-48.828,-179.688,0.000,0.000,0.000
486256.403,73.242,25.391,20.020,57.129,68.848,0.000,0.000,0.000
486256.407,99.121,26.855,21.973,80.566,245.117,0.000,0.000,0.000
486256.410,-47.363,29.785,22.949,-21.484,69.824,0.000,0.000,0.000
486256.414,-87.402,28.809,24.414,-71.777,-93.750,0.000,0.000,0.000
486256.418,35.645,23.438,20.020,17.578,0.488,0.000,0.000,0.000
486256.422,115.723,29.785,21.484,92.773,155.762,0.000,0.000,0.000
486256.426,4.883,37.598,24.414,13.672,14.648,0.000,0.000,0.000
486256.430,-102.051,36.133,22.461,-69.336,-177.734,0.000,0.000,0.000
486256.434,2.930,35.156,20.996,1.953,-20.996,0.000,0.000,0.000
486256.438,129.395,38.574,21.973,100.098,260.742,0.000,0.000,0.000
486256.442,57.129,37.598,21.973,41.992,208.008,0.000,0.000,0.000
486256.446,-82.520,33.691,23.438,-54.199,-93.750,0.000,0.000,0.000
486256.450,-19.531,34.668,22.949,-11.719,-144.043,0.000,0.000,0.000
486256.453,115.234,38.086,20.020,94.238,65.430,0.000,0.000,0.000
486256.457,85.938,36.621,19.531,76.660,150.391,0.000,0.000,0.000
486256.461,-65.430,41.016,20.996,-45.410,-43.945,0.000,0.000,0.000
486256.465,-68.848,43.457,18.555,-62.988,-166.992,0.000,0.000,0.000
486256.469,62.012,40.527,18.066,54.688,52.734,0.000,0.000,0.000
486256.473,99.121,40.039,20.020,86.914,169.434,0.000,0.000,0.000
486256.477,-41.504,39.062,21.973,-19.043,-42.969,0.000,0.000,0.000
486256.481,-99.609,35.645,18.555,-64.453,-170.898,0.000,0.000,0.000
486256.485,33.203,33.203,17.578,31.738,-29.297,0.000,0.000,0.000
486256.489,120.605,33.691,20.508,98.633,141.113,0.000,0.000,0.000
486256.492,11.230,37.109,20.508,16.113,80.566,0.000,0.000,0.000
486256.496,-97.656,40.527,21.484,-59.570,-168.945,0.000,0.000,0.000
486256.500,-2.441,37.598,19.043,-7.812,-144.531,0.000,0.000,0.000
486256.504,117.676,35.645,16.602,79.590,151.855,0.000,0.000,0.000
486256.508,61.523,39.062,19.043,46.387,145.996,0.000,0.000,0.000
486256.512,-76.172,40.039,25.391,-53.223,-100.586,0.000,0.000,0.000
486256.516,-33.203,34.668,24.902,-36.621,-143.066,0.000,0.000,0.000
486256.520,101.074,31.250,21.973,72.754,65.430,0.000,0.000,0.000
486256.524,95.703,33.203,28.320,78.125,162.109,0.000,0.000,0.000
486256.528,-56.152,35.645,33.203,-25.391,-42.480,0.000,0.000,0.000
486256.532,-75.195,35.156,29.297,-42.969,-140.137,0.000,0.000,0.000
486256.535,65.918,29.297,26.367,58.105,46.387,0.000,0.000,0.000
486256.539,113.281,29.297,26.367,101.074,136.230,0.000,0.000,0.000
486256.543,-19.531,37.109,31.250,11.719,2.930,0.000,0.000,0.000
486256.547,-95.703,31.738,30.273,-48.828,-119.629,0.000,0.000,0.000
486256.551,17.578,23.438,26.367,22.949,-9.766,0.000,0.000,0.000
486256.555,125.488,27.832,33.203,115.723,204.590,0.000,0.000,0.000
486256.559,30.273,34.180,35.156,57.129,133.301,0.000,0.000,0.000
486256.563,-91.309,37.109,33.691,-43.457,-87.402,0.000,0.000,0.000
486256.567,-4.395,39.062,33.691,0.977,-30.762,0.000,0.000,0.000
486256.571,127.441,36.621,28.809,107.910,99.609,0.000,0.000,0.000
486256.575,73.242,35.156,24.414,77.148,45.898,0.000,0.000,0.000
486256.578,-83.984,35.645,23.438,-41.504,-117.188,0.000,0.000,0.000
486256.582,-58.594,31.250,24.414,-39.062,-190.430,0.000,0.000,0.000
486256.586,87.891,29.785,27.344,84.961,-27.344,0.000,0.000,0.000
486256.590,99.121,32.227,29.785,97.168,114.746,0.000,0.000,0.000
486256.594,-53.711,33.203,29.785,-24.414,-23.438,0.000,0.000,0.000
486256.598,-80.566,31.738,26.855,-59.570,-189.941,0.000,0.000,0.000
486256.602,57.129,33.203,22.461,43.457,-33.691,0.000,0.000,0.000
486256.606,115.723,33.203,21.484,101.074,193.848,0.000,0.000,0.000
486256.610,-9.766,31.250,23.438,10.742,78.125,0.000,0.000,0.000
486256.614,-88.379,30.762,23.438,-51.758,-162.598,0.000,0.000,0.000
486256.617,19.043,30.273,27.832,19.531,-104.980,0.000,0.000,0.000
486256.621,120.117,28.809,30.762,107.422,125.000,0.000,0.000,0.000
486256.625,41.016,30.273,29.297,55.664,78.613,0.000,0.000,0.000
486256.629,-78.125,33.203,27.832,-45.898,-167.969,0.000,0.000,0.000
486256.633,-10.742,30.273,24.902,-17.578,-182.617,0.000,0.000,0.000
486256.637,110.352,33.691,24.902,85.449,89.355,0.000,0.000,0.000
486256.641,81.055,40.039,21.973,66.406,140.137,0.000,0.000,0.000
486256.645,-68.848,31.738,19.531,-40.039,-87.402,0.000,0.000,0.000
486256.649,-62.012,23.438,19.043,-36.133,-195.312,0.000,0.000,0.000
486256.653,77.637,24.902,17.578,72.266,14.648,0.000,0.000,0.000
486256.657,105.957,27.832,21.973,98.145,195.312,0.000,0.000,0.000
486256.660,-35.156,29.297,24.902,-2.441,18.066,0.000,0.000,0.000
486256.664,-81.543,31.738,22.461,-43.457,-163.086,0.000,0.000,0.000
486256.668,52.246,33.203,23.438,48.340,-4.883,0.000,0.000,0.000
486256.672,136.230,35.645,30.762,117.188,208.496,0.000,0.000,0.000
486256.676,26.367,39.551,33.203,33.691,28.809,0.000,0.000,0.000
486256.680,-75.195,36.621,31.738,-40.527,-220.215,0.000,0.000,0.000
486256.684,26.855,28.809,29.785,29.297,-126.953,0.000,0.000,0.000
486256.688,142.090,28.320,34.180,112.793,113.770,0.000,0.000,0.000
486256.692,77.148,33.691,38.574,64.941,97.656,0.000,0.000,0.000
486256.696,-59.082,36.621,34.180,-38.086,-120.117,0.000,0.000,0.000
486256.700,-22.949,32.227,27.344,-25.391,-127.441,0.000,0.000,0.000
486256.703,116.699,27.344,25.879,92.285,100.098,0.000,0.000,0.000
486256.707,110.352,36.133,37.109,99.121,173.340,0.000,0.000,0.000
486256.711,-45.410,41.016,42.969,-22.949,-38.086,0.000,0.000,0.000
486256.715,-52.246,32.227,37.109,-43.457,-150.391,0.000,0.000,0.000
486256.719,88.379,25.879,32.227,74.707,41.504,0.000,0.000,0.000
486256.723,130.859,25.879,37.109,114.746,188.477,0.000,0.000,0.000
486256.727,-7.324,30.273,39.551,17.578,26.367,0.000,0.000,0.000
486256.731,-76.660,26.855,34.180,-41.016,-143.555,0.000,0.000,0.000
486256.735,47.852,24.902,33.691,39.062,28.320,0.000,0.000,0.000
486256.739,142.578,29.297,35.156,119.629,282.227,0.000,0.000,0.000
486256.742,34.180,33.691,36.133,41.504,170.410,0.000,0.000,0.000
486256.746,-80.566,33.203,34.180,-50.293,-34.180,0.000,0.000,0.000
486256.750,5.859,23.438,32.227,7.324,10.742,0.000,0.000,0.000
486256.754,125.488,16.113,31.250,99.121,181.152,0.000,0.000,0.000
486256.758,71.289,21.973,34.668,56.641,147.949,0.000,0.000,0.000
486256.762,-75.195,29.297,35.645,-48.828,-62.988,0.000,0.000,0.000
486256.766,-41.504,32.715,30.273,-35.645,-116.211,0.000,0.000,0.000
486256.770,92.773,31.250,25.391,69.824,127.441,0.000,0.000,0.000
486256.774,96.680,36.133,33.203,73.242,261.230,0.000,0.000,0.000
486256.778,-43.945,47.852,39.062,-30.273,-2.441,0.000,0.000,0.000
486256.782,-61.035,48.340,35.156,-47.363,-119.629,0.000,0.000,0.000
486256.785,77.148,44.922,38.574,54.199,118.164,0.000,0.000,0.000
486256.789,117.188,31.738,34.180,79.590,311.523,0.000,0.000,0.000
486256.793,-32.715,20.020,23.438,-30.762,134.277,0.000,0.000,0.000
486256.797,-114.746,25.879,23.438,-94.727,-134.277,0.000,0.000,0.000
486256.801,-2.930,29.297,26.367,-16.602,-56.641,0.000,0.000,0.000
486256.805,93.262,31.738,27.344,68.848,137.207,0.000,0.000,0.000
486256.809,3.418,35.645,34.180,6.836,73.730,0.000,0.000,0.000
486256.813,-122.559,35.645,37.598,-92.773,-112.305,0.000,0.000,0.000
486256.817,-54.199,29.297,33.691,-51.270,-73.242,0.000,0.000,0.000
486256.821,68.848,25.391,30.762,52.246,171.875,0.000,0.000,0.000
486256.824,23.438,28.809,28.809,17.090,184.570,0.000,0.000,0.000
486256.828,-113.770,32.227,34.668,-88.379,-115.234,0.000,0.000,0.000
486256.832,-96.680,23.438,33.203,-83.984,-187.988,0.000,0.000,0.000
486256.836,32.227,20.020,27.344,26.855,98.633,0.000,0.000,0.000
486256.840,50.293,29.785,31.250,50.293,190.430,0.000,0.000,0.000
486256.844,-99.609,28.809,32.227,-64.453,-52.246,0.000,0.000,0.000
486256.848,-132.812,22.461,26.367,-108.398,-208.008,0.000,0.000,0.000
486256.852,11.719,26.367,23.926,-6.836,-29.785,0.000,0.000,0.000
486256.856,85.449,26.367,28.320,69.336,185.547,0.000,0.000,0.000
486256.860,-29.785,29.297,30.273,-17.090,49.805,0.000,0.000,0.000
486256.864,-117.188,31.738,25.879,-94.727,-161.621,0.000,0.000,0.000
486256.867,-11.230,27.344,20.996,-15.625,-48.340,0.000,0.000,0.000
486256.871,109.863,29.785,29.785,84.961,206.543,0.000,0.000,0.000
486256.875,31.250,36.621,30.762,27.344,203.125,0.000,0.000,0.000
486256.879,-107.910,31.738,24.414,-78.613,30.762,0.000,0.000,0.000
486256.883,-46.387,21.973,24.414,-35.645,15.625,0.000,0.000,0.000
486256.887,91.309,28.320,20.996,83.984,201.172,0.000,0.000,0.000
486256.891,77.148,35.645,23.438,66.895,172.852,0.000,0.000,0.000
486256.895,-72.266,32.227,26.367,-45.410,-58.594,0.000,0.000,0.000
486256.899,-68.359,29.297,29.297,-41.992,-78.125,0.000,0.000,0.000
486256.903,82.520,31.250,25.391,66.895,129.883,0.000,0.000,0.000
486256.907,112.305,34.180,20.996,90.820,253.418,0.000,0.000,0.000
486256.910,-39.551,36.133,26.855,-10.254,69.336,0.000,0.000,0.000
486256.914,-83.496,37.109,26.855,-53.223,-123.047,0.000,0.000,0.000
486256.918,49.805,33.203,20.020,36.621,1.465,0.000,0.000,0.000
486256.922,117.188,24.414,19.531,101.562,173.340,0.000,0.000,0.000
486256.926,4.395,25.391,27.832,20.996,42.969,0.000,0.000,0.000
486256.930,-90.332,28.320,27.832,-58.105,-182.617,0.000,0.000,0.000
486256.934,6.836,22.461,21.484,10.742,-140.625,0.000,0.000,0.000
486256.938,111.816,13.184,22.949,97.656,104.004,0.000,0.000,0.000
486256.942,37.598,13.184,27.344,45.410,126.953,0.000,0.000,0.000
486256.946,-89.844,22.461,28.809,-45.410,-116.699,0.000,0.000,0.000
486256.949,-41.016,21.973,28.320,-20.020,-104.004,0.000,0.000,0.000
486256.953,90.820,20.020,23.926,75.195,186.523,0.000,0.000,0.000
486256.957,88.379,28.320,27.832,68.359,281.738,0.000,0.000,0.000
486256.961,-52.246,36.133,36.133,-30.762,67.383,0.000,0.000,0.000
486256.965,-62.500,24.414,29.785,-46.875,-62.500,0.000,0.000,0.000
486256.969,78.613,17.578,26.367,59.570,142.090,0.000,0.000,0.000
486256.973,132.324,26.367,33.203,107.910,320.312,0.000,0.000,0.000
486256.977,0.488,31.738,39.551,16.113,75.195,0.000,0.000,0.000
486256.981,-73.730,27.344,32.715,-43.457,-177.734,0.000,0.000,0.000
486256.985,48.340,26.367,24.414,36.621,-11.719,0.000,0.000,0.000
486256.989,141.602,31.250,25.391,109.863,211.914,0.000,0.000,0.000
486256.992,32.715,39.551,32.227,40.527,71.777,0.000,0.000,0.000
486256.996,-80.566,41.016,34.668,-47.852,-173.828,0.000,0.000,0.000
486257.000,1.465,34.668,27.832,-2.930,-136.719,0.000,0.000,0.000
486257.004,120.605,30.762,23.926,100.098,31.250,0.000,0.000,0.000
486257.008,68.848,30.273,27.832,64.453,18.555,0.000,0.000,0.000
486257.012,-71.289,30.762,30.273,-39.551,-144.043,0.000,0.000,0.000
486257.016,-38.574,25.879,27.344,-24.414,-153.320,0.000,0.000,0.000
486257.020,100.098,23.926,21.973,80.566,38.086,2.000,1.000,45.000
486257.024,99.121,27.832,20.996,84.961,133.301,0.000,0.000,0.000
486257.028,-65.918,24.902,27.344,-34.668,-16.113,0.000,0.000,0.000
486257.032,-90.332,23.438,22.461,-63.477,-142.578,0.000,0.000,0.000
486257.035,62.012,31.250,20.508,58.594,33.691,0.000,0.000,0.000
486257.039,123.535,34.180,25.391,108.398,202.148,0.000,0.000,0.000
486257.043,-9.766,33.203,30.273,1.465,67.871,0.000,0.000,0.000
486257.047,-91.309,30.273,29.297,-64.941,-43.457,0.000,0.000,0.000
486257.051,24.902,20.996,23.438,17.090,78.125,0.000,0.000,0.000
486257.055,133.301,23.438,24.902,107.422,195.312,0.000,0.000,0.000
486257.059,41.992,26.855,28.320,40.527,160.156,0.000,0.000,0.000
486257.063,-92.285,28.809,30.273,-55.664,17.090,0.000,0.000,0.000
486257.067,-23.438,24.414,29.785,-10.742,30.273,0.000,0.000,0.000
486257.071,110.840,21.973,31.250,97.168,253.906,0.000,0.000,0.000
486257.074,72.754,26.367,35.156,71.777,277.832,0.000,0.000,0.000
486257.078,-73.242,28.809,35.645,-36.133,8.789,0.000,0.000,0.000
486257.082,-46.875,25.391,36.621,-31.738,-126.953,0.000,0.000,0.000
486257.086,95.703,25.879,37.109,75.684,92.773,0.000,0.000,0.000
486257.090,104.980,27.832,32.227,90.820,240.234,0.000,0.000,0.000
486257.094,-40.527,29.297,31.738,-6.348,56.152,0.000,0.000,0.000
486257.098,-73.242,27.344,27.832,-44.922,-104.004,0.000,0.000,0.000
486257.102,62.500,27.344,24.902,42.480,10.254,0.000,0.000,0.000
486257.106,133.301,33.691,27.344,104.980,183.105,0.000,0.000,0.000
486257.110,12.207,39.062,32.227,20.508,64.941,0.000,0.000,0.000
486257.114,-76.172,37.109,30.273,-54.199,-217.773,0.000,0.000,0.000
486257.117,25.391,31.738,19.531,14.648,-167.480,0.000,0.000,0.000
486257.121,130.859,29.297,20.020,100.586,103.027,0.000,0.000,0.000
486257.125,60.547,33.691,26.367,36.133,39.062,0.000,0.000,0.000
486257.129,-62.988,41.992,24.902,-62.012,-189.941,0.000,0.000,0.000
486257.133,-15.625,35.645,17.090,-32.715,-172.852,0.000,0.000,0.000
486257.137,112.305,28.809,18.555,73.730,74.219,0.000,0.000,0.000
486257.141,92.285,30.273,20.996,64.941,91.797,0.000,0.000,0.000
486257.145,-61.035,35.645,26.855,-48.340,-147.461,0.000,0.000,0.000
486257.149,-57.617,35.156,21.973,-52.734,-207.031,0.000,0.000,0.000
486257.153,81.543,25.879,12.695,58.105,18.066,0.000,0.000,0.000
486257.156,110.352,26.367,19.043,84.473,187.988,0.000,0.000,0.000
486257.160,-28.809,33.691,26.855,-18.066,23.438,0.000,0.000,0.000
486257.164,-76.172,32.227,28.320,-65.430,-155.273,0.000,0.000,0.000
486257.168,54.688,34.668,28.320,32.227,-31.250,0.000,0.000,0.000
486257.172,144.531,36.133,27.832,108.398,128.906,0.000,0.000,0.000
486257.176,24.902,29.785,28.320,24.902,52.734,0.000,0.000,0.000
486257.180,-95.215,26.855,27.832,-60.547,-57.617,0.000,0.000,0.000
486257.184,4.395,25.391,28.320,4.395,-29.297,0.000,0.000,0.000
486257.188,120.605,23.926,32.227,108.887,133.789,0.000,0.000,0.000
486257.192,46.875,23.926,30.762,52.246,125.977,0.000,0.000,0.000
486257.196,-89.844,25.879,29.297,-59.082,-122.559,0.000,0.000,0.000
486257.199,-41.992,25.879,31.738,-24.902,-165.039,0.000,0.000,0.000
486257.203,95.215,22.949,31.250,92.773,78.613,0.000,0.000,0.000
486257.207,85.449,29.297,32.227,84.961,158.691,0.000,0.000,0.000
486257.211,-67.871,36.133,36.133,-36.133,-77.637,0.000,0.000,0.000
486257.215,-75.195,31.250,35.645,-50.781,-208.496,0.000,0.000,0.000
486257.219,60.547,22.461,27.832,50.293,-27.344,0.000,0.000,0.000
486257.223,99.609,20.020,23.438,81.055,140.625,0.000,0.000,0.000
486257.227,-36.621,24.902,29.785,-13.184,3.906,0.000,0.000,0.000
486257.231,-98.633,30.273,31.738,-66.895,-162.109,0.000,0.000,0.000
486257.235,25.879,29.785,28.320,18.066,-82.031,0.000,0.000,0.000
486257.239,109.863,28.320,25.879,93.750,94.238,0.000,0.000,0.000
486257.242,8.301,33.203,27.344,23.438,25.879,0.000,0.000,0.000
486257.246,-94.238,37.598,34.180,-54.688,-198.242,0.000,0.000,0.000
486257.250,-9.277,35.156,34.180,-6.348,-168.945,0.000,0.000,0.000
486257.254,109.863,26.855,24.414,81.543,108.398,0.000,0.000,0.000
486257.258,67.383,28.320,27.344,49.316,111.816,0.000,0.000,0.000
486257.262,-69.336,33.203,29.297,-51.270,-129.883,0.000,0.000,0.000
486257.266,-40.527,29.297,24.414,-40.039,-166.504,0.000,0.000,0.000
486257.270,93.262,25.879,24.414,65.918,24.414,0.000,0.000,0.000
486257.274,106.445,31.738,25.879,79.590,139.160,0.000,0.000,0.000
486257.278,-41.992,35.156,31.250,-25.391,-32.715,0.000,0.000,0.000
486257.281,-69.336,32.227,28.809,-55.664,-164.551,0.000,0.000,0.000
486257.285,71.289,33.691,22.461,52.246,-20.508,0.000,0.000,0.000
486257.289,136.719,38.086,25.391,110.352,227.051,0.000,0.000,0.000
486257.293,17.090,42.480,33.203,23.926,91.797,0.000,0.000,0.000
486257.297,-74.219,43.945,29.785,-43.945,-201.172,0.000,0.000,0.000
486257.301,28.809,39.551,22.461,28.809,-88.379,0.000,0.000,0.000
486257.305,139.648,37.109,23.438,104.980,140.625,0.000,0.000,0.000
486257.309,56.641,39.062,30.273,31.250,96.191,0.000,0.000,0.000
486257.313,-75.195,39.062,32.715,-61.035,-118.652,0.000,0.000,0.000
486257.317,-10.742,34.668,26.367,-16.602,-92.285,0.000,0.000,0.000
486257.321,122.070,33.203,27.832,93.750,145.508,0.000,0.000,0.000
486257.324,84.961,31.250,32.715,69.336,141.602,0.000,0.000,0.000
486257.328,-66.406,33.203,37.109,-43.945,-115.234,0.000,0.000,0.000
486257.332,-50.781,32.715,31.738,-37.109,-165.527,0.000,0.000,0.000
486257.336,102.051,32.227,31.738,83.008,51.270,0.000,0.000,0.000
486257.340,119.629,33.691,37.109,98.145,214.355,0.000,0.000,0.000
486257.344,-43.457,31.738,35.156,-19.531,54.688,0.000,0.000,0.000
486257.348,-84.961,34.180,36.133,-53.711,-157.227,0.000,0.000,0.000
486257.352,48.340,32.227,33.691,46.387,-3.418,0.000,0.000,0.000
486257.356,118.164,28.320,33.203,103.516,199.707,0.000,0.000,0.000
486257.360,-3.906,29.785,37.598,15.137,87.891,0.000,0.000,0.000
486257.364,-97.656,27.344,39.062,-53.223,-160.156,0.000,0.000,0.000
486257.367,8.789,23.438,36.133,15.625,-101.074,0.000,0.000,0.000
486257.371,125.000,24.902,35.645,110.840,175.781,0.000,0.000,0.000
486257.375,50.781,30.273,37.598,60.547,143.555,0.000,0.000,0.000
486257.379,-83.984,34.668,35.645,-43.945,-88.379,0.000,0.000,0.000
486257.383,-21.973,36.133,29.297,-17.578,-139.160,0.000,0.000,0.000
486257.387,108.887,32.227,25.391,78.613,88.867,0.000,0.000,0.000
486257.391,83.008,29.785,25.391,59.570,187.012,0.000,0.000,0.000
486257.395,-50.293,36.133,31.738,-43.945,-52.734,0.000,0.000,0.000
486257.399,-40.039,33.203,32.715,-52.734,-161.621,0.000,0.000,0.000
486257.403,89.355,26.367,23.926,47.852,80.566,0.000,0.000,0.000
486257.406,125.488,33.203,24.902,80.566,232.422,0.000,0.000,0.000
486257.410,-6.348,39.062,32.715,-17.090,7.812,0.000,0.000,0.000
486257.414,-64.941,36.621,26.367,-68.359,-152.344,0.000,0.000,0.000
486257.418,51.270,33.691,20.996,17.578,20.508,0.000,0.000,0.000
486257.422,132.324,35.645,22.461,86.914,222.168,0.000,0.000,0.000
486257.426,31.738,40.527,21.973,7.812,89.844,0.000,0.000,0.000
486257.430,-71.289,41.504,25.391,-68.848,-150.391,0.000,0.000,0.000
486257.434,14.160,40.527,25.391,-8.789,-71.289,0.000,0.000,0.000
486257.438,126.465,32.715,17.090,82.031,173.828,0.000,0.000,0.000
486257.442,60.547,28.809,20.508,42.480,167.969,0.000,0.000,0.000
486257.446,-76.172,32.715,26.367,-57.617,-86.914,0.000,0.000,0.000
486257.449,-30.273,33.691,20.996,-42.969,-130.371,0.000,0.000,0.000
486257.453,105.957,31.250,20.020,63.965,88.379,0.000,0.000,0.000
486257.457,96.191,34.180,23.438,63.965,178.711,0.000,0.000,0.000
486257.461,-65.430,34.180,22.949,-41.016,23.926,0.000,0.000,0.000
486257.465,-78.613,31.738,18.555,-59.082,-72.754,0.000,0.000,0.000
486257.469,63.965,30.762,20.996,45.410,40.039,0.000,0.000,0.000
486257.473,108.887,28.809,20.996,80.566,166.016,0.000,0.000,0.000
486257.477,-16.113,33.691,24.414,-14.160,9.766,0.000,0.000,0.000
486257.481,-76.660,37.109,29.785,-61.035,-153.320,0.000,0.000,0.000
486257.485,40.527,30.273,26.367,21.484,21.973,0.000,0.000,0.000
486257.489,129.395,27.832,24.902,101.562,195.801,0.000,0.000,0.000
486257.492,21.973,32.227,28.320,22.949,83.008,0.000,0.000,0.000
486257.496,-97.168,30.273,31.738,-69.336,-132.812,0.000,0.000,0.000
486257.500,-7.324,22.949,30.762,-8.301,-107.422,0.000,0.000,0.000
486257.504,118.164,21.973,31.250,96.680,134.766,0.000,0.000,0.000
486257.508,56.641,23.438,33.691,58.105,163.574,0.000,0.000,0.000
486257.512,-85.938,20.996,31.738,-51.270,-89.355,0.000,0.000,0.000
486257.516,-51.758,23.926,30.762,-36.133,-165.039,0.000,0.000,0.000
486257.520,86.426,22.461,31.738,77.637,24.414,0.000,0.000,0.000
486257.524,101.562,22.461,33.203,87.891,146.484,0.000,0.000,0.000
486257.528,-52.734,25.391,34.668,-22.461,15.625,0.000,0.000,0.000
486257.531,-75.195,28.809,34.668,-48.828,-146.484,0.000,0.000,0.000
486257.535,64.453,25.879,32.227,46.387,-18.066,0.000,0.000,0.000
486257.539,117.188,24.902,33.203,89.844,196.777,0.000,0.000,0.000
486257.543,-11.230,32.227,34.668,-0.488,59.570,0.000,0.000,0.000
486257.547,-92.285,34.668,31.738,-69.336,-151.855,0.000,0.000,0.000
486257.551,23.438,33.691,30.762,6.348,-48.340,0.000,0.000,0.000
486257.555,122.559,30.273,27.832,89.844,193.359,0.000,0.000,0.000
486257.559,36.621,32.227,33.691,35.156,173.828,0.000,0.000,0.000
486257.563,-79.102,36.621,37.598,-58.105,-61.523,0.000,0.000,0.000
486257.567,-8.301,33.691,31.738,-17.578,-108.887,0.000,0.000,0.000
486257.571,119.141,28.809,30.273,95.703,134.277,0.000,0.000,0.000
486257.574,83.496,31.738,31.738,73.730,162.598,0.000,0.000,0.000
486257.578,-65.918,36.133,33.203,-37.109,-106.934,0.000,0.000,0.000
486257.582,-60.059,28.320,29.297,-55.664,-192.871,0.000,0.000,0.000
486257.586,69.824,25.391,23.438,42.480,41.504,0.000,0.000,0.000
486257.590,94.238,29.785,28.809,74.219,196.289,0.000,0.000,0.000
486257.594,-51.758,33.691,30.762,-26.855,-9.277,0.000,0.000,0.000
486257.598,-95.703,29.297,26.367,-64.453,-201.172,0.000,0.000,0.000
486257.602,44.434,28.809,24.414,31.738,-36.621,0.000,0.000,0.000
486257.606,129.883,38.086,24.414,98.145,182.617,0.000,0.000,0.000
486257.610,11.719,39.062,28.809,12.207,63.477,0.000,0.000,0.000
486257.613,-84.961,31.738,27.832,-69.336,-118.164,0.000,0.000,0.000
486257.617,19.043,27.832,23.438,6.348,-41.016,0.000,0.000,0.000
486257.621,123.047,27.832,24.902,99.121,165.527,0.000,0.000,0.000
486257.625,42.969,27.344,27.832,42.480,184.570,0.000,0.000,0.000
486257.629,-101.074,26.855,26.367,-68.359,40.039,0.000,0.000,0.000
486257.633,-47.852,24.902,20.020,-38.574,3.906,0.000,0.000,0.000
486257.637,95.703,23.926,18.066,82.520,203.613,0.000,0.000,0.000
486257.641,75.684,26.855,20.508,68.848,223.145,0.000,0.000,0.000
486257.645,-74.707,30.762,23.926,-41.992,-39.062,0.000,0.000,0.000
486257.649,-67.383,28.809,29.297,-47.852,-140.137,0.000,0.000,0.000
486257.653,74.219,26.367,31.250,62.500,33.203,0.000,0.000,0.000
486257.656,106.934,31.738,30.762,95.215,168.945,0.000,0.000,0.000
486257.660,-41.016,34.180,32.715,-6.348,-1.465,0.000,0.000,0.000
486257.664,-94.238,28.809,31.738,-52.246,-140.625,0.000,0.000,0.000
486257.668,37.109,22.461,29.297,29.297,10.742,0.000,0.000,0.000
486257.672,117.676,19.043,29.785,103.027,226.562,0.000,0.000,0.000
486257.676,9.277,20.020,30.273,35.156,161.133,0.000,0.000,0.000
486257.680,-91.797,24.414,30.762,-53.223,-28.320,0.000,0.000,0.000
486257.684,2.930,22.949,33.203,3.418,26.367,0.000,0.000,0.000
486257.688,118.164,17.578,31.250,94.727,202.637,0.000,0.000,0.000
486257.692,69.336,23.926,34.668,56.641,189.941,0.000,0.000,0.000
486257.696,-64.453,31.738,41.016,-37.598,-2.930,0.000,0.000,0.000
486257.699,-27.832,31.738,37.598,-18.555,-68.848,0.000,0.000,0.000
486257.703,114.746,34.668,33.203,88.867,105.469,0.000,0.000,0.000
486257.707,106.445,31.738,28.320,77.148,189.453,0.000,0.000,0.000
486257.711,-42.480,31.250,30.273,-31.250,-54.199,0.000,0.000,0.000
486257.715,-56.641,30.273,28.809,-42.480,-223.145,0.000,0.000,0.000
486257.719,72.266,22.949,22.461,55.664,-18.555,0.000,0.000,0.000
486257.723,130.371,29.785,24.902,102.539,157.715,0.000,0.000,0.000
486257.727,6.348,37.109,28.809,10.254,28.809,0.000,0.000,0.000
486257.731,-65.430,32.715,25.391,-54.688,-164.551,0.000,0.000,0.000
486257.735,47.363,31.738,20.996,26.367,-81.055,0.000,0.000,0.000
486257.738,137.695,33.203,23.438,108.398,171.875,0.000,0.000,0.000
486257.742,41.992,34.180,24.902,39.062,73.730,0.000,0.000,0.000
486257.746,-71.289,35.156,26.367,-55.664,-151.855,0.000,0.000,0.000
486257.750,4.883,29.297,22.461,-12.695,-111.816,0.000,0.000,0.000
486257.754,119.141,24.414,15.137,90.332,113.770,0.000,0.000,0.000
486257.758,69.336,29.785,20.508,62.012,128.418,0.000,0.000,0.000
486257.762,-76.660,36.621,24.902,-45.410,-106.934,0.000,0.000,0.000
486257.766,-50.293,30.273,22.949,-45.410,-168.945,0.000,0.000,0.000
486257.770,94.238,20.508,22.461,64.453,26.855,0.000,0.000,0.000
486257.774,109.375,28.809,25.391,90.820,135.254,0.000,0.000,0.000
486257.778,-44.922,31.738,28.320,-21.484,-4.883,0.000,0.000,0.000
486257.781,-76.660,27.344,24.902,-59.570,-130.371,0.000,0.000,0.000
486257.785,66.406,29.785,21.973,45.898,-14.648,0.000,0.000,0.000
486257.789,128.906,30.762,23.438,101.074,168.945,0.000,0.000,0.000
486257.793,-3.418,30.762,23.438,12.207,45.898,0.000,0.000,0.000
486257.797,-87.891,29.297,23.438,-59.082,-71.289,0.000,0.000,0.000
486257.801,24.414,30.273,22.461,9.277,109.375,0.000,0.000,0.000
486257.805,126.465,33.691,20.508,92.773,260.742,0.000,0.000,0.000
486257.809,37.598,37.598,23.438,27.832,103.516,0.000,0.000,0.000
486257.813,-90.820,34.668,23.926,-68.359,-157.227,0.000,0.000,0.000
486257.817,-12.695,28.809,23.926,-20.996,-144.531,0.000,0.000,0.000
486257.821,116.699,25.879,20.508,81.543,65.918,0.000,0.000,0.000
486257.824,72.754,27.344,16.602,52.734,104.004,0.000,0.000,0.000
486257.828,-72.266,34.180,24.414,-44.922,-81.055,0.000,0.000,0.000
486257.832,-58.105,33.203,30.273,-39.551,-105.957,0.000,0.000,0.000
486257.836,82.031,27.344,25.879,62.012,120.605,0.000,0.000,0.000
486257.840,109.863,28.809,24.902,83.984,199.219,0.000,0.000,0.000
486257.844,-37.109,29.785,26.367,-18.555,6.348,0.000,0.000,0.000
486257.848,-79.590,26.367,23.926,-56.641,-176.270,0.000,0.000,0.000
486257.852,51.758,22.461,20.996,40.527,-64.453,0.000,0.000,0.000
486257.856,120.605,22.949,21.484,101.562,158.691,0.000,0.000,0.000
486257.860,2.930,27.832,27.832,16.602,47.852,0.000,0.000,0.000
486257.863,-88.867,27.344,31.250,-60.547,-177.734,0.000,0.000,0.000
486257.867,-0.977,18.066,23.926,-1.953,-110.840,0.000,0.000,0.000
486257.871,110.840,20.508,23.438,97.168,139.160,0.000,0.000,0.000
486257.875,50.293,30.762,31.738,54.199,90.820,0.000,0.000,0.000
486257.879,-87.402,34.180,30.762,-48.340,-146.484,0.000,0.000,0.000
486257.883,-34.668,28.320,29.297,-24.902,-152.344,0.000,0.000,0.000
486257.887,104.004,25.391,28.809,83.984,84.961,0.000,0.000,0.000
486257.891,88.867,30.273,25.879,73.242,167.969,0.000,0.000,0.000
486257.895,-60.547,33.691,27.344,-48.828,-65.430,0.000,0.000,0.000
486257.899,-57.129,34.180,25.391,-57.617,-189.941,0.000,0.000,0.000
486257.903,84.473,29.785,29.785,52.246,55.176,0.000,0.000,0.000
486257.906,109.375,29.785,33.203,82.520,237.305,0.000,0.000,0.000
486257.910,-25.879,35.645,34.668,-13.184,56.152,0.000,0.000,0.000
486257.914,-79.102,31.738,33.691,-65.430,-96.680,0.000,0.000,0.000
486257.918,34.668,23.926,26.855,20.996,35.156,0.000,0.000,0.000
486257.922,120.117,24.902,27.344,98.633,204.590,0.000,0.000,0.000
486257.926,11.719,27.344,29.785,21.484,63.477,0.000,0.000,0.000
486257.930,-101.562,29.297,32.715,-65.918,-177.246,0.000,0.000,0.000
486257.934,-9.277,30.273,31.250,-6.836,-148.926,0.000,0.000,0.000
486257.938,116.699,30.762,24.902,98.633,104.980,0.000,0.000,0.000
486257.942,55.664,30.762,27.344,54.688,122.070,0.000,0.000,0.000
486257.945,-88.379,32.227,35.645,-48.340,-120.605,0.000,0.000,0.000
486257.949,-48.828,30.273,30.273,-21.973,-116.699,0.000,0.000,0.000
486257.953,93.262,30.273,33.203,85.938,105.469,0.000,0.000,0.000
486257.957,91.309,29.297,37.109,82.520,198.730,0.000,0.000,0.000
486257.961,-65.430,25.879,32.227,-28.320,64.941,0.000,0.000,0.000
486257.965,-80.078,25.879,31.738,-41.504,-105.469,0.000,0.000,0.000
486257.969,58.594,28.320,27.832,56.641,29.785,0.000,0.000,0.000
486257.973,106.445,32.227,24.414,89.844,222.168,0.000,0.000,0.000
486257.977,-21.484,32.715,27.344,-3.906,75.195,0.000,0.000,0.000
486257.981,-87.402,32.715,30.273,-62.988,-90.332,0.000,0.000,0.000
486257.985,25.879,33.203,27.344,20.996,9.766,0.000,0.000,0.000
486257.988,124.512,35.156,22.949,103.027,267.090,0.000,0.000,0.000
486257.992,35.645,39.551,21.484,38.574,218.750,0.000,0.000,0.000
486257.996,-89.355,37.598,27.344,-49.316,-25.879,0.000,0.000,0.000
486258.000,-15.625,34.668,27.832,-11.230,0.000,0.000,0.000,0.000
486258.004,106.934,33.203,20.020,84.473,226.562,0.000,0.000,0.000
486258.008,57.617,36.133,24.902,49.805,204.102,0.000,0.000,0.000
486258.012,-76.172,41.504,31.250,-43.945,-94.727,0.000,0.000,0.000
486258.016,-43.945,37.598,26.367,-33.203,-133.301,0.000,0.000,0.000
486258.020,85.938,31.738,24.902,62.988,44.434,0.000,0.000,0.000
486258.024,94.238,37.109,30.273,81.543,97.656,0.000,0.000,0.000
486258.028,-49.316,42.480,30.762,-18.066,-72.266,0.000,0.000,0.000
486258.031,-83.008,33.691,23.926,-50.293,-214.844,0.000,0.000,0.000
486258.035,56.152,28.809,25.879,59.082,-47.852,0.000,0.000,0.000
486258.039,123.535,34.668,26.855,117.676,122.070,0.000,0.000,0.000
486258.043,-7.324,37.109,23.438,12.207,-24.902,0.000,0.000,0.000
486258.047,-91.309,34.668,26.367,-65.918,-222.168,0.000,0.000,0.000
486258.051,20.508,32.227,27.344,14.648,-120.117,0.000,0.000,0.000
486258.055,126.953,34.180,29.297,106.445,107.422,0.000,0.000,0.000
486258.059,45.410,37.598,35.156,44.434,65.918,0.000,0.000,0.000
486258.063,-84.961,37.598,35.645,-55.176,-142.578,0.000,0.000,0.000
486258.067,-18.555,30.762,33.203,-14.648,-111.328,0.000,0.000,0.000
486258.070,113.281,29.297,28.809,92.773,94.238,0.000,0.000,0.000
486258.074,87.891,40.527,27.832,67.383,118.652,0.000,0.000,0.000
486258.078,-62.012,40.039,31.738,-43.457,-91.797,0.000,0.000,0.000
486258.082,-52.734,31.738,32.715,-37.598,-165.527,0.000,0.000,0.000
486258.086,101.562,33.203,30.762,77.148,9.766,0.000,0.000,0.000
486258.090,120.117,31.738,24.414,88.379,125.000,0.000,0.000,0.000
486258.094,-34.668,34.668,31.250,-22.461,-4.395,0.000,0.000,0.000
486258.098,-77.148,38.086,34.668,-55.664,-151.855,0.000,0.000,0.000
486258.102,56.152,33.691,28.809,42.480,-29.297,0.000,0.000,0.000
486258.106,132.812,33.691,32.227,104.980,192.871,0.000,0.000,0.000
486258.110,14.160,41.992,38.086,16.113,51.758,0.000,0.000,0.000
486258.113,-81.543,42.480,35.645,-56.641,-143.066,0.000,0.000,0.000
486258.117,26.367,38.086,34.180,21.484,-42.969,0.000,0.000,0.000
486258.121,129.883,33.691,35.156,110.840,152.832,0.000,0.000,0.000
486258.125,42.969,30.273,34.180,40.527,112.793,0.000,0.000,0.000
486258.129,-87.891,33.203,35.645,-60.547,-146.484,0.000,0.000,0.000
486258.133,-26.367,29.785,35.156,-18.066,-171.875,0.000,0.000,0.000
486258.137,111.328,27.344,31.738,86.914,40.039,0.000,0.000,0.000
486258.141,84.961,29.785,34.180,66.406,125.000,0.000,0.000,0.000
486258.145,-71.777,31.250,38.086,-38.086,-55.176,0.000,0.000,0.000
486258.149,-67.383,31.250,36.133,-34.180,-171.875,0.000,0.000,0.000
486258.153,71.777,27.344,31.738,64.453,56.641,0.000,0.000,0.000
486258.156,105.957,31.738,32.715,82.031,228.516,0.000,0.000,0.000
486258.160,-27.344,36.133,36.133,-17.090,31.250,0.000,0.000,0.000
486258.164,-83.984,31.738,31.250,-57.617,-146.484,0.000,0.000,0.000
486258.168,32.227,28.320,28.809,32.715,3.906,0.000,0.000,0.000
486258.172,113.770,28.809,32.715,99.121,228.027,0.000,0.000,0.000
486258.176,13.184,32.715,35.645,23.438,88.867,0.000,0.000,0.000
486258.180,-96.191,33.691,35.156,-56.641,-166.016,0.000,0.000,0.000
486258.184,-9.277,32.715,31.250,-3.418,-83.984,0.000,0.000,0.000
486258.188,122.559,32.715,31.250,91.309,199.219,0.000,0.000,0.000
486258.192,67.383,36.621,33.203,51.270,171.387,0.000,0.000,0.000
486258.195,-82.031,38.574,32.227,-65.430,-101.562,0.000,0.000,0.000
486258.199,-47.363,37.109,26.367,-51.270,-86.426,0.000,0.000,0.000
486258.203,96.680,39.551,25.879,68.359,143.555,0.000,0.000,0.000
486258.207,95.215,33.691,25.879,66.895,211.426,0.000,0.000,0.000
486258.211,-60.059,29.297,21.484,-42.480,8.789,0.000,0.000,0.000
486258.215,-73.730,32.715,23.926,-55.664,-135.254,0.000,0.000,0.000
486258.219,63.965,29.785,25.391,48.340,31.738,0.000,0.000,0.000
486258.223,117.188,31.250,27.344,90.820,171.875,0.000,0.000,0.000
486258.227,-18.066,33.691,31.250,-6.836,32.227,0.000,0.000,0.000
486258.231,-100.586,34.180,29.297,-68.359,-107.422,0.000,0.000,0.000
486258.235,22.461,34.668,27.832,16.113,-9.766,0.000,0.000,0.000
486258.238,128.418,35.156,32.227,102.539,170.410,0.000,0.000,0.000
486258.242,24.902,34.668,34.668,24.902,73.730,0.000,0.000,0.000
486258.246,-105.957,31.250,30.762,-66.895,-115.234,0.000,0.000,0.000
486258.250,-28.809,29.785,28.809,-3.418,-9.766,0.000,0.000,0.000
486258.254,99.609,27.344,29.297,98.145,212.891,0.000,0.000,0.000
486258.258,54.688,29.297,31.250,62.988,167.969,0.000,0.000,0.000
486258.262,-91.309,30.762,32.715,-42.969,-56.641,0.000,0.000,0.000
486258.266,-59.082,32.227,32.715,-23.926,-88.867,0.000,0.000,0.000
486258.270,85.449,35.645,33.691,87.402,103.516,0.000,0.000,0.000
486258.274,100.098,35.156,32.715,88.379,180.176,0.000,0.000,0.000
486258.277,-45.898,36.621,35.156,-20.996,8.789,0.000,0.000,0.000
486258.281,-75.684,32.715,32.715,-44.922,-138.672,0.000,0.000,0.000
486258.285,53.711,25.391,24.414,53.711,-11.230,0.000,0.000,0.000
486258.289,109.375,25.879,22.949,91.309,183.594,0.000,0.000,0.000
486258.293,-13.184,31.250,31.250,2.441,77.637,0.000,0.000,0.000
486258.297,-98.145,30.273,33.203,-54.688,-87.402,0.000,0.000,0.000
486258.301,11.230,28.809,28.809,19.043,-25.879,0.000,0.000,0.000
486258.305,117.188,31.738,27.832,100.098,147.949,0.000,0.000,0.000
486258.309,32.227,31.738,30.273,39.062,94.727,0.000,0.000,0.000
486258.313,-91.309,33.691,34.668,-47.852,-127.441,0.000,0.000,0.000
486258.317,-23.926,30.762,33.691,-3.906,-146.973,0.000,0.000,0.000
486258.320,100.098,25.391,26.855,97.168,89.844,0.000,0.000,0.000
486258.324,71.289,25.879,23.438,69.824,186.035,0.000,0.000,0.000
486258.328,-68.848,28.320,27.832,-31.738,-77.637,0.000,0.000,0.000
486258.332,-63.477,26.367,25.879,-32.715,-170.898,0.000,0.000,0.000
486258.336,71.289,27.344,21.484,62.988,94.238,0.000,0.000,0.000
486258.340,96.191,32.227,21.973,83.496,248.047,0.000,0.000,0.000
486258.344,-43.457,31.738,25.391,-19.043,36.621,0.000,0.000,0.000
486258.348,-88.867,32.227,25.879,-59.570,-139.648,0.000,0.000,0.000
486258.352,42.480,30.762,27.832,39.062,19.043,0.000,0.000,0.000
486258.356,116.699,21.973,27.832,101.562,205.566,0.000,0.000,0.000
486258.360,2.930,26.367,30.273,19.043,72.266,0.000,0.000,0.000
486258.363,-91.309,33.203,32.715,-57.129,-183.594,0.000,0.000,0.000
486258.367,2.930,31.250,25.879,2.930,-84.473,0.000,0.000,0.000
486258.371,118.164,33.691,21.973,95.703,181.152,0.000,0.000,0.000
486258.375,55.664,38.086,23.438,41.016,92.285,0.000,0.000,0.000
486258.379,-82.520,37.109,24.902,-61.035,-148.438,0.000,0.000,0.000
486258.383,-26.855,38.574,24.902,-20.020,-131.836,0.000,0.000,0.000
486258.387,105.957,37.598,26.855,92.773,120.605,0.000,0.000,0.000
486258.391,84.473,36.621,28.320,74.707,174.316,0.000,0.000,0.000
486258.395,-59.082,43.457,26.367,-33.203,-73.730,0.000,0.000,0.000
486258.399,-65.430,42.480,27.832,-34.180,-185.547,0.000,0.000,0.000
486258.402,71.777,34.180,23.438,65.918,-6.836,0.000,0.000,0.000
486258.406,114.258,34.180,22.949,92.285,132.324,0.000,0.000,0.000
486258.410,-20.508,38.574,32.715,-2.930,-46.875,0.000,0.000,0.000
486258.414,-82.031,38.574,30.762,-47.363,-229.492,0.000,0.000,0.000
486258.418,36.621,33.691,23.438,33.691,-82.031,0.000,0.000,0.000
486258.422,116.699,27.344,22.949,89.355,136.230,0.000,0.000,0.000
486258.426,6.348,32.715,28.320,9.766,72.266,0.000,0.000,0.000
486258.430,-98.145,33.203,29.785,-63.965,-142.090,0.000,0.000,0.000
486258.434,-0.488,36.621,27.344,1.953,-73.730,0.000,0.000,0.000
486258.438,117.676,40.039,21.973,92.285,170.898,0.000,0.000,0.000
486258.442,55.664,35.156,22.461,43.457,150.879,0.000,0.000,0.000
486258.445,-85.449,33.691,25.879,-55.664,-84.961,0.000,0.000,0.000
486258.449,-48.340,33.203,24.902,-28.809,-140.137,0.000,0.000,0.000
486258.453,89.844,33.203,27.344,78.125,61.035,0.000,0.000,0.000
486258.457,89.844,33.691,28.320,71.777,197.266,0.000,0.000,0.000
486258.461,-50.293,39.551,35.156,-24.414,4.395,0.000,0.000,0.000
486258.465,-64.453,38.086,38.574,-38.574,-175.781,0.000,0.000,0.000
486258.469,73.242,34.668,32.715,63.965,-4.883,0.000,0.000,0.000
486258.473,129.395,37.109,31.250,119.629,134.277,0.000,0.000,0.000
486258.477,-2.441,37.598,32.227,16.602,-14.648,0.000,0.000,0.000
486258.481,-81.543,36.133,30.273,-53.223,-150.879,0.000,0.000,0.000
486258.485,26.367,39.062,26.855,33.691,-26.367,0.000,0.000,0.000
486258.488,117.188,37.598,29.297,111.328,190.430,0.000,0.000,0.000
486258.492,24.414,35.156,35.645,36.621,154.785,0.000,0.000,0.000
486258.496,-93.750,38.574,33.203,-51.758,-48.828,0.000,0.000,0.000
486258.500,-17.578,37.598,30.762,0.488,-41.504,0.000,0.000,0.000
486258.504,115.723,35.156,31.738,107.422,196.289,0.000,0.000,0.000
486258.508,80.566,39.551,33.203,81.055,192.383,0.000,0.000,0.000
486258.512,-63.477,44.434,40.039,-17.578,-47.363,0.000,0.000,0.000
486258.516,-34.668,41.504,37.598,-6.348,-121.582,0.000,0.000,0.000
486258.520,109.375,41.992,35.156,96.680,57.617,0.000,0.000,0.000
486258.524,123.535,42.480,35.645,109.375,154.297,0.000,0.000,0.000
486258.527,-34.180,36.621,31.738,-8.301,-66.406,0.000,0.000,0.000
486258.531,-76.172,34.180,29.785,-46.875,-172.852,0.000,0.000,0.000
486258.535,63.965,37.109,29.297,60.547,50.781,0.000,0.000,0.000
486258.539,127.930,37.598,28.320,114.746,239.746,4.000,1.000,45.000
486258.543,4.883,41.504,28.809,20.020,102.051,0.000,0.000,0.000
486258.547,-83.984,41.016,28.809,-44.434,-136.719,0.000,0.000,0.000
486258.551,17.090,36.621,31.250,40.527,-110.840,0.000,0.000,0.000
486258.555,120.605,34.180,30.762,125.000,175.781,0.000,0.000,0.000
486258.559,41.992,29.785,27.832,43.457,200.195,0.000,0.000,0.000
486258.563,-83.984,29.785,26.367,-58.594,-83.496,0.000,0.000,0.000
486258.567,-22.949,32.715,29.297,-6.348,-123.535,0.000,0.000,0.000
486258.570,111.816,31.250,28.320,100.586,180.176,0.000,0.000,0.000
486258.574,89.844,29.297,27.832,74.219,289.551,0.000,0.000,0.000
486258.578,-53.223,34.180,37.109,-25.391,2.441,0.000,0.000,0.000
486258.582,-49.316,36.133,34.180,-21.973,-169.922,0.000,0.000,0.000
486258.586,89.844,35.645,29.785,80.566,22.949,0.000,0.000,0.000
486258.590,120.117,32.227,34.668,102.051,151.855,0.000,0.000,0.000
486258.594,-26.367,30.762,36.621,-1.953,-7.812,0.000,0.000,0.000
486258.598,-76.172,32.227,33.691,-40.527,-169.922,0.000,0.000,0.000
486258.602,54.199,31.738,31.738,54.688,-53.711,0.000,0.000,0.000
486258.606,134.277,33.203,33.203,117.188,151.367,0.000,0.000,0.000
486258.610,15.137,37.598,37.109,31.738,81.055,0.000,0.000,0.000
486258.613,-83.008,38.574,35.156,-42.969,-172.363,0.000,0.000,0.000
486258.617,6.836,32.227,27.832,11.719,-108.398,0.000,0.000,0.000
486258.621,112.793,31.738,28.809,93.750,166.016,0.000,0.000,0.000
486258.625,57.617,40.039,35.156,48.828,140.625,0.000,0.000,0.000
486258.629,-76.172,43.457,30.273,-48.340,-105.469,0.000,0.000,0.000
486258.633,-33.691,36.621,20.996,-24.414,-130.859,0.000,0.000,0.000
486258.637,104.980,37.109,24.414,74.707,95.703,0.000,0.000,0.000
486258.641,100.586,41.016,28.320,62.988,128.906,0.000,0.000,0.000
486258.645,-41.016,46.387,36.621,-38.574,-93.262,0.000,0.000,0.000
486258.649,-57.617,46.387,36.133,-44.922,-153.809,0.000,0.000,0.000
486258.652,77.148,36.621,26.367,57.617,41.992,0.000,0.000,0.000
486258.656,124.512,36.133,30.273,98.145,216.309,0.000,0.000,0.000
486258.660,-20.996,40.039,29.785,-8.301,87.891,0.000,0.000,0.000
486258.664,-92.285,38.086,21.973,-73.730,-52.734,0.000,0.000,0.000
486258.668,35.156,34.180,21.973,23.926,36.621,0.000,0.000,0.000
486258.672,129.883,37.109,25.879,103.027,148.926,0.000,0.000,0.000
486258.676,27.344,44.434,30.762,29.297,61.035,0.000,0.000,0.000
486258.680,-90.820,41.016,32.715,-52.734,-144.043,0.000,0.000,0.000
486258.684,-2.441,34.668,27.832,5.859,-114.746,0.000,0.000,0.000
486258.688,123.535,35.645,27.344,103.516,141.113,0.000,0.000,0.000
486258.692,64.941,40.039,31.250,53.223,168.457,0.000,0.000,0.000
486258.695,-75.195,43.457,40.527,-43.945,-121.582,0.000,0.000,0.000
486258.699,-39.551,37.109,36.133,-21.973,-197.754,0.000,0.000,0.000
486258.703,98.633,37.109,31.250,78.613,43.945,0.000,0.000,0.000
486258.707,96.680,37.598,36.133,73.730,170.898,0.000,0.000,0.000
486258.711,-51.758,33.203,37.598,-31.250,22.461,0.000,0.000,0.000
486258.715,-61.523,39.062,38.574,-32.227,-89.355,0.000,0.000,0.000
486258.719,82.520,38.574,33.691,65.918,79.590,0.000,0.000,0.000
486258.723,133.789,33.203,31.738,92.773,292.969,0.000,0.000,0.000
486258.727,6.348,40.039,35.645,2.930,124.512,0.000,0.000,0.000
486258.731,-67.383,42.969,37.109,-53.223,-147.949,0.000,0.000,0.000
486258.734,35.156,38.086,39.551,24.902,-84.473,0.000,0.000,0.000
486258.738,128.418,38.574,40.527,104.492,115.723,0.000,0.000,0.000
486258.742,35.645,42.480,38.086,33.691,94.238,0.000,0.000,0.000
486258.746,-90.332,39.551,37.598,-54.688,-81.543,0.000,0.000,0.000
486258.750,-20.508,35.156,37.109,-12.695,-61.035,0.000,0.000,0.000
486258.754,105.957,30.273,30.273,80.566,211.426,0.000,0.000,0.000
486258.758,73.730,34.180,34.668,56.641,208.984,0.000,0.000,0.000
486258.762,-73.730,42.480,38.574,-49.316,-101.074,0.000,0.000,0.000
486258.766,-57.129,34.668,29.297,-44.434,-188.965,0.000,0.000,0.000
486258.770,86.426,30.762,26.367,60.547,33.203,0.000,0.000,0.000
486258.774,105.957,37.598,27.832,78.613,172.852,0.000,0.000,0.000
486258.777,-39.062,41.504,28.809,-27.344,32.715,0.000,0.000,0.000
486258.781,-78.125,37.598,33.203,-60.547,-69.824,0.000,0.000,0.000
486258.785,53.711,36.621,31.250,44.922,117.676,0.000,0.000,0.000
486258.789,125.000,40.039,28.320,101.562,246.094,0.000,0.000,0.000
486258.793,4.883,42.480,28.809,20.508,11.230,0.000,0.000,0.000
486258.797,-92.285,41.016,26.855,-47.363,-204.102,0.000,0.000,0.000
486258.801,4.883,39.551,29.297,9.277,-101.074,0.000,0.000,0.000
486258.805,117.188,40.527,32.715,97.656,109.375,0.000,0.000,0.000
486258.809,42.969,41.016,28.320,38.086,59.082,0.000,0.000,0.000
486258.813,-87.402,41.992,28.809,-60.547,-159.180,0.000,0.000,0.000
486258.817,-35.156,38.086,29.297,-21.484,-174.316,0.000,0.000,0.000
486258.820,90.332,33.691,30.273,79.590,81.543,0.000,0.000,0.000
486258.824,70.801,31.250,30.762,62.500,166.992,0.000,0.000,0.000
486258.828,-71.777,37.109,32.715,-42.969,-64.941,0.000,0.000,0.000
486258.832,-71.777,34.668,30.762,-47.852,-149.414,0.000,0.000,0.000
486258.836,68.359,29.785,28.809,62.500,56.152,0.000,0.000,0.000
486258.840,97.656,31.738,25.391,81.055,160.645,0.000,0.000,0.000
486258.844,-53.223,32.715,23.926,-34.668,-0.977,0.000,0.000,0.000
486258.848,-104.004,29.297,24.902,-71.777,-93.262,0.000,0.000,0.000
486258.852,19.531,28.320,20.508,27.344,80.566,0.000,0.000,0.000
486258.856,99.121,32.227,23.926,93.262,289.551,0.000,0.000,0.000
486258.859,3.418,35.156,29.297,4.395,181.152,0.000,0.000,0.000
486258.863,-92.773,33.691,29.297,-67.383,-32.715,0.000,0.000,0.000
486258.867,3.418,33.203,24.902,9.277,25.391,0.000,0.000,0.000
486258.871,129.395,32.227,24.414,103.027,260.254,0.000,0.000,0.000
486258.875,60.059,32.227,31.250,54.688,239.258,0.000,0.000,0.000
486258.879,-72.266,35.156,30.762,-38.574,-17.090,0.000,0.000,0.000
486258.883,-16.602,32.715,24.414,-8.789,-60.547,0.000,0.000,0.000
486258.887,108.398,29.297,26.367,90.820,174.316,0.000,0.000,0.000
486258.891,98.145,33.203,32.227,80.078,236.328,0.000,0.000,0.000
486258.895,-41.016,45.410,34.668,-25.391,-43.945,0.000,0.000,0.000
486258.899,-44.434,43.945,36.133,-28.809,-250.977,0.000,0.000,0.000
486258.902,84.961,37.598,28.809,72.754,-104.492,0.000,0.000,0.000
486258.906,132.812,45.898,33.691,103.516,86.426,0.000,0.000,0.000
486258.910,9.277,49.805,36.621,9.277,-61.523,0.000,0.000,0.000
486258.914,-59.570,42.969,26.367,-42.969,-195.312,0.000,0.000,0.000
486258.918,60.547,39.551,21.973,41.504,-52.246,0.000,0.000,0.000
486258.922,149.902,37.598,20.020,112.793,91.797,0.000,0.000,0.000
486258.926,42.480,39.551,22.949,40.039,-20.508,0.000,0.000,0.000
486258.930,-67.871,40.527,27.344,-36.621,-248.047,0.000,0.000,0.000
486258.934,17.578,35.156,29.297,14.648,-202.148,0.000,0.000,0.000
486258.938,141.602,38.574,27.832,102.539,67.871,0.000,0.000,0.000
486258.942,94.238,43.945,30.273,68.359,87.402,0.000,0.000,0.000
486258.945,-52.734,37.109,33.691,-37.109,-125.000,0.000,0.000,0.000
486258.949,-32.715,30.273,27.344,-28.320,-103.516,0.000,0.000,0.000
486258.953,108.398,32.227,25.391,79.102,142.090,0.000,0.000,0.000
486258.957,119.629,34.180,25.879,84.473,234.375,0.000,0.000,0.000
486258.961,-30.273,34.668,32.227,-21.484,3.418,0.000,0.000,0.000
486258.965,-57.129,32.227,32.715,-34.668,-142.090,0.000,0.000,0.000
486258.969,78.613,31.250,31.250,76.660,83.496,0.000,0.000,0.000
486258.973,136.719,37.598,36.621,108.398,191.406,0.000,0.000,0.000
486258.977,2.930,37.598,33.691,8.789,-63.965,0.000,0.000,0.000
486258.981,-85.449,32.227,36.133,-48.828,-269.531,0.000,0.000,0.000
486258.984,23.926,31.250,36.621,24.902,-147.949,0.000,0.000,0.000
486258.988,124.023,28.320,28.320,102.051,106.445,0.000,0.000,0.000
486258.992,36.621,31.738,30.273,27.832,34.668,0.000,0.000,0.000
486258.996,-85.449,36.133,32.227,-59.082,-221.680,0.000,0.000,0.000
486259.000,-16.602,32.227,28.809,-1.465,-222.656,0.000,0.000,0.000
486259.004,117.188,36.133,33.203,104.492,69.336,0.000,0.000,0.000
486259.008,80.566,43.457,35.156,75.195,187.500,0.000,0.000,0.000
486259.012,-76.172,38.086,32.227,-39.062,-21.973,0.000,0.000,0.000
486259.016,-57.617,32.715,30.762,-32.227,-115.234,0.000,0.000,0.000
486259.020,83.008,31.738,32.227,81.543,57.129,0.000,0.000,0.000
486259.024,104.004,32.715,33.203,94.238,141.602,0.000,0.000,0.000
486259.027,-36.621,32.715,31.250,-20.020,-24.414,0.000,0.000,0.000
486259.031,-73.242,34.180,31.738,-55.176,-162.598,0.000,0.000,0.000
486259.035,59.082,30.762,29.785,43.945,-10.742,0.000,0.000,0.000
486259.039,125.488,29.297,27.832,95.215,187.500,0.000,0.000,0.000
486259.043,5.859,34.668,29.785,1.465,86.426,0.000,0.000,0.000
486259.047,-86.426,41.504,32.715,-65.430,-78.613,0.000,0.000,0.000
486259.051,17.090,40.527,27.344,0.977,4.395,0.000,0.000,0.000
486259.055,125.488,33.203,21.484,76.660,238.281,0.000,0.000,0.000
486259.059,49.805,32.227,26.367,24.902,203.613,0.000,0.000,0.000
486259.063,-84.473,32.227,29.785,-69.824,-71.777,0.000,0.000,0.000
486259.066,-26.367,34.180,32.227,-29.785,-109.375,0.000,0.000,0.000
486259.070,105.469,35.156,30.762,78.125,132.324,0.000,0.000,0.000
486259.074,82.031,33.203,30.273,54.199,162.109,0.000,0.000,0.000
486259.078,-61.523,36.133,37.598,-44.922,-123.047,0.000,0.000,0.000
486259.082,-54.199,36.133,34.180,-43.945,-219.238,0.000,0.000,0.000
486259.086,87.891,35.645,32.227,55.176,39.551,0.000,0.000,0.000
486259.090,123.047,31.250,36.133,83.496,169.434,0.000,0.000,0.000
486259.094,-20.996,28.320,37.109,-21.973,-27.832,0.000,0.000,0.000
486259.098,-76.660,27.832,31.738,-67.871,-166.992,0.000,0.000,0.000
486259.102,45.410,25.391,26.855,26.367,-44.922,0.000,0.000,0.000
486259.106,118.652,28.320,29.297,95.703,150.391,0.000,0.000,0.000
486259.109,10.742,34.180,35.156,13.672,80.078,0.000,0.000,0.000
486259.113,-87.402,34.668,41.016,-57.617,-166.016,0.000,0.000,0.000
486259.117,3.418,34.180,38.086,8.301,-112.305,0.000,0.000,0.000
486259.121,124.512,32.715,36.621,96.680,156.738,0.000,0.000,0.000
486259.125,61.035,30.273,36.621,50.293,138.184,0.000,0.000,0.000
486259.129,-92.773,27.832,36.133,-55.176,-83.496,0.000,0.000,0.000
486259.133,-48.340,26.855,35.156,-39.062,-121.094,0.000,0.000,0.000
486259.137,90.820,29.785,30.762,62.012,89.355,0.000,0.000,0.000
486259.141,82.520,31.250,31.738,59.082,173.828,0.000,0.000,0.000
486259.145,-71.777,33.691,29.297,-49.805,-55.176,0.000,0.000,0.000
486259.149,-82.031,35.645,31.250,-59.082,-180.176,0.000,0.000,0.000
486259.152,65.918,34.668,33.691,49.805,29.785,0.000,0.000,0.000
486259.156,113.770,36.621,34.180,94.727,180.664,0.000,0.000,0.000
486259.160,-26.855,33.691,35.645,-0.977,37.598,0.000,0.000,0.000
486259.164,-85.938,30.762,31.738,-55.176,-122.070,0.000,0.000,0.000
486259.168,37.109,27.832,26.855,29.785,-19.531,0.000,0.000,0.000
486259.172,119.141,24.902,26.855,94.238,188.477,0.000,0.000,0.000
486259.176,24.902,33.203,32.715,18.066,104.980,0.000,0.000,0.000
486259.180,-88.867,35.645,32.715,-65.430,-158.691,0.000,0.000,0.000
486259.184,-17.090,28.320,29.785,-10.742,-130.371,0.000,0.000,0.000
486259.188,107.422,25.879,34.668,83.496,139.160,0.000,0.000,0.000
486259.191,66.895,33.691,40.527,43.945,151.367,0.000,0.000,0.000
486259.195,-78.613,36.133,39.062,-53.223,-96.680,0.000,0.000,0.000
486259.199,-41.504,38.574,35.156,-32.227,-160.645,0.000,0.000,0.000
486259.203,99.121,36.621,27.344,76.660,38.574,0.000,0.000,0.000
486259.207,92.773,32.715,23.926,76.172,187.012,0.000,0.000,0.000
486259.211,-52.734,37.598,31.250,-30.273,-37.598,0.000,0.000,0.000
486259.215,-78.613,32.715,30.762,-51.758,-224.609,0.000,0.000,0.000
486259.219,50.781,25.391,27.344,37.109,-0.977,0.000,0.000,0.000
486259.223,113.281,30.273,26.855,80.566,195.801,0.000,0.000,0.000
486259.227,-9.766,37.598,32.715,-7.324,37.109,0.000,0.000,0.000
486259.231,-95.215,40.527,33.691,-69.824,-177.246,0.000,0.000,0.000
486259.234,10.254,34.668,24.414,4.395,-65.430,0.000,0.000,0.000
486259.238,113.770,29.297,21.484,85.938,206.055,0.000,0.000,0.000
486259.242,36.621,33.691,25.391,24.414,115.723,0.000,0.000,0.000
486259.246,-90.820,36.621,29.785,-68.359,-63.477,0.000,0.000,0.000
486259.250,-23.926,32.227,25.391,-28.320,45.410,0.000,0.000,0.000
486259.254,108.398,27.832,23.438,73.730,257.324,0.000,0.000,0.000
486259.258,76.660,34.668,34.180,52.734,234.863,0.000,0.000,0.000
486259.262,-61.523,41.992,39.551,-48.828,11.719,0.000,0.000,0.000
486259.266,-43.457,33.691,31.250,-49.805,-38.574,0.000,0.000,0.000
486259.270,96.680,25.879,24.414,54.688,161.621,0.000,0.000,0.000
486259.274,119.141,34.180,28.320,78.613,252.441,0.000,0.000,0.000
486259.277,-32.715,37.598,31.250,-30.762,16.602,0.000,0.000,0.000
486259.281,-79.102,31.250,27.832,-63.477,-163.574,0.000,0.000,0.000
486259.285,56.152,28.809,30.273,36.621,12.695,0.000,0.000,0.000
486259.289,133.789,34.180,37.598,95.215,173.828,0.000,0.000,0.000
486259.293,14.160,35.645,32.715,2.930,-26.367,0.000,0.000,0.000
486259.297,-89.355,30.762,29.785,-71.777,-224.121,0.000,0.000,0.000
486259.301,8.301,26.367,26.367,6.348,-106.934,0.000,0.000,0.000
486259.305,121.094,23.926,23.926,99.609,92.285,0.000,0.000,0.000
486259.309,47.852,26.855,29.297,39.062,48.828,0.000,0.000,0.000
486259.313,-87.402,27.832,30.273,-68.359,-141.113,0.000,0.000,0.000
486259.316,-29.297,28.320,25.391,-30.762,-125.000,0.000,0.000,0.000
486259.320,106.445,29.785,27.832,78.613,77.148,0.000,0.000,0.000
486259.324,83.008,31.250,29.297,47.363,133.301,0.000,0.000,0.000
486259.328,-63.965,36.621,32.715,-60.059,-78.125,0.000,0.000,0.000
486259.332,-62.012,39.551,35.645,-53.223,-208.984,0.000,0.000,0.000
486259.336,81.543,38.574,30.762,50.293,-9.277,0.000,0.000,0.000
486259.340,129.883,39.062,29.297,78.125,207.031,0.000,0.000,0.000
486259.344,-25.879,39.551,26.855,-25.879,44.434,0.000,0.000,0.000
486259.348,-61.523,35.645,20.996,-68.359,-194.824,0.000,0.000,0.000
486259.352,93.262,32.227,18.066,30.762,-8.789,0.000,0.000,0.000
486259.356,127.441,31.250,17.090,99.121,273.438,0.000,0.000,0.000
486259.359,13.184,35.156,23.926,13.184,158.691,0.000,0.000,0.000
486259.363,-73.242,41.992,38.574,-67.871,-81.543,0.000,0.000,0.000
486259.367,-7.324,38.086,32.227,-15.137,-43.457,0.000,0.000,0.000
486259.371,101.074,32.715,22.461,70.801,207.520,0.000,0.000,0.000
486259.375,62.012,37.598,33.203,40.527,185.547,0.000,0.000,0.000
486259.379,-74.219,38.574,34.668,-51.270,-52.734,0.000,0.000,0.000
486259.383,-30.273,33.691,27.344,-41.016,-55.664,0.000,0.000,0.000
486259.387,82.520,34.668,26.367,58.105,123.535,0.000,0.000,0.000
486259.391,90.820,33.203,26.855,60.547,161.133,0.000,0.000,0.000
486259.395,-42.969,33.203,30.273,-43.457,-66.895,0.000,0.000,0.000
486259.399,-87.402,34.668,31.250,-54.688,-198.730,0.000,0.000,0.000
486259.402,59.082,31.250,26.855,49.805,7.324,0.000,0.000,0.000
486259.406,123.047,31.738,23.926,88.867,164.551,0.000,0.000,0.000
486259.410,-19.531,30.762,22.461,-13.672,35.645,0.000,0.000,0.000
486259.414,-98.145,28.320,25.391,-74.707,-125.977,0.000,0.000,0.000
486259.418,28.320,35.156,24.902,12.207,-8.789,0.000,0.000,0.000
486259.422,124.023,35.645,21.973,82.031,193.848,0.000,0.000,0.000
486259.426,31.250,34.668,28.809,12.207,71.289,0.000,0.000,0.000
486259.430,-77.148,40.039,30.273,-69.336,-166.504,0.000,0.000,0.000
486259.434,-2.441,37.109,22.461,-15.625,-69.824,0.000,0.000,0.000
486259.438,117.676,34.668,27.344,86.914,220.703,0.000,0.000,0.000
486259.441,71.777,34.668,32.715,46.875,233.887,0.000,0.000,0.000
486259.445,-68.848,36.133,34.668,-57.129,6.348,0.000,0.000,0.000
486259.449,-43.945,34.668,31.738,-39.551,-85.449,0.000,0.000,0.000
486259.453,80.078,28.320,26.855,62.012,119.629,0.000,0.000,0.000
486259.457,89.355,29.785,27.344,62.988,187.012,0.000,0.000,0.000
486259.461,-54.199,36.133,32.715,-45.410,-63.477,0.000,0.000,0.000
486259.465,-79.102,33.203,36.133,-61.523,-177.246,0.000,0.000,0.000
486259.469,53.223,30.273,37.598,40.039,-25.391,0.000,0.000,0.000
486259.473,109.863,30.762,38.086,83.008,126.465,0.000,0.000,0.000
486259.477,-13.672,35.156,35.645,-9.277,5.371,0.000,0.000,0.000
486259.481,-97.168,35.156,35.645,-64.941,-216.797,0.000,0.000,0.000
486259.484,15.625,36.133,33.691,16.602,-135.254,0.000,0.000,0.000
486259.488,119.141,41.504,30.273,86.426,94.238,0.000,0.000,0.000
486259.492,24.414,39.551,32.715,18.555,30.273,0.000,0.000,0.000
486259.496,-104.980,30.762,37.598,-65.430,-178.223,0.000,0.000,0.000
486259.500,-35.156,27.832,34.668,-23.926,-148.926,0.000,0.000,0.000
486259.504,101.074,31.250,32.715,74.219,112.793,0.000,0.000,0.000
486259.508,75.195,29.785,37.109,54.688,164.551,0.000,0.000,0.000
486259.512,-69.336,28.809,36.133,-43.457,-126.953,0.000,0.000,0.000
486259.516,-54.688,26.855,32.227,-42.969,-217.285,0.000,0.000,0.000
486259.520,82.031,26.367,27.832,51.270,38.574,0.000,0.000,0.000
486259.523,110.840,36.133,31.738,78.613,167.480,0.000,0.000,0.000
486259.527,-38.086,38.086,31.738,-25.391,-12.207,0.000,0.000,0.000
486259.531,-91.797,30.273,23.926,-75.684,-168.457,0.000,0.000,0.000
486259.535,42.969,28.320,25.879,20.996,-13.672,0.000,0.000,0.000
486259.539,118.652,30.273,30.762,79.102,187.500,0.000,0.000,0.000
486259.543,-3.906,33.691,31.738,-9.277,37.109,0.000,0.000,0.000
486259.547,-103.516,30.762,26.855,-84.961,-193.359,0.000,0.000,0.000
486259.551,-9.277,25.879,20.508,-18.555,-93.750,0.000,0.000,0.000
486259.555,112.793,30.273,21.484,78.613,147.949,0.000,0.000,0.000
486259.559,49.805,33.203,23.926,34.180,133.789,0.000,0.000,0.000
486259.563,-90.332,33.203,23.438,-59.570,-103.516,0.000,0.000,0.000
486259.566,-38.574,30.762,24.902,-34.668,-144.531,0.000,0.000,0.000
486259.570,98.633,31.250,26.855,71.289,87.402,0.000,0.000,0.000
486259.574,86.426,33.203,25.879,59.570,179.199,0.000,0.000,0.000
486259.578,-56.152,38.086,30.273,-47.363,-43.457,0.000,0.000,0.000
486259.582,-58.594,40.527,32.227,-45.898,-147.949,0.000,0.000,0.000
486259.586,78.613,32.227,25.879,60.547,74.707,0.000,0.000,0.000
486259.590,110.352,26.855,23.926,94.238,214.355,0.000,0.000,0.000
486259.594,-41.016,29.785,27.344,-8.301,38.574,0.000,0.000,0.000
486259.598,-91.309,31.738,26.855,-57.617,-155.273,0.000,0.000,0.000
486259.602,37.598,29.785,22.461,38.574,-42.969,0.000,0.000,0.000
486259.606,118.164,29.297,23.438,108.398,134.277,0.000,0.000,0.000
486259.609,12.207,28.320,31.250,27.832,17.090,0.000,0.000,0.000
486259.613,-94.238,29.785,33.203,-49.805,-157.227,0.000,0.000,0.000
486259.617,-0.488,32.715,29.785,10.742,-104.980,0.000,0.000,0.000
486259.621,121.582,28.320,25.879,106.934,127.441,0.000,0.000,0.000
486259.625,62.988,27.832,25.879,61.523,123.535,0.000,0.000,0.000
486259.629,-75.684,30.762,27.344,-40.527,-141.113,0.000,0.000,0.000
486259.633,-33.691,30.762,27.832,-20.020,-179.688,0.000,0.000,0.000
486259.637,105.469,34.668,26.855,86.914,49.316,0.000,0.000,0.000
486259.641,97.656,35.645,25.879,89.355,165.527,0.000,0.000,0.000
486259.645,-55.664,34.668,30.762,-23.438,-7.812,0.000,0.000,0.000
486259.648,-69.824,38.086,30.762,-45.898,-150.879,0.000,0.000,0.000
486259.652,55.176,30.762,27.344,56.641,32.227,0.000,0.000,0.000
486259.656,101.562,22.461,27.344,95.215,242.188,0.000,0.000,0.000
486259.660,-15.625,31.738,28.809,7.324,80.078,0.000,0.000,0.000
486259.664,-80.078,34.180,32.715,-40.527,-135.254,0.000,0.000,0.000
486259.668,37.109,27.832,32.715,33.691,-34.668,0.000,0.000,0.000
486259.672,142.090,28.320,34.180,115.723,182.129,0.000,0.000,0.000
486259.676,45.410,33.691,38.574,48.828,147.949,0.000,0.000,0.000
486259.680,-84.961,32.227,32.227,-39.062,-103.027,0.000,0.000,0.000
486259.684,-15.137,24.414,22.949,11.230,-104.980,0.000,0.000,0.000
486259.688,111.328,18.555,20.996,104.492,150.391,0.000,0.000,0.000
486259.691,74.219,23.438,25.879,73.242,201.172,0.000,0.000,0.000
486259.695,-64.941,29.785,28.809,-25.879,6.836,0.000,0.000,0.000
486259.699,-38.574,27.344,25.879,-17.578,-68.848,0.000,0.000,0.000
486259.703,93.262,25.879,27.344,87.891,98.633,0.000,0.000,0.000
486259.707,107.422,27.344,30.273,100.098,190.430,0.000,0.000,0.000
486259.711,-38.086,35.156,35.156,-12.207,-41.504,0.000,0.000,0.000
486259.715,-74.707,31.738,35.645,-49.805,-207.031,0.000,0.000,0.000
486259.719,60.059,24.414,26.855,45.410,-2.930,0.000,0.000,0.000
486259.723,131.348,29.297,20.508,93.750,157.715,0.000,0.000,0.000
486259.727,8.301,35.645,24.414,4.395,-11.719,0.000,0.000,0.000
486259.731,-88.867,39.551,24.414,-64.453,-129.395,0.000,0.000,0.000
486259.734,19.531,36.133,21.484,7.812,2.441,0.000,0.000,0.000
486259.738,133.789,33.203,26.855,103.027,203.613,0.000,0.000,0.000
486259.742,53.711,39.551,27.344,44.922,116.699,0.000,0.000,0.000
486259.746,-77.148,37.598,24.902,-47.852,-115.234,0.000,0.000,0.000
486259.750,-11.719,33.203,27.344,-5.371,-118.652,0.000,0.000,0.000
486259.754,126.953,35.156,26.855,95.215,57.617,0.000,0.000,0.000
486259.758,90.332,33.691,26.367,65.430,93.750,0.000,0.000,0.000
486259.762,-74.219,32.227,24.902,-44.922,-23.926,0.000,0.000,0.000
486259.766,-58.594,34.668,23.438,-35.156,-96.191,0.000,0.000,0.000
486259.770,89.355,35.156,21.484,73.242,24.902,0.000,0.000,0.000
486259.773,111.816,38.086,23.438,90.332,148.926,0.000,0.000,0.000
486259.777,-29.297,41.016,29.785,-10.742,-14.648,0.000,0.000,0.000
486259.781,-81.055,30.762,27.832,-39.062,-186.035,0.000,0.000,0.000
486259.785,47.363,25.879,20.020,53.223,-97.168,0.000,0.000,0.000
486259.789,128.418,31.738,21.484,93.750,135.742,0.000,0.000,0.000
486259.793,15.625,36.133,25.879,8.789,44.922,0.000,0.000,0.000
486259.797,-90.332,34.668,19.531,-56.641,-218.750,0.000,0.000,0.000
486259.801,0.488,33.691,21.973,11.719,-157.227,0.000,0.000,0.000
486259.805,108.398,32.227,27.832,97.168,163.574,0.000,0.000,0.000
486259.809,49.805,38.086,31.738,42.480,211.426,0.000,0.000,0.000
486259.813,-65.430,45.410,32.227,-52.734,-82.031,0.000,0.000,0.000
486259.816,-32.227,37.109,24.902,-18.555,-180.176,0.000,0.000,0.000
486259.820,98.633,31.250,26.855,95.215,64.941,0.000,0.000,0.000
486259.824,86.914,34.668,32.227,80.078,153.809,0.000,0.000,0.000
486259.828,-72.266,39.551,34.180,-25.879,-91.797,0.000,0.000,0.000
486259.832,-60.547,34.180,31.250,-29.297,-206.543,0.000,0.000,0.000
486259.836,81.543,30.762,27.832,73.242,20.020,0.000,0.000,0.000
486259.840,125.977,28.809,28.320,110.352,161.621,0.000,0.000,0.000
486259.844,-10.254,29.785,32.227,10.254,-22.461,0.000,0.000,0.000
486259.848,-65.918,32.715,30.762,-44.434,-150.879,0.000,0.000,0.000
486259.852,63.477,34.668,28.809,50.293,-23.438,0.000,0.000,0.000
486259.855,142.578,38.086,30.273,123.047,153.320,0.000,0.000,0.000
486259.859,45.410,36.621,30.273,38.086,50.293,0.000,0.000,0.000
486259.863,-71.777,41.504,33.691,-43.945,-173.340,0.000,0.000,0.000
486259.867,9.277,42.480,27.832,21.484,-90.332,0.000,0.000,0.000
486259.871,136.230,35.645,27.832,120.605,145.020,0.000,0.000,0.000
486259.875,91.309,34.180,36.133,72.266,125.977,0.000,0.000,0.000
486259.879,-62.500,37.109,33.691,-33.691,-83.984,0.000,0.000,0.000
486259.883,-38.086,30.273,26.855,-10.254,-147.461,2.000,1.000,0.000
486259.887,101.074,23.926,23.926,93.262,52.734,0.000,0.000,0.000
486259.891,100.586,28.809,25.879,84.961,174.805,0.000,0.000,0.000
486259.895,-49.805,32.715,31.738,-14.648,12.207,0.000,0.000,0.000
486259.898,-60.059,34.180,31.250,-28.320,-74.219,0.000,0.000,0.000
486259.902,79.102,34.180,31.738,71.777,114.746,0.000,0.000,0.000
486259.906,119.629,33.691,31.738,109.863,280.762,0.000,0.000,0.000
486259.910,-11.230,34.180,32.227,10.742,128.418,0.000,0.000,0.000
486259.914,-83.984,30.762,27.344,-45.898,-17.578,0.000,0.000,0.000
486259.918,28.320,31.738,24.414,42.480,50.781,0.000,0.000,0.000
486259.922,118.652,31.738,25.879,114.258,209.473,0.000,0.000,0.000
486259.926,35.156,33.691,29.297,39.062,160.156,0.000,0.000,0.000
486259.930,-76.172,38.574,35.645,-37.109,-112.305,0.000,0.000,0.000
486259.934,-10.254,34.668,38.086,14.160,-104.492,0.000,0.000,0.000
486259.938,120.605,34.668,36.133,112.305,220.703,0.000,0.000,0.000
486259.941,80.078,36.621,34.668,82.031,263.184,0.000,0.000,0.000
486259.945,-72.754,40.527,31.738,-25.879,-10.742,0.000,0.000,0.000
486259.949,-50.781,40.527,27.344,-19.531,-70.312,0.000,0.000,0.000
486259.953,89.844,36.133,26.367,88.379,167.480,0.000,0.000,0.000
486259.957,114.258,37.598,30.273,101.074,265.625,0.000,0.000,0.000
486259.961,-24.902,41.992,36.133,-1.465,27.832,0.000,0.000,0.000
486259.965,-64.453,39.062,38.086,-33.203,-211.426,0.000,0.000,0.000
486259.969,55.664,33.691,32.227,57.129,-76.172,0.000,0.000,0.000
486259.973,123.047,39.062,31.250,115.234,103.516,0.000,0.000,0.000
486259.977,8.789,42.480,37.109,27.344,-16.602,0.000,0.000,0.000
486259.980,-86.426,34.180,30.762,-44.922,-194.824,0.000,0.000,0.000
486259.984,9.277,32.227,25.879,30.273,-106.934,0.000,0.000,0.000
486259.988,126.465,32.715,26.855,107.910,112.305,0.000,0.000,0.000
486259.992,49.805,33.691,26.367,40.527,75.195,0.000,0.000,0.000
486259.996,-82.031,35.156,26.855,-52.246,-147.949,0.000,0.000,0.000
486260.000,-14.648,33.203,26.367,-6.836,-114.746,0.000,0.000,0.000
486260.004,118.652,33.691,25.391,101.074,143.555,0.000,0.000,0.000
486260.008,91.797,37.598,33.691,82.520,163.086,0.000,0.000,0.000
486260.012,-65.918,41.504,37.109,-20.996,-69.336,0.000,0.000,0.000
486260.016,-59.082,36.621,25.391,-19.531,-174.316,0.000,0.000,0.000
486260.020,83.008,33.203,28.320,91.309,-9.766,0.000,0.000,0.000
486260.023,118.164,37.109,34.668,117.676,113.281,0.000,0.000,0.000
486260.027,-25.391,35.645,31.250,7.324,-56.152,0.000,0.000,0.000
486260.031,-79.102,31.738,27.832,-34.668,-200.195,0.000,0.000,0.000
486260.035,55.664,28.809,21.973,61.523,-41.504,0.000,0.000,0.000
486260.039,133.789,29.785,23.438,121.094,166.504,0.000,0.000,0.000
486260.043,24.414,36.133,31.738,31.738,35.645,0.000,0.000,0.000
486260.047,-66.895,36.133,34.668,-41.504,-213.867,0.000,0.000,0.000
486260.051,24.902,35.156,31.250,29.297,-126.465,0.000,0.000,0.000
486260.055,134.766,32.715,33.203,122.070,131.348,0.000,0.000,0.000
486260.059,68.848,32.227,35.156,71.777,140.137,0.000,0.000,0.000
486260.063,-75.684,35.156,31.738,-37.109,-98.145,0.000,0.000,0.000
486260.066,-25.391,34.180,31.738,-7.324,-113.770,0.000,0.000,0.000
486260.070,108.887,31.738,26.367,95.215,130.859,0.000,0.000,0.000
486260.074,86.426,26.367,17.578,72.266,197.754,0.000,0.000,0.000
486260.078,-57.129,29.785,22.949,-28.809,23.438,0.000,0.000,0.000
486260.082,-53.223,36.133,23.926,-36.621,-82.031,0.000,0.000,0.000
486260.086,78.613,31.738,21.973,66.406,68.359,0.000,0.000,0.000
486260.090,112.305,30.762,25.879,101.074,242.676,0.000,0.000,0.000
486260.094,-17.090,35.645,28.809,1.953,60.059,0.000,0.000,0.000
486260.098,-75.684,36.133,27.832,-44.922,-199.707,0.000,0.000,0.000
486260.102,41.992,31.250,25.879,35.645,-91.309,0.000,0.000,0.000
486260.105,128.418,32.715,27.344,94.727,169.922,0.000,0.000,0.000
486260.109,23.926,40.527,29.785,20.996,84.473,0.000,0.000,0.000
486260.113,-80.566,40.039,28.320,-56.641,-155.273,0.000,0.000,0.000
486260.117,2.441,31.250,23.438,-1.465,-123.047,0.000,0.000,0.000
486260.121,119.141,32.227,21.973,88.379,117.188,0.000,0.000,0.000
486260.125,71.289,38.574,28.320,58.105,166.992,0.000,0.000,0.000
486260.129,-76.660,39.551,30.273,-33.203,-44.922,0.000,0.000,0.000
486260.133,-45.898,37.109,25.391,-19.043,-59.082,0.000,0.000,0.000
486260.137,91.797,37.598,22.949,85.449,162.109,0.000,0.000,0.000
486260.141,111.816,42.480,26.855,92.773,223.633,0.000,0.000,0.000
486260.145,-39.062,43.457,31.738,-16.602,2.930,0.000,0.000,0.000
486260.148,-71.289,41.016,26.855,-39.551,-113.281,0.000,0.000,0.000
486260.152,70.801,38.086,27.344,64.941,41.016,0.000,0.000,0.000
486260.156,113.770,39.551,33.203,110.840,138.184,0.000,0.000,0.000
486260.160,-22.949,40.527,32.227,6.836,-33.691,0.000,0.000,0.000
486260.164,-98.145,30.762,25.879,-58.594,-232.910,0.000,0.000,0.000
486260.168,12.695,26.367,24.414,32.227,-59.570,0.000,0.000,0.000
486260.172,119.141,28.320,24.414,111.816,211.426,0.000,0.000,0.000
486260.176,39.062,33.691,27.832,45.898,96.191,0.000,0.000,0.000
486260.180,-93.750,35.645,31.250,-45.410,-160.156,0.000,0.000,0.000
486260.184,-24.414,31.738,30.273,1.465,-109.863,0.000,0.000,0.000
486260.187,105.469,30.273,27.832,103.516,210.938,0.000,0.000,0.000
486260.191,73.730,33.691,30.762,70.312,293.945,0.000,0.000,0.000
486260.195,-66.895,36.621,34.668,-29.297,34.668,0.000,0.000,0.000
486260.199,-55.176,35.645,25.391,-24.414,-90.820,0.000,0.000,0.000
486260.203,94.238,35.156,22.461,86.426,57.129,0.000,0.000,0.000
486260.207,114.258,34.668,23.926,109.375,143.066,0.000,0.000,0.000
486260.211,-32.715,30.273,22.461,-11.230,-32.715,0.000,0.000,0.000
486260.215,-68.359,31.738,24.414,-44.922,-184.082,0.000,0.000,0.000
486260.219,46.875,30.273,22.461,49.805,-55.664,0.000,0.000,0.000
486260.223,124.512,32.715,24.902,93.262,130.859,0.000,0.000,0.000
486260.227,10.254,41.504,29.297,14.648,41.992,0.000,0.000,0.000
486260.230,-92.773,37.109,30.762,-49.316,-128.418,0.000,0.000,0.000
486260.234,14.648,31.738,30.762,19.531,-21.973,0.000,0.000,0.000
486260.238,123.535,35.156,29.297,99.121,208.008,0.000,0.000,0.000
486260.242,53.711,37.598,29.785,43.945,158.691,0.000,0.000,0.000
486260.246,-79.590,33.691,26.855,-39.551,-71.777,0.000,0.000,0.000
486260.250,-40.527,29.785,24.902,-2.441,-66.406,0.000,0.000,0.000
486260.254,81.055,24.902,23.438,91.309,178.223,0.000,0.000,0.000
486260.258,67.383,27.344,23.438,67.383,213.379,0.000,0.000,0.000
486260.262,-61.035,34.668,31.738,-27.832,-53.711,0.000,0.000,0.000
486260.266,-53.711,26.367,31.738,-28.320,-115.234,0.000,0.000,0.000
486260.270,82.520,26.367,28.809,65.430,120.605,0.000,0.000,0.000
486260.273,117.676,31.738,30.273,93.750,178.223,0.000,0.000,0.000
486260.277,-22.949,31.250,34.668,-4.883,-52.246,0.000,0.000,0.000
486260.281,-81.055,30.273,33.691,-43.945,-210.449,0.000,0.000,0.000
486260.285,38.086,31.250,22.461,46.387,-27.832,0.000,0.000,0.000
486260.289,133.789,31.738,23.438,106.445,152.832,0.000,0.000,0.000
486260.293,22.949,37.598,28.320,25.391,10.742,0.000,0.000,0.000
486260.297,-98.633,39.551,24.414,-60.059,-208.496,0.000,0.000,0.000
486260.301,-12.695,32.227,18.555,-2.930,-89.355,0.000,0.000,0.000
486260.305,107.910,34.668,21.484,103.027,209.473,0.000,0.000,0.000
486260.309,57.129,36.133,24.902,54.199,146.484,0.000,0.000,0.000
486260.312,-85.449,29.785,22.949,-51.270,-165.527,0.000,0.000,0.000
486260.316,-37.598,27.832,25.391,-25.879,-179.199,0.000,0.000,0.000
486260.320,101.562,26.855,25.391,81.543,58.105,0.000,0.000,0.000
486260.324,90.332,27.832,29.297,84.473,175.293,0.000,0.000,0.000
486260.328,-59.570,34.668,28.809,-33.691,-36.133,0.000,0.000,0.000
486260.332,-71.777,34.668,19.043,-52.246,-191.406,0.000,0.000,0.000
486260.336,73.242,30.762,21.973,59.570,-3.418,0.000,0.000,0.000
486260.340,121.582,30.762,28.320,88.379,151.855,0.000,0.000,0.000
486260.344,-18.555,30.762,25.391,-16.113,-33.691,0.000,0.000,0.000
486260.348,-85.449,27.344,26.855,-62.988,-232.422,0.000,0.000,0.000
486260.352,44.922,24.414,29.297,32.227,-87.402,0.000,0.000,0.000
486260.355,129.883,22.461,28.320,95.703,126.953,0.000,0.000,0.000
486260.359,28.320,23.438,29.297,15.137,92.773,0.000,0.000,0.000
486260.363,-89.355,24.902,32.715,-59.082,-99.121,0.000,0.000,0.000
486260.367,-8.301,24.902,33.691,0.488,-101.074,0.000,0.000,0.000
486260.371,111.328,28.809,29.785,96.680,90.820,0.000,0.000,0.000
486260.375,49.316,32.227,28.320,50.781,122.070,0.000,0.000,0.000
486260.379,-83.984,34.668,31.738,-42.969,-92.285,0.000,0.000,0.000
486260.383,-39.062,33.203,33.691,-13.672,-149.414,0.000,0.000,0.000
486260.387,91.309,28.809,27.832,86.426,65.918,0.000,0.000,0.000
486260.391,89.844,28.320,24.414,83.496,162.598,0.000,0.000,0.000
486260.395,-50.781,32.715,28.809,-23.438,-41.992,0.000,0.000,0.000
486260.398,-74.219,28.809,30.273,-45.410,-158.203,0.000,0.000,0.000
486260.402,58.594,23.926,26.367,53.711,37.598,0.000,0.000,0.000
486260.406,115.234,26.855,25.879,99.609,207.520,0.000,0.000,0.000
486260.410,-2.930,34.180,29.785,11.719,101.562,0.000,0.000,0.000
486260.414,-74.219,38.086,34.668,-45.898,-79.102,0.000,0.000,0.000
486260.418,38.086,34.180,32.715,40.527,19.043,0.000,0.000,0.000
486260.422,120.605,25.879,24.414,119.141,244.629,0.000,0.000,0.000
486260.426,45.410,25.879,29.297,37.109,144.531,0.000,0.000,0.000
486260.430,-73.242,30.762,36.133,-54.199,-84.473,0.000,0.000,0.000
486260.434,-24.414,34.180,32.227,-10.254,-33.203,0.000,0.000,0.000
486260.437,108.887,33.691,26.367,83.008,194.824,0.000,0.000,0.000
486260.441,79.102,36.621,25.391,63.965,192.871,0.000,0.000,0.000
486260.445,-52.246,46.875,32.227,-27.344,-70.801,0.000,0.000,0.000
486260.449,-39.551,43.457,32.715,-24.414,-98.145,0.000,0.000,0.000
486260.453,91.309,33.203,26.855,74.707,148.926,0.000,0.000,0.000
486260.457,110.840,34.668,29.297,93.262,260.254,0.000,0.000,0.000
486260.461,-42.969,38.086,34.668,-9.277,71.289,0.000,0.000,0.000
486260.465,-83.496,36.621,30.762,-44.434,-76.660,0.000,0.000,0.000
486260.469,63.477,41.016,34.668,62.500,64.941,0.000,0.000,0.000
486260.473,143.066,42.969,38.086,117.676,185.547,0.000,0.000,0.000
486260.477,21.484,43.945,36.133,26.855,28.809,0.000,0.000,0.000
486260.480,-83.496,42.969,35.645,-38.086,-205.078,0.000,0.000,0.000
486260.484,2.930,35.645,28.809,26.367,-157.227,0.000,0.000,0.000
486260.488,114.746,35.156,25.391,108.398,90.820,0.000,0.000,0.000
486260.492,50.293,38.086,27.832,43.945,72.754,0.000,0.000,0.000
486260.496,-84.961,41.016,32.227,-47.852,-159.668,0.000,0.000,0.000
486260.500,-36.621,40.039,31.250,-4.883,-187.012,0.000,0.000,0.000
486260.504,98.633,32.227,29.297,92.285,75.195,0.000,0.000,0.000
486260.508,79.590,32.715,31.738,77.637,186.523,0.000,0.000,0.000
486260.512,-59.570,37.598,32.227,-29.297,-38.574,0.000,0.000,0.000
486260.516,-48.828,33.203,33.691,-30.273,-151.855,0.000,0.000,0.000
486260.520,86.914,30.273,32.227,80.566,0.977,0.000,0.000,0.000
486260.523,115.234,34.668,30.762,99.121,128.906,0.000,0.000,0.000
486260.527,-23.438,35.156,35.156,0.488,15.137,0.000,0.000,0.000
486260.531,-78.613,35.156,34.668,-36.621,-145.508,0.000,0.000,0.000
486260.535,41.992,30.762,28.320,55.664,-68.359,0.000,0.000,0.000
486260.539,113.770,28.809,26.855,117.676,177.734,0.000,0.000,0.000
486260.543,2.441,34.180,30.762,30.762,149.902,0.000,0.000,0.000
486260.547,-86.426,37.109,34.180,-29.297,-78.613,0.000,0.000,0.000
486260.551,10.742,31.250,30.273,26.855,-17.090,0.000,0.000,0.000
486260.555,121.582,28.320,29.297,94.727,221.680,0.000,0.000,0.000
486260.559,69.336,33.203,35.156,49.316,192.871,0.000,0.000,0.000
486260.562,-70.312,32.227,37.598,-52.246,-54.688,0.000,0.000,0.000
486260.566,-41.504,25.879,32.715,-29.785,-110.840,0.000,0.000,0.000
486260.570,92.773,25.391,27.832,74.219,131.836,0.000,0.000,0.000
486260.574,83.984,34.180,28.809,70.801,190.430,0.000,0.000,0.000
486260.578,-55.664,40.039,31.738,-30.762,-89.355,0.000,0.000,0.000
486260.582,-54.199,28.809,33.691,-50.293,-219.727,0.000,0.000,0.000
486260.586,74.219,25.879,29.297,45.898,-25.391,0.000,0.000,0.000
486260.590,104.980,32.227,27.832,83.008,148.438,0.000,0.000,0.000
486260.594,-27.344,31.250,31.250,-11.719,-17.578,0.000,0.000,0.000
486260.598,-102.051,29.297,33.691,-61.035,-225.586,0.000,0.000,0.000
486260.602,17.090,28.320,33.691,29.297,-86.914,0.000,0.000,0.000
486260.605,114.258,32.715,26.855,109.375,154.297,0.000,0.000,0.000
486260.609,33.691,40.039,26.367,33.203,90.332,0.000,0.000,0.000
486260.613,-79.102,39.062,30.273,-52.734,-138.184,0.000,0.000,0.000
486260.617,-4.395,35.645,30.273,17.090,-121.582,0.000,0.000,0.000
486260.621,128.418,31.250,30.762,126.465,107.910,0.000,0.000,0.000
486260.625,72.754,32.715,34.180,72.266,137.695,0.000,0.000,0.000
486260.629,-89.355,37.598,35.156,-53.223,-134.277,0.000,0.000,0.000
486260.633,-54.688,34.668,30.273,-33.203,-214.355,0.000,0.000,0.000
486260.637,83.496,27.832,26.855,71.777,36.621,0.000,0.000,0.000
486260.641,75.684,29.297,28.320,70.801,145.508,0.000,0.000,0.000
486260.644,-59.570,34.668,32.227,-33.203,0.488,0.000,0.000,0.000
486260.648,-75.684,36.621,28.809,-53.223,-100.586,0.000,0.000,0.000
486260.652,63.477,34.668,26.367,48.340,78.125,0.000,0.000,0.000
486260.656,126.465,32.715,28.809,93.262,182.617,0.000,0.000,0.000
486260.660,-1.465,40.527,32.227,4.395,-0.977,0.000,0.000,0.000
486260.664,-83.496,39.062,32.227,-50.293,-121.094,0.000,0.000,0.000
486260.668,29.785,34.668,29.297,32.227,-25.391,0.000,0.000,0.000
486260.672,125.488,35.645,23.926,108.887,165.527,0.000,0.000,0.000
486260.676,42.480,39.062,24.414,34.180,118.652,0.000,0.000,0.000
486260.680,-78.613,39.551,24.414,-52.246,-81.543,0.000,0.000,0.000
486260.684,-8.301,29.785,23.926,0.000,-54.688,0.000,0.000,0.000
486260.687,124.023,27.344,24.902,96.191,132.812,0.000,0.000,0.000
486260.691,68.359,29.297,27.344,62.500,165.527,0.000,0.000,0.000
486260.695,-72.754,34.180,29.785,-37.598,-29.297,0.000,0.000,0.000
486260.699,-43.945,36.621,26.855,-22.461,-133.301,0.000,0.000,0.000
486260.703,79.102,36.621,26.367,76.660,103.027,0.000,0.000,0.000
486260.707,102.539,38.574,24.902,94.727,213.379,0.000,0.000,0.000
486260.711,-25.391,45.898,31.738,6.836,-59.082,0.000,0.000,0.000
486260.715,-68.848,46.387,30.762,-44.434,-195.801,0.000,0.000,0.000
486260.719,49.805,35.645,21.484,39.062,-40.527,0.000,0.000,0.000
486260.723,111.328,35.156,22.949,111.328,113.281,0.000,0.000,0.000
486260.727,15.137,42.969,24.414,12.207,-2.441,0.000,0.000,0.000
486260.730,-76.172,42.480,23.438,-63.477,-237.305,0.000,0.000,0.000
486260.734,18.555,41.992,22.461,4.883,-146.973,0.000,0.000,0.000
486260.738,123.535,41.992,22.461,90.332,112.305,0.000,0.000,0.000
486260.742,45.410,40.039,23.926,47.852,157.227,0.000,0.000,0.000
486260.746,-65.918,42.969,23.926,-56.152,-40.039,0.000,0.000,0.000
486260.750,-18.555,40.527,20.996,-35.156,-71.289,0.000,0.000,0.000
486260.754,93.750,38.574,20.508,74.219,102.051,0.000,0.000,0.000
486260.758,61.523,36.133,24.902,65.430,74.707,0.000,0.000,0.000
486260.762,-71.777,42.480,28.809,-39.551,-113.281,0.000,0.000,0.000
486260.766,-65.918,42.969,22.461,-43.945,-184.082,0.000,0.000,0.000
486260.769,61.035,31.250,18.555,65.430,-32.227,0.000,0.000,0.000
486260.773,114.746,33.691,26.367,102.539,86.914,0.000,0.000,0.000
486260.777,-9.766,38.574,31.738,2.930,-86.426,0.000,0.000,0.000
486260.781,-95.215,30.762,27.832,-45.898,-242.188,0.000,0.000,0.000
486260.785,19.043,27.832,23.438,40.039,-114.746,0.000,0.000,0.000
486260.789,104.004,31.250,24.414,99.121,52.734,0.000,0.000,0.000
486260.793,-14.160,28.320,28.809,12.695,-29.297,0.000,0.000,0.000
486260.797,-109.863,26.855,32.715,-64.941,-217.773,0.000,0.000,0.000
486260.801,-16.113,26.855,30.273,0.488,-171.387,0.000,0.000,0.000
486260.805,95.703,28.809,31.738,99.609,80.078,0.000,0.000,0.000
486260.809,38.574,33.203,33.203,56.641,72.266,0.000,0.000,0.000
486260.812,-100.586,31.738,28.809,-41.992,-175.781,0.000,0.000,0.000
486260.816,-57.617,28.320,28.320,-12.207,-230.469,0.000,0.000,0.000
486260.820,68.359,24.902,27.344,88.867,-13.672,0.000,0.000,0.000
486260.824,58.594,27.832,21.484,66.406,69.336,0.000,0.000,0.000
486260.828,-88.379,35.645,25.879,-38.574,-153.809,0.000,0.000,0.000
486260.832,-104.004,35.156,28.809,-44.922,-245.605,0.000,0.000,0.000
486260.836,45.898,30.273,26.855,56.152,-20.020,0.000,0.000,0.000
486260.840,93.262,29.785,30.273,98.145,154.785,0.000,0.000,0.000
486260.844,-44.434,32.227,30.762,-1.465,33.691,0.000,0.000,0.000
486260.848,-106.445,31.250,26.367,-62.988,-134.766,0.000,0.000,0.000
486260.852,28.320,29.785,23.438,25.879,-61.523,0.000,0.000,0.000
486260.855,119.141,27.832,25.391,103.027,164.062,0.000,0.000,0.000
486260.859,7.812,34.668,28.809,28.809,107.422,0.000,0.000,0.000
486260.863,-95.703,40.039,26.367,-52.734,-173.340,0.000,0.000,0.000
486260.867,-20.020,33.691,24.414,-3.906,-167.480,0.000,0.000,0.000
486260.871,91.309,34.668,23.926,93.750,89.844,0.000,0.000,0.000
486260.875,63.965,39.551,26.855,68.359,113.281,0.000,0.000,0.000
486260.879,-63.477,38.574,30.762,-34.668,-126.465,0.000,0.000,0.000
486260.883,-44.922,32.715,26.855,-24.414,-158.691,0.000,0.000,0.000
486260.887,80.078,33.203,22.949,85.449,87.891,0.000,0.000,0.000
486260.891,96.191,41.992,22.949,90.332,164.062,0.000,0.000,0.000
486260.894,-42.480,42.969,24.902,-23.438,-62.500,0.000,0.000,0.000
486260.898,-77.637,40.527,25.391,-50.293,-204.102,0.000,0.000,0.000
486260.902,65.918,36.621,20.996,42.480,-23.926,0.000,0.000,0.000
486260.906,142.090,35.645,25.391,95.703,169.434,0.000,0.000,0.000
486260.910,2.441,39.062,33.691,14.160,5.371,0.000,0.000,0.000
486260.914,-92.285,36.133,30.273,-56.641,-222.168,0.000,0.000,0.000
486260.918,18.555,33.691,28.809,25.879,-87.891,0.000,0.000,0.000
486260.922,125.000,35.156,26.855,114.258,123.047,0.000,0.000,0.000
486260.926,47.852,34.668,25.879,43.457,6.836,0.000,0.000,0.000
486260.930,-78.125,33.203,29.297,-49.316,-137.207,0.000,0.000,0.000
486260.934,-20.020,34.668,31.250,-7.324,-51.270,0.000,0.000,0.000
486260.937,103.516,36.133,24.414,92.285,205.078,0.000,0.000,0.000
486260.941,79.102,31.250,20.996,64.453,208.008,0.000,0.000,0.000
486260.945,-58.105,30.762,25.879,-37.598,-102.539,0.000,0.000,0.000
486260.949,-39.062,32.227,30.762,-34.180,-173.340,0.000,0.000,0.000
486260.953,104.004,28.320,27.832,71.289,-9.277,0.000,0.000,0.000
486260.957,118.164,29.785,22.949,84.961,121.582,0.000,0.000,0.000
486260.961,-29.785,35.645,22.949,-28.320,1.953,0.000,0.000,0.000
486260.965,-72.266,31.250,20.020,-63.477,-129.883,0.000,0.000,0.000
486260.969,59.570,25.879,21.484,36.621,56.641,0.000,0.000,0.000
486260.973,134.277,28.320,25.879,97.656,248.047,0.000,0.000,0.000
486260.976,14.648,32.227,28.809,19.531,107.910,0.000,0.000,0.000
486260.980,-82.031,34.180,30.273,-41.016,-97.168,0.000,0.000,0.000
486260.984,28.320,35.156,31.738,25.879,-87.402,0.000,0.000,0.000
486260.988,130.859,30.762,30.762,102.539,75.195,0.000,0.000,0.000
486260.992,53.711,28.809,31.250,50.781,66.895,0.000,0.000,0.000
486260.996,-67.383,32.227,32.227,-43.945,-126.953,0.000,0.000,0.000
486261.000,-18.555,32.227,30.273,-15.137,-121.094,0.000,0.000,0.000
486261.004,103.516,36.621,29.297,85.938,159.180,0.000,0.000,0.000
486261.008,90.820,34.668,26.855,70.312,228.516,0.000,0.000,0.000
486261.012,-58.105,29.297,24.414,-36.133,-85.449,0.000,0.000,0.000
486261.016,-66.895,25.879,20.996,-40.527,-189.941,0.000,0.000,0.000
486261.019,79.590,23.438,20.996,62.988,60.059,0.000,0.000,0.000
486261.023,127.441,23.926,22.461,93.750,251.953,0.000,0.000,0.000
486261.027,-10.254,28.809,24.414,0.488,75.684,0.000,0.000,0.000
486261.031,-71.777,31.250,25.879,-45.410,-122.559,0.000,0.000,0.000
486261.035,47.852,23.926,25.879,41.504,42.969,0.000,0.000,0.000
486261.039,129.395,23.438,28.809,112.793,256.348,0.000,0.000,0.000
486261.043,29.785,30.273,31.738,36.621,151.855,0.000,0.000,0.000
486261.047,-83.496,33.203,33.691,-49.316,-134.277,0.000,0.000,0.000
486261.051,9.277,31.250,28.809,7.324,-139.160,0.000,0.000,0.000
486261.055,129.883,28.809,25.879,111.328,131.348,0.000,0.000,0.000
486261.059,62.988,28.809,32.715,69.824,177.246,0.000,0.000,0.000
486261.062,-66.895,31.250,34.180,-35.645,-58.594,0.000,0.000,0.000
486261.066,-20.020,28.809,29.297,-0.977,-82.520,0.000,0.000,0.000
486261.070,99.121,23.926,25.879,102.051,169.922,0.000,0.000,0.000
486261.074,92.773,27.344,27.344,87.402,208.496,0.000,0.000,0.000
486261.078,-36.133,37.598,30.762,-18.066,-60.059,0.000,0.000,0.000
486261.082,-44.922,37.598,28.809,-40.039,-188.477,0.000,0.000,0.000
486261.086,76.172,32.715,28.320,66.895,-28.320,0.000,0.000,0.000
486261.090,118.652,34.180,25.391,111.328,131.348,0.000,0.000,0.000
486261.094,-7.812,35.156,24.902,4.395,27.344,0.000,0.000,0.000
486261.098,-71.289,34.668,23.926,-52.734,-117.676,0.000,0.000,0.000
486261.101,56.641,32.715,21.484,36.133,-31.738,0.000,0.000,0.000
486261.105,151.855,30.762,27.832,115.234,205.566,0.000,0.000,0.000
486261.109,44.434,31.250,33.203,44.922,219.238,0.000,0.000,0.000
486261.113,-76.660,37.598,35.645,-32.227,17.578,0.000,0.000,0.000
486261.117,1.465,35.156,31.250,14.160,39.062,0.000,0.000,0.000
486261.121,125.488,22.949,24.902,102.539,236.816,0.000,0.000,0.000
486261.125,84.473,24.902,28.809,66.406,187.500,0.000,0.000,0.000
486261.129,-51.270,34.180,33.203,-37.109,-76.660,0.000,0.000,0.000
486261.133,-23.926,33.691,26.855,-18.066,-144.043,0.000,0.000,0.000
486261.137,112.793,25.879,19.043,83.984,77.637,0.000,0.000,0.000
486261.141,129.883,22.461,21.484,89.355,150.879,0.000,0.000,0.000
486261.144,-25.879,31.738,26.367,-10.254,-65.918,0.000,0.000,0.000
486261.148,-53.223,35.156,30.273,-20.508,-156.738,0.000,0.000,0.000
486261.152,89.844,27.344,27.344,75.684,100.586,0.000,0.000,0.000
486261.156,142.090,34.180,23.926,114.746,327.637,0.000,0.000,0.000
486261.160,20.508,34.180,28.320,29.785,145.508,0.000,0.000,0.000
486261.164,-53.223,26.855,29.785,-32.227,-132.324,0.000,0.000,0.000
486261.168,58.105,29.785,28.320,36.621,-60.059,0.000,0.000,0.000
486261.172,146.484,32.715,29.785,117.676,193.848,0.000,0.000,0.000
486261.176,55.176,34.180,31.738,57.129,143.066,0.000,0.000,0.000
486261.180,-68.848,26.367,31.738,-38.574,-16.113,0.000,0.000,0.000
486261.184,-13.184,20.508,32.227,-4.395,37.598,0.000,0.000,0.000
486261.187,118.652,25.879,31.250,96.191,222.168,0.000,0.000,0.000
486261.191,102.539,36.621,33.203,76.660,225.586,0.000,0.000,0.000
486261.195,-55.176,39.062,33.203,-34.180,56.152,0.000,0.000,0.000
486261.199,-42.969,33.203,28.809,-34.668,18.555,0.000,0.000,0.000
486261.203,98.145,36.133,25.879,73.242,200.195,0.000,0.000,0.000
486261.207,129.883,41.504,23.438,99.121,229.980,0.000,0.000,0.000
486261.211,-7.812,40.527,21.973,-7.324,63.477,0.000,0.000,0.000
486261.215,-66.406,31.738,21.484,-58.594,-4.395,0.000,0.000,0.000
486261.219,66.895,29.785,22.949,39.062,110.840,0.000,0.000,0.000
486261.223,150.391,33.691,21.973,97.168,299.316,0.000,0.000,0.000
486261.226,31.250,35.156,25.391,12.695,189.453,0.000,0.000,0.000
486261.230,-71.777,41.016,25.879,-54.688,3.418,0.000,0.000,0.000
486261.234,20.508,35.645,18.066,6.836,48.340,0.000,0.000,0.000
486261.238,126.465,30.762,20.020,102.539,227.051,0.000,0.000,0.000
486261.242,59.570,41.016,28.320,54.688,190.430,0.000,0.000,0.000
486261.246,-73.730,40.039,31.250,-53.711,-41.992,0.000,0.000,0.000
486261.250,-24.902,29.297,25.879,-20.996,-74.219,0.000,0.000,0.000
486261.254,112.305,28.320,24.902,89.844,153.809,0.000,0.000,0.000
486261.258,97.168,31.250,24.902,71.777,239.746,0.000,0.000,0.000
486261.262,-42.480,32.715,30.273,-33.203,-19.043,0.000,0.000,0.000
486261.266,-37.598,36.133,36.133,-31.738,-95.703,0.000,0.000,0.000
486261.269,91.309,32.227,35.156,70.312,213.379,0.000,0.000,0.000
486261.273,123.535,25.391,34.180,97.168,395.020,0.000,0.000,0.000
486261.277,-14.648,30.762,37.598,0.488,173.828,0.000,0.000,0.000
486261.281,-75.195,32.227,37.598,-43.457,-79.590,0.000,0.000,0.000
486261.285,52.246,24.902,32.227,45.410,59.082,0.000,0.000,0.000
486261.289,138.184,24.902,28.809,103.516,264.648,0.000,0.000,0.000
486261.293,36.133,36.133,29.297,25.391,163.086,0.000,0.000,0.000
486261.297,-76.172,37.109,26.855,-52.734,-63.477,0.000,0.000,0.000
486261.301,6.836,30.273,21.484,2.441,-33.203,0.000,0.000,0.000
486261.305,127.441,29.785,18.555,90.820,239.258,0.000,0.000,0.000
486261.308,65.430,31.738,26.367,38.086,251.953,0.000,0.000,0.000
486261.312,-74.707,36.621,31.738,-64.453,14.160,0.000,0.000,0.000
486261.316,-30.273,34.668,33.203,-31.738,-4.883,0.000,0.000,0.000
486261.320,107.422,29.297,31.250,77.637,202.148,0.000,0.000,0.000
486261.324,101.074,26.367,26.855,69.824,269.531,0.000,0.000,0.000
486261.328,-36.133,28.320,27.344,-37.109,19.531,0.000,0.000,0.000
486261.332,-56.152,27.344,23.438,-57.617,-113.281,0.000,0.000,0.000
486261.336,68.359,23.438,18.066,42.480,142.578,0.000,0.000,0.000
486261.340,128.906,27.344,17.578,89.355,335.449,0.000,0.000,0.000
486261.344,7.324,34.180,22.949,2.930,100.098,0.000,0.000,0.000
486261.348,-77.637,37.109,23.926,-52.734,-134.766,0.000,0.000,0.000
486261.351,41.992,37.109,21.484,20.508,15.625,0.000,0.000,0.000
486261.355,141.602,36.621,20.508,98.633,239.746,0.000,0.000,0.000
486261.359,38.086,41.016,23.438,30.762,122.559,0.000,0.000,0.000
486261.363,-77.637,36.621,24.414,-61.523,-90.332,0.000,0.000,0.000
486261.367,4.395,26.855,18.555,-14.160,-38.086,0.000,0.000,0.000
486261.371,117.188,28.320,18.555,86.426,203.613,0.000,0.000,0.000
486261.375,53.223,28.320,22.461,50.781,196.777,0.000,0.000,0.000
486261.379,-91.309,27.832,26.367,-55.176,-53.223,0.000,0.000,0.000
486261.383,-57.617,28.320,25.391,-26.855,-83.984,0.000,0.000,0.000
486261.387,83.496,28.809,25.391,79.590,135.742,0.000,0.000,0.000
486261.391,99.609,30.273,30.273,71.777,260.254,0.000,0.000,0.000
486261.394,-33.203,24.414,30.762,-33.691,79.590,0.000,0.000,0.000
486261.398,-68.848,20.996,28.320,-53.223,-65.430,0.000,0.000,0.000
486261.402,58.594,20.020,25.391,43.457,98.145,0.000,0.000,0.000
486261.406,120.117,20.020,23.926,87.891,319.336,4.000,1.000,0.000
486261.410,-3.418,24.414,31.738,-0.977,211.426,0.000,0.000,0.000
486261.414,-80.566,23.438,36.133,-51.758,-26.367,0.000,0.000,0.000
486261.418,29.297,21.484,34.180,27.832,27.832,0.000,0.000,0.000
486261.422,122.070,24.414,31.738,99.121,229.004,0.000,0.000,0.000
486261.426,37.598,21.973,30.273,29.785,212.402,0.000,0.000,0.000
486261.430,-80.078,23.438,34.668,-48.340,-45.898,0.000,0.000,0.000
486261.433,-26.855,25.391,32.715,-0.488,-126.953,0.000,0.000,0.000
486261.437,96.680,22.461,27.832,86.426,102.539,0.000,0.000,0.000
486261.441,80.078,22.949,29.297,67.871,185.547,0.000,0.000,0.000
486261.445,-62.012,29.785,27.832,-35.156,37.109,0.000,0.000,0.000
486261.449,-62.988,31.250,25.879,-39.062,-72.754,0.000,0.000,0.000
486261.453,84.961,30.273,28.809,70.801,36.133,0.000,0.000,0.000
486261.457,118.652,29.297,28.809,92.773,161.133,0.000,0.000,0.000
486261.461,-41.992,26.367,34.180,3.418,13.184,0.000,0.000,0.000
486261.465,-94.727,26.367,35.645,-33.203,-167.969,0.000,0.000,0.000
486261.469,23.438,22.461,29.297,38.086,-17.090,0.000,0.000,0.000
486261.473,115.234,25.879,28.320,98.633,231.934,0.000,0.000,0.000
486261.476,17.090,34.180,34.668,23.438,94.727,0.000,0.000,0.000
486261.480,-102.051,31.738,36.621,-46.387,-134.277,0.000,0.000,0.000
486261.484,-14.648,25.391,28.809,15.625,-19.043,0.000,0.000,0.000
486261.488,106.445,32.715,27.344,100.098,196.777,0.000,0.000,0.000
486261.492,54.688,38.086,32.227,52.246,159.180,0.000,0.000,0.000
486261.496,-82.520,33.203,32.715,-41.016,-71.289,0.000,0.000,0.000
486261.500,-27.832,28.320,26.855,-15.625,-77.148,0.000,0.000,0.000
486261.504,119.141,28.809,22.461,75.195,254.883,0.000,0.000,0.000
486261.508,88.867,34.668,25.879,64.453,315.918,0.000,0.000,0.000
486261.512,-64.941,34.668,30.762,-36.133,47.852,0.000,0.000,0.000
486261.516,-77.148,30.273,27.344,-41.992,-2.930,0.000,0.000,0.000
486261.519,56.152,30.762,22.461,63.965,193.359,0.000,0.000,0.000
486261.523,113.281,36.133,31.738,89.844,216.797,0.000,0.000,0.000
486261.527,-22.461,40.039,35.645,-22.461,19.043,0.000,0.000,0.000
486261.531,-99.609,29.785,28.320,-72.266,-58.594,0.000,0.000,0.000
486261.535,29.297,23.438,27.344,21.484,69.336,0.000,0.000,0.000
486261.539,129.395,27.832,29.785,87.402,232.422,0.000,0.000,0.000
486261.543,15.137,28.809,32.715,2.930,146.484,0.000,0.000,0.000
486261.547,-112.305,28.320,32.715,-66.406,-39.062,0.000,0.000,0.000
486261.551,-6.836,31.738,36.133,16.602,-3.906,0.000,0.000,0.000
486261.555,123.535,33.691,39.062,109.863,219.238,0.000,0.000,0.000
486261.558,59.570,30.273,35.156,58.594,218.750,0.000,0.000,0.000
486261.562,-79.590,29.785,34.180,-41.992,-19.043,0.000,0.000,0.000
486261.566,-51.270,27.344,35.156,-18.066,-78.125,0.000,0.000,0.000
486261.570,91.309,27.832,34.668,87.402,100.098,0.000,0.000,0.000
486261.574,103.516,29.785,30.762,74.707,243.164,0.000,0.000,0.000
486261.578,-42.480,36.133,25.879,-23.438,71.289,0.000,0.000,0.000
486261.582,-61.035,38.574,25.391,-32.227,-62.012,0.000,0.000,0.000
486261.586,72.266,40.039,28.320,67.871,109.863,0.000,0.000,0.000
486261.590,115.234,38.574,25.391,100.586,257.812,0.000,0.000,0.000
486261.594,-14.648,34.668,22.949,6.836,104.980,0.000,0.000,0.000
486261.598,-81.055,34.180,28.809,-35.156,-157.227,0.000,0.000,0.000
486261.601,35.645,30.273,29.785,32.715,-65.918,0.000,0.000,0.000
486261.605,127.441,26.855,26.367,90.820,159.180,0.000,0.000,0.000
486261.609,35.156,30.762,27.832,24.902,41.016,0.000,0.000,0.000
486261.613,-88.379,34.180,30.273,-59.082,-164.062,0.000,0.000,0.000
486261.617,-29.785,27.832,24.414,-17.090,-112.305,0.000,0.000,0.000
486261.621,93.262,28.809,24.902,62.988,137.207,0.000,0.000,0.000
486261.625,67.383,30.762,30.762,26.855,144.043,0.000,0.000,0.000
486261.629,-82.520,23.438,28.320,-63.965,-138.184,0.000,0.000,0.000
486261.633,-76.660,21.973,27.832,-50.293,-200.195,0.000,0.000,0.000
486261.637,59.082,22.949,29.785,52.246,96.680,0.000,0.000,0.000
486261.641,78.613,25.391,32.715,62.012,254.395,0.000,0.000,0.000
486261.644,-46.875,37.109,36.621,-30.273,6.348,0.000,0.000,0.000
486261.648,-87.891,33.203,32.227,-49.805,-190.430,0.000,0.000,0.000
486261.652,31.250,20.508,22.949,35.156,-40.527,0.000,0.000,0.000
486261.656,98.145,24.414,23.926,83.008,115.723,0.000,0.000,0.000
486261.660,-11.719,30.273,32.227,-4.395,-13.672,0.000,0.000,0.000
486261.664,-101.562,26.855,33.203,-76.172,-189.453,0.000,0.000,0.000
486261.668,0.977,25.879,29.785,2.441,-101.562,0.000,0.000,0.000
486261.672,119.629,25.391,31.738,82.520,121.094,0.000,0.000,0.000
486261.676,40.527,28.809,32.715,18.066,157.227,0.000,0.000,0.000
486261.680,-102.539,30.273,30.273,-67.871,-57.129,0.000,0.000,0.000
486261.683,-41.504,29.785,30.762,-22.461,-120.117,0.000,0.000,0.000
486261.687,103.516,35.645,29.297,71.289,57.617,0.000,0.000,0.000
486261.691,83.008,36.621,24.902,47.363,109.863,0.000,0.000,0.000
486261.695,-74.707,35.156,25.879,-41.504,-80.566,0.000,0.000,0.000
486261.699,-59.082,32.715,28.320,-31.250,-174.805,0.000,0.000,0.000
486261.703,90.332,29.297,24.414,55.176,36.133,0.000,0.000,0.000
486261.707,112.793,35.156,28.320,68.359,162.109,0.000,0.000,0.000
486261.711,-38.086,37.109,34.668,-23.926,-25.391,0.000,0.000,0.000
486261.715,-89.844,30.273,35.645,-41.016,-161.621,0.000,0.000,0.000
486261.719,42.480,31.250,34.180,49.316,-53.223,0.000,0.000,0.000
486261.723,113.281,33.203,28.809,69.824,130.371,0.000,0.000,0.000
486261.726,11.230,36.133,32.227,-13.184,66.406,0.000,0.000,0.000
486261.730,-85.449,36.133,36.621,-72.266,-148.926,0.000,0.000,0.000
486261.734,-14.648,29.297,35.645,-13.672,-106.445,0.000,0.000,0.000
486261.738,97.656,26.855,30.762,62.988,99.609,0.000,0.000,0.000
486261.742,45.898,34.668,31.250,16.602,132.812,0.000,0.000,0.000
486261.746,-93.262,38.574,31.250,-68.848,-28.320,0.000,0.000,0.000
486261.750,-44.922,32.715,28.809,-40.039,-160.156,0.000,0.000,0.000
486261.754,100.586,31.250,25.879,54.688,52.734,0.000,0.000,0.000
486261.758,96.191,36.133,24.902,42.969,201.172,0.000,0.000,0.000
486261.762,-53.223,33.203,31.250,-52.246,-8.301,0.000,0.000,0.000
486261.765,-80.078,27.832,27.344,-52.246,-132.812,0.000,0.000,0.000
486261.769,46.387,26.367,25.879,44.922,9.277,0.000,0.000,0.000
486261.773,106.934,28.809,29.785,74.707,151.367,0.000,0.000,0.000
486261.777,-17.090,31.250,29.785,-17.090,-15.625,0.000,0.000,0.000
486261.781,-89.355,29.297,30.273,-61.523,-230.957,0.000,0.000,0.000
486261.785,20.996,31.738,26.855,19.531,-125.977,0.000,0.000,0.000
486261.789,119.629,34.180,24.902,76.660,99.609,0.000,0.000,0.000
486261.793,32.227,32.227,28.809,9.766,-6.836,0.000,0.000,0.000
486261.797,-83.008,29.785,25.879,-66.406,-191.406,0.000,0.000,0.000
486261.801,-10.254,26.855,21.484,-22.461,-107.910,0.000,0.000,0.000
486261.805,121.094,28.809,23.926,67.383,118.164,0.000,0.000,0.000
486261.808,64.941,32.715,28.809,27.344,114.746,0.000,0.000,0.000
486261.812,-85.938,32.227,26.855,-68.848,-124.512,0.000,0.000,0.000
486261.816,-52.734,32.715,26.367,-46.875,-141.602,0.000,0.000,0.000
486261.820,78.613,36.621,27.832,52.246,71.777,0.000,0.000,0.000
486261.824,94.727,36.621,25.391,51.270,173.340,0.000,0.000,0.000
486261.828,-50.781,37.598,27.344,-48.340,-18.066,0.000,0.000,0.000
486261.832,-78.613,33.203,26.855,-61.523,-163.574,0.000,0.000,0.000
486261.836,52.246,24.902,26.367,38.574,-10.742,0.000,0.000,0.000
486261.840,113.770,23.926,25.391,76.660,137.695,0.000,0.000,0.000
486261.844,-14.648,27.344,23.438,-16.602,32.227,0.000,0.000,0.000
486261.848,-101.562,29.785,25.391,-71.777,-174.316,0.000,0.000,0.000
486261.851,17.578,26.367,27.344,10.742,-119.629,0.000,0.000,0.000
486261.855,126.465,28.320,30.762,86.426,121.094,0.000,0.000,0.000
486261.859,39.062,36.133,32.715,20.996,53.223,0.000,0.000,0.000
486261.863,-90.332,30.762,29.785,-65.430,-147.461,0.000,0.000,0.000
486261.867,-30.762,27.344,24.902,-34.668,-51.270,0.000,0.000,0.000
486261.871,97.656,29.785,24.414,61.523,135.742,0.000,0.000,0.000
486261.875,68.848,34.180,32.227,39.551,119.629,0.000,0.000,0.000
486261.879,-90.332,34.668,31.738,-63.477,-120.117,0.000,0.000,0.000
486261.883,-67.871,30.273,26.855,-46.387,-250.977,0.000,0.000,0.000
486261.887,76.172,30.273,29.297,54.688,-38.574,0.000,0.000,0.000
486261.890,94.727,31.738,26.855,56.641,110.352,0.000,0.000,0.000
486261.894,-26.367,38.574,30.273,-42.480,-108.398,0.000,0.000,0.000
486261.898,-58.594,39.551,40.039,-58.105,-247.559,0.000,0.000,0.000
486261.902,50.781,33.691,37.109,36.621,-44.922,0.000,0.000,0.000
486261.906,124.512,35.156,31.738,82.031,85.449,0.000,0.000,0.000
486261.910,25.879,41.992,31.738,-0.488,-35.645,0.000,0.000,0.000
486261.914,-77.637,35.645,29.785,-62.012,-160.645,0.000,0.000,0.000
486261.918,9.766,26.367,28.320,4.883,-101.074,0.000,0.000,0.000
486261.922,117.676,30.762,29.297,88.379,67.383,0.000,0.000,0.000
486261.926,52.246,34.668,28.320,35.645,30.762,0.000,0.000,0.000
486261.930,-76.172,31.250,31.250,-52.734,-196.777,0.000,0.000,0.000
486261.933,-30.762,24.414,31.250,-22.949,-179.688,0.000,0.000,0.000
486261.937,90.820,24.902,23.438,64.453,121.094,0.000,0.000,0.000
486261.941,82.031,34.668,26.855,54.199,140.137,0.000,0.000,0.000
486261.945,-53.711,39.062,34.180,-35.645,-165.039,0.000,0.000,0.000
486261.949,-61.035,33.203,29.297,-39.551,-240.723,0.000,0.000,0.000
486261.953,69.824,33.203,28.320,46.875,-45.898,0.000,0.000,0.000
486261.957,94.238,39.062,27.832,66.895,89.355,0.000,0.000,0.000
486261.961,-36.133,39.062,25.879,-30.273,-44.434,0.000,0.000,0.000
486261.965,-82.031,33.691,27.832,-81.543,-196.289,0.000,0.000,0.000
486261.969,24.414,31.738,28.320,13.184,-37.598,0.000,0.000,0.000
486261.973,106.934,34.668,27.344,78.613,205.566,0.000,0.000,0.000
486261.976,16.602,41.504,30.273,1.465,118.164,0.000,0.000,0.000
486261.980,-93.750,39.551,35.645,-68.848,-93.262,0.000,0.000,0.000
486261.984,-5.371,31.738,34.180,-12.207,-45.898,0.000,0.000,0.000
486261.988,119.141,32.227,35.156,81.543,120.117,0.000,0.000,0.000
486261.992,55.664,40.039,41.992,35.156,46.387,0.000,0.000,0.000
486261.996,-87.402,34.668,41.504,-62.988,-121.582,0.000,0.000,0.000
486262.000,-45.898,27.344,33.691,-32.227,-149.414,0.000,0.000,0.000
486262.004,88.379,29.785,33.203,67.871,10.254,0.000,0.000,0.000
486262.008,84.473,29.297,32.227,56.152,103.027,0.000,0.000,0.000
486262.012,-52.734,31.738,29.785,-52.246,-94.727,0.000,0.000,0.000
486262.015,-62.500,30.273,28.320,-59.082,-194.824,0.000,0.000,0.000
486262.019,67.383,29.297,27.832,52.734,8.789,0.000,0.000,0.000
486262.023,114.258,31.738,31.250,94.727,166.504,0.000,0.000,0.000
486262.027,-24.414,37.109,28.809,5.859,-18.066,0.000,0.000,0.000
486262.031,-93.262,38.574,25.391,-43.945,-231.934,0.000,0.000,0.000
486262.035,21.973,32.715,24.902,32.715,-117.676,0.000,0.000,0.000
486262.039,105.957,28.320,17.578,83.008,123.535,0.000,0.000,0.000
486262.043,19.043,33.203,20.020,9.766,79.590,0.000,0.000,0.000
486262.047,-90.332,36.133,26.367,-58.105,-148.438,0.000,0.000,0.000
486262.051,-6.836,31.738,22.461,2.930,-108.887,0.000,0.000,0.000
486262.055,107.910,34.180,21.484,96.191,191.895,0.000,0.000,0.000
486262.058,68.848,35.645,27.344,62.012,191.406,0.000,0.000,0.000
486262.062,-64.941,33.691,29.297,-33.691,-135.742,0.000,0.000,0.000
486262.066,-52.246,31.738,25.879,-21.973,-209.961,0.000,0.000,0.000
486262.070,79.102,28.809,29.297,83.984,-38.086,0.000,0.000,0.000
486262.074,90.332,29.785,35.156,91.797,44.922,0.000,0.000,0.000
486262.078,-54.199,31.738,40.039,-11.230,-96.680,0.000,0.000,0.000
486262.082,-85.449,27.344,39.062,-43.457,-219.238,0.000,0.000,0.000
486262.086,47.852,23.926,37.109,45.898,-53.223,0.000,0.000,0.000
486262.090,117.188,30.273,35.156,97.656,104.004,0.000,0.000,0.000
486262.094,-6.348,32.227,30.273,14.160,2.441,0.000,0.000,0.000
486262.097,-108.887,30.273,26.855,-44.434,-141.602,0.000,0.000,0.000
486262.101,-7.812,35.156,22.949,28.320,-85.938,0.000,0.000,0.000
486262.105,112.793,39.551,25.391,109.375,143.555,0.000,0.000,0.000
486262.109,38.574,39.551,28.320,49.805,143.066,0.000,0.000,0.000
486262.113,-92.773,39.551,30.273,-30.762,-112.793,0.000,0.000,0.000
486262.117,-28.320,36.621,33.691,13.184,-90.820,0.000,0.000,0.000
486262.121,101.074,30.762,31.738,97.656,181.152,0.000,0.000,0.000
486262.125,65.918,28.809,27.832,59.082,184.570,0.000,0.000,0.000
486262.129,-83.984,36.133,29.785,-57.129,-68.359,0.000,0.000,0.000
486262.133,-70.312,38.086,30.273,-45.898,-202.637,0.000,0.000,0.000
486262.137,74.219,31.738,26.367,69.824,-20.020,0.000,0.000,0.000
486262.140,101.074,34.180,28.809,79.590,119.629,0.000,0.000,0.000
486262.144,-41.016,39.062,32.715,-26.367,-64.453,0.000,0.000,0.000
486262.148,-81.055,41.016,32.715,-50.781,-232.422,0.000,0.000,0.000
486262.152,37.598,40.527,29.785,41.504,-97.656,0.000,0.000,0.000
486262.156,105.469,41.504,26.855,89.355,104.492,0.000,0.000,0.000
486262.160,-4.395,44.434,29.297,7.812,0.488,0.000,0.000,0.000
486262.164,-100.586,41.504,29.297,-55.176,-208.984,0.000,0.000,0.000
486262.168,3.906,37.109,27.832,13.184,-114.258,0.000,0.000,0.000
486262.172,107.422,31.738,26.367,83.984,107.422,0.000,0.000,0.000
486262.176,38.086,32.227,24.902,20.508,113.770,0.000,0.000,0.000
486262.180,-82.031,34.668,21.973,-57.129,-66.895,0.000,0.000,0.000
486262.183,-34.180,31.738,23.438,-18.066,-64.941,0.000,0.000,0.000
486262.187,104.004,30.273,26.855,66.895,201.172,0.000,0.000,0.000
486262.191,81.543,29.785,26.855,55.176,265.137,0.000,0.000,0.000
486262.195,-83.008,31.250,32.227,-36.621,36.133,0.000,0.000,0.000
486262.199,-80.566,27.344,29.785,-45.898,-60.059,0.000,0.000,0.000
486262.203,60.059,28.320,22.461,50.293,125.488,0.000,0.000,0.000
486262.207,98.633,32.715,27.344,77.637,178.711,0.000,0.000,0.000
486262.211,-12.695,38.574,36.133,-8.301,-40.527,0.000,0.000,0.000
486262.215,-61.523,38.574,35.156,-54.199,-194.824,0.000,0.000,0.000
486262.219,50.293,29.785,32.227,20.508,-42.969,0.000,0.000,0.000
486262.222,125.000,34.180,31.250,81.543,168.945,0.000,0.000,0.000
486262.226,20.020,40.039,35.156,8.789,64.941,0.000,0.000,0.000
486262.230,-94.238,36.133,39.062,-58.594,-161.621,0.000,0.000,0.000
486262.234,-20.996,27.344,32.715,-1.953,-89.355,0.000,0.000,0.000
486262.238,106.934,24.414,32.227,91.309,149.902,0.000,0.000,0.000
486262.242,65.430,33.691,35.156,58.105,100.098,0.000,0.000,0.000
486262.246,-76.660,38.086,39.551,-48.340,-149.414,0.000,0.000,0.000
486262.250,-41.504,34.180,37.109,-32.715,-132.324,0.000,0.000,0.000
486262.254,94.238,33.203,28.320,74.219,138.672,0.000,0.000,0.000
486262.258,95.703,39.551,26.855,69.824,177.246,0.000,0.000,0.000
486262.262,-42.969,44.922,32.227,-37.598,-81.543,0.000,0.000,0.000
486262.265,-61.523,33.203,29.785,-60.547,-214.355,0.000,0.000,0.000
486262.269,61.523,27.344,25.391,39.551,-25.879,0.000,0.000,0.000
486262.273,114.258,31.738,28.320,84.473,163.086,0.000,0.000,0.000
486262.277,-14.160,32.715,35.645,-11.230,47.852,0.000,0.000,0.000
486262.281,-85.449,31.250,35.156,-68.848,-80.566,0.000,0.000,0.000
486262.285,35.645,35.156,30.273,23.438,32.227,0.000,0.000,0.000
486262.289,126.465,37.598,29.297,99.121,157.227,0.000,0.000,0.000
486262.293,33.203,35.645,29.785,22.949,9.766,0.000,0.000,0.000
486262.297,-83.008,34.668,26.855,-63.965,-201.172,0.000,0.000,0.000
486262.301,1.465,35.156,26.855,-9.766,-125.000,0.000,0.000,0.000
486262.305,125.000,38.086,25.879,91.309,81.055,0.000,0.000,0.000
486262.308,86.914,40.039,21.973,54.688,93.262,0.000,0.000,0.000
486262.312,-51.270,41.992,27.344,-44.922,-76.660,0.000,0.000,0.000
486262.316,-29.297,43.457,29.297,-29.785,-132.324,0.000,0.000,0.000
486262.320,110.352,43.945,25.391,66.895,85.938,0.000,0.000,0.000
486262.324,119.629,46.875,32.715,74.707,201.660,0.000,0.000,0.000
486262.328,-26.855,45.410,34.668,-29.785,49.805,0.000,0.000,0.000
486262.332,-54.688,34.668,24.902,-62.988,-72.754,0.000,0.000,0.000
486262.336,81.055,35.156,27.344,34.668,110.352,0.000,0.000,0.000
486262.340,138.672,37.109,25.879,79.590,303.711,0.000,0.000,0.000
486262.344,13.672,38.574,32.715,-7.324,64.453,0.000,0.000,0.000
486262.347,-73.242,43.945,36.621,-61.035,-183.594,0.000,0.000,0.000
486262.351,23.438,34.668,28.809,10.742,-76.660,0.000,0.000,0.000
486262.355,130.371,24.902,25.391,81.543,128.906,0.000,0.000,0.000
486262.359,59.082,32.715,31.250,22.949,72.754,0.000,0.000,0.000
486262.363,-69.336,37.598,34.668,-54.199,-138.672,0.000,0.000,0.000
486262.367,-14.648,28.320,27.344,-12.695,-142.090,0.000,0.000,0.000
486262.371,117.188,27.832,25.391,81.055,65.918,0.000,0.000,0.000
486262.375,99.609,31.738,25.879,56.152,149.414,0.000,0.000,0.000
486262.379,-38.574,40.039,32.715,-32.227,-33.203,0.000,0.000,0.000
486262.383,-21.484,45.410,28.809,-18.066,-167.480,0.000,0.000,0.000
486262.387,108.398,33.203,20.508,66.895,22.949,0.000,0.000,0.000
486262.390,125.977,29.785,26.367,80.566,146.973,0.000,0.000,0.000
486262.394,-7.812,37.598,34.180,-5.371,-68.848,0.000,0.000,0.000
486262.398,-52.246,37.598,30.762,-36.133,-193.848,0.000,0.000,0.000
486262.402,70.801,34.668,29.297,50.781,-4.395,0.000,0.000,0.000
486262.406,150.391,40.527,32.227,112.793,176.270,0.000,0.000,0.000
486262.410,49.316,45.898,30.273,29.785,4.883,0.000,0.000,0.000
486262.414,-58.105,32.227,23.926,-55.176,-210.449,0.000,0.000,0.000
486262.418,28.809,26.855,23.926,12.207,-68.359,0.000,0.000,0.000
486262.422,139.160,33.203,27.832,98.145,237.793,0.000,0.000,0.000
486262.426,69.824,34.180,28.320,42.969,191.895,0.000,0.000,0.000
486262.430,-59.082,37.109,29.297,-46.875,-108.398,0.000,0.000,0.000
486262.433,-6.348,40.527,28.809,-8.789,-128.906,0.000,0.000,0.000
486262.437,122.070,38.574,23.438,85.938,114.258,0.000,0.000,0.000
486262.441,109.375,39.062,27.344,67.383,143.066,0.000,0.000,0.000
486262.445,-36.621,42.969,29.785,-30.762,-104.492,0.000,0.000,0.000
486262.449,-43.457,36.621,25.879,-34.668,-191.406,0.000,0.000,0.000
486262.453,95.703,29.785,22.461,57.129,-0.977,0.000,0.000,0.000
486262.457,124.512,30.762,20.020,76.660,177.734,0.000,0.000,0.000
486262.461,-9.277,34.180,25.879,-16.113,54.688,0.000,0.000,0.000
486262.465,-69.336,33.691,25.391,-54.199,-127.930,0.000,0.000,0.000
486262.469,45.410,27.832,24.414,31.738,-21.973,0.000,0.000,0.000
486262.472,134.766,27.344,28.809,94.727,161.621,0.000,0.000,0.000
486262.476,34.180,29.785,27.832,24.414,74.219,0.000,0.000,0.000
486262.480,-68.359,32.715,25.879,-42.480,-169.922,0.000,0.000,0.000
486262.484,17.090,33.691,25.391,20.996,-102.539,0.000,0.000,0.000
486262.488,125.488,33.691,25.391,100.586,228.516,0.000,0.000,0.000
486262.492,70.312,39.062,23.438,46.875,268.066,0.000,0.000,0.000
486262.496,-63.965,42.969,24.902,-43.457,10.254,0.000,0.000,0.000
486262.500,-25.879,39.062,21.973,-26.367,-63.965,0.000,0.000,0.000
486262.504,104.004,35.156,18.066,66.895,85.938,0.000,0.000,0.000
486262.508,100.586,31.738,20.508,74.219,126.953,0.000,0.000,0.000
486262.512,-37.598,33.203,25.879,-21.973,-72.266,0.000,0.000,0.000
486262.515,-54.688,34.180,24.902,-40.039,-202.148,0.000,0.000,0.000
486262.519,71.777,30.762,21.484,55.664,7.324,0.000,0.000,0.000
486262.523,123.047,33.203,21.973,92.285,167.969,0.000,0.000,0.000
486262.527,-0.488,39.062,22.461,2.441,-27.344,0.000,0.000,0.000
486262.531,-83.984,37.109,22.461,-50.293,-210.938,0.000,0.000,0.000
486262.535,28.809,28.320,22.461,25.879,-58.105,0.000,0.000,0.000
486262.539,136.230,27.344,22.461,105.957,178.711,0.000,0.000,0.000
486262.543,51.758,31.738,25.391,43.457,124.512,0.000,0.000,0.000
486262.547,-75.195,34.180,24.414,-53.223,-68.848,0.000,0.000,0.000
486262.551,-15.625,25.879,20.508,-14.648,-1.953,0.000,0.000,0.000
486262.554,116.699,25.391,20.508,85.449,231.445,0.000,0.000,0.000
486262.558,77.637,35.645,23.926,56.152,188.965,0.000,0.000,0.000
486262.562,-77.148,32.227,23.926,-51.758,-43.945,0.000,0.000,0.000
486262.566,-57.617,23.926,20.020,-42.480,-91.309,0.000,0.000,0.000
486262.570,86.914,22.461,22.949,62.012,98.633,0.000,0.000,0.000
486262.574,102.539,25.391,25.879,72.754,211.914,0.000,0.000,0.000
486262.578,-41.016,34.180,31.250,-27.344,-2.441,0.000,0.000,0.000
486262.582,-73.730,30.273,33.203,-51.758,-190.430,0.000,0.000,0.000
486262.586,60.059,30.762,31.250,54.199,-38.574,0.000,0.000,0.000
486262.590,118.652,34.180,30.273,107.910,98.145,0.000,0.000,0.000
486262.594,-19.043,23.438,23.926,3.418,-26.855,0.000,0.000,0.000
486262.597,-102.539,23.438,20.020,-71.289,-194.824,0.000,0.000,0.000
486262.601,13.672,24.414,24.414,11.719,-150.391,0.000,0.000,0.000
486262.605,116.211,25.879,25.391,93.750,90.820,0.000,0.000,0.000
486262.609,33.691,29.297,23.926,28.320,75.684,0.000,0.000,0.000
486262.613,-87.402,26.367,28.809,-52.734,-172.852,0.000,0.000,0.000
486262.617,-21.973,27.832,29.785,-10.254,-156.250,0.000,0.000,0.000
486262.621,106.445,27.832,26.855,86.914,94.727,0.000,0.000,0.000
486262.625,85.938,31.250,28.809,65.430,139.648,0.000,0.000,0.000
