timestamps,TP9,AF7,AF8,TP10,Right AUX,Frequency,Contrast,Orientation
486991.469,-11.719,41.992,14.160,5.371,-13.184,0.000,0.000,0.000
486991.473,20.508,36.133,20.020,6.348,24.902,0.000,0.000,0.000
486991.477,70.801,36.621,18.066,26.367,107.422,0.000,0.000,0.000
486991.481,28.809,37.598,12.695,14.648,109.375,0.000,0.000,0.000
486991.485,-32.227,34.668,32.227,-1.953,55.664,0.000,0.000,0.000
486991.489,1.465,35.645,50.293,-0.488,12.207,0.000,0.000,0.000
486991.492,47.363,37.109,50.781,25.879,72.754,0.000,0.000,0.000
486991.496,40.039,40.039,46.387,25.391,121.582,0.000,0.000,0.000
486991.500,-8.789,43.457,40.039,-3.906,28.320,0.000,0.000,0.000
486991.504,-10.742,42.480,27.832,-6.836,-15.137,0.000,0.000,0.000
486991.508,35.156,37.598,24.902,24.414,146.973,0.000,0.000,0.000
486991.512,55.176,35.645,33.203,37.109,190.430,0.000,0.000,0.000
486991.516,15.137,40.527,20.996,8.789,87.402,0.000,0.000,0.000
486991.520,-17.578,40.527,6.836,-8.301,25.879,0.000,0.000,0.000
486991.524,34.180,41.016,16.602,24.902,39.062,0.000,0.000,0.000
486991.528,81.055,41.992,26.855,58.594,105.469,0.000,0.000,0.000
486991.532,29.297,39.551,26.855,29.785,75.195,0.000,0.000,0.000
486991.535,-20.508,39.551,18.066,-2.441,-41.504,0.000,0.000,0.000
486991.539,24.414,33.691,13.184,6.348,-11.230,0.000,0.000,0.000
486991.543,78.125,36.621,32.227,36.133,121.582,0.000,0.000,0.000
486991.547,70.801,44.434,54.688,45.410,138.672,0.000,0.000,0.000
486991.551,-14.648,38.086,51.758,-2.930,40.527,0.000,0.000,0.000
486991.555,-18.066,35.156,41.992,-18.555,-15.137,0.000,0.000,0.000
486991.559,59.082,24.902,34.668,25.391,45.410,0.000,0.000,0.000
486991.563,59.570,31.738,29.785,30.273,96.680,0.000,0.000,0.000
486991.567,-1.465,50.293,30.762,-0.488,132.324,0.000,0.000,0.000
486991.571,-10.254,51.758,32.227,-9.277,124.023,0.000,0.000,0.000
486991.575,46.387,50.293,15.137,25.879,76.660,0.000,0.000,0.000
486991.578,72.266,41.992,8.301,43.457,114.258,0.000,0.000,0.000
486991.582,26.367,41.992,30.762,11.719,81.543,0.000,0.000,0.000
486991.586,-6.348,43.945,43.457,-10.742,-1.953,0.000,0.000,0.000
486991.590,26.367,39.062,36.133,14.160,71.777,0.000,0.000,0.000
486991.594,62.012,41.504,38.086,53.223,193.848,0.000,0.000,0.000
486991.598,27.832,38.086,41.016,30.273,141.602,0.000,0.000,0.000
486991.602,-22.949,39.551,26.367,-6.348,-40.527,0.000,0.000,0.000
486991.606,12.207,42.480,19.531,9.766,-30.273,0.000,0.000,0.000
486991.610,51.758,41.504,26.367,43.457,87.402,0.000,0.000,0.000
486991.614,34.180,45.410,40.039,34.668,112.793,0.000,0.000,0.000
486991.617,-17.578,40.039,43.945,2.930,85.938,0.000,0.000,0.000
486991.621,1.953,42.480,31.250,2.930,18.555,0.000,0.000,0.000
486991.625,58.105,49.805,24.902,31.738,16.113,0.000,0.000,0.000
486991.629,51.758,45.410,29.297,25.879,58.105,0.000,0.000,0.000
486991.633,-9.277,39.551,32.715,-9.766,-15.137,0.000,0.000,0.000
486991.637,-23.438,43.457,34.180,-20.996,-100.586,0.000,0.000,0.000
486991.641,34.668,44.434,29.785,16.113,-34.668,0.000,0.000,0.000
486991.645,75.684,44.434,18.066,40.527,77.637,0.000,0.000,0.000
486991.649,27.832,46.875,19.043,8.301,49.316,0.000,0.000,0.000
486991.653,-30.762,43.945,28.809,-22.461,-53.223,0.000,0.000,0.000
486991.657,2.930,35.645,35.645,-4.395,-30.273,0.000,0.000,0.000
486991.660,52.246,37.109,36.621,27.344,62.500,0.000,0.000,0.000
486991.664,22.949,43.457,34.668,3.418,55.176,0.000,0.000,0.000
486991.668,-39.551,40.527,31.738,-22.461,-32.227,0.000,0.000,0.000
486991.672,-7.324,38.574,26.367,-4.883,-40.527,0.000,0.000,0.000
486991.676,57.129,40.039,24.902,26.367,64.453,0.000,0.000,0.000
486991.680,49.805,46.875,12.207,29.785,73.730,0.000,0.000,0.000
486991.684,-11.719,49.805,4.395,5.371,-34.668,0.000,0.000,0.000
486991.688,-7.812,45.410,14.648,-7.324,-33.691,0.000,0.000,0.000
486991.692,46.875,47.363,33.691,20.020,99.121,0.000,0.000,0.000
486991.696,62.988,43.945,42.969,30.273,170.410,0.000,0.000,0.000
486991.700,5.859,42.969,35.156,1.953,108.887,0.000,0.000,0.000
486991.703,-21.484,48.340,31.250,-15.625,25.391,0.000,0.000,0.000
486991.707,33.691,50.781,32.715,2.441,45.410,0.000,0.000,0.000
486991.711,67.383,50.293,33.691,12.207,92.773,0.000,0.000,0.000
486991.715,24.902,49.805,31.250,0.000,68.359,0.000,0.000,0.000
486991.719,-12.695,49.316,33.691,-19.531,-47.852,0.000,0.000,0.000
486991.723,22.949,41.016,34.668,-1.953,-62.500,0.000,0.000,0.000
486991.727,56.152,33.691,21.973,45.410,97.168,0.000,0.000,0.000
486991.731,20.020,37.109,16.113,30.762,106.445,0.000,0.000,0.000
486991.735,-41.992,36.133,29.785,-1.465,-33.691,0.000,0.000,0.000
486991.739,-12.207,25.879,32.715,-2.930,-57.617,0.000,0.000,0.000
486991.742,62.988,32.715,14.160,28.320,36.621,0.000,0.000,0.000
486991.746,58.594,32.715,7.812,41.504,108.887,0.000,0.000,0.000
486991.750,-19.043,33.203,10.254,24.902,54.199,0.000,0.000,0.000
486991.754,-18.555,56.641,14.160,18.555,-37.598,0.000,0.000,0.000
486991.758,37.598,55.176,35.156,41.504,16.113,0.000,0.000,0.000
486991.762,49.805,43.945,48.828,59.570,106.934,0.000,0.000,0.000
486991.766,-6.348,42.969,47.363,15.625,68.848,0.000,0.000,0.000
486991.770,-36.133,42.480,44.922,-5.371,-41.016,0.000,0.000,0.000
486991.774,15.137,38.086,43.457,39.062,-1.465,0.000,0.000,0.000
486991.778,59.082,37.109,36.133,58.105,100.098,0.000,0.000,0.000
486991.782,25.879,42.969,27.832,36.133,70.801,0.000,0.000,0.000
486991.785,-35.156,41.016,20.996,2.930,-36.621,0.000,0.000,0.000
486991.789,-10.742,42.969,17.090,4.395,-21.973,0.000,0.000,0.000
486991.793,46.387,45.410,26.367,35.645,181.641,0.000,0.000,0.000
486991.797,22.461,42.480,40.527,30.273,244.629,0.000,0.000,0.000
486991.801,-46.875,41.504,34.180,0.977,126.465,0.000,0.000,0.000
486991.805,-19.043,39.062,9.766,-0.977,124.512,0.000,0.000,0.000
486991.809,42.480,36.133,12.695,33.691,212.891,0.000,0.000,0.000
486991.813,32.715,33.203,37.109,44.434,230.469,0.000,0.000,0.000
486991.817,-31.250,35.156,45.898,9.766,135.254,0.000,0.000,0.000
486991.821,-32.227,36.621,41.992,-4.395,25.391,0.000,0.000,0.000
486991.824,30.273,32.227,36.621,20.996,88.379,0.000,0.000,0.000
486991.828,52.734,28.809,33.691,35.645,121.582,0.000,0.000,0.000
486991.832,-1.953,30.273,27.832,6.348,33.203,0.000,0.000,0.000
486991.836,-46.387,32.227,28.320,-16.113,43.945,0.000,0.000,0.000
486991.840,2.930,32.715,25.391,14.160,106.934,0.000,0.000,0.000
486991.844,45.898,34.180,19.531,30.762,64.453,0.000,0.000,0.000
486991.848,11.719,40.039,23.438,15.625,11.719,0.000,0.000,0.000
486991.852,-41.016,35.156,27.344,-6.348,-52.246,0.000,0.000,0.000
486991.856,-15.137,32.715,34.180,-1.465,-82.031,0.000,0.000,0.000
486991.860,49.805,36.133,34.180,34.668,90.820,0.000,0.000,0.000
486991.864,48.828,37.598,15.625,28.320,194.336,0.000,0.000,0.000
486991.867,-16.602,42.480,7.812,-15.625,103.027,0.000,0.000,0.000
486991.871,-18.066,40.527,30.762,-11.230,62.012,0.000,0.000,0.000
486991.875,38.574,36.621,43.945,39.551,53.223,0.000,0.000,0.000
486991.879,51.758,37.109,45.898,41.504,43.945,0.000,0.000,0.000
486991.883,-3.906,34.180,33.691,-2.930,20.508,0.000,0.000,0.000
486991.887,-22.461,32.227,12.695,-14.160,-12.207,0.000,0.000,0.000
486991.891,26.855,37.598,19.043,13.672,24.414,0.000,0.000,0.000
486991.895,67.871,37.598,39.062,34.180,101.074,0.000,0.000,0.000
486991.899,26.367,40.039,48.828,11.230,83.008,0.000,0.000,0.000
486991.903,-18.066,48.340,44.434,-19.043,-11.230,0.000,0.000,0.000
486991.907,25.879,44.434,38.574,11.230,-20.996,0.000,0.000,0.000
486991.910,66.895,35.156,23.438,39.551,60.059,0.000,0.000,0.000
486991.914,36.621,33.203,12.695,22.949,61.523,0.000,0.000,0.000
486991.918,-11.719,40.527,29.785,0.977,-20.508,0.000,0.000,0.000
486991.922,-2.441,40.527,40.527,-3.906,-61.523,0.000,0.000,0.000
486991.926,45.410,39.551,23.926,27.832,24.414,0.000,0.000,0.000
486991.930,52.734,42.969,2.441,42.969,64.453,0.000,0.000,0.000
486991.934,4.395,44.434,10.254,19.043,0.488,0.000,0.000,0.000
486991.938,2.441,43.945,26.367,-0.488,-61.523,0.000,0.000,0.000
486991.942,50.781,39.551,37.109,23.438,30.273,0.000,0.000,0.000
486991.946,65.430,36.621,46.875,26.367,109.863,0.000,0.000,0.000
486991.949,7.324,41.504,45.898,-6.348,-5.859,0.000,0.000,0.000
486991.953,-14.648,44.434,42.969,-17.090,-61.523,0.000,0.000,0.000
486991.957,32.715,42.480,41.016,5.859,16.602,0.000,0.000,0.000
486991.961,69.336,41.504,32.715,30.273,72.266,0.000,0.000,0.000
486991.965,42.969,39.551,20.020,16.602,4.883,0.000,0.000,0.000
486991.969,-5.859,39.062,13.184,-11.230,-91.797,0.000,0.000,0.000
486991.973,16.602,37.109,20.508,5.371,-69.336,0.000,0.000,0.000
486991.977,88.379,40.039,29.297,48.828,17.578,0.000,0.000,0.000
486991.981,71.289,46.387,29.297,41.504,59.570,0.000,0.000,0.000
486991.985,-13.184,40.527,30.273,-2.441,-26.367,0.000,0.000,0.000
486991.989,-2.930,40.039,30.762,-2.930,-77.148,0.000,0.000,0.000
486991.992,62.012,41.992,24.902,31.738,30.762,0.000,0.000,0.000
486991.996,62.012,41.504,30.273,25.879,96.191,0.000,0.000,0.000
486992.000,2.441,45.898,15.625,4.395,16.602,0.000,0.000,0.000
486992.004,2.930,43.945,0.488,8.789,-73.730,0.000,0.000,0.000
486992.008,61.523,41.016,27.344,26.367,-16.602,0.000,0.000,0.000
486992.012,75.684,44.922,49.316,30.273,62.988,0.000,0.000,0.000
486992.016,17.090,44.922,49.805,-0.488,23.438,0.000,0.000,0.000
486992.020,-17.090,37.109,45.898,-21.973,-42.480,0.000,0.000,0.000
486992.024,37.598,34.668,37.598,6.348,-4.395,0.000,0.000,0.000
486992.028,80.078,37.109,31.738,31.738,120.605,0.000,0.000,0.000
486992.032,27.344,39.062,38.086,20.020,133.789,0.000,0.000,0.000
486992.035,-16.113,42.969,33.203,-13.672,13.184,0.000,0.000,0.000
486992.039,31.250,40.039,28.320,-6.836,-25.879,0.000,0.000,0.000
486992.043,64.941,34.180,34.180,17.578,41.504,0.000,0.000,0.000
486992.047,31.738,38.086,34.180,-2.930,14.648,0.000,0.000,0.000
486992.051,-28.320,41.016,29.785,-21.484,-72.266,0.000,0.000,0.000
486992.055,-4.395,43.945,20.508,-7.812,-58.105,0.000,0.000,0.000
486992.059,57.129,41.992,10.742,8.301,59.082,0.000,0.000,0.000
486992.063,62.500,42.480,15.137,10.254,86.426,0.000,0.000,0.000
486992.067,1.465,44.922,30.762,-8.789,-25.879,0.000,0.000,0.000
486992.071,-20.508,35.645,38.086,-24.414,-121.094,0.000,0.000,0.000
486992.074,37.109,33.203,33.691,1.953,-37.109,0.000,0.000,0.000
486992.078,74.219,37.109,26.855,25.879,63.965,0.000,0.000,0.000
486992.082,26.855,40.527,20.508,18.066,8.301,0.000,0.000,0.000
486992.086,-16.113,43.457,27.344,-5.371,-74.707,0.000,0.000,0.000
486992.090,15.625,37.598,31.738,-6.836,-9.277,0.000,0.000,0.000
486992.094,63.477,36.133,24.902,17.090,103.027,0.000,0.000,0.000
486992.098,41.504,42.969,36.133,11.230,25.879,0.000,0.000,0.000
486992.102,-28.320,43.457,49.805,-15.625,-58.594,0.000,0.000,0.000
486992.106,-1.465,33.691,47.852,2.441,-0.977,0.000,0.000,0.000
486992.110,60.059,33.691,30.273,24.902,79.102,0.000,0.000,0.000
486992.114,42.480,39.062,26.367,9.766,66.406,0.000,0.000,0.000
486992.117,-19.043,39.062,37.598,-11.230,-9.766,0.000,0.000,0.000
486992.121,-6.836,39.551,35.645,-9.766,-42.480,0.000,0.000,0.000
486992.125,64.453,36.621,32.227,30.762,25.879,0.000,0.000,0.000
486992.129,66.895,31.250,31.738,42.480,63.965,0.000,0.000,0.000
486992.133,-12.207,31.250,30.762,10.254,-20.508,0.000,0.000,0.000
486992.137,-25.879,38.574,27.832,-8.301,-67.383,0.000,0.000,0.000
486992.141,26.855,35.645,34.180,9.766,22.949,0.000,0.000,0.000
486992.145,43.945,32.715,42.480,22.461,81.543,0.000,0.000,0.000
486992.149,-2.441,36.621,36.621,11.230,6.836,0.000,0.000,0.000
486992.153,-33.691,37.109,29.297,-1.953,-86.426,0.000,0.000,0.000
486992.157,19.043,36.621,18.066,3.418,-55.664,0.000,0.000,0.000
486992.160,65.430,40.039,14.648,27.832,44.922,0.000,0.000,0.000
486992.164,28.320,40.039,35.645,25.391,50.293,0.000,0.000,0.000
486992.168,-26.855,35.645,37.109,-11.230,-29.785,0.000,0.000,0.000
486992.172,0.488,36.133,22.949,-16.602,-65.430,0.000,0.000,0.000
486992.176,61.523,34.668,33.203,17.578,4.395,0.000,0.000,0.000
486992.180,58.105,31.250,44.434,13.184,49.805,0.000,0.000,0.000
486992.184,-15.137,35.156,39.551,-18.555,-20.996,0.000,0.000,0.000
486992.188,-16.113,38.086,33.203,-16.113,-46.387,0.000,0.000,0.000
486992.192,55.664,38.086,32.715,21.484,8.301,0.000,0.000,0.000
486992.196,69.824,44.922,28.320,36.133,52.734,0.000,0.000,0.000
486992.199,0.000,44.922,17.578,-6.348,-19.043,0.000,0.000,0.000
486992.203,-26.855,38.574,21.484,-25.391,-77.148,0.000,0.000,0.000
486992.207,34.180,39.551,37.109,10.254,-35.156,0.000,0.000,0.000
486992.211,70.312,39.551,37.109,24.414,64.941,0.000,0.000,0.000
486992.215,21.484,38.574,33.203,-5.371,50.293,0.000,0.000,0.000
486992.219,-22.461,42.480,34.668,-32.227,-65.430,0.000,0.000,0.000
486992.223,27.344,40.527,29.297,-14.648,-22.949,0.000,0.000,0.000
486992.227,78.613,41.504,22.949,27.344,104.004,0.000,0.000,0.000
486992.231,43.457,40.527,26.367,12.207,66.895,0.000,0.000,0.000
486992.235,-20.020,40.527,37.598,-32.227,-44.434,0.000,0.000,0.000
486992.239,3.906,41.992,44.922,-28.809,-71.289,0.000,0.000,0.000
486992.242,47.363,40.039,42.480,2.441,8.789,0.000,0.000,0.000
486992.246,41.992,42.480,36.133,7.812,17.578,0.000,0.000,0.000
486992.250,-5.371,44.434,35.645,-5.859,-116.211,0.000,0.000,0.000
486992.254,-20.508,32.715,25.879,-1.465,-179.199,0.000,0.000,0.000
486992.258,41.992,31.250,2.930,17.090,-74.219,0.000,0.000,0.000
486992.262,76.660,45.898,-5.371,19.043,34.668,0.000,0.000,0.000
486992.266,0.000,42.969,10.742,-2.441,14.160,0.000,0.000,0.000
486992.270,-40.039,37.109,34.668,-25.391,-21.484,0.000,0.000,0.000
486992.274,22.949,40.039,41.504,-3.418,-27.344,0.000,0.000,0.000
486992.278,71.777,40.527,39.551,26.855,-6.836,0.000,0.000,0.000
486992.281,29.297,43.457,48.828,29.785,-31.250,0.000,0.000,0.000
486992.285,-23.926,41.016,52.246,10.254,-137.695,0.000,0.000,0.000
486992.289,12.695,39.062,45.410,-1.953,-132.812,0.000,0.000,0.000
486992.293,68.359,34.180,36.621,21.484,-52.734,0.000,0.000,0.000
486992.297,41.504,39.551,30.273,9.766,-63.965,0.000,0.000,0.000
486992.301,-16.113,49.316,31.738,-22.461,-126.465,0.000,0.000,0.000
486992.305,9.277,45.898,31.738,-8.789,-162.598,0.000,0.000,0.000
486992.309,58.594,41.016,31.738,27.832,-80.078,0.000,0.000,0.000
486992.313,55.664,38.086,26.855,27.344,-41.016,0.000,0.000,0.000
486992.317,-8.789,40.527,19.531,-7.812,-141.113,0.000,0.000,0.000
486992.321,-15.137,38.086,18.555,-20.020,-193.359,0.000,0.000,0.000
486992.324,48.828,36.133,24.902,9.277,-135.254,0.000,0.000,0.000
486992.328,67.871,41.016,32.227,28.809,-15.625,0.000,0.000,0.000
486992.332,8.789,40.039,25.391,10.254,-30.273,0.000,0.000,0.000
486992.336,-28.809,36.621,15.625,-8.301,-171.875,0.000,0.000,0.000
486992.340,19.531,38.086,19.043,9.766,-89.844,0.000,0.000,0.000
486992.344,64.453,42.969,29.297,38.086,12.207,0.000,0.000,0.000
486992.348,30.762,42.969,32.715,27.832,-9.277,0.000,0.000,0.000
486992.352,-23.926,38.086,37.109,-9.766,-120.605,0.000,0.000,0.000
486992.356,-1.953,33.691,37.598,-3.906,-137.695,0.000,0.000,0.000
486992.360,52.734,35.156,41.504,38.574,-43.945,0.000,0.000,0.000
486992.364,39.062,39.062,54.199,35.645,0.000,0.000,0.000,0.000
486992.367,-20.996,38.086,51.270,4.883,-58.105,0.000,0.000,0.000
486992.371,-3.906,43.457,34.180,-7.812,-138.672,0.000,0.000,0.000
486992.375,57.129,48.828,30.273,15.625,-22.949,0.000,0.000,0.000
486992.379,75.195,45.410,35.156,29.785,77.637,0.000,0.000,0.000
486992.383,11.719,40.039,39.551,1.465,-100.098,0.000,0.000,0.000
486992.387,-15.137,42.480,41.504,-5.859,-208.496,0.000,0.000,0.000
486992.391,49.316,46.387,15.625,33.203,-149.902,0.000,0.000,0.000
486992.395,79.102,44.434,4.395,38.086,-66.406,0.000,0.000,0.000
486992.399,27.344,45.898,24.902,-6.348,-101.562,0.000,0.000,0.000
486992.403,-20.020,42.480,28.809,-28.809,-187.988,0.000,0.000,0.000
486992.406,2.930,34.180,36.133,3.418,-118.164,0.000,0.000,0.000
486992.410,60.059,27.832,47.852,40.039,2.930,0.000,0.000,0.000
486992.414,41.016,29.785,46.875,33.691,17.090,0.000,0.000,0.000
486992.418,-31.250,36.621,42.480,4.883,-31.250,0.000,0.000,0.000
486992.422,-6.348,37.598,38.086,1.465,-72.754,0.000,0.000,0.000
486992.426,62.012,43.945,33.203,28.320,-75.195,0.000,0.000,0.000
486992.430,56.152,46.875,32.227,22.949,-25.879,0.000,0.000,0.000
486992.434,-11.230,39.551,38.086,-4.883,-125.000,0.000,0.000,0.000
486992.438,-2.441,39.062,39.062,-11.230,-191.406,0.000,0.000,0.000
486992.442,56.641,42.969,39.551,30.273,-77.637,0.000,0.000,0.000
486992.446,65.430,45.898,40.039,43.457,-19.043,0.000,0.000,0.000
486992.449,12.695,43.945,19.043,10.254,-62.500,0.000,0.000,0.000
486992.453,-13.672,41.016,10.254,-5.371,-67.871,0.000,0.000,0.000
486992.457,34.180,39.551,28.320,9.766,1.953,0.000,0.000,0.000
486992.461,70.801,35.156,36.621,39.062,33.691,0.000,0.000,0.000
486992.465,25.879,38.574,30.273,18.555,14.160,0.000,0.000,0.000
486992.469,-27.832,41.016,29.297,-3.418,-61.523,0.000,0.000,0.000
486992.473,16.602,35.156,33.203,17.090,-72.754,0.000,0.000,0.000
486992.477,74.707,33.203,31.250,45.410,-33.203,0.000,0.000,0.000
486992.481,49.805,34.668,39.551,27.832,-60.547,0.000,0.000,0.000
486992.485,-21.484,32.715,48.828,-6.836,-162.109,0.000,0.000,0.000
486992.489,-2.930,33.691,41.016,8.301,-170.898,0.000,0.000,0.000
486992.492,55.664,37.109,32.227,35.156,-37.109,0.000,0.000,0.000
486992.496,55.664,35.645,29.297,18.066,-0.977,0.000,0.000,0.000
486992.500,-0.488,41.504,26.367,-6.836,-93.262,0.000,0.000,0.000
486992.504,-5.859,45.898,25.879,-5.371,-177.734,0.000,0.000,0.000
486992.508,48.828,31.250,31.738,28.809,-86.914,0.000,0.000,0.000
486992.512,67.383,27.832,29.785,44.434,12.207,0.000,0.000,0.000
486992.516,10.254,41.504,27.344,4.883,-49.316,0.000,0.000,0.000
486992.520,-29.785,41.016,33.691,-14.160,-147.461,0.000,0.000,0.000
486992.524,14.648,36.133,35.645,12.207,-143.066,0.000,0.000,0.000
486992.528,58.594,39.551,24.902,36.133,-5.371,0.000,0.000,0.000
486992.531,27.344,40.039,21.484,14.160,27.832,0.000,0.000,0.000
486992.535,-24.414,41.504,33.203,-17.090,-116.211,0.000,0.000,0.000
486992.539,10.742,44.922,37.109,0.488,-157.715,0.000,0.000,0.000
486992.543,58.594,44.922,39.062,42.969,-18.555,0.000,0.000,0.000
486992.547,37.598,38.574,41.992,32.227,27.344,0.000,0.000,0.000
486992.551,-15.625,36.133,27.832,1.953,-46.875,0.000,0.000,0.000
486992.555,-1.465,37.598,17.090,18.555,-83.496,0.000,0.000,0.000
486992.559,53.223,36.621,26.367,44.434,-18.555,0.000,0.000,0.000
486992.563,58.594,39.551,33.691,35.645,38.086,0.000,0.000,0.000
486992.567,-2.441,42.480,34.668,1.953,-41.992,0.000,0.000,0.000
486992.571,-19.043,41.504,29.785,-14.648,-107.910,0.000,0.000,0.000
486992.574,33.691,39.551,26.855,12.695,-20.996,0.000,0.000,0.000
486992.578,60.547,40.527,31.250,41.992,67.383,0.000,0.000,0.000
486992.582,13.672,41.016,36.621,18.555,-7.812,0.000,0.000,0.000
486992.586,-25.391,35.156,34.180,-6.348,-141.602,0.000,0.000,0.000
486992.590,23.438,35.156,28.809,16.113,-126.465,0.000,0.000,0.000
486992.594,67.871,38.086,40.527,34.668,-8.301,0.000,0.000,0.000
486992.598,17.090,37.109,44.922,21.973,-9.277,0.000,0.000,0.000
486992.602,-31.250,38.574,33.203,3.906,-100.098,0.000,0.000,0.000
486992.606,12.695,32.227,22.949,16.602,-98.145,0.000,0.000,0.000
486992.610,58.594,31.250,22.949,51.270,-26.855,0.000,0.000,0.000
486992.614,39.062,39.062,28.320,38.086,-2.441,0.000,0.000,0.000
486992.617,-22.461,41.504,31.250,-3.418,-79.102,0.000,0.000,0.000
486992.621,-7.324,41.504,30.273,-0.977,-113.281,0.000,0.000,0.000
486992.625,47.363,37.109,36.133,32.715,-38.086,0.000,0.000,0.000
486992.629,46.875,39.551,28.320,32.227,31.250,0.000,0.000,0.000
486992.633,-4.883,40.527,24.414,1.953,-14.160,0.000,0.000,0.000
486992.637,-25.879,36.133,38.574,-1.953,-48.828,0.000,0.000,0.000
486992.641,20.508,37.598,41.016,35.156,46.875,0.000,0.000,0.000
486992.645,49.316,38.574,37.598,50.781,142.578,0.000,0.000,0.000
486992.649,5.859,37.598,38.086,5.859,68.359,0.000,0.000,0.000
486992.653,-22.949,38.574,44.434,-20.996,-114.746,0.000,0.000,0.000
486992.656,20.508,37.109,42.969,12.695,-118.164,0.000,0.000,0.000
486992.660,52.734,37.109,34.668,20.996,-11.230,0.000,0.000,0.000
486992.664,33.691,39.551,34.668,0.488,6.836,0.000,0.000,0.000
486992.668,-17.578,34.180,31.738,-9.277,-66.406,0.000,0.000,0.000
486992.672,-6.348,30.273,21.484,4.395,-132.324,0.000,0.000,0.000
486992.676,50.293,36.621,10.254,28.320,-38.574,0.000,0.000,0.000
486992.680,51.758,40.039,14.160,31.738,27.832,0.000,0.000,0.000
486992.684,-9.766,37.598,33.203,7.812,-88.867,0.000,0.000,0.000
486992.688,-15.137,39.062,32.715,0.977,-154.297,0.000,0.000,0.000
486992.692,46.875,46.387,20.996,33.203,-92.285,0.000,0.000,0.000
486992.696,64.941,46.387,21.973,33.691,-16.113,0.000,0.000,0.000
486992.699,-0.977,43.457,27.344,3.418,-26.855,0.000,0.000,0.000
486992.703,-36.133,41.016,29.785,2.930,-32.715,0.000,0.000,0.000
486992.707,7.812,38.574,30.762,26.367,-1.465,0.000,0.000,0.000
486992.711,48.828,36.621,32.227,39.062,7.812,0.000,0.000,0.000
486992.715,14.648,37.109,32.715,17.578,-31.250,0.000,0.000,0.000
486992.719,-32.227,37.109,32.227,-11.230,-131.836,0.000,0.000,0.000
486992.723,5.371,31.738,33.691,3.906,-112.793,0.000,0.000,0.000
486992.727,61.523,35.645,33.691,23.438,54.199,0.000,0.000,0.000
486992.731,41.016,46.875,35.156,10.254,93.750,0.000,0.000,0.000
486992.735,-13.184,48.340,34.668,-6.348,-19.043,0.000,0.000,0.000
486992.738,5.371,44.922,34.180,2.930,-125.000,0.000,0.000,0.000
486992.742,62.500,40.527,33.691,49.805,-57.129,0.000,0.000,0.000
486992.746,62.500,46.875,18.066,52.246,32.715,0.000,0.000,0.000
486992.750,-1.465,50.293,5.859,10.742,-44.434,0.000,0.000,0.000
486992.754,-3.418,47.363,16.113,14.160,-57.129,0.000,0.000,0.000
486992.758,44.922,48.340,23.926,34.180,-2.441,0.000,0.000,0.000
486992.762,44.922,45.410,32.227,34.180,50.293,0.000,0.000,0.000
486992.766,-13.184,43.945,40.527,17.090,85.449,0.000,0.000,0.000
486992.770,-36.621,41.016,39.062,-7.324,-19.531,0.000,0.000,0.000
486992.774,19.531,36.621,39.062,5.371,-53.711,0.000,0.000,0.000
486992.778,62.012,28.809,43.457,29.297,21.973,0.000,0.000,0.000
486992.781,24.902,30.762,42.480,17.090,-24.902,0.000,0.000,0.000
486992.785,-30.762,40.527,38.574,-4.883,-123.047,0.000,0.000,0.000
486992.789,-3.418,37.598,36.621,11.719,-86.426,0.000,0.000,0.000
486992.793,52.734,38.574,29.297,41.016,24.902,0.000,0.000,0.000
486992.797,40.527,44.434,23.926,26.855,41.992,0.000,0.000,0.000
486992.801,-13.184,44.922,27.832,5.371,-73.242,0.000,0.000,0.000
486992.805,0.488,46.875,31.738,9.766,-106.445,0.000,0.000,0.000
486992.809,49.316,46.875,30.762,32.715,-34.180,0.000,0.000,0.000
486992.813,44.434,39.062,23.926,25.879,35.645,0.000,0.000,0.000
486992.817,-19.043,39.551,31.250,-3.906,4.883,0.000,0.000,0.000
486992.821,-27.832,44.434,41.016,-0.977,-97.168,0.000,0.000,0.000
486992.824,39.062,43.457,35.156,22.949,-20.020,0.000,0.000,0.000
486992.828,69.824,41.016,27.344,39.551,78.125,0.000,0.000,0.000
486992.832,-2.930,39.062,30.273,8.789,-8.301,0.000,0.000,0.000
486992.836,-41.504,36.621,29.297,-18.555,-95.703,0.000,0.000,0.000
486992.840,18.066,36.133,31.250,15.625,-37.109,0.000,0.000,0.000
486992.844,56.152,34.180,39.062,42.480,73.730,0.000,0.000,0.000
486992.848,24.414,35.645,37.109,27.832,26.855,0.000,0.000,0.000
486992.852,-22.461,41.992,38.574,-5.371,-101.074,0.000,0.000,0.000
486992.856,3.906,39.551,34.668,-1.465,-130.859,0.000,0.000,0.000
486992.860,54.199,37.598,28.320,36.621,-18.555,0.000,0.000,0.000
486992.863,46.875,43.457,24.414,40.527,43.457,0.000,0.000,0.000
486992.867,-5.371,46.387,24.902,4.395,-71.777,0.000,0.000,0.000
486992.871,6.836,43.457,33.203,-2.441,-80.078,0.000,0.000,0.000
486992.875,50.781,42.480,32.227,35.156,-4.883,0.000,0.000,0.000
486992.879,59.082,40.527,39.062,37.598,-20.996,0.000,0.000,0.000
486992.883,2.930,36.133,44.434,16.602,-64.453,0.000,0.000,0.000
486992.887,-33.691,35.645,44.434,17.578,-83.984,0.000,0.000,0.000
486992.891,13.184,35.156,48.828,41.016,-20.508,0.000,0.000,0.000
486992.895,49.805,39.551,46.875,41.016,70.801,0.000,0.000,0.000
486992.899,15.625,40.527,38.574,12.207,8.789,0.000,0.000,0.000
486992.903,-22.461,33.691,29.785,-8.301,-12.695,0.000,0.000,0.000
486992.906,12.695,37.109,26.367,4.883,12.695,0.000,0.000,0.000
486992.910,53.223,41.504,31.738,45.898,55.176,0.000,0.000,0.000
486992.914,19.531,41.504,20.996,25.879,20.508,0.000,0.000,0.000
486992.918,-33.691,41.016,12.207,-12.695,-66.406,0.000,0.000,0.000
486992.922,-11.719,38.086,22.461,-1.953,-28.809,0.000,0.000,0.000
486992.926,53.223,37.598,24.902,26.855,-1.953,0.000,0.000,0.000
486992.930,54.688,44.434,33.691,28.320,26.855,0.000,0.000,0.000
486992.934,-16.602,44.434,42.969,0.977,-39.551,0.000,0.000,0.000
486992.938,-16.113,38.574,41.992,-4.395,-116.211,0.000,0.000,0.000
486992.942,37.598,35.645,40.527,20.996,-17.090,2.000,1.000,45.000
486992.946,46.387,34.180,42.480,31.250,45.410,0.000,0.000,0.000
486992.949,-5.859,35.645,40.527,-10.742,-49.805,0.000,0.000,0.000
486992.953,-18.555,35.156,37.109,-28.320,-143.555,0.000,0.000,0.000
486992.957,36.133,34.668,36.133,2.441,-133.789,0.000,0.000,0.000
486992.961,72.754,36.133,26.367,25.879,-73.242,0.000,0.000,0.000
486992.965,33.203,39.551,23.926,-4.883,-141.113,0.000,0.000,0.000
486992.969,-1.953,41.504,26.367,-15.625,-255.859,0.000,0.000,0.000
486992.973,50.293,39.062,4.883,5.371,-225.098,0.000,0.000,0.000
486992.977,83.008,36.621,-2.930,13.672,-125.000,0.000,0.000,0.000
486992.981,33.203,38.574,24.414,-3.906,-133.789,0.000,0.000,0.000
486992.985,-30.273,41.992,41.992,-30.273,-236.328,0.000,0.000,0.000
486992.988,1.953,41.992,42.969,-24.902,-248.047,0.000,0.000,0.000
486992.992,61.523,42.480,42.969,6.348,-187.988,0.000,0.000,0.000
486992.996,54.199,43.457,40.039,12.207,-157.227,0.000,0.000,0.000
486993.000,-0.977,40.527,34.180,-20.508,-236.328,0.000,0.000,0.000
486993.004,-7.324,41.016,35.645,-24.414,-312.012,0.000,0.000,0.000
486993.008,42.969,41.992,33.691,9.277,-205.078,0.000,0.000,0.000
486993.012,76.172,41.016,23.926,25.391,-117.676,0.000,0.000,0.000
486993.016,25.879,43.945,28.809,-2.930,-256.836,0.000,0.000,0.000
486993.020,-14.648,42.480,33.203,-21.973,-396.484,0.000,0.000,0.000
486993.024,37.109,42.480,28.809,1.953,-266.113,0.000,0.000,0.000
486993.028,81.543,47.363,24.902,27.344,-142.578,0.000,0.000,0.000
486993.031,35.645,47.363,31.738,14.648,-226.074,0.000,0.000,0.000
486993.035,-20.996,40.039,37.109,-9.766,-254.883,0.000,0.000,0.000
486993.039,16.602,40.039,26.367,-11.719,-177.246,0.000,0.000,0.000
486993.043,62.500,48.340,13.184,26.855,-43.457,0.000,0.000,0.000
486993.047,38.086,45.410,12.207,25.391,-33.691,0.000,0.000,0.000
486993.051,-25.879,41.504,27.344,-19.043,-137.207,0.000,0.000,0.000
486993.055,-8.301,43.945,40.039,-18.066,-130.371,0.000,0.000,0.000
486993.059,53.223,42.480,46.387,21.484,-68.848,0.000,0.000,0.000
486993.063,51.758,42.969,43.457,29.297,-90.332,0.000,0.000,0.000
486993.067,-13.184,44.922,34.180,-4.883,-153.809,0.000,0.000,0.000
486993.071,-25.391,47.363,32.227,-7.324,-149.414,0.000,0.000,0.000
486993.074,32.227,44.922,28.320,26.367,-63.965,0.000,0.000,0.000
486993.078,60.547,40.527,21.973,44.434,4.395,0.000,0.000,0.000
486993.082,5.859,41.504,22.949,20.508,-86.426,0.000,0.000,0.000
486993.086,-35.156,45.410,23.438,8.301,-180.176,0.000,0.000,0.000
486993.090,21.484,44.434,27.832,39.062,-141.602,0.000,0.000,0.000
486993.094,59.082,38.086,30.273,61.035,-40.039,0.000,0.000,0.000
486993.098,15.137,33.691,29.297,42.969,-27.832,0.000,0.000,0.000
486993.102,-11.719,29.785,34.180,24.902,-102.539,0.000,0.000,0.000
486993.106,14.648,36.133,36.133,31.738,-147.461,0.000,0.000,0.000
486993.110,41.504,40.039,30.762,39.062,-38.574,0.000,0.000,0.000
486993.113,44.434,39.551,26.855,39.062,34.668,0.000,0.000,0.000
486993.117,-6.836,38.574,25.879,16.113,-57.129,0.000,0.000,0.000
486993.121,-9.766,39.551,28.320,-1.465,-80.566,0.000,0.000,0.000
486993.125,45.898,43.457,25.879,26.855,100.098,0.000,0.000,0.000
486993.129,50.781,41.504,20.508,44.434,192.383,0.000,0.000,0.000
486993.133,-14.160,41.016,30.273,15.137,105.469,0.000,0.000,0.000
486993.137,-34.180,41.504,33.691,3.418,-15.625,0.000,0.000,0.000
486993.141,36.621,40.039,27.832,38.574,-34.180,0.000,0.000,0.000
486993.145,66.895,36.621,24.902,50.293,45.898,0.000,0.000,0.000
486993.149,6.836,38.574,26.855,11.230,-12.695,0.000,0.000,0.000
486993.153,-42.480,42.969,32.227,-18.066,-108.398,0.000,0.000,0.000
486993.156,-12.207,38.086,26.367,13.184,1.953,0.000,0.000,0.000
486993.160,45.410,34.180,22.949,48.340,125.977,0.000,0.000,0.000
486993.164,17.578,37.109,29.297,36.621,94.727,0.000,0.000,0.000
486993.168,-41.504,37.109,30.762,5.859,-17.578,0.000,0.000,0.000
486993.172,-7.812,30.762,29.785,9.766,-0.488,0.000,0.000,0.000
486993.176,48.828,36.621,37.109,47.363,67.871,0.000,0.000,0.000
486993.180,39.551,48.828,44.434,41.016,54.199,0.000,0.000,0.000
486993.184,-29.785,42.480,36.133,7.812,-28.320,0.000,0.000,0.000
486993.188,-34.180,30.273,27.344,1.465,-80.078,0.000,0.000,0.000
486993.192,23.438,35.156,30.762,36.133,68.359,0.000,0.000,0.000
486993.195,45.410,41.016,23.438,52.734,138.672,0.000,0.000,0.000
486993.199,-8.789,38.086,23.438,18.066,33.203,0.000,0.000,0.000
486993.203,-41.504,37.598,40.527,9.277,-39.062,0.000,0.000,0.000
486993.207,22.461,38.086,47.852,38.086,-13.672,0.000,0.000,0.000
486993.211,63.965,36.621,44.922,57.129,57.617,0.000,0.000,0.000
486993.215,18.066,37.598,38.086,29.785,3.418,0.000,0.000,0.000
486993.219,-33.203,40.527,37.598,8.301,-76.660,0.000,0.000,0.000
486993.223,14.648,39.062,39.551,27.832,-74.219,0.000,0.000,0.000
486993.227,60.547,33.203,37.109,55.176,34.180,0.000,0.000,0.000
486993.231,20.508,34.668,35.156,42.969,50.293,0.000,0.000,0.000
486993.235,-25.879,37.109,33.691,5.859,-45.410,0.000,0.000,0.000
486993.238,-2.441,34.180,33.691,11.230,-47.852,0.000,0.000,0.000
486993.242,43.457,32.227,33.203,44.434,83.496,0.000,0.000,0.000
486993.246,41.016,38.574,27.344,41.016,187.988,0.000,0.000,0.000
486993.250,-19.043,41.992,23.438,2.441,56.152,0.000,0.000,0.000
486993.254,-24.902,37.109,23.438,-3.906,-41.016,0.000,0.000,0.000
486993.258,37.109,44.434,29.297,24.414,117.188,0.000,0.000,0.000
486993.262,57.617,51.758,45.898,36.621,235.352,0.000,0.000,0.000
486993.266,-2.930,47.852,43.457,4.883,118.652,0.000,0.000,0.000
486993.270,-24.902,40.527,37.109,-1.465,-53.711,0.000,0.000,0.000
486993.274,25.391,31.738,36.133,28.320,-41.504,0.000,0.000,0.000
486993.278,41.992,33.691,31.250,41.016,141.602,0.000,0.000,0.000
486993.281,0.000,39.551,39.062,9.277,170.898,0.000,0.000,0.000
486993.285,-45.410,39.551,40.527,-27.832,43.945,0.000,0.000,0.000
486993.289,-6.348,40.527,25.879,-0.977,65.918,0.000,0.000,0.000
486993.293,54.199,41.992,16.602,31.250,170.410,0.000,0.000,0.000
486993.297,35.156,43.457,35.156,13.184,169.922,0.000,0.000,0.000
486993.301,-24.414,43.945,51.270,-11.719,46.387,0.000,0.000,0.000
486993.305,-11.230,46.875,44.434,-6.348,-51.758,0.000,0.000,0.000
486993.309,43.945,45.410,37.109,18.555,67.871,0.000,0.000,0.000
486993.313,50.781,39.551,35.645,30.762,114.746,0.000,0.000,0.000
486993.317,-8.789,38.086,35.156,8.301,-46.387,0.000,0.000,0.000
486993.320,-20.996,40.039,35.645,-3.906,-77.637,0.000,0.000,0.000
486993.324,39.551,41.992,32.715,34.668,32.715,0.000,0.000,0.000
486993.328,70.801,44.434,32.715,54.688,83.496,0.000,0.000,0.000
486993.332,24.902,45.410,34.180,17.578,-23.438,0.000,0.000,0.000
486993.336,-12.207,44.434,24.902,-2.441,-96.191,0.000,0.000,0.000
486993.340,33.691,44.922,25.391,21.973,-15.625,0.000,0.000,0.000
486993.344,76.660,43.457,27.832,51.270,89.355,0.000,0.000,0.000
486993.348,40.527,40.039,22.461,30.273,47.363,0.000,0.000,0.000
486993.352,-9.766,37.109,29.785,14.648,-62.500,0.000,0.000,0.000
486993.356,13.672,34.668,36.133,44.434,-57.129,0.000,0.000,0.000
486993.360,62.988,36.621,40.527,58.594,51.270,0.000,0.000,0.000
486993.363,60.547,38.574,41.016,48.828,85.938,0.000,0.000,0.000
486993.367,0.000,36.621,34.180,8.789,-17.090,0.000,0.000,0.000
486993.371,-9.277,37.109,38.086,-9.277,-60.547,0.000,0.000,0.000
486993.375,34.668,37.109,39.062,35.156,10.742,0.000,0.000,0.000
486993.379,58.105,38.574,23.438,46.875,50.293,0.000,0.000,0.000
486993.383,-1.953,38.086,17.578,2.930,1.465,0.000,0.000,0.000
486993.387,-25.391,34.180,17.578,-0.977,-42.969,0.000,0.000,0.000
486993.391,35.156,34.180,23.438,35.156,13.184,0.000,0.000,0.000
486993.395,65.430,38.086,38.574,39.551,114.746,0.000,0.000,0.000
486993.399,22.461,45.898,46.387,6.348,84.473,0.000,0.000,0.000
486993.403,-19.531,42.480,47.852,-7.812,-9.277,0.000,0.000,0.000
486993.406,12.695,32.227,40.039,26.367,8.301,0.000,0.000,0.000
486993.410,60.547,36.621,32.227,53.223,121.094,0.000,0.000,0.000
486993.414,33.203,40.039,29.297,31.250,132.812,0.000,0.000,0.000
486993.418,-27.832,37.598,20.508,-1.465,32.715,0.000,0.000,0.000
486993.422,-3.906,43.457,17.090,17.090,76.172,0.000,0.000,0.000
486993.426,50.293,43.945,21.484,47.852,182.617,0.000,0.000,0.000
486993.430,51.758,42.969,22.949,27.344,143.555,0.000,0.000,0.000
486993.434,-14.160,40.039,20.020,2.930,11.230,0.000,0.000,0.000
486993.438,-21.484,34.180,14.648,6.836,9.277,0.000,0.000,0.000
486993.442,42.480,38.086,18.555,29.297,133.301,0.000,0.000,0.000
486993.445,66.895,40.039,30.762,44.922,190.918,0.000,0.000,0.000
486993.449,9.277,41.992,36.133,14.160,111.816,0.000,0.000,0.000
486993.453,-17.090,43.457,32.227,-7.812,16.113,0.000,0.000,0.000
486993.457,28.809,37.598,25.879,46.875,43.457,0.000,0.000,0.000
486993.461,55.664,36.133,21.973,64.453,146.484,0.000,0.000,0.000
486993.465,15.137,38.086,25.879,2.441,96.191,0.000,0.000,0.000
486993.469,-29.297,36.621,27.832,-22.949,-19.531,0.000,0.000,0.000
486993.473,14.648,38.086,18.555,20.996,43.945,0.000,0.000,0.000
486993.477,65.430,39.551,9.766,72.754,185.547,0.000,0.000,0.000
486993.481,36.621,37.598,20.020,52.246,179.688,0.000,0.000,0.000
486993.485,-16.113,36.621,34.180,7.324,52.246,0.000,0.000,0.000
486993.488,-2.441,34.668,38.086,15.625,48.828,0.000,0.000,0.000
486993.492,44.922,36.621,37.109,65.918,146.973,0.000,0.000,0.000
486993.496,41.504,37.109,35.156,70.801,186.035,0.000,0.000,0.000
486993.500,-23.438,35.156,35.645,18.066,129.883,0.000,0.000,0.000
486993.504,-19.531,36.133,34.668,3.906,96.191,0.000,0.000,0.000
486993.508,42.969,36.133,38.574,49.805,148.926,0.000,0.000,0.000
486993.512,56.152,35.156,39.062,69.824,170.898,0.000,0.000,0.000
486993.516,3.418,39.551,32.227,33.691,94.727,0.000,0.000,0.000
486993.520,-21.484,41.504,27.344,1.465,75.684,0.000,0.000,0.000
486993.524,39.062,41.992,31.738,33.691,170.898,0.000,0.000,0.000
486993.528,75.195,42.969,31.250,69.336,200.195,0.000,0.000,0.000
486993.531,24.414,41.504,21.973,28.809,168.457,0.000,0.000,0.000
486993.535,-31.738,40.039,29.297,-4.883,112.305,0.000,0.000,0.000
486993.539,0.488,39.062,43.945,15.137,132.812,0.000,0.000,0.000
486993.543,48.828,40.039,38.086,49.805,234.375,0.000,0.000,0.000
486993.547,22.461,39.551,31.250,36.621,221.191,0.000,0.000,0.000
486993.551,-38.574,34.668,31.250,-7.324,103.516,0.000,0.000,0.000
486993.555,-26.855,31.250,25.391,0.488,62.500,0.000,0.000,0.000
486993.559,30.762,33.203,24.902,45.410,170.898,0.000,0.000,0.000
486993.563,31.250,35.645,23.926,39.062,308.594,0.000,0.000,0.000
486993.567,-24.414,38.574,17.090,11.230,233.398,0.000,0.000,0.000
486993.570,-25.879,40.039,17.578,-5.859,95.215,0.000,0.000,0.000
486993.574,18.555,38.574,28.320,17.578,118.652,0.000,0.000,0.000
486993.578,39.551,37.598,35.645,49.805,192.383,0.000,0.000,0.000
486993.582,-6.836,36.133,46.875,21.973,156.250,0.000,0.000,0.000
486993.586,-38.086,35.156,50.781,-6.348,101.562,0.000,0.000,0.000
486993.590,12.695,33.691,43.945,10.742,153.320,0.000,0.000,0.000
486993.594,62.012,33.691,36.621,41.504,288.574,0.000,0.000,0.000
486993.598,35.645,39.551,33.203,26.367,286.621,0.000,0.000,0.000
486993.602,-23.926,43.945,34.668,-6.348,145.020,0.000,0.000,0.000
486993.606,8.789,40.527,24.414,-1.465,71.777,0.000,0.000,0.000
486993.610,61.523,38.086,21.973,47.852,177.246,0.000,0.000,0.000
486993.613,41.016,41.504,32.715,53.711,189.941,0.000,0.000,0.000
486993.617,-15.625,41.504,31.250,1.465,40.039,0.000,0.000,0.000
486993.621,-8.789,40.039,27.344,4.395,6.836,0.000,0.000,0.000
486993.625,51.758,41.504,28.809,47.363,137.695,0.000,0.000,0.000
486993.629,56.641,41.504,17.578,53.223,241.211,0.000,0.000,0.000
486993.633,-13.184,43.457,13.184,22.949,182.129,0.000,0.000,0.000
486993.637,-27.832,39.551,27.832,18.066,128.418,0.000,0.000,0.000
486993.641,36.621,37.598,47.852,52.734,164.551,0.000,0.000,0.000
486993.645,67.383,39.551,53.223,54.199,189.453,0.000,0.000,0.000
486993.649,6.348,38.086,41.504,2.930,151.367,0.000,0.000,0.000
486993.653,-47.363,33.691,31.738,-23.438,66.406,0.000,0.000,0.000
486993.656,-9.277,34.180,33.203,10.742,110.840,0.000,0.000,0.000
486993.660,40.039,37.598,34.668,41.992,192.383,0.000,0.000,0.000
486993.664,24.414,38.086,30.762,13.184,111.816,0.000,0.000,0.000
486993.668,-27.832,36.133,23.926,-6.348,-7.324,0.000,0.000,0.000
486993.672,-10.742,38.086,15.137,-1.465,-3.906,0.000,0.000,0.000
486993.676,73.730,41.504,14.648,28.809,94.238,0.000,0.000,0.000
486993.680,59.082,43.457,26.855,34.668,162.109,0.000,0.000,0.000
486993.684,-43.457,44.922,36.133,-5.371,95.215,0.000,0.000,0.000
486993.688,-33.691,42.480,39.062,-9.277,19.531,0.000,0.000,0.000
486993.692,41.992,36.621,38.574,20.996,100.098,0.000,0.000,0.000
486993.695,56.641,32.227,37.598,32.227,215.332,0.000,0.000,0.000
486993.699,-10.742,34.668,30.762,-1.953,176.270,0.000,0.000,0.000
486993.703,-33.691,40.527,14.648,-11.719,84.961,0.000,0.000,0.000
486993.707,17.090,41.992,16.113,22.461,127.930,0.000,0.000,0.000
486993.711,47.852,42.969,28.320,41.992,235.840,0.000,0.000,0.000
486993.715,6.348,41.992,37.109,15.625,218.750,0.000,0.000,0.000
486993.719,-26.367,38.574,33.691,-10.254,72.754,0.000,0.000,0.000
486993.723,13.184,36.621,12.207,17.578,-16.113,0.000,0.000,0.000
486993.727,48.828,35.156,19.043,34.668,74.707,0.000,0.000,0.000
486993.731,25.879,37.598,39.062,11.230,129.395,0.000,0.000,0.000
486993.735,-32.227,40.527,47.852,-11.719,-43.457,0.000,0.000,0.000
486993.738,-11.230,35.645,49.316,-12.207,-90.820,0.000,0.000,0.000
486993.742,48.828,33.691,41.504,19.043,99.121,0.000,0.000,0.000
486993.746,43.945,36.621,33.691,29.297,201.660,0.000,0.000,0.000
486993.750,-16.113,39.551,28.320,-7.812,126.465,0.000,0.000,0.000
486993.754,-8.789,42.969,26.367,-22.461,62.012,0.000,0.000,0.000
486993.758,52.734,41.992,22.461,10.742,162.109,0.000,0.000,0.000
486993.762,56.641,42.969,3.906,26.855,192.383,0.000,0.000,0.000
486993.766,-5.859,40.039,4.395,2.441,61.035,0.000,0.000,0.000
486993.770,-36.621,30.762,20.020,-15.625,-31.738,0.000,0.000,0.000
486993.774,13.184,34.668,25.879,7.324,30.762,0.000,0.000,0.000
486993.777,59.082,40.039,33.203,38.574,118.164,0.000,0.000,0.000
486993.781,24.902,37.109,26.855,5.371,78.125,0.000,0.000,0.000
486993.785,-20.996,36.621,21.973,-0.488,6.836,0.000,0.000,0.000
486993.789,7.324,35.645,32.227,16.113,20.996,0.000,0.000,0.000
486993.793,55.176,37.598,27.344,18.066,145.020,0.000,0.000,0.000
486993.797,37.109,36.621,14.160,17.578,119.629,0.000,0.000,0.000
486993.801,-26.855,34.668,29.785,-18.066,-16.113,0.000,0.000,0.000
486993.805,-15.137,32.715,46.875,-12.207,-60.547,0.000,0.000,0.000
486993.809,43.457,34.180,43.945,29.297,4.395,0.000,0.000,0.000
486993.813,55.664,35.645,33.691,41.016,93.262,0.000,0.000,0.000
486993.817,-8.789,41.016,24.414,2.441,65.430,0.000,0.000,0.000
486993.820,-20.508,45.898,27.832,-8.301,1.465,0.000,0.000,0.000
486993.824,44.434,43.945,35.645,28.320,63.477,0.000,0.000,0.000
486993.828,64.453,40.039,41.504,38.574,148.438,0.000,0.000,0.000
486993.832,3.418,42.480,41.016,8.789,88.379,0.000,0.000,0.000
486993.836,-21.973,48.828,20.020,-0.977,-3.418,0.000,0.000,0.000
486993.840,27.832,47.852,14.160,14.648,48.340,0.000,0.000,0.000
486993.844,77.637,46.387,21.973,38.086,165.527,0.000,0.000,0.000
486993.848,49.316,44.922,8.789,26.367,125.488,0.000,0.000,0.000
486993.852,-15.137,41.504,17.090,-6.836,-0.977,0.000,0.000,0.000
486993.856,7.812,44.434,48.828,10.254,-0.488,0.000,0.000,0.000
486993.860,63.477,44.434,58.105,41.016,120.605,0.000,0.000,0.000
486993.863,44.922,38.574,53.223,37.598,157.227,0.000,0.000,0.000
486993.867,-28.320,38.086,47.363,2.441,43.945,0.000,0.000,0.000
486993.871,-21.484,35.645,43.457,-6.348,-19.531,0.000,0.000,0.000
486993.875,41.016,32.715,51.758,45.898,119.141,0.000,0.000,0.000
486993.879,51.270,34.668,36.133,72.754,250.000,0.000,0.000,0.000
486993.883,-9.766,36.621,12.207,9.766,159.180,0.000,0.000,0.000
486993.887,-19.043,39.062,31.738,-25.391,71.289,0.000,0.000,0.000
486993.891,34.668,41.504,51.270,14.160,147.461,0.000,0.000,0.000
486993.895,63.477,42.969,51.758,37.598,183.594,0.000,0.000,0.000
486993.899,15.625,44.922,46.875,7.812,74.707,0.000,0.000,0.000
486993.902,-27.344,47.363,40.527,-8.301,-45.410,0.000,0.000,0.000
486993.906,26.367,50.293,32.227,16.602,-9.766,0.000,0.000,0.000
486993.910,73.730,49.805,22.949,43.945,169.434,0.000,0.000,0.000
486993.914,37.598,46.387,16.113,38.086,234.375,0.000,0.000,0.000
486993.918,-26.367,43.945,-6.348,5.371,139.160,0.000,0.000,0.000
486993.922,6.836,41.504,-4.395,-3.906,73.242,0.000,0.000,0.000
486993.926,60.059,39.551,41.016,33.691,118.164,0.000,0.000,0.000
486993.930,29.785,36.133,62.988,30.273,134.766,0.000,0.000,0.000
486993.934,-26.855,36.621,57.129,-11.230,-10.254,0.000,0.000,0.000
486993.938,-20.020,38.086,44.434,-15.625,-92.773,0.000,0.000,0.000
486993.942,41.504,35.645,29.297,25.879,30.762,0.000,0.000,0.000
486993.945,61.035,30.273,22.949,43.945,133.789,0.000,0.000,0.000
486993.949,-0.977,33.203,22.461,20.020,70.312,0.000,0.000,0.000
486993.953,-21.973,36.133,28.320,4.395,-11.719,0.000,0.000,0.000
486993.957,35.156,34.668,41.016,30.762,60.059,0.000,0.000,0.000
486993.961,62.988,33.691,47.852,61.035,211.914,0.000,0.000,0.000
486993.965,22.461,31.250,50.293,24.902,144.531,0.000,0.000,0.000
486993.969,-20.996,33.203,41.992,-9.277,29.297,0.000,0.000,0.000
486993.973,12.695,40.039,31.738,0.977,63.477,0.000,0.000,0.000
486993.977,61.035,43.457,22.949,24.414,88.379,0.000,0.000,0.000
486993.981,29.785,43.945,15.625,17.090,63.965,0.000,0.000,0.000
486993.985,-25.879,41.992,14.648,-15.137,-39.551,0.000,0.000,0.000
486993.988,-0.488,41.504,23.438,4.395,-72.754,0.000,0.000,0.000
486993.992,55.176,41.504,26.855,36.133,57.129,0.000,0.000,0.000
486993.996,44.434,42.480,29.297,16.602,110.840,0.000,0.000,0.000
486994.000,-21.973,42.480,40.039,-23.438,53.711,0.000,0.000,0.000
486994.004,-20.996,39.062,38.574,-25.879,-25.391,0.000,0.000,0.000
486994.008,34.668,33.691,29.297,7.812,-3.418,0.000,0.000,0.000
486994.012,39.062,32.227,30.762,21.973,157.227,0.000,0.000,0.000
486994.016,-13.672,32.715,39.062,-0.488,153.320,0.000,0.000,0.000
486994.020,-30.273,32.715,41.992,-2.441,13.184,0.000,0.000,0.000
486994.024,23.438,34.180,40.527,35.645,-29.297,0.000,0.000,0.000
486994.027,65.918,38.086,30.762,63.965,62.500,0.000,0.000,0.000
486994.031,27.832,38.086,23.926,32.227,83.008,0.000,0.000,0.000
486994.035,-29.297,36.133,31.738,0.977,-45.410,0.000,0.000,0.000
486994.039,4.883,34.668,40.039,29.297,-64.941,0.000,0.000,0.000
486994.043,63.477,36.133,41.992,59.082,74.219,0.000,0.000,0.000
486994.047,34.668,38.086,45.898,40.039,65.430,0.000,0.000,0.000
486994.051,-34.668,34.668,45.410,-4.883,-50.781,0.000,0.000,0.000
486994.055,-14.648,32.227,43.457,-16.113,-58.105,0.000,0.000,0.000
486994.059,44.922,40.039,42.480,22.949,44.922,0.000,0.000,0.000
486994.063,50.293,46.387,45.898,32.715,144.043,0.000,0.000,0.000
486994.067,-5.371,42.969,45.410,4.395,53.223,0.000,0.000,0.000
486994.070,-11.719,33.691,20.996,-12.207,-73.242,0.000,0.000,0.000
486994.074,44.922,27.832,7.324,24.902,39.551,0.000,0.000,0.000
486994.078,51.270,27.832,27.344,41.504,196.289,0.000,0.000,0.000
486994.082,-12.207,32.227,36.621,-2.930,167.480,0.000,0.000,0.000
486994.086,-43.457,32.715,34.180,-25.879,57.617,0.000,0.000,0.000
486994.090,15.137,30.762,28.809,20.508,52.246,0.000,0.000,0.000
486994.094,60.547,29.297,6.836,51.758,83.984,0.000,0.000,0.000
486994.098,12.695,29.297,7.812,5.859,68.359,0.000,0.000,0.000
486994.102,-45.898,34.668,34.668,-24.414,20.508,0.000,0.000,0.000
486994.106,-9.277,39.062,44.922,-4.395,15.137,0.000,0.000,0.000
486994.110,44.434,38.086,38.574,33.203,86.426,0.000,0.000,0.000
486994.113,34.668,36.621,38.086,29.785,77.148,0.000,0.000,0.000
486994.117,-23.926,35.156,36.133,-13.184,-47.852,0.000,0.000,0.000
486994.121,-31.250,31.738,30.273,-17.090,-37.109,0.000,0.000,0.000
486994.125,28.320,30.762,30.762,29.297,65.918,0.000,0.000,0.000
486994.129,43.457,30.273,28.809,43.457,91.797,0.000,0.000,0.000
486994.133,-10.254,33.203,29.785,4.395,19.043,0.000,0.000,0.000
486994.137,-17.090,33.691,38.574,-13.672,-51.270,0.000,0.000,0.000
486994.141,33.203,29.297,39.062,19.531,-4.883,0.000,0.000,0.000
486994.145,64.941,37.109,18.555,53.711,76.660,0.000,0.000,0.000
486994.149,20.020,42.480,0.488,26.367,66.406,0.000,0.000,0.000
486994.152,-24.902,35.645,11.719,-12.207,-24.902,0.000,0.000,0.000
486994.156,32.715,36.133,33.203,14.160,5.371,0.000,0.000,0.000
486994.160,70.801,41.016,40.527,42.969,89.355,0.000,0.000,0.000
486994.164,23.438,41.504,41.504,13.672,70.312,0.000,0.000,0.000
486994.168,-29.785,37.598,32.715,-20.020,33.691,0.000,0.000,0.000
486994.172,-3.418,37.598,20.508,-0.488,39.062,0.000,0.000,0.000
486994.176,55.176,41.992,20.508,31.738,169.434,0.000,0.000,0.000
486994.180,53.223,39.551,27.344,31.250,203.125,0.000,0.000,0.000
486994.184,-12.207,38.574,30.273,1.953,20.508,0.000,0.000,0.000
486994.188,-10.254,41.504,28.809,2.441,-15.625,0.000,0.000,0.000
486994.192,57.617,45.410,27.832,31.738,124.023,0.000,0.000,0.000
486994.195,82.520,44.434,22.461,38.086,185.547,0.000,0.000,0.000
486994.199,14.648,41.016,19.531,12.695,122.559,0.000,0.000,0.000
486994.203,-32.715,36.133,25.879,-7.324,44.434,0.000,0.000,0.000
486994.207,13.184,33.203,31.250,20.508,85.938,0.000,0.000,0.000
486994.211,51.270,32.715,22.949,57.129,133.789,0.000,0.000,0.000
486994.215,13.184,35.645,15.625,41.016,63.477,0.000,0.000,0.000
486994.219,-17.578,41.016,24.414,-2.930,-36.621,0.000,0.000,0.000
486994.223,22.461,38.086,37.109,-4.883,-45.898,0.000,0.000,0.000
486994.227,53.711,38.574,46.875,26.855,25.391,0.000,0.000,0.000
486994.231,28.320,42.480,45.898,9.766,2.930,0.000,0.000,0.000
486994.234,-25.391,39.062,36.621,-29.785,-145.508,0.000,0.000,0.000
486994.238,2.441,36.133,31.250,-22.949,-174.316,0.000,0.000,0.000
486994.242,59.082,40.039,25.879,14.160,-33.203,0.000,0.000,0.000
486994.246,50.781,45.410,22.461,26.367,-1.465,0.000,0.000,0.000
486994.250,-13.672,46.875,19.531,-7.812,-103.516,0.000,0.000,0.000
486994.254,-15.625,43.945,25.391,-11.719,-163.574,0.000,0.000,0.000
486994.258,48.828,40.039,41.504,25.391,-9.766,0.000,0.000,0.000
486994.262,63.477,39.062,44.922,37.109,89.355,0.000,0.000,0.000
486994.266,4.395,42.969,40.527,2.930,-57.129,0.000,0.000,0.000
486994.270,-27.344,44.434,28.320,-28.320,-147.461,0.000,0.000,0.000
486994.274,20.020,41.504,19.043,-4.395,-98.633,0.000,0.000,0.000
486994.277,63.477,45.410,21.484,28.809,-35.156,0.000,0.000,0.000
486994.281,27.344,47.852,12.695,11.719,-49.316,0.000,0.000,0.000
486994.285,-10.742,42.480,17.578,-14.160,-123.047,0.000,0.000,0.000
486994.289,24.414,42.969,49.316,15.137,-133.301,0.000,0.000,0.000
486994.293,70.312,40.527,56.641,49.316,8.301,0.000,0.000,0.000
486994.297,59.570,36.621,49.316,24.414,22.949,0.000,0.000,0.000
486994.301,-11.719,35.645,44.434,-0.488,-131.836,0.000,0.000,0.000
486994.305,-6.348,34.668,29.785,11.230,-144.531,0.000,0.000,0.000
486994.309,50.781,41.504,21.973,32.227,-93.262,0.000,0.000,0.000
486994.313,54.688,48.828,25.391,32.715,-19.043,0.000,0.000,0.000
486994.317,-9.766,46.387,25.879,0.977,-54.688,0.000,0.000,0.000
486994.320,-23.438,44.434,18.066,-10.254,-159.668,0.000,0.000,0.000
486994.324,40.527,42.480,20.996,28.809,-48.828,0.000,0.000,0.000
486994.328,61.035,39.062,38.086,46.875,75.684,0.000,0.000,0.000
486994.332,4.395,38.086,41.992,18.066,-19.043,0.000,0.000,0.000
486994.336,-24.902,38.574,38.086,-10.254,-100.098,0.000,0.000,0.000
486994.340,30.273,41.504,38.574,13.672,-28.809,0.000,0.000,0.000
486994.344,73.242,39.551,41.504,48.828,133.789,0.000,0.000,0.000
486994.348,32.227,41.016,42.480,32.227,139.160,0.000,0.000,0.000
486994.352,-15.625,46.875,26.367,20.020,-51.270,0.000,0.000,0.000
486994.356,13.672,41.504,14.160,30.273,-42.480,0.000,0.000,0.000
486994.359,64.453,36.133,32.227,56.152,80.566,0.000,0.000,0.000
486994.363,56.152,35.645,42.969,54.688,157.227,0.000,0.000,0.000
486994.367,-9.766,33.691,25.391,13.184,37.598,0.000,0.000,0.000
486994.371,-4.395,34.668,10.742,15.625,-33.691,0.000,0.000,0.000
486994.375,60.547,33.691,20.020,63.477,128.906,0.000,0.000,0.000
486994.379,68.848,31.250,31.738,68.848,222.656,0.000,0.000,0.000
486994.383,6.348,37.598,36.621,17.578,128.906,0.000,0.000,0.000
486994.387,-3.418,45.410,41.992,-8.789,33.691,0.000,0.000,0.000
486994.391,47.363,39.062,48.340,23.438,59.082,0.000,0.000,0.000
486994.395,65.918,32.715,45.898,49.805,116.699,0.000,0.000,0.000
486994.399,13.672,33.691,34.180,29.297,45.898,0.000,0.000,0.000
486994.402,-23.926,36.133,24.414,15.137,-20.020,0.000,0.000,0.000
486994.406,21.484,35.645,30.762,54.688,45.898,0.000,0.000,0.000
486994.410,62.988,35.645,36.621,79.102,143.066,0.000,0.000,0.000
486994.414,26.367,36.133,31.250,35.645,116.211,0.000,0.000,0.000
486994.418,-28.320,37.109,33.203,10.742,94.727,0.000,0.000,0.000
486994.422,1.953,37.598,27.344,34.180,81.543,0.000,0.000,0.000
486994.426,56.641,35.156,24.902,62.988,108.398,0.000,0.000,0.000
486994.430,53.711,35.156,28.809,51.758,182.617,0.000,0.000,0.000
486994.434,-16.113,38.086,21.973,20.508,98.145,0.000,0.000,0.000
486994.438,-20.996,37.598,13.184,37.109,36.621,0.000,0.000,0.000
486994.442,48.340,35.645,0.488,64.453,151.367,0.000,0.000,0.000
486994.445,71.289,38.086,7.324,39.551,224.609,0.000,0.000,0.000
486994.449,10.742,39.062,31.250,13.184,152.832,0.000,0.000,0.000
486994.453,-13.184,40.039,50.781,7.324,64.453,0.000,0.000,0.000
486994.457,32.715,41.016,51.270,14.648,87.891,0.000,0.000,0.000
486994.461,57.617,41.504,41.016,40.039,171.387,4.000,1.000,45.000
486994.465,16.113,41.992,36.133,32.227,188.477,0.000,0.000,0.000
486994.469,-21.973,41.504,27.344,20.020,75.195,0.000,0.000,0.000
486994.473,20.020,45.410,23.438,37.109,42.480,0.000,0.000,0.000
486994.477,64.453,42.480,22.949,54.688,180.176,0.000,0.000,0.000
486994.481,40.527,35.645,23.438,35.645,161.621,0.000,0.000,0.000
486994.484,-24.414,41.016,27.344,-1.953,38.574,0.000,0.000,0.000
486994.488,-11.719,45.898,21.484,9.277,34.668,0.000,0.000,0.000
486994.492,41.016,39.551,19.043,47.852,133.301,0.000,0.000,0.000
486994.496,31.738,36.621,16.602,41.504,191.406,0.000,0.000,0.000
486994.500,-20.020,42.480,20.508,-1.953,129.883,0.000,0.000,0.000
486994.504,-22.461,47.363,33.203,-20.508,88.867,0.000,0.000,0.000
486994.508,24.902,42.480,35.645,12.207,136.230,0.000,0.000,0.000
486994.512,46.387,39.551,34.180,38.574,184.570,0.000,0.000,0.000
486994.516,-9.277,43.945,34.668,14.160,101.562,0.000,0.000,0.000
486994.520,-40.039,39.062,32.715,-9.277,-9.766,0.000,0.000,0.000
486994.524,24.414,32.227,27.832,14.160,30.762,0.000,0.000,0.000
486994.527,67.383,34.668,27.344,50.781,132.324,0.000,0.000,0.000
486994.531,15.625,38.574,35.156,25.391,86.914,0.000,0.000,0.000
486994.535,-23.438,41.016,30.762,-1.465,-67.383,0.000,0.000,0.000
486994.539,23.926,42.480,20.508,25.879,-16.113,0.000,0.000,0.000
486994.543,64.941,34.668,27.832,56.641,228.027,0.000,0.000,0.000
486994.547,39.062,38.086,33.203,42.969,222.168,0.000,0.000,0.000
486994.551,-25.879,43.945,29.297,2.930,83.496,0.000,0.000,0.000
486994.555,-9.766,42.480,6.348,3.906,64.453,0.000,0.000,0.000
486994.559,56.641,47.363,10.742,46.387,84.961,0.000,0.000,0.000
486994.563,54.199,46.387,45.898,62.500,139.160,0.000,0.000,0.000
486994.567,-20.020,42.480,59.082,20.508,114.258,0.000,0.000,0.000
486994.570,-21.484,42.480,60.547,1.465,83.008,0.000,0.000,0.000
486994.574,51.758,45.898,53.223,47.852,186.523,0.000,0.000,0.000
486994.578,65.430,51.270,46.875,60.547,243.164,0.000,0.000,0.000
486994.582,1.465,51.270,37.109,25.879,116.211,0.000,0.000,0.000
486994.586,-26.855,45.410,29.785,-6.348,11.719,0.000,0.000,0.000
486994.590,32.227,47.363,47.363,14.648,26.855,0.000,0.000,0.000
486994.594,71.777,48.340,52.246,63.477,90.332,0.000,0.000,0.000
486994.598,29.297,41.992,42.969,43.945,109.863,0.000,0.000,0.000
486994.602,-22.461,40.039,50.781,5.859,96.680,0.000,0.000,0.000
486994.606,8.301,38.086,42.969,27.344,81.055,0.000,0.000,0.000
486994.609,67.871,41.504,24.414,74.707,139.648,0.000,0.000,0.000
486994.613,55.176,48.828,38.574,71.777,155.762,0.000,0.000,0.000
486994.617,-11.719,48.340,53.223,7.324,83.496,0.000,0.000,0.000
486994.621,-7.812,47.363,52.246,-4.395,57.617,0.000,0.000,0.000
486994.625,58.105,47.852,46.875,46.387,97.168,0.000,0.000,0.000
486994.629,75.684,48.340,34.668,61.523,172.852,0.000,0.000,0.000
486994.633,11.719,43.945,29.785,32.715,88.867,0.000,0.000,0.000
486994.637,-12.695,41.992,35.645,17.578,-31.250,0.000,0.000,0.000
486994.641,43.945,44.922,42.480,55.664,65.430,0.000,0.000,0.000
486994.645,79.102,41.992,39.551,69.336,163.574,0.000,0.000,0.000
486994.649,27.344,37.109,34.180,36.133,80.566,0.000,0.000,0.000
486994.652,-14.160,40.527,35.156,18.555,-1.465,0.000,0.000,0.000
486994.656,23.926,42.969,24.902,43.945,77.148,0.000,0.000,0.000
486994.660,68.359,47.852,20.996,69.336,195.312,0.000,0.000,0.000
486994.664,40.039,48.340,35.645,43.457,119.629,0.000,0.000,0.000
486994.668,-15.625,47.852,45.898,5.859,3.418,0.000,0.000,0.000
486994.672,8.301,46.875,43.945,27.832,94.238,0.000,0.000,0.000
486994.676,65.918,44.434,36.621,56.152,243.652,0.000,0.000,0.000
486994.680,51.758,42.969,31.250,41.992,223.145,0.000,0.000,0.000
486994.684,-22.461,43.457,24.902,18.066,107.422,0.000,0.000,0.000
486994.688,-13.184,46.387,18.555,15.625,80.566,0.000,0.000,0.000
486994.691,59.082,48.340,26.367,39.551,96.191,0.000,0.000,0.000
486994.695,67.383,45.898,38.574,44.434,88.867,0.000,0.000,0.000
486994.699,-3.418,43.457,40.527,2.441,8.301,0.000,0.000,0.000
486994.703,-23.438,44.434,35.645,-17.090,-71.289,0.000,0.000,0.000
486994.707,26.367,43.457,36.133,17.090,-0.977,0.000,0.000,0.000
486994.711,68.359,42.969,38.086,33.203,122.070,0.000,0.000,0.000
486994.715,33.203,42.480,28.320,23.438,93.262,0.000,0.000,0.000
486994.719,-31.250,42.480,19.531,3.906,24.414,0.000,0.000,0.000
486994.723,-3.418,37.598,22.949,10.742,34.668,0.000,0.000,0.000
486994.727,47.363,35.645,25.879,41.504,80.078,0.000,0.000,0.000
486994.731,26.855,41.504,32.227,38.086,86.914,0.000,0.000,0.000
486994.734,-25.879,42.969,40.527,8.301,55.664,0.000,0.000,0.000
486994.738,-2.930,41.016,30.762,4.883,85.449,0.000,0.000,0.000
486994.742,59.082,41.016,27.344,46.387,163.574,0.000,0.000,0.000
486994.746,68.848,42.969,39.551,59.570,121.582,0.000,0.000,0.000
486994.750,3.418,44.922,44.434,18.555,-30.273,0.000,0.000,0.000
486994.754,-10.742,45.898,47.363,-0.488,-10.742,0.000,0.000,0.000
486994.758,46.875,43.457,49.805,41.504,107.910,0.000,0.000,0.000
486994.762,55.664,41.016,46.387,60.059,112.793,0.000,0.000,0.000
486994.766,-1.953,42.969,44.922,20.996,16.602,0.000,0.000,0.000
486994.770,-22.461,43.945,42.480,5.859,-33.691,0.000,0.000,0.000
486994.774,35.156,45.898,25.391,32.715,22.461,0.000,0.000,0.000
486994.777,68.848,50.293,15.625,60.059,148.438,0.000,0.000,0.000
486994.781,20.020,47.363,35.156,43.457,108.887,0.000,0.000,0.000
486994.785,-25.391,46.387,56.152,7.812,-37.598,0.000,0.000,0.000
486994.789,9.766,43.457,60.547,22.461,-26.367,0.000,0.000,0.000
486994.793,57.129,40.039,53.223,54.199,127.441,0.000,0.000,0.000
486994.797,40.039,44.434,40.527,29.785,153.320,0.000,0.000,0.000
486994.801,-20.508,42.969,24.902,-12.207,23.438,0.000,0.000,0.000
486994.805,-17.578,38.574,22.949,-4.883,-20.508,0.000,0.000,0.000
486994.809,44.434,39.062,28.809,40.039,88.379,0.000,0.000,0.000
486994.813,49.805,44.922,31.250,39.551,153.320,0.000,0.000,0.000
486994.816,-21.973,45.410,33.691,7.812,80.566,0.000,0.000,0.000
486994.820,-25.391,40.527,37.109,11.230,-20.508,0.000,0.000,0.000
486994.824,38.574,41.992,40.039,31.250,43.457,0.000,0.000,0.000
486994.828,53.223,40.527,39.062,39.062,151.855,0.000,0.000,0.000
486994.832,-0.977,33.203,40.527,23.926,136.719,0.000,0.000,0.000
486994.836,-28.809,38.086,37.109,6.836,-2.930,0.000,0.000,0.000
486994.840,15.137,46.875,23.926,14.160,-24.902,0.000,0.000,0.000
486994.844,60.547,51.758,18.555,37.598,107.910,0.000,0.000,0.000
486994.848,20.020,52.734,23.926,13.184,75.195,0.000,0.000,0.000
486994.852,-43.457,44.922,24.902,-24.902,-48.828,0.000,0.000,0.000
486994.856,-13.184,41.016,22.461,-6.348,-22.461,0.000,0.000,0.000
486994.859,34.668,42.480,25.391,34.668,29.785,0.000,0.000,0.000
486994.863,13.672,46.387,26.855,28.809,47.363,0.000,0.000,0.000
486994.867,-50.293,45.898,28.320,-19.531,9.277,0.000,0.000,0.000
486994.871,-45.898,41.504,23.926,-35.156,-32.227,0.000,0.000,0.000
486994.875,12.695,44.922,13.184,12.695,59.082,0.000,0.000,0.000
486994.879,26.855,50.781,14.160,28.320,102.051,0.000,0.000,0.000
486994.883,-41.992,50.781,32.715,-26.855,54.199,0.000,0.000,0.000
486994.887,-63.477,52.734,44.922,-45.410,18.555,0.000,0.000,0.000
486994.891,-8.789,53.711,50.293,-13.672,65.430,0.000,0.000,0.000
486994.895,-2.441,51.758,55.664,-20.996,143.555,0.000,0.000,0.000
486994.899,-79.590,58.105,62.500,-76.660,97.168,0.000,0.000,0.000
486994.902,-150.879,63.477,65.430,-131.836,-6.348,0.000,0.000,0.000
486994.906,-168.457,64.453,73.730,-159.668,50.781,0.000,0.000,0.000
486994.910,-169.922,65.430,78.613,-170.898,162.109,0.000,0.000,0.000
486994.914,-220.215,68.848,69.336,-213.867,112.793,0.000,0.000,0.000
486994.918,-299.316,75.195,69.824,-267.578,0.977,0.000,0.000,0.000
486994.922,-300.781,75.684,74.219,-280.273,-15.625,0.000,0.000,0.000
486994.926,-279.785,72.754,73.730,-267.578,83.984,0.000,0.000,0.000
486994.930,-305.176,75.195,66.406,-287.109,86.426,0.000,0.000,0.000
486994.934,-356.445,75.684,70.801,-326.172,-14.648,0.000,0.000,0.000
486994.938,-341.309,71.777,88.867,-317.871,-6.836,0.000,0.000,0.000
486994.941,-287.109,68.359,92.773,-282.227,80.566,0.000,0.000,0.000
486994.945,-265.137,64.453,76.172,-270.508,130.859,0.000,0.000,0.000
486994.949,-304.199,67.383,44.922,-294.434,29.297,0.000,0.000,0.000
486994.953,-323.730,62.988,54.199,-304.199,-42.969,0.000,0.000,0.000
486994.957,-254.395,61.035,61.523,-258.789,49.316,0.000,0.000,0.000
486994.961,-209.473,62.012,47.852,-219.727,151.367,0.000,0.000,0.000
486994.965,-256.836,54.688,102.051,-245.605,135.742,0.000,0.000,0.000
486994.969,-291.992,47.852,135.254,-263.184,34.180,0.000,0.000,0.000
486994.973,-231.445,45.410,122.559,-221.680,86.426,0.000,0.000,0.000
486994.977,-160.156,53.711,85.938,-170.410,187.988,0.000,0.000,0.000
486994.981,-160.156,60.059,65.430,-153.320,137.695,0.000,0.000,0.000
486994.984,-194.336,52.246,72.266,-163.574,67.871,0.000,0.000,0.000
486994.988,-147.461,53.711,65.918,-152.344,120.605,0.000,0.000,0.000
486994.992,-67.871,59.570,81.055,-90.332,168.457,0.000,0.000,0.000
486994.996,-48.828,58.594,89.844,-66.895,111.816,0.000,0.000,0.000
486995.000,-80.566,53.711,65.430,-76.172,13.672,0.000,0.000,0.000
486995.004,-61.523,50.781,65.918,-62.500,13.184,0.000,0.000,0.000
486995.008,15.137,50.781,82.520,-18.066,103.027,0.000,0.000,0.000
486995.012,41.504,47.363,73.730,17.090,133.301,0.000,0.000,0.000
486995.016,-3.906,41.016,48.828,-0.977,67.871,0.000,0.000,0.000
486995.020,-11.230,38.086,17.090,-4.395,-14.160,0.000,0.000,0.000
486995.024,58.594,36.133,30.762,48.340,-6.836,0.000,0.000,0.000
486995.027,113.770,28.320,66.406,97.168,137.695,0.000,0.000,0.000
486995.031,103.027,24.414,62.012,102.051,189.453,0.000,0.000,0.000
486995.035,68.848,26.367,33.203,85.449,82.520,0.000,0.000,0.000
486995.039,105.957,23.926,-2.441,111.328,39.551,0.000,0.000,0.000
486995.043,167.480,17.090,-17.578,156.738,150.391,0.000,0.000,0.000
486995.047,161.621,10.742,10.742,155.762,140.625,0.000,0.000,0.000
486995.051,114.258,8.301,20.508,133.301,-6.348,0.000,0.000,0.000
486995.055,140.137,12.207,3.418,144.531,-9.277,0.000,0.000,0.000
486995.059,211.914,7.324,-20.508,180.664,22.461,0.000,0.000,0.000
486995.063,219.727,0.977,-2.930,186.523,126.465,0.000,0.000,0.000
486995.066,149.902,2.441,22.461,156.738,80.078,0.000,0.000,0.000
486995.070,137.207,2.930,27.832,150.391,-3.906,0.000,0.000,0.000
486995.074,203.125,4.883,30.762,186.523,73.730,0.000,0.000,0.000
486995.078,229.980,4.395,10.254,203.125,146.484,0.000,0.000,0.000
486995.082,182.617,5.859,-8.301,182.129,35.156,0.000,0.000,0.000
486995.086,150.391,7.812,-19.043,165.527,-126.465,0.000,0.000,0.000
486995.090,185.547,9.766,-26.855,186.523,-104.004,0.000,0.000,0.000
486995.094,219.727,8.301,-7.324,206.543,20.996,0.000,0.000,0.000
486995.098,185.547,7.812,14.160,186.035,35.156,0.000,0.000,0.000
486995.102,133.301,7.812,27.832,160.645,-83.496,0.000,0.000,0.000
486995.106,168.945,5.371,-6.348,173.340,-88.379,0.000,0.000,0.000
486995.109,229.980,7.812,-50.293,213.867,43.945,0.000,0.000,0.000
486995.113,196.777,8.789,-16.113,190.430,64.941,0.000,0.000,0.000
486995.117,120.117,10.254,30.273,130.859,-2.930,0.000,0.000,0.000
486995.121,120.117,9.766,35.645,136.230,7.812,0.000,0.000,0.000
486995.125,167.480,10.254,21.484,178.711,119.629,0.000,0.000,0.000
486995.129,182.129,15.137,15.137,177.734,166.992,0.000,0.000,0.000
486995.133,125.488,17.578,10.254,130.859,-12.207,0.000,0.000,0.000
486995.137,104.492,18.555,-19.043,125.488,-89.355,0.000,0.000,0.000
486995.141,156.738,21.973,-44.434,166.016,34.668,0.000,0.000,0.000
486995.145,184.570,22.949,-12.695,166.992,55.176,0.000,0.000,0.000
486995.148,122.070,21.484,18.555,114.258,-22.949,0.000,0.000,0.000
486995.152,69.336,19.043,22.949,83.008,-96.191,0.000,0.000,0.000
486995.156,110.352,18.066,14.160,108.398,-61.523,0.000,0.000,0.000
486995.160,152.832,20.996,-13.672,138.184,63.965,0.000,0.000,0.000
486995.164,119.141,23.926,-25.879,113.770,67.383,0.000,0.000,0.000
486995.168,54.688,22.461,-0.977,79.590,-50.781,0.000,0.000,0.000
486995.172,76.172,19.531,25.391,95.215,-89.844,0.000,0.000,0.000
486995.176,128.418,26.367,23.438,129.883,-15.137,0.000,0.000,0.000
486995.180,110.840,25.879,14.648,114.258,69.824,0.000,0.000,0.000
486995.184,27.832,17.578,11.230,70.801,-18.555,0.000,0.000,0.000
486995.188,29.297,16.602,1.465,64.453,-89.844,0.000,0.000,0.000
486995.191,97.168,21.484,-2.930,94.238,50.293,0.000,0.000,0.000
486995.195,111.328,25.879,-3.906,98.145,129.395,0.000,0.000,0.000
486995.199,46.875,25.391,-19.531,53.711,93.750,0.000,0.000,0.000
486995.203,17.578,27.344,-42.969,40.039,-17.090,0.000,0.000,0.000
486995.207,73.730,31.738,-16.113,78.125,-30.273,0.000,0.000,0.000
486995.211,111.328,30.273,38.574,93.750,81.055,0.000,0.000,0.000
486995.215,60.059,26.855,54.199,55.664,33.691,0.000,0.000,0.000
486995.219,-1.465,32.227,43.945,35.645,-44.434,0.000,0.000,0.000
486995.223,35.156,35.645,29.785,61.523,-13.672,0.000,0.000,0.000
486995.227,83.496,31.738,22.949,82.031,92.285,0.000,0.000,0.000
486995.231,59.082,33.691,20.996,53.223,156.738,0.000,0.000,0.000
486995.234,7.324,34.668,2.930,20.020,62.012,0.000,0.000,0.000
486995.238,21.973,32.715,-2.930,41.992,-0.488,0.000,0.000,0.000
486995.242,71.289,31.738,1.953,76.660,94.238,0.000,0.000,0.000
486995.246,69.336,32.227,-8.301,68.848,152.832,0.000,0.000,0.000
486995.250,17.578,30.273,3.906,27.344,-7.324,0.000,0.000,0.000
486995.254,17.578,30.273,8.301,14.648,-92.285,0.000,0.000,0.000
486995.258,63.477,39.551,6.836,45.410,127.930,0.000,0.000,0.000
486995.262,77.148,43.457,30.762,61.035,195.801,0.000,0.000,0.000
486995.266,16.113,40.039,43.945,22.461,18.066,0.000,0.000,0.000
486995.270,-22.461,38.086,38.574,-9.766,-40.039,0.000,0.000,0.000
486995.273,30.762,35.156,29.297,22.949,15.625,0.000,0.000,0.000
486995.277,75.195,35.156,15.625,63.965,131.836,0.000,0.000,0.000
486995.281,33.203,38.574,3.418,46.387,70.312,0.000,0.000,0.000
486995.285,-21.484,33.203,13.672,22.461,-101.074,0.000,0.000,0.000
486995.289,16.113,29.297,-4.883,34.668,-78.613,0.000,0.000,0.000
486995.293,68.359,32.227,-18.555,55.664,34.180,0.000,0.000,0.000
486995.297,40.527,33.203,27.344,50.781,47.852,0.000,0.000,0.000
486995.301,-27.832,31.738,49.805,23.438,-63.965,0.000,0.000,0.000
486995.305,-2.930,30.273,42.480,19.043,-61.523,0.000,0.000,0.000
486995.309,58.105,37.598,21.973,42.480,57.129,0.000,0.000,0.000
486995.313,52.246,37.109,11.719,44.434,126.953,0.000,0.000,0.000
486995.316,-2.930,32.227,31.250,11.719,69.824,0.000,0.000,0.000
486995.320,-5.859,37.109,29.785,-1.465,-45.898,0.000,0.000,0.000
486995.324,50.293,38.574,16.113,31.250,6.348,0.000,0.000,0.000
486995.328,67.383,40.039,32.715,46.387,117.188,0.000,0.000,0.000
486995.332,11.719,43.457,28.809,21.973,43.457,0.000,0.000,0.000
486995.336,-26.855,36.133,15.625,5.859,-76.660,0.000,0.000,0.000
486995.340,23.438,33.203,25.879,30.762,-38.574,0.000,0.000,0.000
486995.344,66.895,34.668,35.645,54.199,92.285,0.000,0.000,0.000
486995.348,27.832,37.598,36.621,29.297,82.031,0.000,0.000,0.000
486995.352,-15.137,41.016,34.180,8.301,-20.508,0.000,0.000,0.000
486995.356,14.648,36.621,23.438,21.484,-17.090,0.000,0.000,0.000
486995.359,54.688,32.715,-7.324,50.293,68.359,0.000,0.000,0.000
486995.363,46.875,30.273,-13.184,48.828,86.914,0.000,0.000,0.000
486995.367,-9.277,32.227,26.855,21.484,14.648,0.000,0.000,0.000
486995.371,-2.441,36.133,56.152,5.859,3.418,0.000,0.000,0.000
486995.375,59.082,35.156,61.035,31.738,168.457,0.000,0.000,0.000
486995.379,69.824,38.086,54.688,53.711,201.660,0.000,0.000,0.000
486995.383,12.207,46.387,29.785,18.066,26.367,0.000,0.000,0.000
486995.387,-12.695,46.387,11.719,-12.695,-129.395,0.000,0.000,0.000
486995.391,45.410,40.527,20.508,24.414,-61.523,0.000,0.000,0.000
486995.395,91.797,41.992,24.902,53.223,156.250,0.000,0.000,0.000
486995.398,21.484,45.410,4.395,20.508,148.438,0.000,0.000,0.000
486995.402,-34.180,40.039,12.207,-12.695,44.922,0.000,0.000,0.000
486995.406,14.648,36.133,34.180,10.254,49.805,0.000,0.000,0.000
486995.410,59.082,37.109,36.621,54.199,164.551,0.000,0.000,0.000
486995.414,32.227,35.156,40.527,34.668,160.156,0.000,0.000,0.000
486995.418,-20.996,36.133,29.297,-10.742,-51.270,0.000,0.000,0.000
486995.422,5.371,36.621,35.156,7.812,-109.375,0.000,0.000,0.000
486995.426,74.219,38.574,41.992,46.387,15.625,0.000,0.000,0.000
486995.430,62.988,36.621,39.062,52.734,41.016,0.000,0.000,0.000
486995.434,-10.254,36.133,43.457,18.066,-73.242,0.000,0.000,0.000
486995.438,-0.488,42.969,0.000,12.207,-117.676,0.000,0.000,0.000
486995.441,66.895,43.945,-33.203,46.387,0.977,0.000,0.000,0.000
486995.445,78.125,42.969,19.531,57.617,61.035,0.000,0.000,0.000
486995.449,17.090,44.922,56.641,23.438,-52.246,0.000,0.000,0.000
486995.453,8.301,36.621,65.430,-7.324,-113.281,0.000,0.000,0.000
486995.457,57.129,33.203,65.918,21.973,-31.250,0.000,0.000,0.000
486995.461,76.660,38.574,50.781,50.781,70.801,0.000,0.000,0.000
486995.465,33.691,40.527,21.973,39.062,45.898,0.000,0.000,0.000
486995.469,-22.949,41.504,2.441,10.742,-71.289,0.000,0.000,0.000
486995.473,12.207,41.992,16.113,15.625,-77.637,0.000,0.000,0.000
486995.477,66.406,41.504,42.969,43.457,3.418,0.000,0.000,0.000
486995.481,38.086,39.551,55.176,33.691,71.289,0.000,0.000,0.000
486995.484,-23.926,38.574,49.805,-7.324,-20.020,0.000,0.000,0.000
486995.488,-2.441,39.062,28.809,-4.395,-50.781,0.000,0.000,0.000
486995.492,57.129,40.039,1.465,37.598,104.492,0.000,0.000,0.000
486995.496,69.824,38.574,8.789,30.273,115.234,0.000,0.000,0.000
486995.500,4.883,38.574,35.645,-4.883,6.836,0.000,0.000,0.000
486995.504,-15.625,38.574,16.602,-3.418,-50.293,0.000,0.000,0.000
486995.508,44.434,37.109,-2.441,42.969,38.086,0.000,0.000,0.000
486995.512,62.012,41.992,6.348,56.641,190.918,0.000,0.000,0.000
486995.516,6.836,39.062,26.855,14.648,141.113,0.000,0.000,0.000
486995.520,-16.113,39.551,52.246,-11.719,-11.719,0.000,0.000,0.000
486995.523,37.109,47.363,53.223,21.484,75.195,0.000,0.000,0.000
486995.527,71.777,44.922,38.574,70.312,181.641,0.000,0.000,0.000
486995.531,20.508,46.387,28.809,30.762,56.641,0.000,0.000,0.000
486995.535,-38.574,44.434,11.230,-23.926,-79.102,0.000,0.000,0.000
486995.539,12.207,40.527,5.859,2.441,-113.770,0.000,0.000,0.000
486995.543,65.430,38.574,26.367,34.668,-3.906,0.000,0.000,0.000
486995.547,38.574,36.133,14.160,28.320,49.805,0.000,0.000,0.000
486995.551,-23.438,41.016,-16.602,0.977,-57.617,0.000,0.000,0.000
486995.555,-12.695,41.992,7.812,1.465,-88.379,0.000,0.000,0.000
486995.559,46.875,33.691,32.227,39.062,50.293,0.000,0.000,0.000
486995.563,62.012,33.691,36.133,50.781,126.465,0.000,0.000,0.000
486995.566,1.465,36.621,44.922,8.789,74.707,0.000,0.000,0.000
486995.570,-25.879,32.715,42.969,-0.488,20.020,0.000,0.000,0.000
486995.574,33.203,37.598,32.715,38.086,41.016,0.000,0.000,0.000
486995.578,58.105,46.387,32.715,52.734,111.816,0.000,0.000,0.000
486995.582,5.371,42.480,36.133,20.020,17.578,0.000,0.000,0.000
486995.586,-21.973,33.203,40.039,-18.555,-100.586,0.000,0.000,0.000
486995.590,25.391,33.203,41.504,4.883,-34.180,0.000,0.000,0.000
486995.594,62.988,37.598,34.180,35.156,127.441,0.000,0.000,0.000
486995.598,22.949,38.086,19.043,13.184,176.270,0.000,0.000,0.000
486995.602,-38.086,35.645,13.672,-20.996,49.316,0.000,0.000,0.000
486995.605,-3.418,35.645,21.484,8.789,-17.090,0.000,0.000,0.000
486995.609,61.523,38.086,30.762,59.082,85.938,0.000,0.000,0.000
486995.613,49.316,40.527,14.648,41.504,93.262,0.000,0.000,0.000
486995.617,-13.184,38.574,-1.465,-8.301,-14.160,0.000,0.000,0.000
486995.621,-18.066,35.645,31.738,-20.996,-24.414,0.000,0.000,0.000
486995.625,39.551,35.156,53.711,20.996,47.363,0.000,0.000,0.000
486995.629,58.105,36.621,49.316,36.621,118.652,0.000,0.000,0.000
486995.633,-14.160,33.203,33.691,3.906,95.703,0.000,0.000,0.000
486995.637,-30.273,31.738,18.555,0.488,-6.348,0.000,0.000,0.000
486995.641,32.227,39.551,19.043,34.180,18.555,0.000,0.000,0.000
486995.645,52.246,41.016,15.137,57.129,105.469,0.000,0.000,0.000
486995.648,0.000,37.598,-0.488,30.273,46.875,0.000,0.000,0.000
486995.652,-32.227,35.645,-10.742,-1.465,-43.457,0.000,0.000,0.000
486995.656,23.438,41.016,3.906,28.320,-14.648,0.000,0.000,0.000
486995.660,62.012,36.621,38.574,49.316,87.891,0.000,0.000,0.000
486995.664,21.484,32.227,60.059,15.137,104.980,0.000,0.000,0.000
486995.668,-33.203,34.668,62.988,-19.531,-0.488,0.000,0.000,0.000
486995.672,-8.301,37.598,60.547,-5.371,-40.527,0.000,0.000,0.000
486995.676,53.711,42.480,45.898,48.340,97.168,0.000,0.000,0.000
486995.680,35.645,40.527,32.715,46.387,162.109,0.000,0.000,0.000
486995.684,-31.250,36.621,24.414,-11.230,24.902,0.000,0.000,0.000
486995.688,-17.578,37.598,13.184,-21.973,1.953,0.000,0.000,0.000
486995.691,44.922,41.992,12.695,24.902,142.090,0.000,0.000,0.000
486995.695,56.152,43.945,16.602,45.410,190.918,0.000,0.000,0.000
486995.699,-0.977,46.875,26.855,7.812,55.176,0.000,0.000,0.000
486995.703,-22.949,45.410,31.738,-11.719,9.277,0.000,0.000,0.000
486995.707,28.809,35.156,15.625,24.902,36.621,0.000,0.000,0.000
486995.711,56.641,36.621,15.137,54.199,73.730,0.000,0.000,0.000
486995.715,10.742,42.480,41.992,31.250,32.227,0.000,0.000,0.000
486995.719,-24.414,37.598,61.523,-17.578,-102.051,0.000,0.000,0.000
486995.723,8.789,34.180,53.711,0.977,-61.523,0.000,0.000,0.000
486995.727,54.199,39.062,36.621,44.922,54.199,0.000,0.000,0.000
486995.730,39.551,46.387,29.785,32.715,44.434,0.000,0.000,0.000
486995.734,-21.484,49.805,35.645,4.883,-23.926,0.000,0.000,0.000
486995.738,2.930,53.223,26.855,20.508,-31.738,0.000,0.000,0.000
486995.742,68.848,53.223,6.348,61.035,26.367,0.000,0.000,0.000
486995.746,62.012,51.270,21.484,59.082,70.312,0.000,0.000,0.000
486995.750,-1.465,49.316,46.875,21.484,-27.344,0.000,0.000,0.000
486995.754,-5.371,47.852,51.270,14.160,-70.801,0.000,0.000,0.000
486995.758,51.758,48.340,50.781,45.898,22.949,0.000,0.000,0.000
486995.762,74.219,49.316,52.246,57.617,83.496,0.000,0.000,0.000
486995.766,17.578,51.270,51.270,20.508,2.930,0.000,0.000,0.000
486995.770,-7.324,54.199,26.855,1.953,-57.129,0.000,0.000,0.000
486995.773,44.434,55.176,-4.395,36.621,-15.625,0.000,0.000,0.000
486995.777,68.359,48.828,17.578,53.711,76.172,0.000,0.000,0.000
486995.781,21.484,45.898,45.898,30.273,89.355,0.000,0.000,0.000
486995.785,-24.414,47.852,43.945,5.371,37.598,0.000,0.000,0.000
486995.789,13.672,48.340,53.711,20.508,53.711,0.000,0.000,0.000
486995.793,63.965,49.805,54.199,52.734,113.770,0.000,0.000,0.000
486995.797,43.457,50.293,43.457,47.852,126.465,0.000,0.000,0.000
486995.801,-19.043,45.898,50.293,7.812,-15.625,0.000,0.000,0.000
486995.805,0.977,46.875,53.223,-6.836,-80.078,2.000,1.000,0.000
486995.809,59.082,49.316,47.852,36.133,75.684,0.000,0.000,0.000
486995.813,53.711,42.480,32.715,53.223,219.727,0.000,0.000,0.000
486995.816,14.648,43.945,23.926,15.137,90.332,0.000,0.000,0.000
486995.820,-4.395,47.852,34.180,6.348,-67.383,0.000,0.000,0.000
486995.824,19.531,43.945,42.480,46.875,5.371,0.000,0.000,0.000
486995.828,55.664,45.410,26.367,66.406,111.328,0.000,0.000,0.000
486995.832,6.348,45.898,-2.930,28.809,33.691,0.000,0.000,0.000
486995.836,-41.504,41.016,16.113,-6.836,-40.039,0.000,0.000,0.000
486995.840,12.207,42.480,48.828,24.902,16.602,0.000,0.000,0.000
486995.844,65.918,45.410,50.781,53.711,50.293,0.000,0.000,0.000
486995.848,33.691,47.852,39.551,18.555,-17.090,0.000,0.000,0.000
486995.852,-22.461,46.875,36.133,-15.625,-96.680,0.000,0.000,0.000
486995.855,9.766,44.434,40.039,12.207,-71.777,0.000,0.000,0.000
486995.859,74.219,45.898,38.574,47.852,55.664,0.000,0.000,0.000
486995.863,57.617,47.852,41.504,33.691,82.031,0.000,0.000,0.000
486995.867,-20.996,47.852,45.410,-0.488,-46.875,0.000,0.000,0.000
486995.871,-18.555,44.434,47.363,1.465,-59.570,0.000,0.000,0.000
486995.875,41.504,47.852,0.488,46.875,57.129,0.000,0.000,0.000
486995.879,54.199,51.270,-16.602,53.223,83.496,0.000,0.000,0.000
486995.883,-10.742,41.016,31.738,-5.859,6.836,0.000,0.000,0.000
486995.887,-26.855,40.039,51.758,-15.137,-41.504,0.000,0.000,0.000
486995.891,48.828,41.504,60.547,38.574,35.156,0.000,0.000,0.000
486995.895,75.195,37.598,61.523,59.082,129.395,0.000,0.000,0.000
486995.898,3.418,40.527,41.992,25.879,49.316,0.000,0.000,0.000
486995.902,-36.621,41.992,32.227,13.184,-23.926,0.000,0.000,0.000
486995.906,18.555,39.551,32.227,47.852,20.508,0.000,0.000,0.000
486995.910,72.754,39.551,31.250,63.477,123.535,0.000,0.000,0.000
486995.914,38.574,40.039,38.574,33.691,145.996,0.000,0.000,0.000
486995.918,-22.461,44.434,30.273,6.836,20.020,0.000,0.000,0.000
486995.922,12.207,50.781,9.766,19.531,-52.246,0.000,0.000,0.000
486995.926,74.707,49.805,16.602,41.992,32.715,0.000,0.000,0.000
486995.930,62.500,45.898,32.227,36.133,60.547,0.000,0.000,0.000
486995.934,9.277,50.781,55.176,4.883,-14.648,0.000,0.000,0.000
486995.938,3.906,52.734,72.266,-4.883,-49.805,0.000,0.000,0.000
486995.941,46.387,47.363,63.965,27.832,39.551,0.000,0.000,0.000
486995.945,62.988,43.945,47.363,41.016,129.883,0.000,0.000,0.000
486995.949,-2.930,43.945,39.062,7.812,84.473,0.000,0.000,0.000
486995.953,-30.273,41.016,37.109,3.418,31.250,0.000,0.000,0.000
486995.957,34.668,42.969,31.738,42.969,36.621,0.000,0.000,0.000
486995.961,64.941,48.828,13.184,64.453,93.262,0.000,0.000,0.000
486995.965,13.184,44.922,3.418,27.832,43.945,0.000,0.000,0.000
486995.969,-19.531,43.457,8.789,-6.348,-78.125,0.000,0.000,0.000
486995.973,25.879,45.410,31.250,18.066,-61.035,0.000,0.000,0.000
486995.977,81.055,43.457,56.641,62.988,63.965,0.000,0.000,0.000
486995.980,53.711,44.434,52.246,52.246,96.680,0.000,0.000,0.000
486995.984,-13.672,49.805,38.086,12.695,-1.953,0.000,0.000,0.000
486995.988,14.160,51.758,34.180,19.043,-58.594,0.000,0.000,0.000
486995.992,73.242,47.852,21.973,64.453,25.391,0.000,0.000,0.000
486995.996,62.500,42.969,3.418,62.500,85.449,0.000,0.000,0.000
486996.000,1.953,40.527,3.418,1.465,14.648,0.000,0.000,0.000
486996.004,5.371,41.992,31.738,4.395,-52.246,0.000,0.000,0.000
486996.008,51.758,41.016,62.988,36.133,76.172,0.000,0.000,0.000
486996.012,69.824,42.480,65.918,36.133,229.980,0.000,0.000,0.000
486996.016,17.578,45.410,57.617,6.836,161.133,0.000,0.000,0.000
486996.020,-5.371,41.016,44.922,-10.254,40.527,0.000,0.000,0.000
486996.023,53.223,41.504,21.973,29.297,82.520,0.000,0.000,0.000
486996.027,74.219,37.598,6.348,57.129,169.922,0.000,0.000,0.000
486996.031,16.113,29.297,18.555,25.879,67.871,0.000,0.000,0.000
486996.035,-34.668,34.180,45.410,-4.883,-74.707,0.000,0.000,0.000
486996.039,8.301,38.574,41.992,17.578,-97.168,0.000,0.000,0.000
486996.043,65.918,38.574,23.926,49.805,35.156,0.000,0.000,0.000
486996.047,43.945,36.621,24.414,29.297,14.160,0.000,0.000,0.000
486996.051,-27.832,35.645,28.809,-11.719,-83.496,0.000,0.000,0.000
486996.055,-13.184,39.062,39.062,-12.695,39.062,0.000,0.000,0.000
486996.059,44.434,40.039,43.457,29.297,166.992,0.000,0.000,0.000
486996.062,53.711,39.062,30.762,37.598,190.918,0.000,0.000,0.000
486996.066,-6.348,37.598,20.996,-1.953,48.340,0.000,0.000,0.000
486996.070,-22.949,35.156,18.555,-11.719,-63.477,0.000,0.000,0.000
486996.074,47.363,37.598,-5.859,30.273,-23.438,0.000,0.000,0.000
486996.078,67.383,39.062,-13.672,47.363,33.203,0.000,0.000,0.000
486996.082,3.906,35.645,24.902,1.953,-7.324,0.000,0.000,0.000
486996.086,-28.320,29.785,50.293,-22.461,-92.773,0.000,0.000,0.000
486996.090,22.461,28.809,44.434,5.371,-44.434,0.000,0.000,0.000
486996.094,62.500,30.762,33.691,27.344,55.176,0.000,0.000,0.000
486996.098,21.484,28.809,31.250,20.508,60.059,0.000,0.000,0.000
486996.102,-35.156,30.273,16.602,3.418,-44.434,0.000,0.000,0.000
486996.105,-2.930,32.227,2.930,14.160,-81.543,0.000,0.000,0.000
486996.109,63.477,32.227,15.137,46.387,35.156,0.000,0.000,0.000
486996.113,52.246,37.598,29.785,39.551,71.777,0.000,0.000,0.000
486996.117,-15.137,41.504,29.297,-2.930,-23.438,0.000,0.000,0.000
486996.121,-9.766,34.668,23.926,0.000,-41.504,0.000,0.000,0.000
486996.125,56.641,31.738,20.020,44.434,51.270,0.000,0.000,0.000
486996.129,68.848,32.715,20.508,47.852,109.863,0.000,0.000,0.000
486996.133,-0.977,31.250,21.484,13.672,9.277,0.000,0.000,0.000
486996.137,-18.066,37.109,18.555,-8.301,-85.938,0.000,0.000,0.000
486996.141,28.320,35.156,26.367,13.184,-24.902,0.000,0.000,0.000
486996.145,48.828,23.438,24.902,43.457,87.891,0.000,0.000,0.000
486996.148,7.812,30.762,24.414,14.648,130.371,0.000,0.000,0.000
486996.152,-25.391,39.551,29.297,-9.277,30.762,0.000,0.000,0.000
486996.156,10.742,32.227,28.320,6.836,-17.090,0.000,0.000,0.000
486996.160,59.082,27.832,37.598,20.996,68.359,0.000,0.000,0.000
486996.164,16.113,31.738,38.086,1.465,25.879,0.000,0.000,0.000
486996.168,-41.504,34.668,28.809,-23.438,-104.492,0.000,0.000,0.000
486996.172,-10.254,31.738,0.000,-9.766,-14.160,0.000,0.000,0.000
486996.176,40.527,31.738,1.465,32.715,159.180,0.000,0.000,0.000
486996.180,40.039,36.133,30.273,32.715,179.199,0.000,0.000,0.000
486996.184,-19.043,36.133,25.879,-16.602,29.297,0.000,0.000,0.000
486996.187,-20.996,33.691,29.785,-2.441,-28.320,0.000,0.000,0.000
486996.191,35.645,30.273,51.270,41.504,83.984,0.000,0.000,0.000
486996.195,56.641,29.785,47.363,37.598,173.828,0.000,0.000,0.000
486996.199,-0.488,32.227,23.926,13.184,88.867,0.000,0.000,0.000
486996.203,-25.879,32.227,17.090,9.766,-13.672,0.000,0.000,0.000
486996.207,24.414,29.297,27.344,32.227,78.125,0.000,0.000,0.000
486996.211,67.383,32.715,30.762,50.781,157.715,0.000,0.000,0.000
486996.215,26.855,35.156,27.344,34.668,67.383,0.000,0.000,0.000
486996.219,-37.598,30.273,32.227,-1.953,-78.613,0.000,0.000,0.000
486996.223,3.906,32.715,31.738,8.301,-87.402,0.000,0.000,0.000
486996.227,68.359,41.992,32.227,53.711,24.414,0.000,0.000,0.000
486996.230,24.414,39.551,38.086,36.621,19.043,0.000,0.000,0.000
486996.234,-46.875,34.180,15.625,-17.090,-50.781,0.000,0.000,0.000
486996.238,-29.297,33.203,1.953,-17.578,-64.941,0.000,0.000,0.000
486996.242,26.855,31.738,14.648,22.949,9.277,0.000,0.000,0.000
486996.246,38.574,32.227,6.348,30.762,75.195,0.000,0.000,0.000
486996.250,-14.160,31.738,11.230,0.488,38.574,0.000,0.000,0.000
486996.254,-16.113,31.738,18.066,-13.184,3.418,0.000,0.000,0.000
486996.258,37.109,36.621,38.086,18.555,20.508,0.000,0.000,0.000
486996.262,54.199,37.598,67.871,36.621,65.430,0.000,0.000,0.000
486996.266,-4.883,29.297,62.012,-4.395,7.324,0.000,0.000,0.000
486996.270,-33.203,33.203,47.363,-17.578,-104.492,0.000,0.000,0.000
486996.273,23.926,39.551,35.156,26.855,-100.586,0.000,0.000,0.000
486996.277,76.660,38.574,25.391,52.734,-1.465,0.000,0.000,0.000
486996.281,43.457,41.992,18.066,18.555,2.441,0.000,0.000,0.000
486996.285,-30.762,37.109,9.766,-28.809,-59.570,0.000,0.000,0.000
486996.289,5.371,34.668,1.953,5.859,-42.969,0.000,0.000,0.000
486996.293,71.289,44.922,-2.441,71.777,48.340,0.000,0.000,0.000
486996.297,44.434,43.457,22.949,44.434,62.012,0.000,0.000,0.000
486996.301,-21.484,34.180,51.270,-12.207,-57.129,0.000,0.000,0.000
486996.305,-12.207,35.156,53.711,-15.137,-96.680,0.000,0.000,0.000
486996.309,50.781,38.574,44.922,20.996,28.320,0.000,0.000,0.000
486996.312,58.594,40.527,39.062,35.156,83.496,0.000,0.000,0.000
486996.316,-12.695,43.457,35.156,-1.953,-20.020,0.000,0.000,0.000
486996.320,-32.715,43.457,38.574,-7.812,-75.684,0.000,0.000,0.000
486996.324,31.738,40.039,17.578,26.855,-20.508,0.000,0.000,0.000
486996.328,67.383,41.504,-7.812,38.574,36.133,0.000,0.000,0.000
486996.332,22.461,46.875,11.230,6.348,21.484,0.000,0.000,0.000
486996.336,-22.461,43.457,41.016,-19.531,-56.641,0.000,0.000,0.000
486996.340,9.766,36.133,45.898,3.906,-44.922,0.000,0.000,0.000
486996.344,49.805,30.762,33.203,43.457,55.664,0.000,0.000,0.000
486996.348,21.973,32.715,27.344,27.832,5.371,0.000,0.000,0.000
486996.352,-21.484,36.621,21.973,-20.508,-83.496,0.000,0.000,0.000
486996.355,9.766,37.598,13.184,-24.902,-58.105,0.000,0.000,0.000
486996.359,55.176,38.086,11.230,20.508,32.227,0.000,0.000,0.000
486996.363,45.410,38.086,25.879,24.414,36.133,0.000,0.000,0.000
486996.367,-20.996,38.574,38.574,-11.719,-84.473,0.000,0.000,0.000
486996.371,-20.020,37.109,32.227,-13.672,-94.727,0.000,0.000,0.000
486996.375,60.059,37.109,35.645,20.996,30.762,0.000,0.000,0.000
486996.379,60.547,35.645,27.832,44.434,85.938,0.000,0.000,0.000
486996.383,-18.066,34.668,14.160,10.742,-12.695,0.000,0.000,0.000
486996.387,-31.250,36.621,26.367,-9.766,-84.961,0.000,0.000,0.000
486996.391,22.949,37.109,29.297,34.668,27.832,0.000,0.000,0.000
486996.395,67.871,36.133,24.414,61.523,157.715,0.000,0.000,0.000
486996.398,26.855,37.109,26.367,26.367,116.211,0.000,0.000,0.000
486996.402,-13.672,35.156,19.043,12.695,59.082,0.000,0.000,0.000
486996.406,31.738,33.691,23.926,40.039,78.613,0.000,0.000,0.000
486996.410,64.941,37.598,29.785,50.293,162.598,0.000,0.000,0.000
486996.414,31.738,40.039,33.203,11.230,140.625,0.000,0.000,0.000
486996.418,-21.973,43.457,50.293,-21.484,7.812,0.000,0.000,0.000
486996.422,3.418,44.434,50.781,8.301,-29.297,0.000,0.000,0.000
486996.426,57.129,43.945,27.832,46.875,96.191,0.000,0.000,0.000
486996.430,50.293,38.086,21.484,23.438,166.016,0.000,0.000,0.000
486996.434,-20.996,32.227,25.391,-16.602,36.133,0.000,0.000,0.000
486996.437,-26.367,34.668,20.020,-6.836,-77.148,0.000,0.000,0.000
486996.441,37.109,32.227,21.484,20.508,7.812,0.000,0.000,0.000
486996.445,55.176,35.156,26.855,28.809,74.707,0.000,0.000,0.000
486996.449,1.465,41.992,20.996,0.977,-16.113,0.000,0.000,0.000
486996.453,-20.996,41.504,18.066,-15.625,-28.809,0.000,0.000,0.000
486996.457,33.691,41.016,19.531,18.066,88.379,0.000,0.000,0.000
486996.461,69.824,40.527,27.344,41.016,148.926,0.000,0.000,0.000
486996.465,20.020,43.945,31.250,19.043,22.461,0.000,0.000,0.000
486996.469,-37.109,44.922,20.020,-3.418,-123.535,0.000,0.000,0.000
486996.473,5.859,40.039,10.742,20.996,-89.355,0.000,0.000,0.000
486996.477,66.895,39.062,23.926,44.434,29.297,0.000,0.000,0.000
486996.480,40.527,41.504,38.574,9.277,53.223,0.000,0.000,0.000
486996.484,-25.391,41.016,37.598,-16.113,-33.203,0.000,0.000,0.000
486996.488,-3.906,40.527,31.250,4.395,-1.465,0.000,0.000,0.000
486996.492,53.711,43.457,17.578,40.527,95.703,0.000,0.000,0.000
486996.496,53.223,44.434,10.254,51.270,84.961,0.000,0.000,0.000
486996.500,-10.742,41.504,17.578,18.555,-24.414,0.000,0.000,0.000
486996.504,-19.531,39.551,32.227,-3.418,-108.398,0.000,0.000,0.000
486996.508,33.691,38.086,43.457,28.320,5.859,0.000,0.000,0.000
486996.512,54.199,36.133,40.527,41.992,153.320,0.000,0.000,0.000
486996.516,-2.441,37.109,29.297,3.418,71.289,0.000,0.000,0.000
486996.520,-31.738,37.598,22.949,-10.742,-86.426,0.000,0.000,0.000
486996.523,19.531,37.598,28.320,15.137,-51.270,0.000,0.000,0.000
486996.527,52.246,37.598,37.598,47.363,52.734,0.000,0.000,0.000
486996.531,20.020,38.574,39.551,34.180,36.133,0.000,0.000,0.000
486996.535,-21.973,41.016,26.855,-13.672,-16.602,0.000,0.000,0.000
486996.539,9.766,39.062,21.484,-2.930,14.648,0.000,0.000,0.000
486996.543,64.453,40.039,24.902,39.551,79.102,0.000,0.000,0.000
486996.547,47.363,43.945,19.531,37.109,50.781,0.000,0.000,0.000
486996.551,-19.043,44.922,21.973,10.254,-38.086,0.000,0.000,0.000
486996.555,-13.672,41.504,42.480,9.277,-94.727,0.000,0.000,0.000
486996.559,42.969,35.645,44.922,48.340,-14.648,0.000,0.000,0.000
486996.562,51.758,38.086,23.926,51.270,95.215,0.000,0.000,0.000
486996.566,0.000,40.039,26.855,7.812,4.883,0.000,0.000,0.000
486996.570,-18.555,35.645,48.828,0.488,-83.008,0.000,0.000,0.000
486996.574,25.879,37.109,52.246,36.621,28.809,0.000,0.000,0.000
486996.578,64.453,38.086,32.715,52.246,194.824,0.000,0.000,0.000
486996.582,28.320,41.992,16.113,23.926,182.129,0.000,0.000,0.000
486996.586,-20.996,44.434,12.207,-0.488,29.297,0.000,0.000,0.000
486996.590,15.625,40.039,26.855,13.184,0.000,0.000,0.000,0.000
486996.594,54.688,40.039,44.922,52.734,67.383,0.000,0.000,0.000
486996.598,18.555,35.645,39.551,32.227,27.832,0.000,0.000,0.000
486996.602,-24.902,36.133,33.203,0.488,-96.191,0.000,0.000,0.000
486996.605,15.137,40.527,35.645,5.859,-55.664,0.000,0.000,0.000
486996.609,62.500,35.645,24.414,30.762,118.652,0.000,0.000,0.000
486996.613,46.387,31.738,20.996,32.227,90.820,0.000,0.000,0.000
486996.617,-12.695,31.738,32.715,9.766,-36.133,0.000,0.000,0.000
486996.621,-22.949,29.785,34.180,17.090,-69.824,0.000,0.000,0.000
486996.625,39.062,30.762,31.250,38.574,25.879,0.000,0.000,0.000
486996.629,51.758,40.527,35.156,30.273,70.312,0.000,0.000,0.000
486996.633,-7.324,42.969,30.762,0.000,-20.020,0.000,0.000,0.000
486996.637,-17.578,35.156,36.621,-4.395,-80.078,0.000,0.000,0.000
486996.641,34.668,38.574,34.668,31.738,-36.621,0.000,0.000,0.000
486996.644,75.195,45.410,24.414,63.965,41.016,0.000,0.000,0.000
486996.648,43.945,43.457,30.762,38.086,37.109,0.000,0.000,0.000
486996.652,-0.977,37.598,36.621,20.020,-72.754,0.000,0.000,0.000
486996.656,25.391,35.156,27.832,31.250,-65.918,0.000,0.000,0.000
486996.660,66.406,37.598,29.785,46.387,65.430,0.000,0.000,0.000
486996.664,38.574,35.156,50.293,25.391,41.992,0.000,0.000,0.000
486996.668,-6.836,37.109,55.176,1.953,-62.012,0.000,0.000,0.000
486996.672,17.090,42.969,47.852,12.207,-50.781,0.000,0.000,0.000
486996.676,58.105,40.039,40.039,44.434,51.758,0.000,0.000,0.000
486996.680,58.594,38.574,36.621,38.574,101.562,0.000,0.000,0.000
486996.684,-5.371,39.551,23.926,8.301,-12.207,0.000,0.000,0.000
486996.687,-27.832,33.691,18.555,14.648,-74.219,0.000,0.000,0.000
486996.691,39.551,34.668,29.297,50.293,38.574,0.000,0.000,0.000
486996.695,60.059,38.086,24.902,59.570,128.906,0.000,0.000,0.000
486996.699,4.883,42.480,13.184,23.438,106.445,0.000,0.000,0.000
486996.703,-10.254,40.039,28.809,5.371,42.969,0.000,0.000,0.000
486996.707,32.227,35.156,48.340,32.227,51.270,0.000,0.000,0.000
486996.711,72.754,36.133,36.133,69.824,173.828,0.000,0.000,0.000
486996.715,36.133,33.691,30.762,37.598,133.301,0.000,0.000,0.000
486996.719,-15.137,36.621,44.922,-9.277,-21.973,0.000,0.000,0.000
486996.723,23.926,34.668,34.668,7.812,-22.461,0.000,0.000,0.000
486996.727,76.172,29.785,27.344,51.758,59.570,0.000,0.000,0.000
486996.730,56.152,27.344,39.062,56.641,136.719,0.000,0.000,0.000
486996.734,-6.836,29.297,38.086,-6.348,40.039,0.000,0.000,0.000
486996.738,1.953,36.621,15.625,-19.043,-69.824,0.000,0.000,0.000
486996.742,55.664,34.668,7.324,34.180,62.500,0.000,0.000,0.000
486996.746,42.480,32.715,7.812,40.039,125.488,0.000,0.000,0.000
486996.750,-31.738,35.645,8.301,3.906,-60.059,0.000,0.000,0.000
486996.754,-19.531,34.180,39.551,-2.441,-188.965,0.000,0.000,0.000
486996.758,43.457,35.156,50.781,46.875,-19.531,0.000,0.000,0.000
486996.762,55.176,40.527,36.621,67.383,117.676,0.000,0.000,0.000
486996.766,-0.488,39.062,38.086,2.930,-26.367,0.000,0.000,0.000
486996.769,-20.996,33.691,44.434,-27.832,-145.508,0.000,0.000,0.000
486996.773,38.574,31.738,35.645,17.578,-89.355,0.000,0.000,0.000
486996.777,75.195,37.109,33.203,50.781,51.758,0.000,0.000,0.000
486996.781,25.879,40.527,25.879,20.020,46.387,0.000,0.000,0.000
486996.785,-44.922,41.992,17.578,-4.395,-71.289,0.000,0.000,0.000
486996.789,-3.418,41.016,15.625,5.371,-96.680,0.000,0.000,0.000
486996.793,60.547,39.062,9.766,29.297,-2.930,0.000,0.000,0.000
486996.797,45.410,41.016,25.391,26.855,37.109,0.000,0.000,0.000
486996.801,-12.695,42.480,29.785,-6.836,-42.969,0.000,0.000,0.000
486996.805,1.465,34.180,20.020,3.418,-13.672,0.000,0.000,0.000
486996.809,53.223,26.855,31.738,29.785,72.754,0.000,0.000,0.000
486996.812,53.711,25.391,40.039,18.555,108.887,0.000,0.000,0.000
486996.816,-6.836,32.227,33.691,11.230,21.484,0.000,0.000,0.000
486996.820,-6.836,37.109,20.508,1.953,-8.789,0.000,0.000,0.000
486996.824,46.387,37.598,18.555,17.090,61.035,0.000,0.000,0.000
486996.828,48.828,43.457,31.250,37.598,83.496,0.000,0.000,0.000
486996.832,-4.883,44.434,36.621,0.977,-9.766,0.000,0.000,0.000
486996.836,-40.527,39.062,26.367,-6.348,-123.535,0.000,0.000,0.000
486996.840,15.137,39.062,16.113,32.715,-95.703,0.000,0.000,0.000
486996.844,65.430,45.898,22.461,54.199,1.953,0.000,0.000,0.000
486996.848,31.738,42.969,32.227,41.016,40.527,0.000,0.000,0.000
486996.852,-21.973,36.621,37.598,6.348,-32.227,0.000,0.000,0.000
486996.855,14.160,39.062,28.320,-3.906,-23.438,0.000,0.000,0.000
486996.859,72.754,39.551,8.301,26.367,61.035,0.000,0.000,0.000
486996.863,49.316,36.621,12.695,37.109,73.730,0.000,0.000,0.000
486996.867,-17.090,35.156,34.668,0.977,-21.973,0.000,0.000,0.000
486996.871,-2.930,37.598,30.273,-6.836,-83.496,0.000,0.000,0.000
486996.875,55.176,38.086,21.484,30.273,26.855,0.000,0.000,0.000
486996.879,55.176,32.227,35.156,42.480,102.539,0.000,0.000,0.000
486996.883,-13.672,32.227,47.363,14.648,8.301,0.000,0.000,0.000
486996.887,-30.273,39.062,34.180,-2.441,-24.902,0.000,0.000,0.000
486996.891,30.273,43.457,2.441,33.203,87.402,0.000,0.000,0.000
486996.894,57.617,40.527,4.883,50.293,179.199,0.000,0.000,0.000
486996.898,6.836,41.016,30.762,7.324,61.523,0.000,0.000,0.000
486996.902,-34.668,41.504,39.062,-12.207,-95.703,0.000,0.000,0.000
486996.906,12.207,38.086,33.203,13.672,-29.785,0.000,0.000,0.000
486996.910,70.312,37.598,20.996,34.180,113.281,0.000,0.000,0.000
486996.914,30.762,40.527,19.531,14.648,101.562,0.000,0.000,0.000
486996.918,-30.273,45.410,35.645,-9.277,-27.344,0.000,0.000,0.000
486996.922,-0.977,42.480,12.207,11.230,-64.941,0.000,0.000,0.000
486996.926,54.688,32.715,-8.301,51.270,45.898,0.000,0.000,0.000
486996.930,52.734,30.273,22.461,36.133,75.195,0.000,0.000,0.000
486996.934,-17.578,38.574,46.387,-25.879,-23.926,0.000,0.000,0.000
486996.937,-22.461,36.133,48.828,-26.855,-38.574,0.000,0.000,0.000
486996.941,39.062,29.297,37.598,27.832,45.410,0.000,0.000,0.000
486996.945,41.992,37.109,37.598,38.086,70.312,0.000,0.000,0.000
486996.949,-19.043,40.039,40.527,-0.488,-13.184,0.000,0.000,0.000
486996.953,-27.344,40.527,21.973,-8.301,-56.152,0.000,0.000,0.000
486996.957,26.855,43.457,10.254,32.227,27.344,0.000,0.000,0.000
486996.961,59.570,41.992,23.438,59.570,128.906,0.000,0.000,0.000
486996.965,20.996,42.480,34.180,18.555,38.086,0.000,0.000,0.000
486996.969,-39.551,39.062,33.691,-23.926,-77.148,0.000,0.000,0.000
486996.973,-4.395,29.785,32.715,2.930,-37.109,0.000,0.000,0.000
486996.977,61.035,28.320,36.621,43.457,81.055,0.000,0.000,0.000
486996.980,37.109,34.180,39.062,37.598,73.730,0.000,0.000,0.000
486996.984,-17.090,37.109,35.645,1.465,-38.086,0.000,0.000,0.000
486996.988,8.301,40.527,39.062,10.742,-80.078,0.000,0.000,0.000
486996.992,52.734,41.016,35.645,49.316,-7.812,0.000,0.000,0.000
486996.996,56.641,40.527,31.250,35.645,102.051,0.000,0.000,0.000
486997.000,-0.488,39.062,33.203,-8.301,43.457,0.000,0.000,0.000
486997.004,-21.484,32.715,33.691,-11.719,-62.988,0.000,0.000,0.000
486997.008,28.320,31.738,32.715,23.438,7.324,0.000,0.000,0.000
486997.012,58.105,35.156,24.414,32.227,93.262,0.000,0.000,0.000
486997.016,12.695,37.598,24.902,12.207,28.320,0.000,0.000,0.000
486997.019,-21.973,38.086,30.762,7.812,-68.848,0.000,0.000,0.000
486997.023,22.949,33.691,31.738,21.484,-38.086,0.000,0.000,0.000
486997.027,50.781,27.832,28.320,41.016,115.234,0.000,0.000,0.000
486997.031,16.113,30.762,31.738,20.508,97.656,0.000,0.000,0.000
486997.035,-27.344,36.621,24.902,-14.160,-2.930,0.000,0.000,0.000
486997.039,16.602,36.133,16.113,16.113,49.805,0.000,0.000,0.000
486997.043,70.801,40.527,32.715,54.688,89.355,0.000,0.000,0.000
486997.047,32.227,41.992,38.574,39.062,38.086,0.000,0.000,0.000
486997.051,-24.414,39.551,30.273,0.977,-67.871,0.000,0.000,0.000
486997.055,1.953,40.039,33.691,5.371,-135.742,0.000,0.000,0.000
486997.059,64.453,39.062,40.039,49.805,33.691,0.000,0.000,0.000
486997.062,78.613,40.039,38.574,46.387,162.109,0.000,0.000,0.000
486997.066,20.508,42.480,31.250,-6.348,29.785,0.000,0.000,0.000
486997.070,-2.930,42.480,19.531,-6.348,-44.434,0.000,0.000,0.000
486997.074,51.270,40.527,16.113,48.340,25.391,0.000,0.000,0.000
486997.078,64.941,37.109,23.926,57.129,86.914,0.000,0.000,0.000
486997.082,3.906,39.062,32.227,3.418,35.645,0.000,0.000,0.000
486997.086,-10.254,41.016,34.668,-17.090,-6.348,0.000,0.000,0.000
486997.090,24.902,34.180,31.250,28.809,49.805,0.000,0.000,0.000
486997.094,49.316,32.227,32.715,51.270,82.031,0.000,0.000,0.000
486997.098,27.344,35.156,33.203,22.949,6.348,0.000,0.000,0.000
486997.101,-23.438,30.273,32.715,1.953,-56.641,0.000,0.000,0.000
486997.105,11.719,31.250,33.203,11.719,-55.664,0.000,0.000,0.000
486997.109,75.684,41.992,19.043,49.316,38.086,0.000,0.000,0.000
486997.113,60.547,45.898,20.020,43.457,79.590,0.000,0.000,0.000
486997.117,2.441,48.828,38.574,2.441,-36.621,0.000,0.000,0.000
486997.121,1.465,47.852,41.992,3.906,-72.266,0.000,0.000,0.000
486997.125,51.758,42.480,39.551,47.852,43.945,0.000,0.000,0.000
486997.129,69.336,42.969,31.738,49.316,103.027,0.000,0.000,0.000
486997.133,6.836,38.574,25.391,2.441,-5.371,0.000,0.000,0.000
486997.137,3.906,37.109,23.926,-4.395,-89.355,0.000,0.000,0.000
486997.141,77.637,42.480,22.949,42.480,-10.254,0.000,0.000,0.000
486997.144,84.961,39.551,14.160,47.852,69.824,0.000,0.000,0.000
486997.148,18.555,36.621,16.602,20.020,31.250,0.000,0.000,0.000
486997.152,-25.391,41.504,23.438,2.930,-46.387,0.000,0.000,0.000
486997.156,13.184,42.480,13.672,25.391,-32.227,0.000,0.000,0.000
486997.160,62.500,41.992,18.555,53.711,79.102,0.000,0.000,0.000
486997.164,34.668,39.062,28.320,27.832,55.176,0.000,0.000,0.000
486997.168,-20.996,31.250,37.598,-2.441,-27.832,0.000,0.000,0.000
486997.172,23.438,32.715,45.898,15.625,-29.785,0.000,0.000,0.000
486997.176,74.707,35.645,46.875,58.105,60.547,0.000,0.000,0.000
486997.180,52.734,37.598,36.133,56.152,90.820,0.000,0.000,0.000
486997.184,-7.812,38.574,31.738,13.184,11.719,0.000,0.000,0.000
486997.187,-6.348,37.109,41.504,7.812,18.066,0.000,0.000,0.000
486997.191,58.594,39.551,36.621,52.246,104.492,0.000,0.000,0.000
486997.195,78.613,39.062,35.645,67.383,123.047,0.000,0.000,0.000
486997.199,25.391,39.062,35.156,13.672,77.637,0.000,0.000,0.000
486997.203,1.953,42.480,28.320,-20.508,-43.457,0.000,0.000,0.000
486997.207,38.574,41.016,33.203,6.836,-84.961,0.000,0.000,0.000
486997.211,66.895,39.551,30.762,28.320,1.465,0.000,0.000,0.000
486997.215,23.926,42.480,17.090,-0.488,-47.363,0.000,0.000,0.000
486997.219,-16.602,42.480,20.996,-24.414,-158.691,0.000,0.000,0.000
486997.223,20.996,41.016,22.949,8.301,-129.883,0.000,0.000,0.000
486997.226,60.547,40.527,21.973,60.547,6.348,0.000,0.000,0.000
486997.230,44.922,44.434,27.344,48.828,21.973,0.000,0.000,0.000
486997.234,-12.207,47.852,31.738,8.789,-95.215,0.000,0.000,0.000
486997.238,-2.441,43.945,38.574,18.066,-75.684,0.000,0.000,0.000
486997.242,77.637,43.945,37.598,62.988,85.449,0.000,0.000,0.000
486997.246,86.426,47.363,30.762,72.754,132.812,0.000,0.000,0.000
486997.250,4.883,48.828,32.227,22.461,8.789,0.000,0.000,0.000
486997.254,-6.836,43.945,33.203,8.301,-56.152,0.000,0.000,0.000
486997.258,52.246,40.527,32.227,45.410,50.293,0.000,0.000,0.000
486997.262,65.918,46.875,10.254,63.477,144.043,0.000,0.000,0.000
486997.266,10.254,47.852,-1.465,8.301,-1.953,0.000,0.000,0.000
486997.269,-13.184,44.922,17.090,-29.785,-110.352,0.000,0.000,0.000
486997.273,28.320,41.504,20.508,8.301,-40.527,0.000,0.000,0.000
486997.277,66.895,39.551,13.672,36.621,52.246,0.000,0.000,0.000
486997.281,43.945,41.504,21.973,19.043,24.902,0.000,0.000,0.000
486997.285,-4.395,34.668,47.363,-11.230,-86.914,0.000,0.000,0.000
486997.289,15.625,24.414,55.664,10.742,-81.543,0.000,0.000,0.000
486997.293,54.199,25.879,52.246,41.016,62.012,0.000,0.000,0.000
486997.297,24.414,32.227,41.992,18.555,60.059,0.000,0.000,0.000
486997.301,-40.527,35.645,34.180,-5.859,-58.105,0.000,0.000,0.000
486997.305,-11.719,40.039,26.367,0.488,-62.012,0.000,0.000,0.000
486997.309,50.781,42.480,22.949,51.270,4.883,0.000,0.000,0.000
486997.312,58.105,41.992,29.297,67.383,60.059,0.000,0.000,0.000
486997.316,5.859,40.527,26.367,16.113,-49.805,0.000,0.000,0.000
486997.320,-18.555,35.645,22.949,-5.371,-136.230,0.000,0.000,0.000
486997.324,36.133,35.156,26.367,23.438,-36.133,0.000,0.000,0.000
486997.328,64.453,39.551,17.090,43.945,75.684,0.000,0.000,0.000
486997.332,8.301,44.922,1.953,22.949,36.133,4.000,1.000,0.000
486997.336,-17.578,51.758,18.066,8.789,-33.691,0.000,0.000,0.000
486997.340,41.504,47.363,42.480,35.156,19.043,0.000,0.000,0.000
486997.344,76.172,40.527,44.434,53.223,96.191,0.000,0.000,0.000
486997.348,41.504,44.922,38.574,19.531,52.734,0.000,0.000,0.000
486997.351,-3.418,46.875,37.598,-9.277,-76.172,0.000,0.000,0.000
486997.355,23.438,37.109,34.668,1.953,0.000,0.000,0.000,0.000
486997.359,62.988,35.156,21.484,29.297,236.328,0.000,0.000,0.000
486997.363,51.270,40.039,16.113,21.973,219.727,0.000,0.000,0.000
486997.367,-3.906,41.016,21.973,-9.277,-8.789,0.000,0.000,0.000
486997.371,-3.418,46.387,24.414,0.000,-70.312,0.000,0.000,0.000
486997.375,51.270,49.805,25.879,46.387,41.992,0.000,0.000,0.000
486997.379,65.918,46.387,17.090,55.664,130.859,0.000,0.000,0.000
486997.383,7.324,48.340,-0.488,8.789,26.367,0.000,0.000,0.000
486997.387,-18.555,47.363,10.254,3.906,-82.520,0.000,0.000,0.000
486997.391,32.715,42.969,29.297,40.039,2.930,0.000,0.000,0.000
486997.394,60.059,43.945,30.762,45.410,71.289,0.000,0.000,0.000
486997.398,9.277,43.457,43.945,24.902,-18.066,0.000,0.000,0.000
486997.402,-21.973,42.969,41.992,3.418,-87.402,0.000,0.000,0.000
486997.406,26.367,43.457,34.180,5.371,-24.902,0.000,0.000,0.000
486997.410,69.336,38.086,38.086,32.715,61.523,0.000,0.000,0.000
486997.414,47.363,38.574,38.086,21.973,68.848,0.000,0.000,0.000
486997.418,-14.160,42.480,37.598,1.953,-13.184,0.000,0.000,0.000
486997.422,5.371,44.922,34.180,21.484,-69.824,0.000,0.000,0.000
486997.426,74.707,46.875,32.227,42.480,30.762,0.000,0.000,0.000
486997.430,71.289,43.945,20.996,42.969,81.543,0.000,0.000,0.000
486997.434,-6.836,43.945,16.113,22.461,-27.832,0.000,0.000,0.000
486997.437,-8.301,40.039,28.809,21.973,-49.805,0.000,0.000,0.000
486997.441,61.523,36.133,32.715,52.734,50.781,0.000,0.000,0.000
486997.445,72.266,38.086,39.551,55.664,101.074,0.000,0.000,0.000
486997.449,15.625,39.062,40.527,16.602,20.996,0.000,0.000,0.000
486997.453,-0.977,39.062,29.785,11.719,-44.434,0.000,0.000,0.000
486997.457,51.758,37.598,29.297,45.898,18.555,0.000,0.000,0.000
486997.461,79.590,35.645,39.551,49.805,128.418,0.000,0.000,0.000
486997.465,35.156,37.109,45.898,13.672,101.562,0.000,0.000,0.000
486997.469,-11.230,43.457,42.969,-4.883,-26.367,0.000,0.000,0.000
486997.473,11.230,39.062,30.762,14.648,-22.461,0.000,0.000,0.000
486997.476,52.734,31.250,29.297,45.898,109.375,0.000,0.000,0.000
486997.480,41.504,38.086,34.180,38.086,179.688,0.000,0.000,0.000
486997.484,-12.695,43.457,32.715,-0.977,48.828,0.000,0.000,0.000
486997.488,-4.883,38.574,21.484,3.906,-30.762,0.000,0.000,0.000
486997.492,55.664,36.621,16.602,36.133,53.223,0.000,0.000,0.000
486997.496,45.410,36.621,13.672,23.438,90.820,0.000,0.000,0.000
486997.500,-25.879,37.109,9.277,-14.648,8.789,0.000,0.000,0.000
486997.504,-15.625,38.574,14.648,-17.578,-67.383,0.000,0.000,0.000
486997.508,45.410,39.062,14.648,17.578,69.824,0.000,0.000,0.000
486997.512,60.547,40.039,24.902,41.016,214.355,0.000,0.000,0.000
486997.516,-5.371,37.109,40.039,21.484,54.688,0.000,0.000,0.000
486997.519,-38.574,34.180,41.504,-12.207,-125.000,0.000,0.000,0.000
486997.523,13.672,35.645,29.297,7.324,-53.223,0.000,0.000,0.000
486997.527,46.875,35.645,28.809,61.523,52.246,0.000,0.000,0.000
486997.531,11.230,37.598,35.156,45.410,105.957,0.000,0.000,0.000
486997.535,-24.414,39.062,33.203,-6.836,68.359,0.000,0.000,0.000
486997.539,9.277,35.156,31.250,-3.418,27.832,0.000,0.000,0.000
486997.543,47.363,35.645,31.738,36.621,66.406,0.000,0.000,0.000
486997.547,34.180,40.039,33.203,27.832,50.293,0.000,0.000,0.000
486997.551,-15.137,37.598,27.344,-12.207,-56.641,0.000,0.000,0.000
486997.555,-6.836,31.250,21.484,-10.254,-79.102,0.000,0.000,0.000
486997.558,61.523,28.809,21.484,39.062,70.312,0.000,0.000,0.000
486997.562,67.871,33.203,26.367,57.129,188.965,0.000,0.000,0.000
486997.566,-11.719,41.016,21.484,2.930,128.906,0.000,0.000,0.000
486997.570,-22.949,42.969,5.371,-12.695,3.906,0.000,0.000,0.000
486997.574,46.875,40.527,2.441,30.273,-22.949,0.000,0.000,0.000
486997.578,77.637,40.527,15.137,35.645,55.176,0.000,0.000,0.000
486997.582,10.254,36.621,34.180,0.488,28.320,0.000,0.000,0.000
486997.586,-16.602,34.668,44.434,-7.812,-109.375,0.000,0.000,0.000
486997.590,40.039,36.621,40.039,23.438,-99.121,0.000,0.000,0.000
486997.594,73.730,36.621,26.367,53.711,128.418,0.000,0.000,0.000
486997.598,38.574,37.109,19.531,33.691,114.746,0.000,0.000,0.000
486997.601,-16.602,39.551,22.949,-10.742,-47.363,0.000,0.000,0.000
486997.605,17.578,38.086,31.738,9.766,28.320,0.000,0.000,0.000
486997.609,67.383,38.086,38.574,44.922,139.160,0.000,0.000,0.000
486997.613,45.410,44.434,42.969,32.227,113.281,0.000,0.000,0.000
486997.617,-13.184,44.922,39.062,-2.441,-33.691,0.000,0.000,0.000
486997.621,-12.207,39.062,31.250,-2.930,-67.383,0.000,0.000,0.000
486997.625,43.945,40.527,35.156,35.645,46.875,0.000,0.000,0.000
486997.629,62.012,43.457,32.715,41.992,112.305,0.000,0.000,0.000
486997.633,17.090,42.969,27.344,-5.859,33.691,0.000,0.000,0.000
486997.637,-0.977,38.574,34.180,-2.441,-74.219,0.000,0.000,0.000
486997.641,37.109,35.156,32.227,31.738,-20.020,0.000,0.000,0.000
486997.644,60.547,41.016,19.043,24.414,163.574,0.000,0.000,0.000
486997.648,16.113,43.945,15.625,-13.184,138.184,0.000,0.000,0.000
486997.652,-22.461,38.086,24.414,-32.227,-51.758,0.000,0.000,0.000
486997.656,20.020,30.762,32.715,-2.930,-64.453,0.000,0.000,0.000
486997.660,58.105,33.691,32.715,38.574,13.184,0.000,0.000,0.000
486997.664,27.832,41.016,31.738,21.484,-22.461,0.000,0.000,0.000
486997.668,-17.090,39.551,32.227,-15.137,-104.004,0.000,0.000,0.000
486997.672,4.395,38.086,36.621,8.789,-87.891,0.000,0.000,0.000
486997.676,64.453,38.086,39.551,38.086,5.371,0.000,0.000,0.000
486997.680,52.734,39.062,38.574,21.973,57.617,0.000,0.000,0.000
486997.683,-24.414,37.109,30.762,-9.766,-62.988,0.000,0.000,0.000
486997.687,-12.695,33.203,15.625,-1.953,-111.328,0.000,0.000,0.000
486997.691,50.781,35.156,22.949,40.039,3.906,0.000,0.000,0.000
486997.695,62.500,35.156,34.180,50.781,50.293,0.000,0.000,0.000
486997.699,-2.441,33.691,32.227,12.695,-1.465,0.000,0.000,0.000
486997.703,-24.414,34.668,37.109,-21.484,-65.918,0.000,0.000,0.000
486997.707,27.832,32.715,37.109,18.066,-1.953,0.000,0.000,0.000
486997.711,66.895,31.738,32.715,55.664,114.746,0.000,0.000,0.000
486997.715,21.484,36.133,28.320,20.020,74.219,0.000,0.000,0.000
486997.719,-27.344,36.133,27.344,-16.602,14.648,0.000,0.000,0.000
486997.723,29.785,36.133,33.203,0.977,77.637,0.000,0.000,0.000
486997.726,67.871,37.598,31.738,41.504,135.254,0.000,0.000,0.000
486997.730,28.809,35.645,24.902,30.762,97.168,0.000,0.000,0.000
486997.734,-25.879,29.297,25.879,-14.160,-27.832,0.000,0.000,0.000
486997.738,6.836,26.855,22.461,3.418,-70.801,0.000,0.000,0.000
486997.742,72.754,28.809,12.695,53.711,86.426,0.000,0.000,0.000
486997.746,57.617,30.273,19.043,78.125,178.711,0.000,0.000,0.000
486997.750,-4.395,35.156,39.062,33.691,37.109,0.000,0.000,0.000
486997.754,-18.555,41.504,39.062,-21.484,-59.082,0.000,0.000,0.000
486997.758,33.203,40.039,30.762,18.555,76.660,0.000,0.000,0.000
486997.762,57.617,35.645,34.668,37.598,151.367,0.000,0.000,0.000
486997.766,-6.836,34.180,32.715,-1.465,46.387,0.000,0.000,0.000
486997.769,-36.621,37.109,24.414,-16.602,-117.676,0.000,0.000,0.000
486997.773,28.809,39.551,26.855,20.020,-84.961,0.000,0.000,0.000
486997.777,76.660,40.039,34.180,46.387,55.176,0.000,0.000,0.000
486997.781,28.809,41.992,38.086,25.391,25.879,0.000,0.000,0.000
486997.785,-22.949,35.645,37.598,-4.883,-93.750,0.000,0.000,0.000
486997.789,8.789,30.273,29.297,12.207,-26.855,0.000,0.000,0.000
486997.793,61.523,31.738,21.484,50.293,118.164,0.000,0.000,0.000
486997.797,38.574,33.203,24.902,43.457,42.480,0.000,0.000,0.000
486997.801,-34.668,34.180,26.367,-11.719,-93.750,0.000,0.000,0.000
486997.805,-23.438,34.668,21.484,-28.809,-104.492,0.000,0.000,0.000
486997.808,37.598,35.156,23.438,23.926,16.113,0.000,0.000,0.000
486997.812,50.781,38.086,21.973,39.062,95.215,0.000,0.000,0.000
486997.816,-4.395,42.480,14.648,12.207,-21.973,0.000,0.000,0.000
486997.820,-11.719,40.527,15.625,3.418,-62.500,0.000,0.000,0.000
486997.824,51.270,39.062,16.113,27.832,101.074,0.000,0.000,0.000
486997.828,63.477,39.062,22.949,47.852,189.941,0.000,0.000,0.000
486997.832,15.137,35.645,32.715,14.648,86.426,0.000,0.000,0.000
486997.836,-26.367,33.203,26.855,-11.719,6.348,0.000,0.000,0.000
486997.840,0.000,36.133,24.414,12.695,85.938,0.000,0.000,0.000
486997.844,50.781,37.598,35.156,38.086,159.668,0.000,0.000,0.000
486997.848,22.949,34.180,34.668,11.719,128.418,0.000,0.000,0.000
486997.851,-34.180,29.785,19.531,-19.043,-60.059,0.000,0.000,0.000
486997.855,-4.395,31.738,21.484,16.602,-122.070,0.000,0.000,0.000
486997.859,62.500,37.109,34.668,52.246,95.215,0.000,0.000,0.000
486997.863,45.410,35.645,35.156,15.625,190.430,0.000,0.000,0.000
486997.867,-28.809,37.109,32.715,-18.555,103.516,0.000,0.000,0.000
486997.871,-15.137,34.668,41.504,-0.977,-8.789,0.000,0.000,0.000
486997.875,44.922,32.227,39.062,28.809,-11.719,0.000,0.000,0.000
486997.879,58.105,39.062,21.484,41.504,26.367,0.000,0.000,0.000
486997.883,-5.859,35.645,23.926,9.277,-67.871,0.000,0.000,0.000
486997.887,-20.996,32.227,40.527,-12.207,-108.398,0.000,0.000,0.000
486997.891,42.480,33.203,42.969,27.832,-56.641,0.000,0.000,0.000
486997.894,66.406,34.668,36.133,53.223,-8.301,0.000,0.000,0.000
486997.898,17.090,42.969,33.203,27.832,26.367,0.000,0.000,0.000
486997.902,-9.277,43.945,25.391,5.371,-21.973,0.000,0.000,0.000
486997.906,28.320,45.410,18.066,27.832,-104.980,0.000,0.000,0.000
486997.910,59.082,43.457,22.461,46.875,-45.410,0.000,0.000,0.000
486997.914,37.109,37.598,27.344,16.113,-13.672,0.000,0.000,0.000
486997.918,-11.719,38.574,33.203,-2.930,-80.566,0.000,0.000,0.000
486997.922,3.418,37.109,36.621,16.113,-96.191,0.000,0.000,0.000
486997.926,51.758,35.156,33.691,42.969,-19.043,0.000,0.000,0.000
486997.930,40.039,36.133,26.855,38.574,39.062,0.000,0.000,0.000
486997.933,-18.066,38.086,25.391,0.977,-48.340,0.000,0.000,0.000
486997.937,-7.812,37.598,29.785,-9.277,-107.910,0.000,0.000,0.000
486997.941,42.969,34.668,25.879,22.949,-33.203,0.000,0.000,0.000
486997.945,58.105,36.133,25.391,31.250,31.250,0.000,0.000,0.000
486997.949,10.742,40.527,28.809,-0.977,-8.301,0.000,0.000,0.000
486997.953,-22.461,41.016,25.879,-8.301,-133.301,0.000,0.000,0.000
486997.957,24.414,38.086,26.367,23.926,-83.984,0.000,0.000,0.000
486997.961,66.406,39.062,30.762,44.922,48.828,0.000,0.000,0.000
486997.965,17.090,39.062,28.320,36.621,8.789,0.000,0.000,0.000
486997.969,-29.297,39.062,23.438,11.230,-87.891,0.000,0.000,0.000
486997.973,7.324,40.527,15.625,16.602,-86.426,0.000,0.000,0.000
486997.976,61.523,39.062,19.043,40.527,34.180,0.000,0.000,0.000
486997.980,38.574,39.551,34.668,20.996,107.910,0.000,0.000,0.000
486997.984,-28.320,46.387,37.109,-5.371,30.273,0.000,0.000,0.000
486997.988,-12.207,45.410,30.762,0.000,10.254,0.000,0.000,0.000
486997.992,41.992,37.598,31.250,34.668,137.207,0.000,0.000,0.000
486997.996,47.363,36.621,22.949,43.945,185.547,0.000,0.000,0.000
486998.000,-18.555,38.574,17.578,12.207,44.434,0.000,0.000,0.000
486998.004,-21.484,36.621,28.320,-6.836,-70.801,0.000,0.000,0.000
486998.008,38.574,36.621,36.621,23.926,-22.461,0.000,0.000,0.000
486998.012,57.129,41.504,37.598,37.109,48.340,0.000,0.000,0.000
486998.015,8.301,42.969,30.762,3.418,-21.484,0.000,0.000,0.000
486998.019,-22.949,41.504,25.391,-1.953,-95.703,0.000,0.000,0.000
486998.023,31.738,41.016,18.555,26.855,57.129,0.000,0.000,0.000
486998.027,65.430,41.016,13.672,39.551,197.754,0.000,0.000,0.000
486998.031,14.160,41.016,26.367,10.254,166.016,0.000,0.000,0.000
486998.035,-23.438,41.504,35.156,-13.672,57.129,0.000,0.000,0.000
486998.039,20.996,39.062,37.109,16.602,52.734,0.000,0.000,0.000
486998.043,61.035,36.621,38.086,58.594,153.320,0.000,0.000,0.000
486998.047,41.992,38.574,34.180,38.574,155.273,0.000,0.000,0.000
486998.051,-14.648,41.504,27.832,0.977,47.852,0.000,0.000,0.000
486998.055,-3.906,39.551,24.902,7.812,-43.945,0.000,0.000,0.000
486998.058,58.105,40.039,27.832,50.293,-26.367,0.000,0.000,0.000
486998.062,69.824,40.527,27.344,64.941,43.457,0.000,0.000,0.000
486998.066,5.371,40.527,27.344,30.273,-46.387,0.000,0.000,0.000
486998.070,-19.043,40.039,24.414,5.859,-117.188,0.000,0.000,0.000
486998.074,39.062,38.086,23.926,24.414,-26.367,0.000,0.000,0.000
486998.078,72.266,37.598,29.297,48.340,53.711,0.000,0.000,0.000
486998.082,15.625,30.762,24.902,10.254,22.461,0.000,0.000,0.000
486998.086,-20.020,29.785,24.902,-15.625,-62.012,0.000,0.000,0.000
486998.090,39.062,37.598,33.203,20.996,-24.414,0.000,0.000,0.000
486998.094,68.848,42.480,33.203,55.176,92.773,0.000,0.000,0.000
486998.098,29.297,40.527,34.668,34.668,64.941,0.000,0.000,0.000
486998.101,-11.230,41.016,33.203,2.441,-9.766,0.000,0.000,0.000
486998.105,17.578,41.504,24.414,18.066,10.254,0.000,0.000,0.000
486998.109,62.988,38.086,21.484,52.246,80.566,0.000,0.000,0.000
486998.113,40.527,41.504,23.438,45.410,95.215,0.000,0.000,0.000
486998.117,-9.766,46.387,11.719,15.137,-48.828,0.000,0.000,0.000
486998.121,-3.418,42.480,13.184,18.066,-46.387,0.000,0.000,0.000
486998.125,38.086,37.109,35.645,46.875,66.406,0.000,0.000,0.000
486998.129,56.152,37.109,43.945,35.156,108.398,0.000,0.000,0.000
486998.133,-0.977,39.062,32.715,-3.418,40.039,0.000,0.000,0.000
486998.137,-16.113,42.969,26.855,-8.301,-44.922,0.000,0.000,0.000
486998.140,39.062,42.969,27.832,22.949,41.016,0.000,0.000,0.000
486998.144,71.289,45.410,29.297,45.410,170.898,0.000,0.000,0.000
486998.148,27.832,50.293,31.250,22.461,105.469,0.000,0.000,0.000
486998.152,-19.043,50.293,31.250,-5.371,-58.105,0.000,0.000,0.000
486998.156,31.738,46.387,35.645,16.602,-17.090,0.000,0.000,0.000
486998.160,80.566,48.828,39.551,49.805,99.609,0.000,0.000,0.000
486998.164,39.062,46.387,37.109,27.344,40.527,0.000,0.000,0.000
486998.168,-19.531,38.086,31.250,0.977,-63.965,0.000,0.000,0.000
486998.172,-4.395,36.133,20.996,8.301,-70.312,0.000,0.000,0.000
486998.176,40.039,38.574,18.066,31.250,32.227,0.000,0.000,0.000
486998.180,39.551,42.480,29.785,28.809,46.875,0.000,0.000,0.000
486998.183,-21.973,41.504,25.391,-3.906,-62.500,0.000,0.000,0.000
486998.187,-10.254,38.086,14.160,-1.953,-96.680,0.000,0.000,0.000
486998.191,49.316,36.621,23.438,35.645,-15.625,0.000,0.000,0.000
486998.195,56.152,39.062,38.086,45.410,83.984,0.000,0.000,0.000
486998.199,8.301,38.574,41.016,17.090,7.324,0.000,0.000,0.000
486998.203,-14.160,41.016,33.203,-2.930,-101.074,0.000,0.000,0.000
486998.207,30.273,44.434,28.809,19.043,-63.965,0.000,0.000,0.000
486998.211,72.754,41.992,32.715,50.781,63.965,0.000,0.000,0.000
486998.215,28.809,39.062,29.785,24.902,85.449,0.000,0.000,0.000
486998.219,-17.578,40.527,21.484,-16.113,3.418,0.000,0.000,0.000
486998.223,32.227,39.551,18.066,3.906,28.809,0.000,0.000,0.000
486998.226,64.453,36.133,12.207,49.316,117.188,0.000,0.000,0.000
486998.230,22.949,35.156,20.508,38.086,113.281,0.000,0.000,0.000
486998.234,-27.344,31.250,33.691,3.418,5.371,0.000,0.000,0.000
486998.238,-5.371,31.250,27.832,11.719,2.441,0.000,0.000,0.000
486998.242,52.246,31.250,29.785,42.480,133.301,0.000,0.000,0.000
486998.246,66.406,33.691,41.016,51.758,190.430,0.000,0.000,0.000
486998.250,2.441,34.668,40.527,22.949,88.379,0.000,0.000,0.000
486998.254,-23.926,31.250,37.109,20.020,4.395,0.000,0.000,0.000
486998.258,36.133,30.762,41.992,57.129,133.789,0.000,0.000,0.000
486998.262,65.918,31.250,43.945,65.918,232.910,0.000,0.000,0.000
486998.265,10.742,36.133,39.062,26.855,75.195,0.000,0.000,0.000
486998.269,-22.949,38.574,32.227,-11.719,-65.430,0.000,0.000,0.000
486998.273,28.320,35.156,22.949,18.066,-25.391,0.000,0.000,0.000
486998.277,64.941,35.645,20.996,56.152,40.527,0.000,0.000,0.000
486998.281,26.855,37.598,24.414,23.438,-5.859,0.000,0.000,0.000
486998.285,-13.672,32.715,30.762,-1.953,-97.168,0.000,0.000,0.000
486998.289,23.438,33.691,33.203,12.207,-87.402,0.000,0.000,0.000
486998.293,65.430,38.574,27.344,47.852,17.090,0.000,0.000,0.000
486998.297,46.875,39.062,25.879,51.270,22.949,0.000,0.000,0.000
486998.301,-6.836,39.551,25.879,7.324,-71.289,0.000,0.000,0.000
486998.305,5.371,36.133,33.691,-0.977,-81.543,0.000,0.000,0.000
486998.308,51.270,37.109,43.457,37.598,12.695,0.000,0.000,0.000
486998.312,56.641,40.527,37.598,49.805,61.035,0.000,0.000,0.000
486998.316,1.953,36.133,26.367,6.348,-32.715,0.000,0.000,0.000
486998.320,-3.418,31.738,29.297,-4.883,-88.867,0.000,0.000,0.000
486998.324,56.152,34.668,33.691,28.809,-17.578,0.000,0.000,0.000
486998.328,63.477,40.527,37.598,50.781,65.918,0.000,0.000,0.000
486998.332,2.441,43.945,41.992,18.066,15.625,0.000,0.000,0.000
486998.336,-24.414,46.387,38.574,-13.184,-74.707,0.000,0.000,0.000
486998.340,29.297,44.434,32.715,17.578,14.648,0.000,0.000,0.000
486998.344,70.312,43.457,33.691,47.852,98.145,0.000,0.000,0.000
486998.348,32.227,42.969,36.133,27.832,12.695,0.000,0.000,0.000
486998.351,-24.902,38.086,34.180,-0.488,-79.102,0.000,0.000,0.000
486998.355,7.812,36.621,21.973,14.160,-47.363,0.000,0.000,0.000
486998.359,58.105,34.668,14.648,47.363,60.547,0.000,0.000,0.000
486998.363,43.457,34.180,20.508,41.016,112.793,0.000,0.000,0.000
486998.367,-15.137,37.109,32.715,9.766,7.324,0.000,0.000,0.000
486998.371,-22.461,40.039,41.016,7.812,-43.945,0.000,0.000,0.000
486998.375,35.156,38.574,37.109,39.551,47.852,0.000,0.000,0.000
486998.379,50.781,38.574,36.621,35.645,90.820,0.000,0.000,0.000
486998.383,-10.254,37.598,36.133,-1.465,7.812,0.000,0.000,0.000
486998.387,-26.367,34.668,33.691,-11.719,-97.168,0.000,0.000,0.000
486998.390,37.109,36.133,35.156,14.648,-37.109,0.000,0.000,0.000
486998.394,71.289,36.133,31.250,57.129,97.656,0.000,0.000,0.000
486998.398,16.113,38.086,22.461,29.785,71.289,0.000,0.000,0.000
486998.402,-22.461,38.086,20.996,-12.207,-60.059,0.000,0.000,0.000
486998.406,24.414,35.645,23.926,20.996,29.297,0.000,0.000,0.000
486998.410,63.965,38.574,30.273,53.223,161.133,0.000,0.000,0.000
486998.414,35.645,40.527,34.180,27.344,100.586,0.000,0.000,0.000
486998.418,-16.113,40.039,32.715,-20.020,-25.879,0.000,0.000,0.000
486998.422,6.836,36.621,31.738,-11.719,-53.223,0.000,0.000,0.000
486998.426,65.918,34.180,29.785,34.668,70.801,0.000,0.000,0.000
486998.430,69.336,37.109,29.785,39.062,71.289,0.000,0.000,0.000
486998.433,-6.348,39.062,35.156,2.930,-32.227,0.000,0.000,0.000
486998.437,-6.348,38.574,30.273,-14.648,14.648,0.000,0.000,0.000
486998.441,53.711,39.551,21.484,23.926,91.309,0.000,0.000,0.000
486998.445,61.035,39.062,26.367,41.992,110.840,0.000,0.000,0.000
486998.449,7.324,38.574,33.691,9.277,37.598,0.000,0.000,0.000
486998.453,-20.508,40.039,27.832,-10.742,-46.387,0.000,0.000,0.000
486998.457,26.855,36.133,21.484,14.160,38.086,0.000,0.000,0.000
486998.461,64.941,31.738,27.344,40.527,118.652,0.000,0.000,0.000
486998.465,44.434,39.551,28.809,19.531,56.641,0.000,0.000,0.000
486998.469,2.441,40.527,29.297,-7.812,-28.320,0.000,0.000,0.000
486998.472,12.695,35.645,24.902,4.883,16.113,0.000,0.000,0.000
486998.476,57.129,38.086,15.625,46.875,124.023,0.000,0.000,0.000
486998.480,30.273,37.598,24.902,43.945,93.750,0.000,0.000,0.000
486998.484,-36.621,36.133,36.621,-11.719,29.785,0.000,0.000,0.000
486998.488,-5.859,37.109,30.273,-11.230,47.852,0.000,0.000,0.000
486998.492,55.176,40.527,20.996,34.180,158.691,0.000,0.000,0.000
486998.496,54.688,41.504,31.250,35.645,211.914,0.000,0.000,0.000
486998.500,-12.695,41.016,40.527,0.977,98.633,0.000,0.000,0.000
486998.504,-18.066,39.551,27.344,-2.930,10.742,0.000,0.000,0.000
486998.508,41.992,35.156,20.996,36.621,68.848,0.000,0.000,0.000
486998.512,59.570,38.086,28.809,47.852,162.598,0.000,0.000,0.000
486998.515,7.324,41.992,37.109,10.254,54.688,0.000,0.000,0.000
486998.519,-17.578,37.109,40.527,-7.324,-127.930,0.000,0.000,0.000
486998.523,37.598,35.156,34.668,25.879,-51.758,0.000,0.000,0.000
486998.527,72.754,36.133,30.762,58.594,33.203,0.000,0.000,0.000
486998.531,34.668,39.551,26.367,21.484,-14.648,0.000,0.000,0.000
486998.535,-18.066,42.480,21.973,-20.996,-93.750,0.000,0.000,0.000
486998.539,10.742,44.434,24.414,0.488,-113.281,0.000,0.000,0.000
486998.543,66.406,42.480,20.020,38.086,-2.930,0.000,0.000,0.000
486998.547,39.551,37.598,18.555,30.273,49.316,0.000,0.000,0.000
486998.551,-28.320,38.086,24.414,-10.742,-30.762,0.000,0.000,0.000
486998.555,-16.113,38.574,20.996,-7.324,-68.359,0.000,0.000,0.000
486998.558,43.457,28.809,20.020,23.926,39.062,0.000,0.000,0.000
486998.562,45.898,26.367,26.855,28.809,88.379,0.000,0.000,0.000
486998.566,-17.578,35.645,32.227,1.953,-34.668,0.000,0.000,0.000
486998.570,-17.090,36.621,31.250,-8.301,-109.863,0.000,0.000,0.000
486998.574,47.363,33.203,27.344,28.320,-25.391,0.000,0.000,0.000
486998.578,62.012,34.180,26.855,45.898,89.355,0.000,0.000,0.000
486998.582,6.836,37.598,30.762,8.789,55.664,0.000,0.000,0.000
486998.586,-25.391,40.039,31.250,6.348,3.418,0.000,0.000,0.000
486998.590,17.578,41.016,19.043,39.551,44.434,0.000,0.000,0.000
486998.594,45.410,40.039,12.695,40.039,73.242,0.000,0.000,0.000
486998.597,15.137,37.109,24.414,10.254,64.941,0.000,0.000,0.000
486998.601,-26.855,32.715,27.344,-18.555,9.277,0.000,0.000,0.000
486998.605,-2.930,37.109,24.414,-11.230,-10.254,0.000,0.000,0.000
486998.609,54.688,40.039,32.715,34.180,138.184,0.000,0.000,0.000
486998.613,47.363,35.645,34.180,37.109,194.824,0.000,0.000,0.000
486998.617,-20.508,37.598,33.203,-0.977,55.664,0.000,0.000,0.000
486998.621,-13.672,41.504,24.902,-1.953,23.926,0.000,0.000,0.000
486998.625,51.758,40.527,15.137,46.387,117.188,0.000,0.000,0.000
486998.629,61.035,43.457,24.902,53.711,166.992,0.000,0.000,0.000
486998.633,-4.395,43.457,36.621,6.836,66.406,0.000,0.000,0.000
486998.637,-7.324,42.480,45.898,1.465,-52.734,0.000,0.000,0.000
486998.640,53.223,42.480,46.387,39.551,-0.977,0.000,0.000,0.000
486998.644,68.359,36.133,39.062,63.965,88.379,0.000,0.000,0.000
486998.648,15.137,34.668,37.109,26.367,31.250,0.000,0.000,0.000
486998.652,-20.508,36.621,37.109,-1.465,-44.434,0.000,0.000,0.000
486998.656,29.297,38.086,35.156,21.484,-2.441,0.000,0.000,0.000
486998.660,62.988,42.969,30.762,51.270,69.336,0.000,0.000,0.000
486998.664,24.414,40.039,23.438,34.180,68.359,0.000,0.000,0.000
486998.668,-23.438,37.598,25.879,-5.859,-37.109,0.000,0.000,0.000
486998.672,1.465,41.504,29.297,14.648,-91.797,0.000,0.000,0.000
486998.676,58.105,40.527,13.184,61.035,74.707,0.000,0.000,0.000
486998.680,48.828,39.551,-0.488,51.270,162.109,0.000,0.000,0.000
486998.683,-12.695,40.039,9.277,5.859,-60.547,0.000,0.000,0.000
486998.687,-4.395,39.551,18.555,-1.953,-141.113,0.000,0.000,0.000
486998.691,46.387,38.574,29.785,20.020,25.879,0.000,0.000,0.000
486998.695,63.477,40.039,48.340,33.203,92.285,0.000,0.000,0.000
