timestamps,TP9,AF7,AF8,TP10,Right AUX,Frequency,Contrast,Orientation
487528.059,-7.812,33.203,29.297,-31.250,-73.730,0.000,0.000,0.000
487528.063,32.227,30.762,36.133,-12.695,13.672,0.000,0.000,0.000
487528.067,62.988,29.297,30.273,12.207,54.688,0.000,0.000,0.000
487528.071,40.527,29.297,24.902,-7.324,41.504,0.000,0.000,0.000
487528.075,5.371,32.715,27.344,-32.715,29.785,0.000,0.000,0.000
487528.079,15.625,34.180,29.297,-25.879,29.785,0.000,0.000,0.000
487528.083,54.199,33.203,31.738,-16.113,42.480,0.000,0.000,0.000
487528.086,48.340,32.227,31.738,-15.625,12.207,0.000,0.000,0.000
487528.090,3.906,31.738,31.738,-35.156,-48.828,0.000,0.000,0.000
487528.094,10.742,32.227,28.320,-36.133,-101.074,0.000,0.000,0.000
487528.098,53.223,28.320,20.996,-16.113,19.531,0.000,0.000,0.000
487528.102,53.711,28.320,16.113,-10.742,184.082,0.000,0.000,0.000
487528.106,5.859,35.156,25.391,-31.738,114.258,0.000,0.000,0.000
487528.110,0.000,33.691,38.086,-42.480,29.297,0.000,0.000,0.000
487528.114,42.969,32.715,34.668,-28.320,97.656,0.000,0.000,0.000
487528.118,56.641,31.738,33.203,-24.414,136.230,0.000,0.000,0.000
487528.122,18.555,28.320,37.598,-44.922,45.410,0.000,0.000,0.000
487528.126,-4.395,25.391,40.527,-61.035,-81.543,0.000,0.000,0.000
487528.129,26.367,23.438,37.109,-52.246,-62.500,0.000,0.000,0.000
487528.133,59.570,25.879,28.320,-48.340,27.344,0.000,0.000,0.000
487528.137,39.062,31.250,24.902,-65.918,32.715,0.000,0.000,0.000
487528.141,-11.230,30.762,25.879,-79.102,-43.457,0.000,0.000,0.000
487528.145,10.742,25.879,27.832,-64.453,-82.520,0.000,0.000,0.000
487528.149,51.270,22.461,29.297,-39.551,-15.137,0.000,0.000,0.000
487528.153,38.574,21.484,33.203,-46.875,63.965,0.000,0.000,0.000
487528.157,-2.930,23.438,29.785,-66.406,9.766,0.000,0.000,0.000
487528.161,5.371,26.855,26.367,-62.012,-55.176,0.000,0.000,0.000
487528.165,44.922,30.762,31.738,-40.527,20.996,0.000,0.000,0.000
487528.168,48.340,26.367,28.320,-29.785,86.914,0.000,0.000,0.000
487528.172,10.742,21.484,25.391,-45.898,-0.488,0.000,0.000,0.000
487528.176,-1.465,24.414,24.902,-62.988,-116.699,0.000,0.000,0.000
487528.180,35.156,29.785,20.996,-43.457,-51.758,0.000,0.000,0.000
487528.184,60.547,34.668,21.484,-23.926,78.613,0.000,0.000,0.000
487528.188,30.762,30.273,30.762,-35.645,51.270,0.000,0.000,0.000
487528.192,1.465,27.344,36.621,-48.340,-31.250,0.000,0.000,0.000
487528.196,31.738,28.809,32.227,-27.344,-4.395,0.000,0.000,0.000
487528.200,62.012,28.809,29.785,-3.418,110.352,0.000,0.000,0.000
487528.204,41.504,31.250,28.809,-18.555,89.355,0.000,0.000,0.000
487528.208,-3.418,27.832,21.973,-51.758,18.555,0.000,0.000,0.000
487528.211,2.930,25.391,17.090,-49.805,13.672,0.000,0.000,0.000
487528.215,39.551,30.762,24.902,-28.320,83.008,0.000,0.000,0.000
487528.219,37.109,30.762,29.785,-24.414,122.559,0.000,0.000,0.000
487528.223,-2.930,29.297,25.391,-41.016,-11.230,0.000,0.000,0.000
487528.227,0.000,34.180,24.902,-43.945,-59.082,0.000,0.000,0.000
487528.231,41.992,30.273,31.250,-21.484,114.258,0.000,0.000,0.000
487528.235,52.734,24.902,33.691,-17.578,235.352,0.000,0.000,0.000
487528.239,15.137,28.809,29.785,-32.227,138.184,0.000,0.000,0.000
487528.243,-4.395,25.879,29.297,-37.598,-32.227,0.000,0.000,0.000
487528.247,34.180,27.832,30.273,-24.414,-24.414,0.000,0.000,0.000
487528.251,62.988,31.738,28.320,-6.836,75.195,0.000,0.000,0.000
487528.254,26.367,27.832,24.414,-12.207,43.945,0.000,0.000,0.000
487528.258,-9.277,31.250,19.531,-24.414,-20.020,0.000,0.000,0.000
487528.262,20.020,33.203,25.879,-11.230,12.695,0.000,0.000,0.000
487528.266,59.570,33.691,34.668,1.465,89.844,0.000,0.000,0.000
487528.270,38.086,31.738,35.645,-13.672,82.520,0.000,0.000,0.000
487528.274,-9.277,28.809,35.156,-32.227,-10.254,0.000,0.000,0.000
487528.278,3.906,25.391,34.668,-33.691,14.160,0.000,0.000,0.000
487528.282,40.039,26.367,37.109,-11.230,162.109,0.000,0.000,0.000
487528.286,44.922,31.250,26.855,-2.930,117.676,0.000,0.000,0.000
487528.290,3.418,28.809,19.531,-18.555,-19.043,0.000,0.000,0.000
487528.293,-6.836,27.344,23.926,-10.742,-78.613,0.000,0.000,0.000
487528.297,27.832,32.715,22.949,6.836,-12.207,0.000,0.000,0.000
487528.301,44.434,35.645,29.297,12.207,103.516,0.000,0.000,0.000
487528.305,13.672,33.203,32.227,-3.906,48.828,0.000,0.000,0.000
487528.309,-8.301,30.762,31.738,-18.066,-52.246,0.000,0.000,0.000
487528.313,28.809,33.691,37.598,-1.465,-4.395,0.000,0.000,0.000
487528.317,61.523,32.715,40.527,23.926,154.785,0.000,0.000,0.000
487528.321,34.668,30.762,37.598,8.789,124.023,0.000,0.000,0.000
487528.325,4.883,30.273,31.738,-18.555,0.488,0.000,0.000,0.000
487528.329,32.227,35.645,29.785,-12.207,25.879,0.000,0.000,0.000
487528.333,62.500,37.598,28.320,12.695,139.160,0.000,0.000,0.000
487528.336,53.223,33.691,29.297,11.230,75.195,0.000,0.000,0.000
487528.340,12.695,32.715,30.762,-1.465,-100.586,0.000,0.000,0.000
487528.344,10.254,34.668,29.297,0.977,-72.754,0.000,0.000,0.000
487528.348,45.898,29.785,31.738,18.066,43.945,0.000,0.000,0.000
487528.352,56.152,29.297,35.156,20.996,43.457,0.000,0.000,0.000
487528.356,13.184,33.203,33.691,6.836,-60.547,0.000,0.000,0.000
487528.360,2.441,34.668,35.645,9.766,-106.445,0.000,0.000,0.000
487528.364,45.410,33.691,31.250,26.855,-44.922,0.000,0.000,0.000
487528.368,62.012,31.250,24.902,18.555,45.898,0.000,0.000,0.000
487528.372,24.414,31.738,22.461,6.348,0.977,0.000,0.000,0.000
487528.376,-8.789,30.273,24.414,-2.930,-116.699,0.000,0.000,0.000
487528.379,22.461,29.297,30.762,1.465,-55.664,0.000,0.000,0.000
487528.383,51.758,31.738,23.926,29.785,86.426,0.000,0.000,0.000
487528.387,25.879,31.738,13.672,9.766,56.152,0.000,0.000,0.000
487528.391,-17.578,28.809,21.484,-26.855,-51.270,0.000,0.000,0.000
487528.395,-1.953,28.320,32.227,-15.137,-55.664,0.000,0.000,0.000
487528.399,40.039,32.227,33.691,9.766,-6.836,0.000,0.000,0.000
487528.403,39.551,28.320,35.156,14.160,11.230,0.000,0.000,0.000
487528.407,-8.789,23.926,32.715,-10.254,-30.273,0.000,0.000,0.000
487528.411,-9.277,26.367,24.902,-18.066,-5.859,0.000,0.000,0.000
487528.415,39.551,31.250,29.297,8.301,36.133,0.000,0.000,0.000
487528.418,54.688,36.621,33.691,13.184,101.074,0.000,0.000,0.000
487528.422,14.160,29.297,31.738,8.301,104.980,0.000,0.000,0.000
487528.426,0.000,24.902,29.785,3.418,-1.465,0.000,0.000,0.000
487528.430,40.039,31.250,24.902,13.672,75.195,0.000,0.000,0.000
487528.434,56.152,28.809,24.902,22.461,125.977,0.000,0.000,0.000
487528.438,18.555,26.855,27.344,-4.883,19.043,0.000,0.000,0.000
487528.442,-12.695,27.344,31.250,-20.508,-71.289,0.000,0.000,0.000
487528.446,11.719,26.367,36.621,-14.160,-30.762,0.000,0.000,0.000
487528.450,47.363,25.879,34.668,3.418,116.699,0.000,0.000,0.000
487528.454,30.762,27.344,29.785,-5.371,113.281,0.000,0.000,0.000
487528.458,-11.230,31.738,30.273,-31.250,-16.113,0.000,0.000,0.000
487528.461,4.883,28.320,29.785,-29.785,-65.430,0.000,0.000,0.000
487528.465,41.016,16.113,29.297,-9.277,45.898,0.000,0.000,0.000
487528.469,41.016,13.184,31.250,-8.789,88.379,0.000,0.000,0.000
487528.473,-0.977,22.949,26.855,-34.180,-50.293,0.000,0.000,0.000
487528.477,-3.906,25.391,22.461,-35.156,-70.801,0.000,0.000,0.000
487528.481,34.668,22.461,25.391,-17.578,1.953,0.000,0.000,0.000
487528.485,50.781,21.973,27.832,-17.578,43.457,0.000,0.000,0.000
487528.489,17.090,23.438,28.809,-24.902,-50.293,0.000,0.000,0.000
487528.493,-5.371,26.855,29.297,-25.391,-102.051,0.000,0.000,0.000
487528.497,32.227,26.367,27.832,-7.812,-21.484,0.000,0.000,0.000
487528.500,58.105,22.949,32.227,0.977,55.176,0.000,0.000,0.000
487528.504,25.879,24.414,32.715,-23.438,19.531,0.000,0.000,0.000
487528.508,-1.953,24.902,30.762,-32.715,-87.402,0.000,0.000,0.000
487528.512,31.250,23.438,33.691,-15.137,-18.066,0.000,0.000,0.000
487528.516,67.383,31.738,35.156,8.789,113.770,0.000,0.000,0.000
487528.520,51.270,30.273,31.250,2.441,76.172,0.000,0.000,0.000
487528.524,3.418,20.996,31.738,-22.461,-23.438,0.000,0.000,0.000
487528.528,18.066,24.902,35.156,-11.719,-4.395,0.000,0.000,0.000
487528.532,58.594,28.320,28.809,10.742,74.219,0.000,0.000,0.000
487528.536,52.734,27.344,20.508,4.395,100.098,0.000,0.000,0.000
487528.540,8.301,27.344,26.367,-16.602,25.879,0.000,0.000,0.000
487528.543,2.441,28.809,34.180,-20.508,-58.105,0.000,0.000,0.000
487528.547,46.387,24.902,36.621,-9.277,-8.301,0.000,0.000,0.000
487528.551,62.988,23.438,40.039,-3.906,79.102,0.000,0.000,0.000
487528.555,26.855,28.320,37.598,-20.020,75.195,0.000,0.000,0.000
487528.559,8.789,26.367,33.203,-38.086,25.879,0.000,0.000,0.000
487528.563,42.969,26.855,34.668,-27.344,15.137,0.000,0.000,0.000
487528.567,67.383,28.320,25.879,-15.625,57.617,0.000,0.000,0.000
487528.571,40.527,21.484,17.090,-29.297,54.688,0.000,0.000,0.000
487528.575,3.906,16.113,31.250,-41.992,-26.367,0.000,0.000,0.000
487528.579,22.461,20.508,43.457,-28.320,-71.777,0.000,0.000,0.000
487528.583,59.082,24.414,39.062,-4.395,-17.578,0.000,0.000,0.000
487528.586,56.152,22.461,34.180,-9.277,40.039,0.000,0.000,0.000
487528.590,13.184,23.926,33.203,-29.297,-49.316,0.000,0.000,0.000
487528.594,17.578,30.273,30.273,-34.668,-86.914,0.000,0.000,0.000
487528.598,61.035,33.203,28.809,-15.625,50.293,0.000,0.000,0.000
487528.602,60.059,31.250,29.297,-13.672,120.605,0.000,0.000,0.000
487528.606,15.625,32.227,25.391,-34.180,41.016,0.000,0.000,0.000
487528.610,5.859,34.180,25.879,-29.297,12.695,0.000,0.000,0.000
487528.614,42.969,32.227,33.203,-13.672,107.422,0.000,0.000,0.000
487528.618,61.035,34.668,36.621,-1.953,220.215,0.000,0.000,0.000
487528.622,25.879,32.227,31.250,-7.812,151.855,0.000,0.000,0.000
487528.625,5.371,29.785,26.855,-23.438,-22.949,0.000,0.000,0.000
487528.629,40.039,33.203,29.785,-7.812,0.977,0.000,0.000,0.000
487528.633,65.430,33.203,33.691,8.789,108.398,0.000,0.000,0.000
487528.637,42.969,30.273,33.203,-5.859,74.219,0.000,0.000,0.000
487528.641,6.348,29.785,31.250,-12.695,-47.363,0.000,0.000,0.000
487528.645,25.391,29.297,28.320,5.371,-67.383,0.000,0.000,0.000
487528.649,65.430,29.785,24.414,12.207,21.484,0.000,0.000,0.000
487528.653,60.547,32.227,23.438,4.395,81.543,0.000,0.000,0.000
487528.657,16.113,28.320,22.949,-13.672,-14.160,0.000,0.000,0.000
487528.661,13.184,27.832,18.555,-20.996,-81.543,0.000,0.000,0.000
487528.665,46.387,27.344,20.996,1.465,63.965,0.000,0.000,0.000
487528.668,51.270,23.438,33.203,5.859,198.730,0.000,0.000,0.000
487528.672,16.113,22.461,38.574,-14.160,115.723,0.000,0.000,0.000
487528.676,7.812,23.438,32.227,-20.996,3.418,0.000,0.000,0.000
487528.680,43.945,25.391,24.414,3.418,6.836,0.000,0.000,0.000
487528.684,64.941,29.785,19.043,11.719,87.891,0.000,0.000,0.000
487528.688,32.227,32.227,21.484,-12.207,63.477,0.000,0.000,0.000
487528.692,1.953,30.762,26.367,-20.020,-54.199,0.000,0.000,0.000
487528.696,30.762,30.273,24.902,-13.672,-52.734,0.000,0.000,0.000
487528.700,62.500,33.203,28.809,0.488,21.973,0.000,0.000,0.000
487528.704,38.574,32.715,29.297,-3.906,18.555,0.000,0.000,0.000
487528.708,-0.488,34.180,28.809,-12.695,-39.062,0.000,0.000,0.000
487528.711,17.090,34.180,32.227,-3.906,-6.348,0.000,0.000,0.000
487528.715,49.316,30.273,23.438,9.766,105.469,0.000,0.000,0.000
487528.719,46.387,33.203,16.602,11.719,65.918,0.000,0.000,0.000
487528.723,7.812,37.109,22.461,-11.230,-16.602,0.000,0.000,0.000
487528.727,2.930,33.203,20.508,-14.160,-58.105,0.000,0.000,0.000
487528.731,34.668,31.738,11.719,12.695,-1.953,0.000,0.000,0.000
487528.735,43.457,35.156,17.578,21.973,104.004,0.000,0.000,0.000
487528.739,-1.953,34.180,25.879,0.000,37.598,0.000,0.000,0.000
487528.743,-13.672,36.133,21.484,-5.371,-62.500,0.000,0.000,0.000
487528.747,32.715,31.738,19.043,29.297,33.203,0.000,0.000,0.000
487528.750,50.293,28.320,24.902,45.898,142.578,0.000,0.000,0.000
487528.754,21.484,35.156,19.531,27.832,56.152,0.000,0.000,0.000
487528.758,-5.859,35.156,17.578,19.531,-70.312,0.000,0.000,0.000
487528.762,18.555,33.203,23.438,23.438,-48.828,0.000,0.000,0.000
487528.766,48.340,34.180,23.926,35.645,86.426,0.000,0.000,0.000
487528.770,38.574,31.250,28.809,36.621,64.453,0.000,0.000,0.000
487528.774,-2.930,34.180,31.250,13.672,-62.012,0.000,0.000,0.000
487528.778,0.977,36.133,29.785,20.508,-95.215,0.000,0.000,0.000
487528.782,42.480,33.203,31.738,46.387,-27.832,0.000,0.000,0.000
487528.786,41.992,32.715,29.785,51.758,44.922,0.000,0.000,0.000
487528.790,0.977,31.250,25.391,37.109,-48.828,0.000,0.000,0.000
487528.793,2.930,32.715,20.996,32.715,-128.906,0.000,0.000,0.000
487528.797,46.387,32.715,17.578,53.711,-29.785,0.000,0.000,0.000
487528.801,65.918,33.203,25.391,56.641,58.594,0.000,0.000,0.000
487528.805,31.250,34.180,32.715,41.016,35.645,0.000,0.000,0.000
487528.809,3.906,33.691,28.320,38.574,-37.109,0.000,0.000,0.000
487528.813,34.668,29.785,30.273,53.223,4.395,0.000,0.000,0.000
487528.817,62.500,29.297,35.645,63.477,85.449,0.000,0.000,0.000
487528.821,37.109,33.691,30.762,46.387,42.480,0.000,0.000,0.000
487528.825,2.930,35.645,28.809,25.391,-15.625,0.000,0.000,0.000
487528.829,25.879,35.645,20.508,41.504,-16.602,0.000,0.000,0.000
487528.833,59.082,34.668,12.695,61.035,47.852,0.000,0.000,0.000
487528.836,46.387,29.785,20.020,55.664,65.430,0.000,0.000,0.000
487528.840,0.000,30.762,25.879,43.457,-4.395,0.000,0.000,0.000
487528.844,8.301,37.109,26.855,58.594,-45.410,0.000,0.000,0.000
487528.848,48.828,37.109,30.762,79.102,13.672,0.000,0.000,0.000
487528.852,44.922,25.879,37.109,65.430,35.645,0.000,0.000,0.000
487528.856,0.977,14.648,37.109,40.039,-28.809,0.000,0.000,0.000
487528.860,-3.418,13.672,33.691,32.715,-57.617,0.000,0.000,0.000
487528.864,36.621,19.531,32.227,45.410,-15.137,0.000,0.000,0.000
487528.868,49.805,29.785,29.785,53.223,100.586,0.000,0.000,0.000
487528.872,12.695,32.715,24.902,32.227,157.715,0.000,0.000,0.000
487528.875,-9.766,29.785,21.973,15.625,36.621,0.000,0.000,0.000
487528.879,25.391,33.691,28.809,36.621,5.859,0.000,0.000,0.000
487528.883,56.152,36.133,30.762,50.293,103.027,0.000,0.000,0.000
487528.887,35.645,33.691,28.320,33.203,86.914,0.000,0.000,0.000
487528.891,-2.930,30.273,31.738,20.996,-10.254,0.000,0.000,0.000
487528.895,19.531,27.344,34.668,25.391,20.020,0.000,0.000,0.000
487528.899,58.105,28.320,33.203,36.133,127.441,0.000,0.000,0.000
487528.903,44.434,32.227,28.809,27.344,134.277,0.000,0.000,0.000
487528.907,6.836,35.645,29.785,11.230,41.016,0.000,0.000,0.000
487528.911,12.207,32.227,34.668,18.066,-23.438,0.000,0.000,0.000
487528.915,40.527,31.250,30.762,37.109,32.227,0.000,0.000,0.000
487528.918,43.457,36.621,29.785,34.180,102.051,0.000,0.000,0.000
487528.922,5.371,39.062,35.156,9.766,30.273,0.000,0.000,0.000
487528.926,-4.395,39.551,36.133,3.418,-47.852,0.000,0.000,0.000
487528.930,32.715,37.109,31.250,13.672,4.883,0.000,0.000,0.000
487528.934,50.293,29.785,28.809,26.855,93.750,0.000,0.000,0.000
487528.938,23.438,28.809,31.738,19.043,107.910,0.000,0.000,0.000
487528.942,-5.859,30.762,33.203,-1.953,-4.883,0.000,0.000,0.000
487528.946,19.043,33.691,35.645,16.602,-25.391,0.000,0.000,0.000
487528.950,53.711,36.621,34.668,40.039,61.035,0.000,0.000,0.000
487528.954,32.715,35.645,31.738,21.973,102.539,0.000,0.000,0.000
487528.957,-8.789,33.203,33.203,0.977,27.832,0.000,0.000,0.000
487528.961,6.836,27.832,31.250,5.859,-11.230,0.000,0.000,0.000
487528.965,44.434,31.250,24.414,23.438,93.262,0.000,0.000,0.000
487528.969,42.480,37.598,21.484,22.949,58.105,0.000,0.000,0.000
487528.973,0.488,32.715,30.273,-5.371,-67.383,0.000,0.000,0.000
487528.977,-2.441,22.461,35.645,-20.996,-111.816,0.000,0.000,0.000
487528.981,30.762,23.926,29.785,-10.254,-46.387,0.000,0.000,0.000
487528.985,39.062,29.297,28.809,-10.742,55.664,0.000,0.000,0.000
487528.989,3.906,34.668,29.785,-24.902,32.715,0.000,0.000,0.000
487528.993,-9.766,38.574,26.855,-17.090,-49.805,0.000,0.000,0.000
487528.997,23.438,34.668,29.785,2.441,42.969,0.000,0.000,0.000
487529.000,48.828,36.133,29.785,11.719,154.785,0.000,0.000,0.000
487529.004,24.902,37.109,31.250,-12.207,135.254,0.000,0.000,0.000
487529.008,-10.254,27.344,32.715,-24.414,12.695,0.000,0.000,0.000
487529.012,20.996,20.508,25.879,-3.906,-27.832,0.000,0.000,0.000
487529.016,50.781,25.879,22.461,16.602,2.930,0.000,0.000,0.000
487529.020,23.438,29.785,23.438,12.207,-3.906,0.000,0.000,0.000
487529.024,-12.695,30.762,26.855,0.977,-15.625,0.000,0.000,0.000
487529.028,1.953,32.227,26.367,7.812,-46.875,0.000,0.000,0.000
487529.032,36.133,32.715,29.297,25.879,-0.488,0.000,0.000,0.000
487529.036,36.621,31.250,34.180,19.043,81.543,0.000,0.000,0.000
487529.040,-5.371,26.367,35.645,-4.883,-3.418,0.000,0.000,0.000
487529.043,-6.836,25.391,31.738,-8.789,-110.840,0.000,0.000,0.000
487529.047,37.109,34.180,26.855,9.766,8.789,0.000,0.000,0.000
487529.051,54.199,36.133,25.391,23.926,80.566,0.000,0.000,0.000
487529.055,21.484,33.691,27.344,12.695,57.129,0.000,0.000,0.000
487529.059,2.441,40.039,23.926,13.184,27.832,0.000,0.000,0.000
487529.063,37.598,44.434,18.555,21.484,36.621,0.000,0.000,0.000
487529.067,58.594,39.062,26.855,23.438,114.746,0.000,0.000,0.000
487529.071,28.809,35.156,35.156,17.090,90.820,0.000,0.000,0.000
487529.075,-2.441,37.598,34.668,-0.977,-7.812,0.000,0.000,0.000
487529.079,21.973,34.668,29.297,20.020,-55.176,0.000,0.000,0.000
487529.082,61.523,31.250,26.367,55.664,20.020,0.000,0.000,0.000
487529.086,54.199,32.227,25.879,44.434,55.176,0.000,0.000,0.000
487529.090,5.859,32.227,23.926,22.949,-40.039,0.000,0.000,0.000
487529.094,11.719,37.598,25.879,31.250,-75.684,0.000,0.000,0.000
487529.098,54.199,35.645,27.832,51.270,12.695,0.000,0.000,0.000
487529.102,55.176,28.809,25.391,49.805,71.777,0.000,0.000,0.000
487529.106,7.812,26.855,21.484,26.367,25.391,0.000,0.000,0.000
487529.110,5.859,31.738,26.855,20.996,-23.438,0.000,0.000,0.000
487529.114,51.758,37.109,32.227,50.781,4.883,0.000,0.000,0.000
487529.118,63.477,38.086,26.855,60.547,81.543,0.000,0.000,0.000
487529.122,30.273,35.156,27.344,38.574,-9.766,0.000,0.000,0.000
487529.125,5.371,34.668,30.762,29.785,-107.422,0.000,0.000,0.000
487529.129,26.855,37.109,31.250,34.180,-14.648,0.000,0.000,0.000
487529.133,55.664,33.203,30.762,41.504,26.855,0.000,0.000,0.000
487529.137,34.180,29.785,29.785,32.227,-15.137,0.000,0.000,0.000
487529.141,-7.324,30.273,27.832,17.578,-22.461,0.000,0.000,0.000
487529.145,14.160,31.738,27.344,28.809,-3.418,0.000,0.000,0.000
487529.149,55.176,32.715,32.227,48.828,69.336,0.000,0.000,0.000
487529.153,43.945,34.180,36.133,47.363,85.449,0.000,0.000,0.000
487529.157,-3.906,32.227,33.203,30.273,-43.945,0.000,0.000,0.000
487529.161,5.859,31.250,26.855,21.973,-32.227,0.000,0.000,0.000
487529.165,50.781,35.645,31.738,43.945,119.141,0.000,0.000,0.000
487529.168,51.270,29.297,36.133,49.316,168.457,0.000,0.000,0.000
487529.172,7.812,27.344,32.227,29.785,89.844,0.000,0.000,0.000
487529.176,-3.418,36.133,26.855,23.438,-43.457,0.000,0.000,0.000
487529.180,32.227,35.645,21.484,34.180,-28.809,0.000,0.000,0.000
487529.184,48.340,32.227,22.461,36.133,75.195,0.000,0.000,0.000
487529.188,14.160,25.879,33.203,31.250,83.496,0.000,0.000,0.000
487529.192,-8.301,25.879,38.086,24.902,-10.742,0.000,0.000,0.000
487529.196,19.043,30.273,39.551,27.344,-12.207,0.000,0.000,0.000
487529.200,45.410,30.762,40.527,53.223,48.828,0.000,0.000,0.000
487529.204,30.762,34.180,34.668,55.664,28.809,0.000,0.000,0.000
487529.207,-5.859,34.668,31.738,26.855,-10.254,0.000,0.000,0.000
487529.211,15.625,34.668,28.809,23.926,-20.508,0.000,0.000,0.000
487529.215,55.664,40.039,24.414,54.199,48.828,0.000,0.000,0.000
487529.219,51.758,40.527,25.879,47.852,84.961,0.000,0.000,0.000
487529.223,12.695,40.039,33.203,21.484,-29.297,0.000,0.000,0.000
487529.227,8.301,33.691,30.273,21.973,-109.375,0.000,0.000,0.000
487529.231,45.898,32.227,22.949,33.691,-9.766,0.000,0.000,0.000
487529.235,54.688,34.668,24.902,34.180,69.824,0.000,0.000,0.000
487529.239,13.672,33.203,30.762,13.672,3.418,0.000,0.000,0.000
487529.243,1.953,30.273,35.645,6.348,-63.477,0.000,0.000,0.000
487529.247,33.691,24.902,34.668,23.926,-48.828,0.000,0.000,0.000
487529.250,52.246,26.855,30.273,34.180,28.320,0.000,0.000,0.000
487529.254,22.949,32.715,29.297,22.461,64.941,0.000,0.000,0.000
487529.258,-8.301,32.227,28.809,8.789,0.488,0.000,0.000,0.000
487529.262,18.066,33.203,19.043,13.672,-28.809,0.000,0.000,0.000
487529.266,49.316,35.156,20.508,27.832,67.383,0.000,0.000,0.000
487529.270,39.551,31.738,29.297,20.996,80.078,0.000,0.000,0.000
487529.274,-0.977,31.250,26.367,2.930,-10.742,0.000,0.000,0.000
487529.278,9.766,32.715,28.320,16.113,-21.484,0.000,0.000,0.000
487529.282,52.246,30.762,34.180,33.691,77.637,0.000,0.000,0.000
487529.286,51.758,34.180,34.668,28.809,134.766,0.000,0.000,0.000
487529.290,6.836,33.691,35.645,3.906,46.387,0.000,0.000,0.000
487529.293,4.395,27.344,32.227,-11.230,-12.695,0.000,0.000,0.000
487529.297,47.852,27.344,24.902,15.625,63.965,0.000,0.000,0.000
487529.301,57.129,32.227,27.832,22.461,114.258,0.000,0.000,0.000
487529.305,14.160,32.715,29.785,-4.883,7.324,0.000,0.000,0.000
487529.309,-6.348,28.320,23.926,-15.625,-44.922,0.000,0.000,0.000
487529.313,31.250,23.438,22.949,7.324,35.156,0.000,0.000,0.000
487529.317,51.758,23.926,23.438,10.742,174.316,0.000,0.000,0.000
487529.321,18.066,29.785,27.832,-12.207,175.781,0.000,0.000,0.000
487529.325,-14.160,36.133,27.832,-14.648,-17.578,0.000,0.000,0.000
487529.329,14.160,37.598,20.508,-10.254,-65.430,0.000,0.000,0.000
487529.332,56.641,37.109,26.367,0.488,58.594,0.000,0.000,0.000
487529.336,40.039,41.992,30.762,-4.883,56.152,0.000,0.000,0.000
487529.340,-3.906,40.039,26.855,-20.996,1.465,0.000,0.000,0.000
487529.344,11.230,35.156,30.273,-11.719,-5.859,0.000,0.000,0.000
487529.348,48.828,35.156,30.762,4.395,37.598,0.000,0.000,0.000
487529.352,52.734,32.227,29.297,3.418,114.258,0.000,0.000,0.000
487529.356,12.695,29.297,27.832,-10.742,69.824,0.000,0.000,0.000
487529.360,15.137,33.203,24.414,-14.160,-20.996,0.000,0.000,0.000
487529.364,57.129,43.457,23.438,-0.488,12.207,0.000,0.000,0.000
487529.368,61.035,44.922,23.438,7.812,103.516,0.000,0.000,0.000
487529.372,21.484,39.062,32.715,-13.184,60.547,0.000,0.000,0.000
487529.375,1.465,38.086,41.016,-25.391,-28.809,0.000,0.000,0.000
487529.379,37.598,39.551,40.039,-8.301,21.484,0.000,0.000,0.000
487529.383,63.965,35.156,36.621,9.766,94.238,0.000,0.000,0.000
487529.387,41.504,28.809,34.668,-3.418,29.785,0.000,0.000,0.000
487529.391,8.789,31.250,34.668,-27.832,-72.266,0.000,0.000,0.000
487529.395,36.133,33.203,33.691,-6.836,-68.848,0.000,0.000,0.000
487529.399,71.289,31.738,36.133,22.461,51.758,0.000,0.000,0.000
487529.403,52.246,32.227,34.180,8.789,99.609,0.000,0.000,0.000
487529.407,7.324,35.156,31.250,-15.137,-43.945,0.000,0.000,0.000
487529.411,10.254,35.645,29.297,-13.184,-84.961,0.000,0.000,0.000
487529.414,45.410,33.691,27.344,9.766,39.062,0.000,0.000,0.000
487529.418,53.711,36.133,26.855,11.230,99.609,0.000,0.000,0.000
487529.422,14.648,31.738,32.227,-4.395,18.066,0.000,0.000,0.000
487529.426,-2.930,23.926,37.598,-0.488,-70.312,0.000,0.000,0.000
487529.430,35.645,24.902,36.133,22.461,43.945,0.000,0.000,0.000
487529.434,56.152,25.879,34.668,27.832,156.738,0.000,0.000,0.000
487529.438,18.066,25.391,34.180,-1.953,68.848,0.000,0.000,0.000
487529.442,-9.766,24.902,35.156,-10.742,-45.410,0.000,0.000,0.000
487529.446,24.902,20.020,36.133,4.395,-61.523,0.000,0.000,0.000
487529.450,55.176,20.996,32.715,15.625,-12.695,0.000,0.000,0.000
487529.454,32.715,22.461,32.715,2.930,4.883,0.000,0.000,0.000
487529.457,-4.395,21.484,32.715,-17.578,-37.598,0.000,0.000,0.000
487529.461,18.066,22.949,24.414,-5.859,-26.367,0.000,0.000,0.000
487529.465,57.129,23.438,26.855,19.531,50.781,0.000,0.000,0.000
487529.469,51.270,26.367,36.133,11.719,54.199,0.000,0.000,0.000
487529.473,7.324,26.855,34.668,-18.555,-20.020,0.000,0.000,0.000
487529.477,6.348,28.809,32.227,-26.855,-32.715,0.000,0.000,0.000
487529.481,51.270,31.738,32.715,-8.789,-17.578,0.000,0.000,0.000
487529.485,54.688,30.762,30.762,-3.906,27.344,0.000,0.000,0.000
487529.489,2.930,31.250,28.320,-27.832,6.836,0.000,0.000,0.000
487529.493,-9.766,33.203,33.691,-40.527,-67.383,0.000,0.000,0.000
487529.497,31.738,29.785,33.691,-19.531,-9.766,0.000,0.000,0.000
487529.500,53.223,21.973,34.180,-6.836,59.082,0.000,0.000,0.000
487529.504,20.020,23.926,39.551,-27.344,55.176,0.000,0.000,0.000
487529.508,-7.324,27.832,35.645,-39.062,-34.180,0.000,0.000,0.000
487529.512,20.508,28.809,30.273,-26.367,-54.199,0.000,0.000,0.000
487529.516,52.734,31.738,28.320,-15.137,46.875,0.000,0.000,0.000
487529.520,36.133,31.250,31.738,-24.902,39.062,0.000,0.000,0.000
487529.524,-2.930,31.250,35.645,-44.434,-41.992,0.000,0.000,0.000
487529.528,10.742,30.762,34.180,-36.133,27.344,0.000,0.000,0.000
487529.532,46.875,26.367,32.715,-13.184,125.977,0.000,0.000,0.000
487529.536,46.387,31.250,33.203,-17.090,85.938,0.000,0.000,0.000
487529.539,4.883,34.668,35.156,-32.227,-25.879,0.000,0.000,0.000
487529.543,4.395,32.227,32.227,-35.156,-93.750,0.000,0.000,0.000
487529.547,47.852,28.809,25.879,-21.973,-5.371,0.000,0.000,0.000
487529.551,59.082,23.926,27.832,-15.137,113.770,0.000,0.000,0.000
487529.555,15.625,18.555,33.203,-38.574,33.691,0.000,0.000,0.000
487529.559,-4.395,21.484,32.227,-49.805,-42.480,2.000,1.000,45.000
487529.563,34.668,22.461,27.832,-36.133,11.230,0.000,0.000,0.000
487529.567,52.246,19.043,27.344,-16.602,104.980,0.000,0.000,0.000
487529.571,15.625,21.484,29.297,-32.227,90.332,0.000,0.000,0.000
487529.575,-16.113,20.508,33.203,-50.781,-0.488,0.000,0.000,0.000
487529.579,11.719,15.137,33.203,-41.016,9.277,0.000,0.000,0.000
487529.582,45.898,12.695,32.715,-33.203,78.613,0.000,0.000,0.000
487529.586,30.762,15.625,33.203,-36.133,92.285,0.000,0.000,0.000
487529.590,-12.207,15.137,30.762,-53.223,28.320,0.000,0.000,0.000
487529.594,2.930,15.625,27.832,-44.922,-5.371,0.000,0.000,0.000
487529.598,47.852,18.555,23.926,-21.484,70.801,0.000,0.000,0.000
487529.602,45.898,20.020,27.832,-26.855,141.602,0.000,0.000,0.000
487529.606,2.441,23.926,37.598,-41.016,70.801,0.000,0.000,0.000
487529.610,3.906,27.832,37.598,-40.039,-18.066,0.000,0.000,0.000
487529.614,42.969,26.855,30.762,-27.344,37.109,0.000,0.000,0.000
487529.618,52.734,23.438,29.297,-21.973,144.043,0.000,0.000,0.000
487529.622,20.020,21.484,30.762,-36.133,105.957,0.000,0.000,0.000
487529.625,-1.465,20.996,31.250,-42.480,4.883,0.000,0.000,0.000
487529.629,28.809,20.508,29.297,-31.250,21.484,0.000,0.000,0.000
487529.633,59.082,19.043,28.320,-12.695,95.703,0.000,0.000,0.000
487529.637,35.156,19.531,23.438,-21.484,64.941,0.000,0.000,0.000
487529.641,1.953,22.949,21.973,-37.109,-40.039,0.000,0.000,0.000
487529.645,32.715,30.762,22.949,-27.832,-19.531,0.000,0.000,0.000
487529.649,64.453,32.227,26.367,-16.113,70.312,0.000,0.000,0.000
487529.653,41.992,25.391,30.762,-24.902,40.039,0.000,0.000,0.000
487529.657,-0.488,27.832,32.715,-44.434,-20.508,0.000,0.000,0.000
487529.661,6.348,30.273,31.250,-46.875,-36.133,0.000,0.000,0.000
487529.664,39.551,20.996,26.367,-29.785,30.762,0.000,0.000,0.000
487529.668,40.527,19.043,31.738,-26.855,116.211,0.000,0.000,0.000
487529.672,0.000,24.414,35.156,-41.504,35.645,0.000,0.000,0.000
487529.676,-8.301,29.297,31.738,-49.316,-82.520,0.000,0.000,0.000
487529.680,34.668,37.598,22.949,-33.691,-22.949,0.000,0.000,0.000
487529.684,53.711,39.551,15.625,-30.273,92.773,0.000,0.000,0.000
487529.688,15.625,39.062,21.484,-50.293,64.941,0.000,0.000,0.000
487529.692,-7.812,41.992,32.715,-54.688,-40.527,0.000,0.000,0.000
487529.696,20.996,37.109,36.133,-41.504,-19.043,0.000,0.000,0.000
487529.700,46.875,34.180,32.715,-34.180,56.641,0.000,0.000,0.000
487529.704,28.809,38.086,30.762,-48.828,99.609,0.000,0.000,0.000
487529.707,-5.859,36.621,35.156,-60.547,73.730,0.000,0.000,0.000
487529.711,19.043,33.691,30.762,-53.711,-3.906,0.000,0.000,0.000
487529.715,53.711,35.645,23.926,-36.621,42.969,0.000,0.000,0.000
487529.719,41.992,34.668,24.414,-40.039,71.777,0.000,0.000,0.000
487529.723,5.371,37.598,22.461,-58.105,-18.555,0.000,0.000,0.000
487529.727,6.348,39.062,22.949,-60.059,-28.809,0.000,0.000,0.000
487529.731,42.480,35.645,25.879,-36.133,30.762,0.000,0.000,0.000
487529.735,55.176,36.621,29.785,-27.344,116.699,0.000,0.000,0.000
487529.739,17.090,37.109,31.738,-55.664,85.449,0.000,0.000,0.000
487529.743,4.395,36.133,27.344,-62.500,15.625,0.000,0.000,0.000
487529.747,46.875,38.086,28.320,-33.691,36.621,0.000,0.000,0.000
487529.750,68.359,41.016,32.227,-24.902,60.547,0.000,0.000,0.000
487529.754,33.203,43.457,32.715,-51.270,21.484,0.000,0.000,0.000
487529.758,0.000,43.457,31.250,-62.012,-64.453,0.000,0.000,0.000
487529.762,24.902,42.480,29.297,-55.176,-61.523,0.000,0.000,0.000
487529.766,53.223,42.480,30.762,-48.340,64.453,0.000,0.000,0.000
487529.770,33.691,40.527,29.785,-62.500,103.516,0.000,0.000,0.000
487529.774,-8.301,34.180,25.391,-88.867,-8.301,0.000,0.000,0.000
487529.778,4.395,32.715,23.438,-85.449,-70.801,0.000,0.000,0.000
487529.782,44.434,34.668,18.555,-62.012,49.316,0.000,0.000,0.000
487529.786,44.922,35.645,20.508,-65.430,137.207,0.000,0.000,0.000
487529.789,12.207,41.992,27.344,-75.684,41.504,0.000,0.000,0.000
487529.793,13.184,43.945,29.297,-52.246,-20.020,0.000,0.000,0.000
487529.797,48.340,38.086,33.203,-36.621,16.113,0.000,0.000,0.000
487529.801,59.082,37.109,31.738,-43.457,82.031,0.000,0.000,0.000
487529.805,25.879,42.969,26.367,-46.875,73.730,0.000,0.000,0.000
487529.809,11.230,40.039,24.414,-45.410,41.504,0.000,0.000,0.000
487529.813,42.969,32.227,21.973,-33.203,21.973,0.000,0.000,0.000
487529.817,66.895,23.926,23.438,-17.578,56.641,0.000,0.000,0.000
487529.821,37.598,14.160,23.926,-21.973,21.973,0.000,0.000,0.000
487529.825,8.789,16.602,19.531,-30.762,-102.539,0.000,0.000,0.000
487529.829,46.387,23.926,24.414,-12.695,-81.055,0.000,0.000,0.000
487529.832,72.754,20.996,35.156,4.395,81.055,0.000,0.000,0.000
487529.836,46.387,19.531,35.156,-8.789,102.539,0.000,0.000,0.000
487529.840,8.789,24.902,27.344,-35.156,23.926,0.000,0.000,0.000
487529.844,20.020,20.996,22.949,-33.203,43.457,0.000,0.000,0.000
487529.848,61.035,20.020,25.391,-7.812,91.309,0.000,0.000,0.000
487529.852,58.105,23.438,25.879,-8.301,111.328,0.000,0.000,0.000
487529.856,8.301,21.973,28.809,-26.367,1.465,0.000,0.000,0.000
487529.860,4.395,19.043,31.250,-27.344,-56.152,0.000,0.000,0.000
487529.864,47.363,19.531,30.273,-7.324,82.031,0.000,0.000,0.000
487529.868,65.918,20.508,25.391,3.906,168.457,0.000,0.000,0.000
487529.871,30.762,19.043,24.902,-10.742,75.195,0.000,0.000,0.000
487529.875,2.441,19.531,30.273,-28.320,33.203,0.000,0.000,0.000
487529.879,33.691,16.602,27.832,-17.578,94.238,0.000,0.000,0.000
487529.883,62.012,12.207,24.902,0.977,87.891,0.000,0.000,0.000
487529.887,36.133,16.602,23.438,-17.090,40.039,0.000,0.000,0.000
487529.891,4.395,20.020,26.855,-35.156,2.441,0.000,0.000,0.000
487529.895,26.855,23.438,27.344,-28.809,30.273,0.000,0.000,0.000
487529.899,57.129,24.902,28.809,-6.836,123.047,0.000,0.000,0.000
487529.903,41.504,21.973,32.227,-8.789,179.199,0.000,0.000,0.000
487529.907,-0.488,24.902,31.738,-29.785,73.730,0.000,0.000,0.000
487529.911,6.836,23.438,32.227,-24.902,5.371,0.000,0.000,0.000
487529.914,41.016,19.531,36.133,-3.418,45.410,0.000,0.000,0.000
487529.918,46.387,19.531,34.668,3.418,77.148,0.000,0.000,0.000
487529.922,9.277,22.461,32.715,-15.137,20.996,0.000,0.000,0.000
487529.926,-1.465,21.484,34.180,-25.391,-28.809,0.000,0.000,0.000
487529.930,37.598,20.508,33.691,-9.766,2.441,0.000,0.000,0.000
487529.934,58.594,24.414,29.297,0.000,87.402,0.000,0.000,0.000
487529.938,23.438,24.902,28.809,-17.090,10.742,0.000,0.000,0.000
487529.942,-4.395,26.855,29.785,-31.738,-151.855,0.000,0.000,0.000
487529.946,28.809,30.273,25.391,-21.484,-91.309,0.000,0.000,0.000
487529.950,61.523,32.227,25.391,-8.301,25.879,0.000,0.000,0.000
487529.954,41.504,32.715,26.855,-13.672,-7.324,0.000,0.000,0.000
487529.957,8.789,29.785,26.855,-29.297,-99.609,0.000,0.000,0.000
487529.961,26.855,27.344,31.250,-24.414,-121.582,0.000,0.000,0.000
487529.965,62.500,27.832,29.297,-1.953,-48.828,0.000,0.000,0.000
487529.969,49.316,28.809,24.902,-2.930,16.602,0.000,0.000,0.000
487529.973,-0.977,27.344,24.414,-24.902,-18.555,0.000,0.000,0.000
487529.977,1.953,24.414,25.391,-27.832,-58.105,0.000,0.000,0.000
487529.981,42.480,25.391,30.273,-6.348,28.809,0.000,0.000,0.000
487529.985,48.828,26.855,30.762,5.371,110.352,0.000,0.000,0.000
487529.989,7.812,25.391,28.809,-7.324,25.391,0.000,0.000,0.000
487529.993,-0.488,23.926,28.809,-18.555,-98.633,0.000,0.000,0.000
487529.996,35.645,24.902,25.879,-13.672,-51.758,0.000,0.000,0.000
487530.000,47.852,34.180,22.461,-6.348,67.871,0.000,0.000,0.000
487530.004,15.625,38.574,24.902,-15.625,42.480,0.000,0.000,0.000
487530.008,-6.836,30.762,27.832,-16.113,-42.480,0.000,0.000,0.000
487530.012,27.832,26.367,28.320,-0.488,-18.555,0.000,0.000,0.000
487530.016,56.152,32.227,25.879,-1.953,121.582,0.000,0.000,0.000
487530.020,30.762,40.039,19.531,-20.996,135.742,0.000,0.000,0.000
487530.024,-8.301,44.434,21.484,-36.621,14.160,0.000,0.000,0.000
487530.028,4.883,41.504,29.297,-28.320,25.879,0.000,0.000,0.000
487530.032,44.922,44.922,32.715,-2.441,89.844,0.000,0.000,0.000
487530.036,48.340,52.246,27.832,-1.465,111.328,0.000,0.000,0.000
487530.039,5.371,48.340,22.461,-23.438,73.242,0.000,0.000,0.000
487530.043,3.418,45.410,22.949,-12.695,-14.648,0.000,0.000,0.000
487530.047,44.922,46.387,24.414,5.859,-19.531,0.000,0.000,0.000
487530.051,51.270,46.387,23.926,-7.324,58.594,0.000,0.000,0.000
487530.055,13.672,47.852,23.438,-18.555,25.879,0.000,0.000,0.000
487530.059,-0.977,45.898,22.461,-25.391,-29.785,0.000,0.000,0.000
487530.063,33.203,43.945,20.508,-11.230,26.367,0.000,0.000,0.000
487530.067,53.711,38.574,19.531,-0.488,96.191,0.000,0.000,0.000
487530.071,24.414,37.598,25.879,-20.996,59.570,0.000,0.000,0.000
487530.075,-3.906,39.551,34.668,-26.855,-36.133,0.000,0.000,0.000
487530.079,21.484,31.738,32.227,-11.230,-31.738,0.000,0.000,0.000
487530.082,51.270,30.762,28.320,-2.930,98.633,0.000,0.000,0.000
487530.086,33.691,29.785,27.344,-12.695,123.047,0.000,0.000,0.000
487530.090,-4.395,26.367,29.297,-26.367,-40.039,0.000,0.000,0.000
487530.094,6.348,31.250,27.344,-26.367,-83.008,0.000,0.000,0.000
487530.098,42.969,30.273,27.832,-4.883,12.207,0.000,0.000,0.000
487530.102,46.387,25.391,26.855,-5.371,72.266,0.000,0.000,0.000
487530.106,11.719,22.461,21.973,-36.621,12.695,0.000,0.000,0.000
487530.110,9.277,22.461,25.879,-37.598,-94.727,0.000,0.000,0.000
487530.114,45.898,23.438,25.879,-11.719,-45.410,0.000,0.000,0.000
487530.118,62.012,20.508,23.926,-4.883,94.238,0.000,0.000,0.000
487530.121,18.066,19.043,30.762,-32.715,32.227,0.000,0.000,0.000
487530.125,-7.812,18.555,31.738,-47.852,-33.691,0.000,0.000,0.000
487530.129,32.715,19.531,29.297,-29.297,13.184,0.000,0.000,0.000
487530.133,66.895,17.090,30.762,-14.160,73.730,0.000,0.000,0.000
487530.137,43.457,16.602,37.109,-25.391,83.984,0.000,0.000,0.000
487530.141,3.418,18.066,40.039,-43.945,35.156,0.000,0.000,0.000
487530.145,25.879,16.602,36.621,-28.809,37.598,0.000,0.000,0.000
487530.149,56.641,16.113,32.227,-10.742,137.207,0.000,0.000,0.000
487530.153,36.133,18.555,28.809,-25.391,131.836,0.000,0.000,0.000
487530.157,-1.953,20.508,28.320,-42.969,4.395,0.000,0.000,0.000
487530.161,9.766,15.137,31.250,-44.434,-1.465,0.000,0.000,0.000
487530.164,47.363,15.625,31.738,-35.645,111.328,0.000,0.000,0.000
487530.168,52.246,20.996,31.250,-35.156,132.324,0.000,0.000,0.000
487530.172,6.348,18.066,33.203,-53.223,44.922,0.000,0.000,0.000
487530.176,-2.930,13.672,29.297,-59.570,16.602,0.000,0.000,0.000
487530.180,37.598,13.184,31.738,-43.457,47.852,0.000,0.000,0.000
487530.184,47.852,14.160,33.691,-37.598,53.711,0.000,0.000,0.000
487530.188,7.324,13.672,26.855,-61.523,46.875,0.000,0.000,0.000
487530.192,-20.020,14.160,28.809,-74.707,-19.531,0.000,0.000,0.000
487530.196,11.230,13.672,31.738,-51.758,-3.906,0.000,0.000,0.000
487530.200,41.016,15.137,28.809,-42.480,105.469,0.000,0.000,0.000
487530.204,18.066,19.043,28.809,-60.059,90.820,0.000,0.000,0.000
487530.207,-13.184,16.602,25.879,-71.777,4.395,0.000,0.000,0.000
487530.211,11.230,20.508,29.785,-54.688,0.488,0.000,0.000,0.000
487530.215,44.434,31.250,32.715,-30.762,25.879,0.000,0.000,0.000
487530.219,34.180,29.297,25.879,-43.945,-20.996,0.000,0.000,0.000
487530.223,-6.836,20.508,23.926,-69.336,-74.707,0.000,0.000,0.000
487530.227,2.930,18.555,23.926,-63.477,-83.984,0.000,0.000,0.000
487530.231,42.480,20.996,23.926,-39.551,38.574,0.000,0.000,0.000
487530.235,43.457,24.414,25.391,-41.504,96.191,0.000,0.000,0.000
487530.239,5.371,24.902,28.320,-62.500,16.113,0.000,0.000,0.000
487530.243,-2.441,25.391,31.738,-63.477,-30.273,0.000,0.000,0.000
487530.246,36.133,31.250,31.738,-45.898,19.043,0.000,0.000,0.000
487530.250,61.035,32.715,28.320,-33.691,88.379,0.000,0.000,0.000
487530.254,32.227,28.809,24.902,-44.922,44.434,0.000,0.000,0.000
487530.258,9.277,26.855,25.391,-55.664,-77.148,0.000,0.000,0.000
487530.262,36.133,28.320,22.461,-34.180,-65.918,0.000,0.000,0.000
487530.266,60.059,25.391,24.902,-16.602,61.523,0.000,0.000,0.000
487530.270,41.992,22.949,31.738,-36.133,78.613,0.000,0.000,0.000
487530.274,6.836,25.879,36.621,-52.246,-58.594,0.000,0.000,0.000
487530.278,22.461,27.832,35.156,-38.574,-95.215,0.000,0.000,0.000
487530.282,56.152,28.809,36.621,-15.625,31.738,0.000,0.000,0.000
487530.286,52.734,31.738,37.598,-12.695,72.266,0.000,0.000,0.000
487530.289,5.371,28.809,32.227,-31.738,25.391,0.000,0.000,0.000
487530.293,4.883,26.367,28.809,-25.879,37.598,0.000,0.000,0.000
487530.297,49.805,31.250,30.762,-3.418,87.891,0.000,0.000,0.000
487530.301,51.270,31.250,32.715,-9.766,87.891,0.000,0.000,0.000
487530.305,9.277,31.738,33.203,-24.902,-19.043,0.000,0.000,0.000
487530.309,-7.324,30.273,38.574,-23.926,-108.398,0.000,0.000,0.000
487530.313,25.391,29.785,38.574,-27.832,-51.758,0.000,0.000,0.000
487530.317,54.199,30.762,31.250,-27.832,66.895,0.000,0.000,0.000
487530.321,28.809,32.227,27.344,-28.809,33.691,0.000,0.000,0.000
487530.325,-4.395,30.762,26.855,-38.086,-67.383,0.000,0.000,0.000
487530.328,26.367,25.879,28.809,-28.809,-46.387,0.000,0.000,0.000
487530.332,62.012,29.785,28.320,-17.578,15.137,0.000,0.000,0.000
487530.336,36.133,34.180,26.855,-31.738,9.277,0.000,0.000,0.000
487530.340,-5.859,36.133,31.250,-57.129,-58.105,0.000,0.000,0.000
487530.344,11.230,36.133,30.273,-53.711,-61.035,0.000,0.000,0.000
487530.348,49.805,33.203,30.762,-33.203,43.457,0.000,0.000,0.000
487530.352,51.270,30.762,36.621,-35.156,112.305,0.000,0.000,0.000
487530.356,8.301,33.203,35.645,-53.711,48.340,0.000,0.000,0.000
487530.360,3.418,37.109,31.250,-53.223,-13.672,0.000,0.000,0.000
487530.364,39.551,35.645,28.809,-35.645,23.438,0.000,0.000,0.000
487530.368,51.758,33.203,29.297,-36.133,119.629,0.000,0.000,0.000
487530.371,20.508,35.156,35.645,-40.039,122.559,0.000,0.000,0.000
487530.375,1.953,37.109,34.668,-41.504,36.133,0.000,0.000,0.000
487530.379,39.551,40.039,29.297,-27.832,57.129,0.000,0.000,0.000
487530.383,68.848,38.086,31.738,-13.184,92.285,0.000,0.000,0.000
487530.387,38.574,27.344,34.180,-28.320,18.066,0.000,0.000,0.000
487530.391,6.836,31.250,31.738,-45.898,-69.336,0.000,0.000,0.000
487530.395,34.668,40.527,31.250,-39.062,-41.504,0.000,0.000,0.000
487530.399,58.105,38.086,32.715,-22.949,49.805,0.000,0.000,0.000
487530.403,41.504,35.645,33.203,-30.273,77.148,0.000,0.000,0.000
487530.407,5.859,36.621,36.133,-43.945,11.230,0.000,0.000,0.000
487530.411,14.160,34.180,39.062,-35.156,-25.879,0.000,0.000,0.000
487530.414,53.223,29.785,34.180,-18.066,67.871,0.000,0.000,0.000
487530.418,58.594,29.785,30.762,-20.508,110.840,0.000,0.000,0.000
487530.422,20.996,33.691,31.250,-38.574,59.082,0.000,0.000,0.000
487530.426,14.160,36.621,22.949,-46.387,-23.926,0.000,0.000,0.000
487530.430,49.316,34.668,17.578,-30.762,31.250,0.000,0.000,0.000
487530.434,63.965,31.738,24.902,-21.484,128.418,0.000,0.000,0.000
487530.438,25.391,30.273,31.250,-35.156,56.152,0.000,0.000,0.000
487530.442,-1.953,31.250,29.785,-46.387,-19.043,0.000,0.000,0.000
487530.446,27.832,31.738,26.855,-37.598,-1.953,0.000,0.000,0.000
487530.450,52.246,35.156,23.926,-26.855,78.125,0.000,0.000,0.000
487530.453,29.297,36.621,23.438,-40.527,90.820,0.000,0.000,0.000
487530.457,-5.859,35.645,21.484,-62.012,-10.742,0.000,0.000,0.000
487530.461,14.160,36.133,24.414,-49.805,-12.695,0.000,0.000,0.000
487530.465,48.828,36.621,26.367,-26.367,68.848,0.000,0.000,0.000
487530.469,46.387,37.109,20.508,-30.762,48.828,0.000,0.000,0.000
487530.473,4.883,33.203,19.531,-43.945,-58.594,0.000,0.000,0.000
487530.477,1.953,31.250,24.902,-37.598,-73.242,0.000,0.000,0.000
487530.481,45.410,34.180,27.344,-16.602,29.297,0.000,0.000,0.000
487530.485,52.734,31.738,27.344,-11.230,122.559,0.000,0.000,0.000
487530.489,9.766,26.367,31.250,-30.762,88.867,0.000,0.000,0.000
487530.493,1.465,28.320,33.203,-40.527,-13.184,0.000,0.000,0.000
487530.496,42.969,27.832,29.297,-27.832,12.695,0.000,0.000,0.000
487530.500,61.035,21.973,24.902,-27.832,86.914,0.000,0.000,0.000
487530.504,25.879,26.367,25.879,-44.922,33.691,0.000,0.000,0.000
487530.508,-3.906,32.715,25.879,-56.641,-44.434,0.000,0.000,0.000
487530.512,25.391,28.320,18.555,-48.340,41.504,0.000,0.000,0.000
487530.516,53.223,22.461,18.555,-34.668,164.062,0.000,0.000,0.000
487530.520,30.273,23.438,25.391,-46.875,137.695,0.000,0.000,0.000
487530.524,-8.301,27.832,27.344,-67.383,19.043,0.000,0.000,0.000
487530.528,5.859,28.320,21.484,-60.547,-29.297,0.000,0.000,0.000
487530.532,40.527,25.879,18.066,-35.156,22.949,0.000,0.000,0.000
487530.536,34.668,30.762,23.926,-48.340,56.641,0.000,0.000,0.000
487530.539,-5.371,29.785,28.320,-75.684,-59.082,0.000,0.000,0.000
487530.543,0.000,27.344,26.855,-66.406,-96.680,0.000,0.000,0.000
487530.547,45.898,32.227,27.344,-48.828,48.828,0.000,0.000,0.000
487530.551,55.664,32.715,26.367,-40.039,106.445,0.000,0.000,0.000
487530.555,7.324,30.762,22.461,-46.387,49.805,0.000,0.000,0.000
487530.559,-8.301,29.297,19.531,-50.781,48.340,0.000,0.000,0.000
487530.563,30.762,26.367,19.531,-40.039,80.078,0.000,0.000,0.000
487530.567,49.805,23.926,24.414,-31.250,85.449,0.000,0.000,0.000
487530.571,23.438,27.344,30.762,-35.156,42.480,0.000,0.000,0.000
487530.575,-0.977,26.855,33.691,-42.969,-16.602,0.000,0.000,0.000
487530.578,20.020,22.461,28.809,-38.086,-5.859,0.000,0.000,0.000
487530.582,44.434,22.949,27.832,-27.832,125.488,0.000,0.000,0.000
487530.586,27.344,27.832,29.785,-35.645,115.723,0.000,0.000,0.000
487530.590,-9.277,34.180,28.320,-58.105,18.555,0.000,0.000,0.000
487530.594,9.277,38.574,28.320,-61.523,6.836,0.000,0.000,0.000
487530.598,46.875,32.715,25.879,-38.086,45.410,0.000,0.000,0.000
487530.602,44.922,24.902,24.902,-36.133,52.734,0.000,0.000,0.000
487530.606,2.930,25.391,27.832,-62.012,-48.828,0.000,0.000,0.000
487530.610,0.977,29.297,31.738,-71.777,-99.609,0.000,0.000,0.000
487530.614,44.434,30.762,32.715,-51.270,-27.832,0.000,0.000,0.000
487530.618,53.223,26.855,27.344,-43.457,138.672,0.000,0.000,0.000
487530.621,18.066,28.809,24.902,-54.688,85.449,0.000,0.000,0.000
487530.625,-5.371,32.715,27.344,-60.547,-84.961,0.000,0.000,0.000
487530.629,22.461,32.715,31.250,-52.246,-41.992,0.000,0.000,0.000
487530.633,47.852,30.762,33.203,-37.598,73.730,0.000,0.000,0.000
487530.637,19.531,33.691,33.203,-45.898,52.734,0.000,0.000,0.000
487530.641,-10.742,38.086,31.250,-58.105,-32.227,0.000,0.000,0.000
487530.645,20.996,39.062,29.785,-40.039,41.016,0.000,0.000,0.000
487530.649,56.152,34.668,32.715,-16.602,92.773,0.000,0.000,0.000
487530.653,40.527,32.227,31.250,-20.996,40.527,0.000,0.000,0.000
487530.657,3.906,31.738,23.926,-39.062,4.395,0.000,0.000,0.000
487530.661,13.184,29.785,28.320,-43.457,-49.805,0.000,0.000,0.000
487530.664,49.805,35.645,31.250,-31.738,-32.227,0.000,0.000,0.000
487530.668,51.270,39.062,22.949,-28.320,17.090,0.000,0.000,0.000
487530.672,11.230,37.109,25.879,-34.180,-24.902,0.000,0.000,0.000
487530.676,7.324,35.645,33.691,-36.133,-89.355,0.000,0.000,0.000
487530.680,43.945,35.156,30.762,-22.461,-47.852,0.000,0.000,0.000
487530.684,58.105,33.691,27.344,-10.742,69.824,0.000,0.000,0.000
487530.688,17.090,29.785,29.785,-41.992,107.910,0.000,0.000,0.000
487530.692,-7.324,32.227,28.320,-64.941,58.105,0.000,0.000,0.000
487530.696,28.320,33.691,29.297,-47.852,96.680,0.000,0.000,0.000
487530.700,55.664,29.785,29.785,-30.273,164.062,0.000,0.000,0.000
487530.703,25.879,31.250,26.367,-40.039,58.594,0.000,0.000,0.000
487530.707,-10.742,37.598,29.785,-58.594,-55.664,0.000,0.000,0.000
487530.711,18.066,36.621,33.691,-51.758,-64.453,0.000,0.000,0.000
487530.715,55.176,29.785,36.133,-30.273,41.992,0.000,0.000,0.000
487530.719,41.504,27.344,33.691,-31.250,94.238,0.000,0.000,0.000
487530.723,3.906,29.297,30.762,-45.410,-1.465,0.000,0.000,0.000
487530.727,16.602,28.809,33.203,-40.527,-10.254,0.000,0.000,0.000
487530.731,54.199,24.902,39.062,-21.484,78.613,0.000,0.000,0.000
487530.735,57.617,30.762,41.016,-19.531,105.469,0.000,0.000,0.000
487530.739,17.090,35.156,37.598,-40.039,28.809,0.000,0.000,0.000
487530.743,3.906,30.273,33.203,-48.340,-56.641,0.000,0.000,0.000
487530.746,45.410,26.367,32.227,-27.832,20.020,0.000,0.000,0.000
487530.750,69.824,30.273,30.273,-17.090,76.172,0.000,0.000,0.000
487530.754,34.668,33.691,26.855,-37.598,16.602,0.000,0.000,0.000
487530.758,-1.465,29.297,25.879,-48.828,-19.043,0.000,0.000,0.000
487530.762,23.926,24.902,28.320,-31.738,78.125,0.000,0.000,0.000
487530.766,53.711,25.879,34.180,-20.996,200.684,0.000,0.000,0.000
487530.770,31.250,22.461,37.598,-32.715,172.363,0.000,0.000,0.000
487530.774,-14.648,20.996,34.668,-42.480,48.828,0.000,0.000,0.000
487530.778,-2.441,25.879,33.203,-38.086,-21.973,0.000,0.000,0.000
487530.782,38.574,31.738,33.203,-25.391,31.250,0.000,0.000,0.000
487530.785,32.227,30.273,34.180,-26.367,161.133,0.000,0.000,0.000
487530.789,-7.812,28.809,32.227,-40.527,94.238,0.000,0.000,0.000
487530.793,2.441,33.203,29.785,-41.504,-80.566,0.000,0.000,0.000
487530.797,44.434,33.203,30.762,-30.273,-7.812,0.000,0.000,0.000
487530.801,53.711,34.180,29.785,-25.879,64.941,0.000,0.000,0.000
487530.805,19.531,33.691,29.785,-38.086,38.086,0.000,0.000,0.000
487530.809,5.859,36.133,32.715,-44.434,-46.387,0.000,0.000,0.000
487530.813,38.574,38.574,31.250,-26.855,-33.203,0.000,0.000,0.000
487530.817,57.617,33.691,29.785,-12.207,106.445,0.000,0.000,0.000
487530.821,26.367,32.715,31.250,-30.762,86.426,0.000,0.000,0.000
487530.825,-0.977,35.156,33.203,-41.992,-45.410,0.000,0.000,0.000
487530.828,27.344,33.203,29.785,-29.785,-42.480,0.000,0.000,0.000
487530.832,53.711,31.738,27.344,-16.602,82.520,0.000,0.000,0.000
487530.836,29.785,34.668,28.809,-27.344,115.723,0.000,0.000,0.000
487530.840,-14.648,33.203,30.762,-45.898,18.066,0.000,0.000,0.000
487530.844,3.418,29.297,30.762,-42.969,-67.383,0.000,0.000,0.000
487530.848,40.039,27.832,24.902,-27.832,-9.277,0.000,0.000,0.000
487530.852,35.156,29.785,22.949,-28.320,91.309,0.000,0.000,0.000
487530.856,-5.859,30.762,19.531,-50.781,28.809,0.000,0.000,0.000
487530.860,-8.789,27.832,20.020,-50.293,-38.574,0.000,0.000,0.000
487530.864,32.715,27.344,29.297,-31.250,13.184,0.000,0.000,0.000
487530.868,44.434,28.320,34.180,-34.668,77.637,0.000,0.000,0.000
487530.871,3.906,25.391,36.133,-50.293,0.488,0.000,0.000,0.000
487530.875,-11.719,26.855,34.668,-51.270,-87.402,0.000,0.000,0.000
487530.879,25.879,28.320,28.809,-33.691,-20.020,0.000,0.000,0.000
487530.883,42.969,24.902,28.809,-23.926,76.172,0.000,0.000,0.000
487530.887,13.672,24.414,33.203,-33.691,42.969,0.000,0.000,0.000
487530.891,-16.602,23.438,29.297,-42.969,-78.613,0.000,0.000,0.000
487530.895,7.812,21.973,13.184,-26.855,-48.340,0.000,0.000,0.000
487530.899,43.945,25.879,10.254,4.395,93.262,0.000,0.000,0.000
487530.903,30.762,26.855,25.391,-4.395,90.332,0.000,0.000,0.000
487530.907,-12.695,27.344,34.180,-38.086,-46.387,0.000,0.000,0.000
487530.910,0.977,24.902,32.715,-27.832,-1.953,0.000,0.000,0.000
487530.914,44.434,24.902,31.250,2.930,158.203,0.000,0.000,0.000
487530.918,40.039,26.855,30.273,1.465,204.102,0.000,0.000,0.000
487530.922,-6.836,25.391,26.855,-20.020,134.277,0.000,0.000,0.000
487530.926,-6.836,27.344,23.926,-26.367,58.594,0.000,0.000,0.000
487530.930,35.156,23.926,22.949,-12.695,115.723,0.000,0.000,0.000
487530.934,52.734,24.902,25.391,-7.324,181.152,0.000,0.000,0.000
487530.938,17.090,31.738,23.926,-24.414,115.234,0.000,0.000,0.000
487530.942,-8.789,29.785,20.996,-32.715,23.438,0.000,0.000,0.000
487530.946,19.043,25.879,23.438,-21.484,18.066,0.000,0.000,0.000
487530.950,41.504,25.391,24.414,-14.160,43.945,0.000,0.000,0.000
487530.953,20.020,26.855,24.414,-22.949,-24.414,0.000,0.000,0.000
487530.957,-11.230,27.344,28.809,-32.715,-120.605,0.000,0.000,0.000
487530.961,12.207,24.414,33.691,-26.367,-116.699,0.000,0.000,0.000
487530.965,47.852,21.973,35.645,-6.348,0.488,0.000,0.000,0.000
487530.969,37.598,22.949,34.668,-9.277,34.668,0.000,0.000,0.000
487530.973,-5.859,25.391,33.203,-33.691,-68.848,0.000,0.000,0.000
487530.977,0.000,19.043,31.738,-33.691,-78.613,0.000,0.000,0.000
487530.981,41.504,17.578,27.344,-15.625,0.000,0.000,0.000,0.000
487530.985,42.969,20.996,20.996,-14.160,41.992,0.000,0.000,0.000
487530.989,-0.977,25.391,20.508,-35.645,-24.902,0.000,0.000,0.000
487530.993,-5.371,25.879,23.438,-38.574,-126.953,0.000,0.000,0.000
487530.996,34.180,22.949,25.391,-18.066,-63.965,0.000,0.000,0.000
487531.000,50.781,25.879,26.855,-7.812,52.734,0.000,0.000,0.000
487531.004,16.113,30.273,25.879,-12.695,10.254,0.000,0.000,0.000
487531.008,-9.766,27.832,24.902,-20.508,-62.988,0.000,0.000,0.000
487531.012,29.297,26.367,27.832,-15.137,-46.387,0.000,0.000,0.000
487531.016,57.617,25.391,32.715,-0.488,12.207,0.000,0.000,0.000
487531.020,31.250,27.344,35.156,-8.301,36.133,0.000,0.000,0.000
487531.024,-0.488,29.297,32.227,-20.508,-49.805,0.000,0.000,0.000
487531.028,16.602,24.902,27.344,-14.160,-55.664,0.000,0.000,0.000
487531.032,49.805,20.996,25.391,0.000,44.922,0.000,0.000,0.000
487531.035,43.457,22.949,24.902,-2.930,53.223,0.000,0.000,0.000
487531.039,3.418,27.344,26.855,-22.461,16.602,0.000,0.000,0.000
487531.043,7.812,30.273,26.855,-20.020,-7.324,0.000,0.000,0.000
487531.047,49.316,28.809,27.344,1.953,56.152,0.000,0.000,0.000
487531.051,57.617,24.902,28.320,6.348,105.469,0.000,0.000,0.000
487531.055,15.137,27.832,28.809,-8.301,-18.066,0.000,0.000,0.000
487531.059,5.371,32.227,30.762,-15.137,-83.984,0.000,0.000,0.000
487531.063,48.340,31.738,31.250,7.324,-1.465,0.000,0.000,0.000
487531.067,65.918,34.180,28.320,24.902,105.469,0.000,0.000,0.000
487531.071,31.738,32.227,27.344,7.324,85.938,0.000,0.000,0.000
487531.075,4.395,26.367,26.855,-1.953,-12.695,0.000,0.000,0.000
487531.078,35.645,24.902,26.855,25.879,9.277,0.000,0.000,0.000
487531.082,67.871,28.320,31.738,48.828,120.117,4.000,1.000,45.000
487531.086,43.457,32.715,33.203,38.086,93.750,0.000,0.000,0.000
487531.090,5.859,33.203,29.785,23.926,2.930,0.000,0.000,0.000
487531.094,21.973,31.250,27.832,20.996,-14.160,0.000,0.000,0.000
487531.098,56.641,30.762,35.156,37.109,32.227,0.000,0.000,0.000
487531.102,49.316,33.203,38.574,43.945,77.637,0.000,0.000,0.000
487531.106,1.465,32.227,32.715,19.531,-22.949,0.000,0.000,0.000
487531.110,6.348,33.691,29.297,12.695,-62.500,0.000,0.000,0.000
487531.114,48.340,33.203,30.273,36.621,41.504,0.000,0.000,0.000
487531.118,58.105,25.879,31.250,50.293,66.406,0.000,0.000,0.000
487531.121,24.414,23.926,35.156,35.645,-33.691,0.000,0.000,0.000
487531.125,8.301,26.367,35.645,22.461,-95.215,0.000,0.000,0.000
487531.129,41.504,28.809,30.273,36.133,-39.551,0.000,0.000,0.000
487531.133,62.012,28.320,28.809,50.781,34.668,0.000,0.000,0.000
487531.137,33.691,30.762,29.297,40.039,64.941,0.000,0.000,0.000
487531.141,1.465,36.621,27.344,22.949,17.578,0.000,0.000,0.000
487531.145,21.973,36.133,26.367,28.320,-8.301,0.000,0.000,0.000
487531.149,56.641,33.691,26.855,48.340,42.969,0.000,0.000,0.000
487531.153,45.898,32.227,23.926,45.410,41.504,0.000,0.000,0.000
487531.157,4.395,31.250,25.391,36.621,-46.875,0.000,0.000,0.000
487531.160,18.066,29.785,28.809,47.363,-53.711,0.000,0.000,0.000
487531.164,62.988,23.926,21.484,60.547,93.262,0.000,0.000,0.000
487531.168,57.129,18.555,20.020,50.781,145.020,0.000,0.000,0.000
487531.172,8.789,23.926,26.855,40.527,-0.977,0.000,0.000,0.000
487531.176,4.883,31.250,29.785,42.480,-81.055,0.000,0.000,0.000
487531.180,41.504,29.297,27.832,55.176,-3.906,0.000,0.000,0.000
487531.184,55.664,29.297,28.320,70.312,81.543,0.000,0.000,0.000
487531.188,22.949,32.227,31.250,56.641,43.457,0.000,0.000,0.000
487531.192,8.789,32.715,29.785,47.363,-54.199,0.000,0.000,0.000
487531.196,41.016,28.320,29.785,62.012,0.000,0.000,0.000,0.000
487531.200,65.918,28.809,27.344,69.824,104.980,0.000,0.000,0.000
487531.203,42.480,30.762,23.926,59.082,46.387,0.000,0.000,0.000
487531.207,7.324,26.855,23.438,48.340,-41.504,0.000,0.000,0.000
487531.211,25.391,28.809,22.949,54.688,-14.160,0.000,0.000,0.000
487531.215,59.570,31.250,22.949,69.824,97.656,0.000,0.000,0.000
487531.219,48.340,31.250,21.484,66.895,82.031,0.000,0.000,0.000
487531.223,7.812,31.738,26.855,49.805,-26.855,0.000,0.000,0.000
487531.227,18.555,30.273,34.180,54.688,-20.996,0.000,0.000,0.000
487531.231,58.105,26.855,30.762,75.684,60.547,0.000,0.000,0.000
487531.235,66.895,27.344,28.320,75.195,83.984,0.000,0.000,0.000
487531.239,28.809,28.809,26.855,48.828,13.672,0.000,0.000,0.000
487531.242,14.160,27.344,26.855,47.363,-31.250,0.000,0.000,0.000
487531.246,47.852,28.320,31.250,64.941,15.625,0.000,0.000,0.000
487531.250,63.477,27.344,29.297,54.199,58.105,0.000,0.000,0.000
487531.254,32.715,29.297,26.855,28.320,3.906,0.000,0.000,0.000
487531.258,10.254,30.273,27.832,20.020,-7.324,0.000,0.000,0.000
487531.262,40.527,24.902,28.320,43.457,47.363,0.000,0.000,0.000
487531.266,67.383,23.438,33.691,55.176,88.379,0.000,0.000,0.000
487531.270,35.645,25.391,30.273,32.715,51.270,0.000,0.000,0.000
487531.274,-3.418,33.203,26.367,11.719,-59.082,0.000,0.000,0.000
487531.278,20.996,34.668,30.762,20.508,-17.578,0.000,0.000,0.000
487531.282,58.594,31.738,32.227,34.180,155.762,0.000,0.000,0.000
487531.285,50.781,28.320,34.180,35.156,125.000,0.000,0.000,0.000
487531.289,9.766,31.250,33.203,23.438,-36.133,0.000,0.000,0.000
487531.293,12.695,31.250,27.832,19.043,-56.641,0.000,0.000,0.000
487531.297,49.316,25.879,26.367,39.062,12.695,0.000,0.000,0.000
487531.301,55.176,29.297,24.902,42.480,86.914,0.000,0.000,0.000
487531.305,13.184,33.203,24.902,27.344,63.477,0.000,0.000,0.000
487531.309,-1.953,29.297,27.344,34.180,-34.180,0.000,0.000,0.000
487531.313,36.133,26.367,27.832,52.734,-13.184,0.000,0.000,0.000
487531.317,53.223,32.715,33.691,53.711,74.707,0.000,0.000,0.000
487531.321,19.531,35.156,33.203,29.297,32.227,0.000,0.000,0.000
487531.325,-6.348,32.227,27.832,16.113,-106.445,0.000,0.000,0.000
487531.328,21.484,31.250,30.273,29.785,-71.289,0.000,0.000,0.000
487531.332,51.270,29.785,31.250,39.551,37.598,0.000,0.000,0.000
487531.336,32.227,27.344,29.297,40.039,19.043,0.000,0.000,0.000
487531.340,-7.812,28.320,28.809,27.344,-45.410,0.000,0.000,0.000
487531.344,9.277,31.738,23.438,23.438,-44.922,0.000,0.000,0.000
487531.348,47.363,31.250,27.344,51.270,58.594,0.000,0.000,0.000
487531.352,46.387,25.879,31.738,53.223,84.961,0.000,0.000,0.000
487531.356,1.465,26.855,28.320,24.902,-17.578,0.000,0.000,0.000
487531.360,4.883,31.250,30.273,26.855,-52.734,0.000,0.000,0.000
487531.364,50.293,30.762,32.227,44.434,39.551,0.000,0.000,0.000
487531.367,52.734,30.273,30.273,48.828,119.141,0.000,0.000,0.000
487531.371,14.648,32.227,31.738,38.086,88.867,0.000,0.000,0.000
487531.375,2.441,30.762,30.762,36.133,9.277,0.000,0.000,0.000
487531.379,40.527,27.832,27.344,52.246,35.645,0.000,0.000,0.000
487531.383,63.477,31.250,22.949,60.059,86.914,0.000,0.000,0.000
487531.387,33.691,33.691,24.902,50.293,16.113,0.000,0.000,0.000
487531.391,1.953,30.762,31.738,46.875,-22.949,0.000,0.000,0.000
487531.395,25.391,23.926,29.297,53.223,11.230,0.000,0.000,0.000
487531.399,55.664,24.902,20.508,64.453,84.473,0.000,0.000,0.000
487531.403,39.551,27.832,20.996,57.129,119.629,0.000,0.000,0.000
487531.407,0.977,22.461,32.227,42.969,37.598,0.000,0.000,0.000
487531.410,14.648,25.879,36.133,41.992,39.062,0.000,0.000,0.000
487531.414,52.734,30.762,34.668,55.664,123.047,0.000,0.000,0.000
487531.418,47.852,26.855,32.715,59.082,137.695,0.000,0.000,0.000
487531.422,4.395,24.414,25.391,36.133,-16.113,0.000,0.000,0.000
487531.426,3.418,25.879,21.484,33.203,-97.656,0.000,0.000,0.000
487531.430,45.898,28.809,26.367,49.316,58.594,0.000,0.000,0.000
487531.434,61.035,27.344,27.344,57.129,92.773,0.000,0.000,0.000
487531.438,19.531,28.320,24.902,43.945,0.000,0.000,0.000,0.000
487531.442,-7.324,28.809,27.832,27.344,-70.312,0.000,0.000,0.000
487531.446,27.832,29.297,33.203,47.363,-45.410,0.000,0.000,0.000
487531.450,54.688,32.227,33.691,65.918,87.891,0.000,0.000,0.000
487531.453,28.320,33.203,35.156,47.852,93.750,0.000,0.000,0.000
487531.457,-2.441,28.809,34.180,34.180,-41.504,0.000,0.000,0.000
487531.461,21.973,29.785,31.738,41.504,-44.434,0.000,0.000,0.000
487531.465,59.082,36.133,28.809,53.223,80.566,0.000,0.000,0.000
487531.469,49.805,38.574,29.785,50.781,98.633,0.000,0.000,0.000
487531.473,5.371,34.668,30.762,31.738,2.441,0.000,0.000,0.000
487531.477,13.672,33.203,22.461,28.320,-37.598,0.000,0.000,0.000
487531.481,57.129,35.156,22.461,48.828,26.367,0.000,0.000,0.000
487531.485,61.035,38.574,30.273,60.059,101.074,0.000,0.000,0.000
487531.489,16.602,41.016,32.227,41.992,0.488,0.000,0.000,0.000
487531.492,9.766,41.992,29.297,42.480,-120.117,0.000,0.000,0.000
487531.496,48.828,41.504,28.809,70.312,-20.020,0.000,0.000,0.000
487531.500,62.012,38.086,30.762,66.406,90.332,0.000,0.000,0.000
487531.504,28.809,21.973,31.738,39.551,-9.766,0.000,0.000,0.000
487531.508,6.836,17.578,28.809,27.344,-120.605,0.000,0.000,0.000
487531.512,35.156,34.180,26.855,42.480,-74.707,0.000,0.000,0.000
487531.516,64.941,36.621,28.320,56.641,51.270,0.000,0.000,0.000
487531.520,38.574,37.598,26.367,37.598,106.445,0.000,0.000,0.000
487531.524,-6.348,39.551,21.484,13.184,54.688,0.000,0.000,0.000
487531.528,19.043,36.133,20.508,21.484,63.965,0.000,0.000,0.000
487531.532,58.105,36.133,18.555,41.504,171.387,0.000,0.000,0.000
487531.535,44.922,33.691,20.508,31.738,190.430,0.000,0.000,0.000
487531.539,3.418,35.156,27.832,12.695,74.707,0.000,0.000,0.000
487531.543,8.301,39.062,32.715,18.555,37.109,0.000,0.000,0.000
487531.547,50.293,37.109,34.668,37.598,122.070,0.000,0.000,0.000
487531.551,61.523,35.645,32.227,39.062,151.855,0.000,0.000,0.000
487531.555,22.461,34.668,28.320,20.508,77.637,0.000,0.000,0.000
487531.559,10.254,31.738,26.855,17.090,-30.762,0.000,0.000,0.000
487531.563,44.922,34.180,22.949,30.762,-70.801,0.000,0.000,0.000
487531.567,60.547,35.156,25.391,38.086,20.996,0.000,0.000,0.000
487531.571,31.250,31.738,32.715,21.973,17.578,0.000,0.000,0.000
487531.575,7.324,29.297,30.762,18.066,-96.680,0.000,0.000,0.000
487531.578,33.203,28.809,31.250,40.039,-72.754,0.000,0.000,0.000
487531.582,64.941,34.180,34.180,49.805,62.012,0.000,0.000,0.000
487531.586,45.898,36.621,27.344,41.016,62.012,0.000,0.000,0.000
487531.590,0.977,35.156,23.438,24.414,-21.973,0.000,0.000,0.000
487531.594,11.719,33.203,27.344,17.090,-43.945,0.000,0.000,0.000
487531.598,48.828,31.738,31.250,36.621,49.805,0.000,0.000,0.000
487531.602,43.457,33.691,35.156,38.086,113.770,0.000,0.000,0.000
487531.606,-7.812,36.133,35.156,6.836,69.336,0.000,0.000,0.000
487531.610,-6.348,34.668,32.715,9.277,37.598,0.000,0.000,0.000
487531.614,39.062,29.297,36.621,33.691,39.551,0.000,0.000,0.000
487531.617,39.551,32.715,38.086,25.879,87.891,0.000,0.000,0.000
487531.621,-9.277,35.156,40.527,-4.883,39.551,0.000,0.000,0.000
487531.625,-25.391,34.180,37.598,-18.555,-36.621,0.000,0.000,0.000
487531.629,4.395,34.180,38.574,-9.766,-33.691,0.000,0.000,0.000
487531.633,8.301,30.762,53.223,-12.695,45.410,0.000,0.000,0.000
487531.637,-36.133,46.387,64.941,-39.062,50.293,0.000,0.000,0.000
487531.641,-89.355,52.246,70.312,-79.590,-75.195,0.000,0.000,0.000
487531.645,-103.027,46.875,63.965,-117.188,-65.918,0.000,0.000,0.000
487531.649,-107.422,54.688,63.477,-140.625,35.645,0.000,0.000,0.000
487531.653,-158.691,61.523,75.684,-179.688,1.953,0.000,0.000,0.000
487531.657,-238.770,69.336,89.844,-234.863,-85.449,0.000,0.000,0.000
487531.660,-250.977,71.289,97.656,-254.883,-54.688,0.000,0.000,0.000
487531.664,-231.934,62.988,94.238,-254.883,72.266,0.000,0.000,0.000
487531.668,-245.605,66.406,86.426,-274.414,97.656,0.000,0.000,0.000
487531.672,-291.992,77.637,88.379,-293.945,-18.066,0.000,0.000,0.000
487531.676,-298.828,81.055,88.867,-287.109,-51.270,0.000,0.000,0.000
487531.680,-252.930,79.102,88.867,-268.555,25.879,0.000,0.000,0.000
487531.684,-228.516,75.684,90.332,-263.672,44.922,0.000,0.000,0.000
487531.688,-251.953,75.684,88.867,-265.137,22.461,0.000,0.000,0.000
487531.692,-256.836,79.102,84.961,-251.465,-17.090,0.000,0.000,0.000
487531.696,-207.520,81.543,73.730,-217.285,27.832,0.000,0.000,0.000
487531.699,-175.293,72.754,68.848,-190.918,139.648,0.000,0.000,0.000
487531.703,-188.477,65.430,84.961,-187.500,86.914,0.000,0.000,0.000
487531.707,-202.637,66.406,96.191,-181.641,49.805,0.000,0.000,0.000
487531.711,-163.086,66.895,90.820,-152.832,93.750,0.000,0.000,0.000
487531.715,-107.422,63.477,82.031,-116.211,102.539,0.000,0.000,0.000
487531.719,-98.633,62.500,78.125,-101.562,72.754,0.000,0.000,0.000
487531.723,-121.582,57.129,76.660,-100.586,-18.555,0.000,0.000,0.000
487531.727,-90.820,54.688,65.918,-77.148,-61.523,0.000,0.000,0.000
487531.731,-29.297,55.664,57.129,-31.250,47.363,0.000,0.000,0.000
487531.735,-11.230,51.758,58.105,-9.766,115.234,0.000,0.000,0.000
487531.739,-38.574,48.340,55.176,-19.043,39.062,0.000,0.000,0.000
487531.742,-26.855,43.945,54.199,-7.812,-45.898,0.000,0.000,0.000
487531.746,32.227,41.992,35.645,26.367,-5.371,0.000,0.000,0.000
487531.750,58.594,40.527,9.766,43.945,122.070,0.000,0.000,0.000
487531.754,28.320,33.691,20.996,46.875,84.473,0.000,0.000,0.000
487531.758,19.043,28.320,31.738,43.945,-45.898,0.000,0.000,0.000
487531.762,65.430,25.879,25.391,51.758,26.855,0.000,0.000,0.000
487531.766,102.539,22.949,21.484,72.754,186.523,0.000,0.000,0.000
487531.770,86.426,21.484,19.043,76.172,146.484,0.000,0.000,0.000
487531.774,62.988,20.020,19.531,76.172,48.340,0.000,0.000,0.000
487531.778,98.633,15.625,8.301,94.727,46.875,0.000,0.000,0.000
487531.782,143.066,11.719,-4.395,122.070,112.793,0.000,0.000,0.000
487531.785,136.230,9.277,0.488,128.418,137.695,0.000,0.000,0.000
487531.789,101.562,5.371,9.277,116.211,-26.367,0.000,0.000,0.000
487531.793,118.164,7.324,12.695,116.211,-190.430,0.000,0.000,0.000
487531.797,159.668,11.230,10.254,137.207,-45.410,0.000,0.000,0.000
487531.801,169.434,12.207,8.789,139.160,79.590,0.000,0.000,0.000
487531.805,131.836,13.184,4.883,121.094,-11.719,0.000,0.000,0.000
487531.809,116.211,11.719,-0.977,119.629,-100.586,0.000,0.000,0.000
487531.813,154.785,8.301,-2.441,129.395,-25.879,0.000,0.000,0.000
487531.817,177.734,7.812,0.488,139.648,72.754,0.000,0.000,0.000
487531.821,144.531,8.301,5.859,130.371,95.703,0.000,0.000,0.000
487531.824,116.211,4.395,0.488,118.164,19.043,0.000,0.000,0.000
487531.828,152.344,8.789,-2.441,142.090,50.293,0.000,0.000,0.000
487531.832,183.105,10.742,3.906,163.086,104.492,0.000,0.000,0.000
487531.836,150.391,6.348,5.859,138.184,-8.789,0.000,0.000,0.000
487531.840,106.934,5.371,4.395,117.188,-73.242,0.000,0.000,0.000
487531.844,120.605,3.418,2.930,123.535,-58.594,0.000,0.000,0.000
487531.848,159.668,6.836,2.930,136.230,42.480,0.000,0.000,0.000
487531.852,155.762,8.301,0.000,127.441,81.055,0.000,0.000,0.000
487531.856,106.934,6.348,-1.465,104.492,24.414,0.000,0.000,0.000
487531.860,105.957,6.348,0.488,113.281,10.742,0.000,0.000,0.000
487531.864,148.438,6.836,3.418,135.742,20.996,0.000,0.000,0.000
487531.867,158.691,9.277,6.836,127.441,27.832,0.000,0.000,0.000
487531.871,119.629,12.207,5.371,112.305,-62.500,0.000,0.000,0.000
487531.875,104.980,12.695,-7.324,109.863,-127.441,0.000,0.000,0.000
487531.879,137.207,9.766,-7.324,120.605,16.113,0.000,0.000,0.000
487531.883,152.832,7.324,8.789,129.883,117.676,0.000,0.000,0.000
487531.887,120.117,11.230,10.742,117.188,49.805,0.000,0.000,0.000
487531.891,87.402,18.066,7.812,103.027,-10.742,0.000,0.000,0.000
487531.895,108.398,15.625,13.184,108.887,-6.348,0.000,0.000,0.000
487531.899,135.742,16.113,16.113,123.047,95.703,0.000,0.000,0.000
487531.903,114.258,20.020,9.277,113.770,156.738,0.000,0.000,0.000
487531.907,73.730,19.043,7.324,94.727,63.477,0.000,0.000,0.000
487531.910,84.961,17.578,7.324,93.262,37.598,0.000,0.000,0.000
487531.914,122.559,17.090,4.883,104.980,148.438,0.000,0.000,0.000
487531.918,116.699,16.113,4.883,96.680,136.230,0.000,0.000,0.000
487531.922,69.336,18.555,10.742,70.312,-29.297,0.000,0.000,0.000
487531.926,67.383,17.090,15.625,65.430,-102.051,0.000,0.000,0.000
487531.930,105.957,14.160,16.113,85.449,16.602,0.000,0.000,0.000
487531.934,113.281,17.090,17.090,90.332,125.977,0.000,0.000,0.000
487531.938,72.754,18.066,15.625,59.082,47.852,0.000,0.000,0.000
487531.942,54.688,10.254,18.555,45.410,-73.242,0.000,0.000,0.000
487531.946,95.215,12.207,17.578,59.082,-37.598,0.000,0.000,0.000
487531.949,114.746,23.438,16.602,64.453,55.664,0.000,0.000,0.000
487531.953,78.125,27.832,18.066,48.828,13.672,0.000,0.000,0.000
487531.957,42.480,27.344,8.789,32.227,-56.641,0.000,0.000,0.000
487531.961,70.801,28.320,8.301,42.969,0.977,0.000,0.000,0.000
487531.965,104.004,29.785,15.137,64.941,102.051,0.000,0.000,0.000
487531.969,83.984,25.391,17.090,52.734,83.008,0.000,0.000,0.000
487531.973,41.016,23.926,21.484,25.391,-37.109,0.000,0.000,0.000
487531.977,53.223,25.879,21.484,23.926,-63.477,0.000,0.000,0.000
487531.981,93.262,27.344,19.531,42.480,27.344,0.000,0.000,0.000
487531.985,99.609,29.297,17.090,51.270,77.637,0.000,0.000,0.000
487531.989,54.199,27.344,16.113,28.809,38.086,0.000,0.000,0.000
487531.992,31.738,23.926,21.484,13.184,56.641,0.000,0.000,0.000
487531.996,68.848,21.973,24.414,39.062,137.695,0.000,0.000,0.000
487532.000,85.938,17.090,20.020,51.758,172.852,0.000,0.000,0.000
487532.004,52.246,20.508,21.484,30.762,106.445,0.000,0.000,0.000
487532.008,36.133,26.855,25.879,20.508,26.855,0.000,0.000,0.000
487532.012,63.965,23.438,25.879,37.598,6.348,0.000,0.000,0.000
487532.016,80.566,22.461,20.996,51.758,16.602,0.000,0.000,0.000
487532.020,54.688,23.926,19.043,39.551,-44.434,0.000,0.000,0.000
487532.024,20.020,22.461,24.902,27.344,-91.797,0.000,0.000,0.000
487532.028,38.086,20.996,23.926,38.086,-60.059,0.000,0.000,0.000
487532.032,72.266,19.531,17.090,53.711,3.906,0.000,0.000,0.000
487532.035,67.383,20.508,15.625,48.340,68.359,0.000,0.000,0.000
487532.039,27.344,18.066,14.648,30.273,27.344,0.000,0.000,0.000
487532.043,31.738,19.043,16.602,23.438,-9.277,0.000,0.000,0.000
487532.047,69.336,26.367,21.484,31.738,52.734,0.000,0.000,0.000
487532.051,71.777,29.297,23.926,37.109,101.562,0.000,0.000,0.000
487532.055,28.320,24.414,25.391,18.066,0.977,0.000,0.000,0.000
487532.059,18.555,20.508,29.297,11.230,-125.000,0.000,0.000,0.000
487532.063,56.152,21.973,25.391,36.133,-47.363,0.000,0.000,0.000
487532.067,76.172,26.367,18.555,45.410,73.730,0.000,0.000,0.000
487532.071,45.898,26.367,17.090,34.668,17.578,0.000,0.000,0.000
487532.074,15.137,26.367,10.254,26.367,-113.281,0.000,0.000,0.000
487532.078,38.086,25.879,13.184,27.832,-116.699,0.000,0.000,0.000
487532.082,67.383,25.879,23.438,39.551,31.250,0.000,0.000,0.000
487532.086,49.805,29.297,33.691,40.039,77.148,0.000,0.000,0.000
487532.090,10.742,27.832,39.551,17.090,-17.090,0.000,0.000,0.000
487532.094,25.391,23.438,37.598,14.160,-52.246,0.000,0.000,0.000
487532.098,62.500,21.973,34.180,37.598,33.203,0.000,0.000,0.000
487532.102,55.664,20.508,26.855,39.062,73.730,0.000,0.000,0.000
487532.106,11.230,20.020,20.020,21.484,-26.855,0.000,0.000,0.000
487532.110,8.789,21.973,21.484,17.090,-88.379,0.000,0.000,0.000
487532.114,48.828,22.461,27.832,36.621,-13.184,0.000,0.000,0.000
487532.117,63.965,30.273,25.391,42.969,86.426,0.000,0.000,0.000
487532.121,27.832,36.621,22.949,25.879,18.066,0.000,0.000,0.000
487532.125,11.719,32.715,29.785,14.160,-51.758,0.000,0.000,0.000
487532.129,49.316,28.320,32.227,29.297,48.828,0.000,0.000,0.000
487532.133,68.848,28.320,32.715,44.434,129.395,0.000,0.000,0.000
487532.137,34.180,33.691,30.273,33.691,39.551,0.000,0.000,0.000
487532.141,3.418,31.250,30.273,20.996,-38.574,0.000,0.000,0.000
487532.145,34.180,24.414,29.785,34.180,-49.316,0.000,0.000,0.000
487532.149,73.242,27.344,27.832,48.340,37.598,0.000,0.000,0.000
487532.153,51.270,34.668,22.949,26.367,117.676,0.000,0.000,0.000
487532.156,9.277,36.621,17.578,11.719,0.977,0.000,0.000,0.000
487532.160,24.414,33.691,17.090,22.461,-25.391,0.000,0.000,0.000
487532.164,57.617,33.203,18.555,37.598,135.254,0.000,0.000,0.000
487532.168,52.246,36.133,17.578,30.273,149.902,0.000,0.000,0.000
487532.172,9.766,33.203,10.254,14.160,75.684,0.000,0.000,0.000
487532.176,7.812,31.738,9.766,18.555,41.016,0.000,0.000,0.000
487532.180,45.410,31.738,20.996,28.809,7.324,0.000,0.000,0.000
487532.184,58.594,26.855,26.367,35.645,51.270,0.000,0.000,0.000
487532.188,23.438,28.320,28.809,21.484,16.113,0.000,0.000,0.000
487532.192,0.000,32.227,29.785,17.090,-104.492,0.000,0.000,0.000
487532.196,31.738,23.438,23.926,37.598,-41.016,0.000,0.000,0.000
487532.199,61.523,20.508,22.949,43.457,59.082,0.000,0.000,0.000
487532.203,32.227,26.367,23.926,34.668,43.945,0.000,0.000,0.000
487532.207,-2.930,27.832,23.438,20.020,-49.805,0.000,0.000,0.000
487532.211,27.832,27.344,22.949,25.391,-31.250,0.000,0.000,0.000
487532.215,63.965,30.273,27.344,48.828,98.633,0.000,0.000,0.000
487532.219,49.805,35.645,35.645,41.016,96.680,0.000,0.000,0.000
487532.223,8.789,37.598,31.250,13.672,-6.348,0.000,0.000,0.000
487532.227,16.113,34.180,18.555,12.207,-31.250,0.000,0.000,0.000
487532.231,53.223,31.738,20.020,30.273,77.637,0.000,0.000,0.000
487532.235,53.223,31.738,32.227,29.297,111.816,0.000,0.000,0.000
487532.239,6.836,30.762,35.156,7.812,10.254,0.000,0.000,0.000
487532.242,0.000,29.297,31.738,0.000,-64.453,0.000,0.000,0.000
487532.246,42.480,29.297,32.715,17.090,54.199,0.000,0.000,0.000
487532.250,57.617,29.297,36.133,28.320,177.734,0.000,0.000,0.000
487532.254,15.625,31.250,32.715,17.578,43.945,0.000,0.000,0.000
487532.258,-5.371,31.738,24.902,-1.465,-37.598,0.000,0.000,0.000
487532.262,27.832,29.785,27.832,13.672,68.848,0.000,0.000,0.000
487532.266,55.176,24.902,25.391,28.320,173.828,0.000,0.000,0.000
487532.270,33.691,23.926,20.020,21.973,187.988,0.000,0.000,0.000
487532.274,-4.395,29.297,24.902,5.371,27.832,0.000,0.000,0.000
487532.278,17.578,33.203,24.414,-0.488,-46.387,0.000,0.000,0.000
487532.281,49.805,31.738,20.508,20.020,43.457,0.000,0.000,0.000
487532.285,37.109,31.738,22.949,16.602,58.105,0.000,0.000,0.000
487532.289,0.488,34.180,25.391,-1.465,-40.039,0.000,0.000,0.000
487532.293,8.301,30.273,25.391,1.953,-88.867,0.000,0.000,0.000
487532.297,49.805,27.832,20.020,26.367,14.160,0.000,0.000,0.000
487532.301,59.570,28.809,15.137,25.879,149.414,0.000,0.000,0.000
487532.305,18.066,31.250,20.996,3.418,82.520,0.000,0.000,0.000
487532.309,7.324,35.156,18.555,8.301,-30.762,0.000,0.000,0.000
487532.313,44.922,34.180,12.695,31.738,23.438,0.000,0.000,0.000
487532.317,62.988,29.297,12.207,37.109,115.723,0.000,0.000,0.000
487532.321,32.715,28.809,7.324,17.090,66.895,0.000,0.000,0.000
487532.324,5.859,30.762,9.766,4.395,22.949,0.000,0.000,0.000
487532.328,33.691,30.273,22.461,20.996,83.008,0.000,0.000,0.000
487532.332,68.359,28.320,29.785,37.598,142.090,0.000,0.000,0.000
487532.336,53.711,30.273,37.109,34.180,94.238,0.000,0.000,0.000
487532.340,12.207,34.668,35.156,23.926,-2.930,0.000,0.000,0.000
487532.344,21.973,32.715,23.926,28.809,-40.527,0.000,0.000,0.000
487532.348,54.199,28.320,26.367,48.340,25.391,0.000,0.000,0.000
487532.352,53.223,29.297,29.297,48.828,92.773,0.000,0.000,0.000
487532.356,16.602,28.809,29.297,33.691,61.035,0.000,0.000,0.000
487532.360,13.672,26.855,27.832,34.668,42.480,0.000,0.000,0.000
487532.364,45.410,23.438,26.367,51.758,54.199,0.000,0.000,0.000
487532.367,52.246,20.020,31.250,59.570,52.734,0.000,0.000,0.000
487532.371,13.672,20.996,34.668,52.246,-29.785,0.000,0.000,0.000
487532.375,0.000,24.414,32.715,47.363,-110.840,0.000,0.000,0.000
487532.379,39.551,27.344,27.832,62.500,-35.156,0.000,0.000,0.000
487532.383,65.918,25.879,23.438,80.566,92.285,0.000,0.000,0.000
487532.387,36.133,25.391,29.297,66.406,25.879,0.000,0.000,0.000
487532.391,1.465,27.832,34.180,46.387,-82.520,0.000,0.000,0.000
487532.395,28.809,32.227,31.738,57.617,-32.715,0.000,0.000,0.000
487532.399,62.988,28.320,32.227,71.777,79.590,0.000,0.000,0.000
487532.403,42.480,20.508,29.297,66.406,76.172,0.000,0.000,0.000
487532.406,3.418,25.391,22.461,48.340,-31.738,0.000,0.000,0.000
487532.410,20.020,32.227,21.484,46.875,-47.852,0.000,0.000,0.000
487532.414,57.617,30.273,24.902,73.242,29.297,0.000,0.000,0.000
487532.418,58.105,27.832,26.367,78.613,67.383,0.000,0.000,0.000
487532.422,18.066,26.367,26.367,55.176,-21.973,0.000,0.000,0.000
487532.426,13.672,26.367,22.949,52.246,-89.355,2.000,1.000,0.000
487532.430,50.781,28.809,23.438,71.777,8.789,0.000,0.000,0.000
487532.434,62.988,26.367,31.738,77.148,79.590,0.000,0.000,0.000
487532.438,16.113,22.461,32.227,59.082,19.043,0.000,0.000,0.000
487532.442,-6.836,23.926,19.531,48.340,53.223,0.000,0.000,0.000
487532.446,31.250,22.949,18.555,63.477,66.406,0.000,0.000,0.000
487532.449,51.270,24.414,26.367,73.242,67.871,0.000,0.000,0.000
487532.453,16.113,24.902,29.785,57.617,38.086,0.000,0.000,0.000
487532.457,-15.137,20.996,33.691,44.434,-48.828,0.000,0.000,0.000
487532.461,15.137,18.555,34.668,49.805,-44.434,0.000,0.000,0.000
487532.465,47.852,24.414,32.715,58.594,91.309,0.000,0.000,0.000
487532.469,39.551,32.715,29.785,50.293,115.723,0.000,0.000,0.000
487532.473,7.324,37.109,31.250,38.574,5.859,0.000,0.000,0.000
487532.477,18.066,35.645,29.785,41.504,-14.160,0.000,0.000,0.000
487532.481,55.176,30.273,25.391,57.617,56.152,0.000,0.000,0.000
487532.485,56.152,29.297,26.855,55.176,147.949,0.000,0.000,0.000
487532.489,14.160,35.156,28.320,28.809,143.066,0.000,0.000,0.000
487532.492,12.207,40.527,29.785,24.414,83.008,0.000,0.000,0.000
487532.496,48.340,39.551,31.738,45.898,107.910,0.000,0.000,0.000
487532.500,58.105,37.109,33.691,45.898,105.469,0.000,0.000,0.000
487532.504,22.461,32.715,31.738,17.578,4.395,0.000,0.000,0.000
487532.508,1.953,27.344,29.297,11.719,-73.730,0.000,0.000,0.000
487532.512,35.156,24.902,28.809,34.668,-26.367,0.000,0.000,0.000
487532.516,59.570,26.855,23.438,41.504,80.566,0.000,0.000,0.000
487532.520,31.250,28.809,18.555,17.090,97.168,0.000,0.000,0.000
487532.524,-1.465,31.250,25.391,0.977,-14.648,0.000,0.000,0.000
487532.528,21.973,34.668,27.344,14.648,-20.508,0.000,0.000,0.000
487532.531,44.922,33.203,28.320,31.250,150.391,0.000,0.000,0.000
487532.535,28.320,31.250,32.227,25.391,151.367,0.000,0.000,0.000
487532.539,-7.324,31.738,27.344,11.230,-17.090,0.000,0.000,0.000
487532.543,0.488,28.320,20.996,7.812,-56.152,0.000,0.000,0.000
487532.547,41.992,26.367,27.344,25.879,37.598,0.000,0.000,0.000
487532.551,49.805,27.832,29.785,32.227,64.941,0.000,0.000,0.000
487532.555,6.836,27.832,26.367,13.672,-27.832,0.000,0.000,0.000
487532.559,-0.977,28.320,30.762,11.719,-44.922,0.000,0.000,0.000
487532.563,41.016,32.227,28.320,30.273,94.238,0.000,0.000,0.000
487532.567,59.082,30.762,20.020,38.574,222.168,0.000,0.000,0.000
487532.571,23.926,27.344,24.902,22.461,157.227,0.000,0.000,0.000
487532.574,-2.441,31.738,30.273,15.137,36.621,0.000,0.000,0.000
487532.578,25.391,30.273,27.832,32.715,2.441,0.000,0.000,0.000
487532.582,49.316,26.855,24.902,38.574,47.363,0.000,0.000,0.000
487532.586,26.367,27.832,25.879,23.438,-6.836,0.000,0.000,0.000
487532.590,-10.254,25.879,30.762,8.789,-117.676,0.000,0.000,0.000
487532.594,12.695,27.832,34.668,29.785,-87.891,0.000,0.000,0.000
487532.598,51.758,25.391,34.668,55.176,5.859,0.000,0.000,0.000
487532.602,41.016,27.344,30.273,43.457,25.879,0.000,0.000,0.000
487532.606,3.906,34.668,28.809,25.879,-77.637,0.000,0.000,0.000
487532.610,10.742,31.250,29.297,34.180,-128.418,0.000,0.000,0.000
487532.613,40.527,27.832,26.367,59.082,-12.695,0.000,0.000,0.000
487532.617,42.480,30.762,32.715,56.152,49.316,0.000,0.000,0.000
487532.621,6.836,34.180,38.574,29.297,-38.086,0.000,0.000,0.000
487532.625,-1.953,31.250,34.180,26.367,-96.191,0.000,0.000,0.000
487532.629,36.621,26.855,28.320,43.945,-25.879,0.000,0.000,0.000
487532.633,58.594,29.785,28.809,47.363,71.289,0.000,0.000,0.000
487532.637,20.508,32.715,32.715,25.391,89.844,0.000,0.000,0.000
487532.641,-13.672,31.250,31.738,12.207,-20.996,0.000,0.000,0.000
487532.645,19.043,29.785,28.320,20.996,-49.316,0.000,0.000,0.000
487532.649,50.781,32.715,26.855,29.297,36.133,0.000,0.000,0.000
487532.653,32.227,31.738,29.785,16.113,27.344,0.000,0.000,0.000
487532.656,-3.906,32.227,29.785,-0.977,-57.617,0.000,0.000,0.000
487532.660,10.742,34.668,24.414,8.789,-19.043,0.000,0.000,0.000
487532.664,48.340,32.715,27.344,27.832,168.457,0.000,0.000,0.000
487532.668,45.410,27.832,28.809,18.066,209.961,0.000,0.000,0.000
487532.672,1.465,24.414,25.391,-8.301,66.406,0.000,0.000,0.000
487532.676,3.906,27.832,29.297,-7.812,-8.789,0.000,0.000,0.000
487532.680,45.410,30.273,35.645,16.113,75.684,0.000,0.000,0.000
487532.684,54.688,34.180,34.668,19.531,132.324,0.000,0.000,0.000
487532.688,16.602,31.250,31.250,-1.953,-3.906,0.000,0.000,0.000
487532.692,0.000,29.785,27.832,-10.742,-122.070,0.000,0.000,0.000
487532.696,43.457,36.133,27.344,11.230,-59.570,0.000,0.000,0.000
487532.699,72.266,36.133,22.949,26.367,31.250,0.000,0.000,0.000
487532.703,35.645,34.180,22.461,8.301,19.531,0.000,0.000,0.000
487532.707,4.883,35.645,30.762,-6.836,-75.195,0.000,0.000,0.000
487532.711,35.156,36.621,24.902,0.488,-81.543,0.000,0.000,0.000
487532.715,63.477,36.133,20.996,15.625,12.207,0.000,0.000,0.000
487532.719,45.410,32.715,31.250,12.207,20.020,0.000,0.000,0.000
487532.723,8.789,34.180,32.715,-9.277,-55.176,0.000,0.000,0.000
487532.727,18.555,37.109,32.227,-17.578,-55.176,0.000,0.000,0.000
487532.731,48.828,31.738,29.785,-7.324,47.852,0.000,0.000,0.000
487532.735,51.758,27.832,24.902,-2.930,83.008,0.000,0.000,0.000
487532.738,7.812,25.879,31.250,-23.438,-42.480,0.000,0.000,0.000
487532.742,-2.441,27.832,33.203,-26.367,-90.820,0.000,0.000,0.000
487532.746,40.527,33.203,28.320,6.348,25.391,0.000,0.000,0.000
487532.750,55.176,34.668,27.832,8.301,121.094,0.000,0.000,0.000
487532.754,17.090,36.621,27.344,-14.160,59.082,0.000,0.000,0.000
487532.758,1.465,35.645,26.855,-12.695,-58.594,0.000,0.000,0.000
487532.762,40.039,31.250,27.344,8.301,-12.695,0.000,0.000,0.000
487532.766,62.012,30.762,25.879,20.020,103.516,0.000,0.000,0.000
487532.770,25.391,29.785,24.902,4.883,77.637,0.000,0.000,0.000
487532.774,-7.324,31.250,27.344,-9.766,-4.883,0.000,0.000,0.000
487532.778,23.926,30.762,30.273,2.930,-15.137,0.000,0.000,0.000
487532.781,49.805,30.762,31.738,22.461,114.258,0.000,0.000,0.000
487532.785,29.297,32.227,28.320,22.949,207.031,0.000,0.000,0.000
487532.789,-6.348,29.297,26.367,13.672,76.172,0.000,0.000,0.000
487532.793,13.184,29.785,26.855,11.230,-64.941,0.000,0.000,0.000
487532.797,51.758,33.691,21.484,21.973,1.953,0.000,0.000,0.000
487532.801,45.898,30.762,19.531,21.484,114.746,0.000,0.000,0.000
487532.805,7.324,27.344,22.949,6.348,57.617,0.000,0.000,0.000
487532.809,3.418,31.738,25.879,6.836,-18.555,0.000,0.000,0.000
487532.813,43.457,33.203,31.250,31.250,44.434,0.000,0.000,0.000
487532.817,59.082,34.180,34.180,38.574,124.023,0.000,0.000,0.000
487532.821,21.973,38.574,31.738,21.484,66.895,0.000,0.000,0.000
487532.824,1.953,38.574,35.645,13.672,-53.223,0.000,0.000,0.000
487532.828,35.156,37.109,37.598,27.344,-9.277,0.000,0.000,0.000
487532.832,63.477,34.180,30.273,47.852,158.203,0.000,0.000,0.000
487532.836,40.527,31.250,26.855,41.504,155.273,0.000,0.000,0.000
487532.840,5.371,31.738,28.809,20.508,-17.090,0.000,0.000,0.000
487532.844,33.203,35.156,27.344,27.344,-52.246,0.000,0.000,0.000
487532.848,65.918,36.621,29.785,46.875,71.777,0.000,0.000,0.000
487532.852,55.664,33.203,36.133,45.898,103.516,0.000,0.000,0.000
487532.856,15.625,31.250,35.645,31.250,28.809,0.000,0.000,0.000
487532.860,12.695,31.250,31.250,29.297,-28.809,0.000,0.000,0.000
487532.863,49.805,24.414,27.344,41.016,39.062,0.000,0.000,0.000
487532.867,47.363,21.973,27.832,47.363,170.410,0.000,0.000,0.000
487532.871,-3.418,24.902,32.715,23.438,160.156,0.000,0.000,0.000
487532.875,-10.254,26.367,34.668,7.324,69.336,0.000,0.000,0.000
487532.879,29.297,28.809,27.832,23.926,111.328,0.000,0.000,0.000
487532.883,47.363,27.832,22.949,26.855,209.961,0.000,0.000,0.000
487532.887,20.020,25.879,26.855,10.254,86.426,0.000,0.000,0.000
487532.891,-5.371,24.902,29.785,1.465,-48.340,0.000,0.000,0.000
487532.895,24.414,24.414,33.203,16.602,-10.254,0.000,0.000,0.000
487532.899,56.152,23.926,36.133,30.762,42.969,0.000,0.000,0.000
487532.903,36.133,25.879,36.133,23.926,31.250,0.000,0.000,0.000
487532.906,-2.930,30.273,36.133,1.465,-55.176,0.000,0.000,0.000
487532.910,17.090,31.250,33.203,1.953,-4.883,0.000,0.000,0.000
487532.914,60.547,32.715,28.809,32.715,81.055,0.000,0.000,0.000
487532.918,49.805,36.621,29.297,30.762,54.688,0.000,0.000,0.000
487532.922,2.441,27.832,31.738,7.324,-7.324,0.000,0.000,0.000
487532.926,8.301,22.461,30.273,11.230,-45.898,0.000,0.000,0.000
487532.930,47.363,29.297,24.902,25.879,20.508,0.000,0.000,0.000
487532.934,54.199,31.250,27.832,29.785,72.754,0.000,0.000,0.000
487532.938,21.973,31.250,31.250,14.160,-9.766,0.000,0.000,0.000
487532.942,3.418,34.180,32.715,6.348,-66.895,0.000,0.000,0.000
487532.945,36.621,33.203,33.203,20.508,20.996,0.000,0.000,0.000
487532.949,67.871,31.738,30.762,32.715,83.008,0.000,0.000,0.000
487532.953,34.668,33.691,28.320,19.043,29.297,0.000,0.000,0.000
487532.957,-4.395,33.203,27.832,4.395,-55.176,0.000,0.000,0.000
487532.961,24.414,30.273,25.391,21.484,-49.805,0.000,0.000,0.000
487532.965,57.617,28.809,20.020,34.668,52.246,0.000,0.000,0.000
487532.969,39.551,26.855,26.855,17.090,62.988,0.000,0.000,0.000
487532.973,-1.465,27.344,34.180,0.488,-38.086,0.000,0.000,0.000
487532.977,11.230,26.855,33.691,11.719,-63.965,0.000,0.000,0.000
487532.981,46.875,26.367,32.227,31.250,27.344,0.000,0.000,0.000
487532.985,43.945,24.902,28.809,27.344,68.359,0.000,0.000,0.000
487532.988,3.418,25.879,29.785,7.324,-27.832,0.000,0.000,0.000
487532.992,4.883,28.809,26.855,5.859,-106.445,0.000,0.000,0.000
487532.996,44.434,26.855,24.414,24.414,-11.230,0.000,0.000,0.000
487533.000,52.734,28.320,20.996,28.320,85.449,0.000,0.000,0.000
487533.004,16.113,33.691,19.531,14.160,39.551,0.000,0.000,0.000
487533.008,-4.395,31.250,23.438,3.906,-30.273,0.000,0.000,0.000
487533.012,25.879,27.344,26.367,15.625,-20.996,0.000,0.000,0.000
487533.016,54.688,30.762,25.391,27.832,38.574,0.000,0.000,0.000
487533.020,28.320,33.203,27.832,10.254,-0.977,0.000,0.000,0.000
487533.024,-7.324,36.133,30.762,-1.953,-62.500,0.000,0.000,0.000
487533.028,18.555,37.109,26.855,17.578,-31.250,0.000,0.000,0.000
487533.031,59.570,37.598,23.926,40.039,24.414,0.000,0.000,0.000
487533.035,48.340,37.109,26.367,37.598,25.879,0.000,0.000,0.000
487533.039,2.441,34.180,25.879,13.184,-46.387,0.000,0.000,0.000
487533.043,13.672,30.273,25.391,21.484,-52.734,0.000,0.000,0.000
487533.047,57.129,27.832,28.320,47.852,36.621,0.000,0.000,0.000
487533.051,61.035,32.715,31.250,43.457,72.754,0.000,0.000,0.000
487533.055,22.461,37.109,27.344,29.297,12.207,0.000,0.000,0.000
487533.059,12.207,38.086,20.020,16.602,9.766,0.000,0.000,0.000
487533.063,45.898,37.109,25.391,25.391,113.770,0.000,0.000,0.000
487533.067,61.523,30.273,27.344,32.715,135.742,0.000,0.000,0.000
487533.070,26.367,27.832,29.297,26.855,-2.930,0.000,0.000,0.000
487533.074,6.836,28.320,31.738,29.297,-49.316,0.000,0.000,0.000
487533.078,41.016,25.879,29.297,44.922,57.129,0.000,0.000,0.000
487533.082,68.848,29.297,27.832,63.477,160.645,0.000,0.000,0.000
487533.086,46.875,34.180,32.715,55.664,117.188,0.000,0.000,0.000
487533.090,11.230,33.691,35.645,41.016,-43.457,0.000,0.000,0.000
487533.094,30.273,29.297,32.227,48.828,-127.441,0.000,0.000,0.000
487533.098,66.406,25.879,30.273,69.336,-47.852,0.000,0.000,0.000
487533.102,57.617,24.414,31.738,72.754,11.230,0.000,0.000,0.000
487533.106,14.648,28.320,31.250,54.199,-80.078,0.000,0.000,0.000
487533.110,19.531,33.203,30.762,43.457,-109.863,0.000,0.000,0.000
487533.113,52.734,37.109,32.227,55.176,-5.371,0.000,0.000,0.000
487533.117,59.082,37.598,30.273,64.941,67.871,0.000,0.000,0.000
487533.121,22.461,32.715,31.738,49.316,-10.254,0.000,0.000,0.000
487533.125,11.230,31.738,35.156,41.504,-79.102,0.000,0.000,0.000
487533.129,47.852,33.203,30.762,61.523,-16.602,0.000,0.000,0.000
487533.133,62.500,31.738,24.902,64.941,51.270,0.000,0.000,0.000
487533.137,27.832,29.297,24.902,42.969,26.367,0.000,0.000,0.000
487533.141,0.977,30.273,23.926,34.180,-7.812,0.000,0.000,0.000
487533.145,25.879,32.227,21.973,49.316,-10.742,0.000,0.000,0.000
487533.149,56.152,33.691,26.855,60.547,28.320,0.000,0.000,0.000
487533.153,38.086,31.738,26.855,49.316,58.105,0.000,0.000,0.000
487533.156,-3.418,27.344,25.391,24.902,-48.828,0.000,0.000,0.000
487533.160,14.648,25.879,29.785,18.555,-49.316,0.000,0.000,0.000
487533.164,55.176,29.297,35.156,52.734,105.469,0.000,0.000,0.000
487533.168,43.945,28.809,36.621,60.059,144.043,0.000,0.000,0.000
487533.172,-3.418,20.020,31.250,31.738,20.508,0.000,0.000,0.000
487533.176,-2.930,21.973,26.367,27.344,-59.082,0.000,0.000,0.000
487533.180,39.551,27.832,25.391,54.688,24.414,0.000,0.000,0.000
487533.184,55.664,29.297,25.391,63.965,96.680,0.000,0.000,0.000
487533.188,11.230,29.297,29.297,33.203,0.000,0.000,0.000,0.000
487533.192,-10.254,27.832,26.855,32.715,-37.598,0.000,0.000,0.000
487533.195,31.738,27.832,25.391,54.199,18.066,0.000,0.000,0.000
487533.199,58.105,30.762,30.762,63.477,101.562,0.000,0.000,0.000
487533.203,26.367,26.855,28.320,58.105,94.238,0.000,0.000,0.000
487533.207,0.488,23.438,22.949,51.758,-14.160,0.000,0.000,0.000
487533.211,32.715,27.344,27.832,68.848,19.043,0.000,0.000,0.000
487533.215,63.477,26.367,32.715,87.402,106.445,0.000,0.000,0.000
487533.219,46.387,27.832,27.832,79.590,65.918,0.000,0.000,0.000
487533.223,3.906,28.809,28.320,70.312,-5.371,0.000,0.000,0.000
487533.227,14.648,27.832,33.691,78.613,-19.043,0.000,0.000,0.000
487533.231,52.734,30.273,32.227,91.309,58.594,0.000,0.000,0.000
487533.235,49.316,29.785,27.344,99.121,97.656,0.000,0.000,0.000
487533.238,5.371,25.879,30.762,86.914,35.645,0.000,0.000,0.000
487533.242,0.977,25.879,35.156,76.172,-27.344,0.000,0.000,0.000
487533.246,36.133,26.855,30.273,90.820,17.090,0.000,0.000,0.000
487533.250,52.246,28.320,27.344,99.609,96.191,0.000,0.000,0.000
487533.254,18.066,28.809,27.832,94.727,41.016,0.000,0.000,0.000
487533.258,-4.883,27.344,29.785,91.309,-18.066,0.000,0.000,0.000
487533.262,31.738,26.367,31.250,99.609,44.434,0.000,0.000,0.000
487533.266,56.641,31.250,31.738,110.840,119.629,0.000,0.000,0.000
487533.270,21.484,30.762,39.551,103.027,74.219,0.000,0.000,0.000
487533.274,-13.184,24.414,39.062,87.402,27.832,0.000,0.000,0.000
487533.278,14.648,29.297,31.250,92.285,22.949,0.000,0.000,0.000
487533.281,44.922,29.785,25.879,115.234,97.656,0.000,0.000,0.000
487533.285,31.250,20.508,22.949,112.305,103.027,0.000,0.000,0.000
487533.289,-8.301,20.020,26.855,92.285,-41.992,0.000,0.000,0.000
487533.293,5.859,24.902,29.785,100.098,-39.551,0.000,0.000,0.000
487533.297,46.387,22.949,26.367,122.559,74.219,0.000,0.000,0.000
487533.301,43.457,21.484,32.227,127.930,122.070,0.000,0.000,0.000
487533.305,5.371,23.438,41.016,102.051,29.785,0.000,0.000,0.000
487533.309,-0.977,28.809,35.645,86.914,-7.812,0.000,0.000,0.000
487533.313,36.133,32.227,35.156,110.352,68.848,0.000,0.000,0.000
487533.317,52.734,32.715,36.621,122.559,102.051,0.000,0.000,0.000
487533.320,20.020,33.691,31.738,109.863,67.383,0.000,0.000,0.000
487533.324,4.883,31.250,33.691,102.539,16.602,0.000,0.000,0.000
487533.328,41.504,32.227,34.180,114.258,27.344,0.000,0.000,0.000
487533.332,65.430,34.180,29.785,129.395,63.477,0.000,0.000,0.000
487533.336,39.062,39.062,32.715,126.953,-0.977,0.000,0.000,0.000
487533.340,-4.395,39.062,34.180,96.191,-55.176,0.000,0.000,0.000
487533.344,6.348,31.738,32.715,83.008,-3.906,0.000,0.000,0.000
487533.348,43.945,31.738,37.109,104.492,86.426,0.000,0.000,0.000
487533.352,39.551,34.180,40.527,112.305,158.203,0.000,0.000,0.000
487533.356,1.465,31.250,36.621,96.191,89.844,0.000,0.000,0.000
487533.360,7.812,23.438,30.762,103.516,56.152,0.000,0.000,0.000
487533.363,44.434,22.949,27.832,122.070,172.852,0.000,0.000,0.000
487533.367,50.781,26.367,27.832,114.258,112.793,0.000,0.000,0.000
487533.371,8.789,26.855,27.832,86.914,-23.926,0.000,0.000,0.000
487533.375,1.953,28.809,28.320,85.449,-31.738,0.000,0.000,0.000
487533.379,45.898,30.273,37.109,109.375,26.367,0.000,0.000,0.000
487533.383,68.848,33.691,34.668,117.188,74.219,0.000,0.000,0.000
487533.387,38.574,37.109,27.344,111.328,51.758,0.000,0.000,0.000
487533.391,4.883,36.133,31.250,83.008,-13.672,0.000,0.000,0.000
487533.395,24.902,36.621,30.273,88.867,-2.441,0.000,0.000,0.000
487533.399,57.129,37.109,20.996,114.258,47.852,0.000,0.000,0.000
487533.402,36.621,32.715,26.367,88.867,25.879,0.000,0.000,0.000
487533.406,-4.883,27.832,32.715,72.754,-48.828,0.000,0.000,0.000
487533.410,15.625,30.273,31.250,90.332,-53.711,0.000,0.000,0.000
487533.414,52.246,28.320,31.250,102.051,34.180,0.000,0.000,0.000
487533.418,42.969,26.367,32.715,90.332,53.223,0.000,0.000,0.000
487533.422,1.953,30.762,32.227,77.637,-19.531,0.000,0.000,0.000
487533.426,5.371,33.203,31.738,81.055,-61.523,0.000,0.000,0.000
487533.430,44.922,35.645,29.785,101.074,-14.160,0.000,0.000,0.000
487533.434,51.758,34.180,26.367,103.027,75.195,0.000,0.000,0.000
487533.438,8.301,29.297,30.762,77.148,42.480,0.000,0.000,0.000
487533.442,-4.883,30.273,37.109,76.660,-53.711,0.000,0.000,0.000
487533.445,34.180,31.250,37.598,101.074,-17.090,0.000,0.000,0.000
487533.449,54.688,29.785,32.715,106.934,107.422,0.000,0.000,0.000
487533.453,24.414,32.227,29.785,86.426,94.238,0.000,0.000,0.000
487533.457,-7.812,31.250,30.762,74.707,-25.391,0.000,0.000,0.000
487533.461,19.531,29.297,25.391,80.078,15.137,0.000,0.000,0.000
487533.465,55.664,22.949,24.414,92.285,107.910,0.000,0.000,0.000
487533.469,39.062,20.020,29.297,84.961,61.035,0.000,0.000,0.000
487533.473,0.000,25.391,29.297,66.406,-28.809,0.000,0.000,0.000
487533.477,19.043,27.344,31.738,75.195,-63.477,0.000,0.000,0.000
487533.481,60.547,26.367,32.715,89.844,-4.395,0.000,0.000,0.000
487533.485,50.781,26.855,29.785,72.754,6.348,0.000,0.000,0.000
487533.488,4.395,24.414,28.809,57.617,-49.805,0.000,0.000,0.000
487533.492,4.883,21.484,29.297,62.988,-49.316,0.000,0.000,0.000
487533.496,49.316,25.879,28.320,85.938,12.695,0.000,0.000,0.000
487533.500,59.570,25.879,25.879,83.008,82.031,0.000,0.000,0.000
487533.504,18.555,24.414,27.344,63.477,22.949,0.000,0.000,0.000
487533.508,-0.488,29.297,28.320,63.965,-44.434,0.000,0.000,0.000
487533.512,33.203,26.855,23.926,78.125,-11.719,0.000,0.000,0.000
487533.516,52.734,21.484,24.414,93.262,38.574,0.000,0.000,0.000
487533.520,16.602,26.367,25.391,76.660,43.457,0.000,0.000,0.000
487533.524,-14.648,30.273,22.949,55.176,-35.645,0.000,0.000,0.000
487533.527,16.113,23.438,24.902,77.637,-23.438,0.000,0.000,0.000
487533.531,48.340,21.484,30.273,99.121,47.852,0.000,0.000,0.000
487533.535,27.344,23.438,31.250,74.219,56.152,0.000,0.000,0.000
487533.539,-14.648,24.414,29.297,58.105,-11.719,0.000,0.000,0.000
487533.543,0.488,21.973,27.832,62.988,-55.176,0.000,0.000,0.000
487533.547,31.738,21.973,19.531,74.219,-3.906,0.000,0.000,0.000
487533.551,28.320,24.902,17.578,74.707,30.273,0.000,0.000,0.000
487533.555,-6.836,23.926,27.344,47.852,-49.805,0.000,0.000,0.000
487533.559,-8.789,24.902,31.250,43.457,-70.312,0.000,0.000,0.000
487533.563,26.367,25.391,26.855,67.383,25.391,0.000,0.000,0.000
487533.567,39.551,25.391,23.926,74.219,94.238,0.000,0.000,0.000
487533.570,9.277,24.414,25.391,64.453,122.070,0.000,0.000,0.000
487533.574,-8.301,21.484,24.902,55.176,87.402,0.000,0.000,0.000
487533.578,24.902,24.414,24.902,74.219,90.332,0.000,0.000,0.000
487533.582,47.852,29.297,23.926,95.703,128.418,0.000,0.000,0.000
487533.586,21.484,27.344,25.391,77.148,73.242,0.000,0.000,0.000
487533.590,-12.695,20.508,29.785,54.688,-12.695,0.000,0.000,0.000
487533.594,11.230,17.578,26.855,66.406,0.000,0.000,0.000,0.000
487533.598,45.898,21.484,25.391,83.008,171.875,0.000,0.000,0.000
487533.602,33.691,30.762,31.250,78.125,205.078,0.000,0.000,0.000
487533.606,-5.371,29.785,32.715,65.430,22.949,0.000,0.000,0.000
487533.610,3.906,23.438,31.738,75.195,-55.176,0.000,0.000,0.000
487533.613,45.410,17.578,30.273,93.262,24.902,0.000,0.000,0.000
487533.617,51.758,19.531,27.832,89.844,63.477,0.000,0.000,0.000
487533.621,9.277,32.227,25.879,68.848,-41.992,0.000,0.000,0.000
487533.625,-0.977,30.273,30.762,69.824,-125.000,0.000,0.000,0.000
487533.629,38.574,26.367,30.273,84.961,7.324,0.000,0.000,0.000
487533.633,55.664,30.273,27.344,86.426,157.227,0.000,0.000,0.000
487533.637,20.996,33.691,34.180,79.102,69.824,0.000,0.000,0.000
487533.641,0.488,34.180,33.203,66.406,-38.574,0.000,0.000,0.000
487533.645,33.203,31.738,27.344,71.289,11.230,0.000,0.000,0.000
487533.649,63.477,32.227,26.367,92.285,91.309,0.000,0.000,0.000
487533.652,39.551,36.133,27.344,91.309,111.816,0.000,0.000,0.000
487533.656,-1.465,35.645,29.297,67.383,51.270,0.000,0.000,0.000
487533.660,24.902,31.250,32.715,77.637,17.090,0.000,0.000,0.000
487533.664,66.406,27.344,31.738,109.375,40.527,0.000,0.000,0.000
487533.668,49.805,28.320,28.809,82.031,28.320,0.000,0.000,0.000
487533.672,-0.488,26.367,29.297,62.012,-42.969,0.000,0.000,0.000
487533.676,6.836,18.066,33.691,69.824,-73.242,0.000,0.000,0.000
487533.680,47.852,15.625,33.203,74.219,3.418,0.000,0.000,0.000
487533.684,55.176,17.090,25.879,75.684,61.035,0.000,0.000,0.000
487533.688,13.672,16.602,23.438,55.176,41.992,0.000,0.000,0.000
487533.692,-5.859,14.648,25.879,54.199,36.621,0.000,0.000,0.000
487533.695,32.227,12.695,29.297,73.242,125.000,0.000,0.000,0.000
487533.699,57.617,11.719,29.785,88.867,164.062,0.000,0.000,0.000
487533.703,24.414,13.672,30.273,77.637,62.988,0.000,0.000,0.000
487533.707,-2.930,17.578,28.320,54.199,-43.945,0.000,0.000,0.000
487533.711,25.879,13.672,26.855,60.547,-48.828,0.000,0.000,0.000
487533.715,54.688,13.672,33.203,102.051,53.711,0.000,0.000,0.000
487533.719,39.551,19.531,37.109,92.285,91.309,0.000,0.000,0.000
487533.723,-1.465,19.531,34.668,47.363,-17.578,0.000,0.000,0.000
487533.727,14.648,20.508,28.809,56.641,-9.277,0.000,0.000,0.000
487533.731,52.246,19.043,23.438,76.172,128.418,0.000,0.000,0.000
487533.735,41.016,18.066,24.414,77.148,113.281,0.000,0.000,0.000
487533.738,-10.254,14.648,24.414,46.387,9.277,0.000,0.000,0.000
487533.742,-1.953,11.230,28.320,47.852,-45.898,0.000,0.000,0.000
487533.746,43.457,10.742,33.691,79.590,77.637,0.000,0.000,0.000
487533.750,52.246,7.812,34.180,78.125,175.781,0.000,0.000,0.000
487533.754,14.648,9.277,33.691,46.387,80.078,0.000,0.000,0.000
487533.758,-0.977,14.160,32.715,46.875,17.578,0.000,0.000,0.000
487533.762,30.273,14.648,27.832,69.336,42.969,0.000,0.000,0.000
487533.766,50.293,14.648,27.832,68.848,74.707,0.000,0.000,0.000
487533.770,26.367,20.996,27.344,50.293,55.664,0.000,0.000,0.000
487533.774,-5.371,24.414,22.949,34.668,-29.297,0.000,0.000,0.000
487533.777,19.043,20.996,20.020,49.316,-19.043,0.000,0.000,0.000
487533.781,56.152,23.438,20.508,78.125,47.363,0.000,0.000,0.000
487533.785,41.992,27.344,28.320,71.777,36.621,0.000,0.000,0.000
487533.789,-6.348,23.926,31.250,51.270,-46.387,0.000,0.000,0.000
487533.793,5.859,21.973,26.855,56.152,-60.547,0.000,0.000,0.000
487533.797,46.875,22.949,28.320,73.730,49.316,0.000,0.000,0.000
487533.801,45.898,26.855,32.227,75.684,79.590,0.000,0.000,0.000
487533.805,4.883,29.297,26.855,57.617,-12.695,0.000,0.000,0.000
487533.809,-1.465,23.926,23.438,56.641,-86.914,0.000,0.000,0.000
487533.813,40.527,21.973,30.762,74.219,-9.277,0.000,0.000,0.000
487533.817,56.641,23.438,36.621,76.660,60.059,0.000,0.000,0.000
487533.820,16.602,23.438,29.297,68.359,-4.883,0.000,0.000,0.000
487533.824,-3.906,17.578,24.414,65.430,-52.246,0.000,0.000,0.000
487533.828,31.738,18.066,27.832,70.801,-43.457,0.000,0.000,0.000
487533.832,55.664,27.832,31.250,79.102,43.945,0.000,0.000,0.000
487533.836,31.738,32.715,25.879,55.664,70.312,0.000,0.000,0.000
487533.840,-3.418,30.762,18.555,44.922,-71.777,0.000,0.000,0.000
487533.844,15.625,25.391,20.996,64.941,-101.074,0.000,0.000,0.000
487533.848,54.688,20.508,26.367,67.871,32.715,0.000,0.000,0.000
487533.852,46.387,18.555,27.832,61.523,76.660,0.000,0.000,0.000
487533.856,5.859,20.508,25.879,58.105,10.254,0.000,0.000,0.000
487533.859,15.137,23.438,25.391,57.129,-24.414,0.000,0.000,0.000
487533.863,51.270,24.902,24.902,72.266,50.293,0.000,0.000,0.000
487533.867,52.734,24.902,25.391,84.961,160.156,0.000,0.000,0.000
487533.871,11.719,28.320,27.832,62.500,44.922,0.000,0.000,0.000
487533.875,2.441,30.273,32.227,52.246,-60.547,0.000,0.000,0.000
487533.879,36.621,28.809,37.598,73.242,12.207,0.000,0.000,0.000
487533.883,47.363,28.809,36.621,82.031,76.172,0.000,0.000,0.000
487533.887,14.648,20.508,36.133,44.922,60.547,0.000,0.000,0.000
487533.891,-6.836,14.648,40.527,23.926,-24.414,0.000,0.000,0.000
487533.895,29.297,28.809,31.250,50.781,39.551,0.000,0.000,0.000
487533.899,61.523,41.016,22.461,72.754,192.871,0.000,0.000,0.000
487533.902,32.715,37.109,27.832,46.387,124.512,0.000,0.000,0.000
487533.906,-2.930,35.156,32.227,36.133,-49.805,0.000,0.000,0.000
487533.910,21.484,40.527,32.715,59.082,-44.922,0.000,0.000,0.000
487533.914,53.711,40.527,28.809,72.754,77.637,0.000,0.000,0.000
487533.918,37.598,33.203,28.809,67.871,74.707,0.000,0.000,0.000
487533.922,-6.836,28.320,31.738,45.898,-35.156,0.000,0.000,0.000
487533.926,-2.930,27.344,29.785,42.969,-94.727,0.000,0.000,0.000
487533.930,37.109,29.785,26.855,62.988,-4.883,0.000,0.000,0.000
487533.934,47.363,31.738,25.391,64.453,100.586,0.000,0.000,0.000
487533.938,15.625,28.809,23.926,39.551,-17.090,0.000,0.000,0.000
487533.942,4.395,25.391,26.367,36.133,-97.656,0.000,0.000,0.000
487533.945,36.133,30.762,29.785,55.176,-20.996,0.000,0.000,0.000
487533.949,55.176,33.691,33.203,55.176,58.594,4.000,1.000,0.000
487533.953,22.461,26.367,33.691,38.574,-2.930,0.000,0.000,0.000
487533.957,-7.324,21.484,30.762,18.555,-86.914,0.000,0.000,0.000
487533.961,16.602,22.949,29.785,20.508,0.488,0.000,0.000,0.000
487533.965,47.363,26.855,31.738,42.480,123.535,0.000,0.000,0.000
487533.969,25.879,28.320,30.762,38.086,78.125,0.000,0.000,0.000
487533.973,-16.602,25.391,31.250,27.344,-39.551,0.000,0.000,0.000
487533.977,0.488,21.484,26.367,42.480,-49.805,0.000,0.000,0.000
487533.981,41.016,19.531,25.879,55.176,27.344,0.000,0.000,0.000
487533.984,41.504,23.926,34.668,52.734,26.367,0.000,0.000,0.000
487533.988,-1.465,27.832,34.668,46.387,-76.660,0.000,0.000,0.000
487533.992,-2.441,28.809,32.715,38.574,-104.492,0.000,0.000,0.000
487533.996,40.039,26.855,33.691,49.805,-8.301,0.000,0.000,0.000
487534.000,51.758,25.879,31.738,59.570,74.219,0.000,0.000,0.000
487534.004,17.578,28.320,32.715,41.504,32.715,0.000,0.000,0.000
487534.008,1.953,26.855,33.691,33.203,-49.805,0.000,0.000,0.000
487534.012,36.621,19.531,32.227,51.270,-1.953,0.000,0.000,0.000
487534.016,59.082,14.160,31.250,67.383,86.914,0.000,0.000,0.000
487534.020,26.855,11.230,32.715,52.734,61.523,0.000,0.000,0.000
487534.024,-2.930,6.836,31.250,39.551,-34.180,0.000,0.000,0.000
487534.027,23.438,5.371,28.809,52.734,-58.105,0.000,0.000,0.000
487534.031,56.152,8.301,34.180,68.359,27.344,0.000,0.000,0.000
487534.035,42.969,13.184,35.645,58.105,63.477,0.000,0.000,0.000
487534.039,3.906,11.230,29.785,37.598,-7.812,0.000,0.000,0.000
487534.043,16.602,5.371,26.367,51.270,-1.953,0.000,0.000,0.000
487534.047,53.223,6.836,25.391,78.613,130.859,0.000,0.000,0.000
487534.051,50.781,12.207,26.367,57.617,197.754,0.000,0.000,0.000
487534.055,9.277,16.602,29.297,22.949,92.285,0.000,0.000,0.000
487534.059,7.812,20.508,27.344,22.949,35.156,0.000,0.000,0.000
487534.063,50.293,20.996,31.250,53.711,61.035,0.000,0.000,0.000
487534.067,65.430,23.926,33.691,66.895,91.309,0.000,0.000,0.000
487534.070,26.855,22.949,30.762,50.781,38.086,0.000,0.000,0.000
487534.074,6.836,21.973,31.250,41.016,-63.477,0.000,0.000,0.000
487534.078,39.551,21.973,31.738,50.293,-82.520,0.000,0.000,0.000
487534.082,67.871,20.020,34.668,65.918,8.789,0.000,0.000,0.000
487534.086,41.504,21.973,34.668,55.176,2.930,0.000,0.000,0.000
487534.090,3.418,22.461,28.809,44.922,-91.309,0.000,0.000,0.000
487534.094,25.391,18.555,26.855,60.059,-48.340,0.000,0.000,0.000
487534.098,59.570,19.043,26.855,60.547,43.945,0.000,0.000,0.000
487534.102,47.363,25.879,29.297,59.082,47.852,0.000,0.000,0.000
487534.106,2.930,28.809,29.297,57.617,-30.273,0.000,0.000,0.000
487534.109,9.766,28.320,26.855,45.898,-55.176,0.000,0.000,0.000
487534.113,48.340,29.297,31.738,50.293,8.789,0.000,0.000,0.000
487534.117,53.711,29.785,34.668,56.152,64.453,0.000,0.000,0.000
487534.121,20.020,31.738,35.645,45.898,24.902,0.000,0.000,0.000
487534.125,11.230,32.227,35.156,50.293,-59.082,0.000,0.000,0.000
487534.129,42.969,38.086,31.250,64.453,-27.832,0.000,0.000,0.000
487534.133,52.246,36.621,30.273,76.172,53.223,0.000,0.000,0.000
487534.137,17.090,28.809,31.738,64.453,21.973,0.000,0.000,0.000
487534.141,-3.906,30.273,30.273,50.293,-59.570,0.000,0.000,0.000
487534.145,28.809,31.738,29.785,62.988,-24.902,0.000,0.000,0.000
487534.149,57.129,34.180,28.809,72.266,93.262,0.000,0.000,0.000
487534.152,33.691,37.598,28.320,57.129,91.309,0.000,0.000,0.000
487534.156,-2.441,35.645,32.715,43.457,-19.531,0.000,0.000,0.000
487534.160,16.602,30.762,36.133,58.594,-26.855,0.000,0.000,0.000
487534.164,53.711,31.250,34.180,75.195,106.445,0.000,0.000,0.000
487534.168,43.945,30.762,28.320,71.289,144.531,0.000,0.000,0.000
487534.172,2.930,30.762,28.320,47.363,39.551,0.000,0.000,0.000
487534.176,11.719,33.203,31.250,32.227,-3.906,0.000,0.000,0.000
487534.180,49.316,35.156,31.250,52.246,54.199,0.000,0.000,0.000
487534.184,50.781,38.086,30.762,60.059,69.336,0.000,0.000,0.000
487534.188,14.160,36.133,32.227,42.480,-28.320,0.000,0.000,0.000
487534.192,6.348,34.180,32.715,41.992,-91.797,0.000,0.000,0.000
487534.195,40.039,32.715,33.691,64.941,3.418,0.000,0.000,0.000
487534.199,55.664,33.691,33.203,73.242,83.984,0.000,0.000,0.000
487534.203,20.020,34.668,29.785,53.223,-0.977,0.000,0.000,0.000
487534.207,-8.789,33.203,32.715,39.551,-88.379,0.000,0.000,0.000
487534.211,21.484,26.367,38.086,51.758,7.324,0.000,0.000,0.000
487534.215,48.340,19.043,35.645,60.059,185.059,0.000,0.000,0.000
487534.219,31.250,22.949,33.203,50.781,122.559,0.000,0.000,0.000
487534.223,-3.906,25.391,36.621,43.457,-50.781,0.000,0.000,0.000
487534.227,13.184,25.879,31.738,40.039,-57.617,0.000,0.000,0.000
487534.231,53.711,28.320,26.855,57.617,12.695,0.000,0.000,0.000
487534.234,43.945,28.320,33.203,61.523,64.453,0.000,0.000,0.000
487534.238,-0.977,30.273,37.109,37.598,-1.953,0.000,0.000,0.000
487534.242,6.348,27.344,33.691,38.086,-74.707,0.000,0.000,0.000
487534.246,45.898,27.344,26.855,56.641,7.812,0.000,0.000,0.000
487534.250,53.223,28.320,26.367,63.477,65.918,0.000,0.000,0.000
487534.254,18.066,25.879,31.738,51.270,-9.766,0.000,0.000,0.000
487534.258,1.953,27.344,35.156,38.574,-86.426,0.000,0.000,0.000
487534.262,37.109,28.809,31.738,56.152,37.598,0.000,0.000,0.000
487534.266,54.688,27.344,26.855,69.336,139.648,0.000,0.000,0.000
487534.270,22.461,23.926,30.762,52.734,35.645,0.000,0.000,0.000
487534.274,-3.906,21.484,35.645,29.297,-80.566,0.000,0.000,0.000
487534.277,27.344,26.367,33.203,39.062,-88.379,0.000,0.000,0.000
487534.281,58.594,30.273,33.203,58.105,-13.184,0.000,0.000,0.000
487534.285,36.133,28.320,28.809,42.480,32.227,0.000,0.000,0.000
487534.289,-1.953,23.926,26.367,31.250,-20.996,0.000,0.000,0.000
487534.293,11.230,20.996,33.203,41.016,-26.855,0.000,0.000,0.000
487534.297,44.434,22.949,31.738,61.035,46.387,0.000,0.000,0.000
487534.301,38.574,20.020,26.855,62.012,69.824,0.000,0.000,0.000
487534.305,-1.953,19.531,28.320,27.832,2.441,0.000,0.000,0.000
487534.309,4.395,28.809,30.762,28.320,-41.016,0.000,0.000,0.000
487534.313,42.480,29.785,33.203,60.547,56.641,0.000,0.000,0.000
487534.316,51.270,29.297,35.645,65.430,129.395,0.000,0.000,0.000
487534.320,17.090,31.738,34.180,50.293,95.215,0.000,0.000,0.000
487534.324,0.488,32.227,29.785,46.875,63.477,0.000,0.000,0.000
487534.328,39.551,30.762,25.391,58.105,112.793,0.000,0.000,0.000
487534.332,66.895,30.762,21.973,67.871,201.660,0.000,0.000,0.000
487534.336,40.527,32.715,18.555,61.523,177.246,0.000,0.000,0.000
487534.340,3.906,29.785,20.996,44.922,62.500,0.000,0.000,0.000
487534.344,27.344,25.879,31.250,54.199,70.312,0.000,0.000,0.000
487534.348,59.082,23.438,33.691,70.801,144.043,0.000,0.000,0.000
487534.352,41.992,25.879,31.738,62.988,99.609,0.000,0.000,0.000
487534.356,-3.418,22.949,35.645,52.246,-1.465,0.000,0.000,0.000
487534.359,7.324,21.973,38.086,56.152,-77.148,0.000,0.000,0.000
487534.363,50.781,21.484,34.180,73.242,6.348,0.000,0.000,0.000
487534.367,47.363,16.602,32.227,66.895,134.277,0.000,0.000,0.000
487534.371,6.348,18.555,33.203,46.387,78.125,0.000,0.000,0.000
487534.375,2.930,25.879,25.391,45.410,-13.184,0.000,0.000,0.000
487534.379,40.527,21.484,22.949,62.988,29.297,0.000,0.000,0.000
487534.383,54.688,12.695,31.738,69.824,78.613,0.000,0.000,0.000
487534.387,20.020,17.578,31.250,47.363,17.090,0.000,0.000,0.000
487534.391,-2.930,20.020,31.250,30.273,-66.895,0.000,0.000,0.000
487534.395,33.691,21.484,35.156,48.828,-51.270,0.000,0.000,0.000
487534.399,65.918,20.996,36.621,65.918,25.391,0.000,0.000,0.000
487534.402,37.598,19.043,32.715,47.363,7.324,0.000,0.000,0.000
487534.406,-0.488,20.020,29.785,33.203,-44.922,0.000,0.000,0.000
487534.410,24.414,25.879,26.855,42.480,-10.254,0.000,0.000,0.000
487534.414,60.059,26.855,22.461,62.012,47.852,0.000,0.000,0.000
487534.418,42.480,21.484,25.879,57.617,57.129,0.000,0.000,0.000
487534.422,0.000,22.949,30.762,30.273,22.949,0.000,0.000,0.000
487534.426,10.254,25.391,31.738,22.461,-28.320,0.000,0.000,0.000
487534.430,49.805,20.996,31.738,41.992,60.059,0.000,0.000,0.000
487534.434,55.664,19.531,31.738,52.246,157.715,0.000,0.000,0.000
487534.438,9.766,17.090,30.273,39.062,118.164,0.000,0.000,0.000
487534.441,-4.395,12.695,26.855,27.344,33.203,0.000,0.000,0.000
487534.445,37.598,14.648,26.367,33.691,-5.371,0.000,0.000,0.000
487534.449,54.688,14.648,21.484,42.969,63.965,0.000,0.000,0.000
487534.453,14.160,15.625,20.508,30.273,32.715,0.000,0.000,0.000
487534.457,-9.766,20.020,26.367,25.391,-51.270,0.000,0.000,0.000
487534.461,22.461,17.090,31.738,36.133,-45.410,0.000,0.000,0.000
487534.465,48.340,17.578,35.156,37.109,75.684,0.000,0.000,0.000
487534.469,32.715,26.367,35.156,31.250,107.422,0.000,0.000,0.000
487534.473,-3.906,31.738,32.227,28.320,-49.805,0.000,0.000,0.000
487534.477,11.719,28.320,28.320,41.504,-42.969,0.000,0.000,0.000
487534.481,49.316,25.391,25.391,55.176,146.484,0.000,0.000,0.000
487534.484,45.898,27.344,27.344,48.828,177.734,0.000,0.000,0.000
487534.488,4.883,25.391,27.344,31.738,31.738,0.000,0.000,0.000
487534.492,7.812,20.020,21.973,27.832,-29.297,0.000,0.000,0.000
487534.496,45.410,18.066,24.902,38.086,91.309,0.000,0.000,0.000
487534.500,45.410,24.902,32.227,43.945,134.277,0.000,0.000,0.000
487534.504,4.395,27.344,35.645,30.273,52.734,0.000,0.000,0.000
487534.508,-12.207,24.902,33.691,15.625,38.574,0.000,0.000,0.000
487534.512,20.508,23.438,26.855,28.809,79.590,0.000,0.000,0.000
487534.516,46.387,20.020,26.855,44.922,137.207,0.000,0.000,0.000
487534.520,21.484,18.555,28.809,26.855,50.293,0.000,0.000,0.000
487534.524,-7.812,18.555,29.785,16.113,-57.617,0.000,0.000,0.000
487534.527,18.555,13.672,32.227,35.156,11.719,0.000,0.000,0.000
487534.531,51.758,18.066,30.273,48.828,121.094,0.000,0.000,0.000
487534.535,34.668,28.320,27.832,50.293,92.773,0.000,0.000,0.000
487534.539,-5.859,28.809,27.832,34.180,-16.113,0.000,0.000,0.000
487534.543,7.812,25.879,27.832,26.367,-69.824,0.000,0.000,0.000
487534.547,45.898,23.926,30.273,52.246,-1.465,0.000,0.000,0.000
487534.551,44.922,28.809,32.715,60.059,11.719,0.000,0.000,0.000
487534.555,2.930,31.738,31.250,40.039,-73.242,0.000,0.000,0.000
487534.559,-0.488,22.461,32.715,26.855,-62.500,0.000,0.000,0.000
487534.563,36.621,18.066,30.273,45.410,20.996,0.000,0.000,0.000
487534.566,46.875,22.949,25.879,58.105,73.730,0.000,0.000,0.000
487534.570,8.789,20.020,28.809,50.293,15.137,0.000,0.000,0.000
487534.574,-8.301,20.996,28.320,36.133,-70.801,0.000,0.000,0.000
487534.578,26.855,23.438,30.273,40.039,-30.762,0.000,0.000,0.000
487534.582,45.898,24.902,31.738,46.387,63.477,0.000,0.000,0.000
487534.586,20.996,25.391,28.809,32.227,41.504,0.000,0.000,0.000
487534.590,-7.324,20.508,29.297,26.367,-27.344,0.000,0.000,0.000
487534.594,15.625,19.043,35.156,40.527,-29.297,0.000,0.000,0.000
487534.598,51.758,22.949,38.574,53.223,38.086,0.000,0.000,0.000
487534.602,41.992,26.367,31.250,43.945,129.883,0.000,0.000,0.000
487534.606,2.930,25.879,22.949,22.461,86.914,0.000,0.000,0.000
487534.609,10.254,25.391,22.949,27.832,30.762,0.000,0.000,0.000
487534.613,43.945,26.855,26.367,46.875,82.031,0.000,0.000,0.000
487534.617,44.922,31.738,28.320,51.758,89.355,0.000,0.000,0.000
487534.621,0.488,29.785,30.273,30.762,-33.203,0.000,0.000,0.000
487534.625,-7.324,23.438,32.227,24.902,-97.656,0.000,0.000,0.000
487534.629,30.273,22.949,29.785,44.922,-38.086,0.000,0.000,0.000
487534.633,48.828,21.484,29.297,53.223,47.852,0.000,0.000,0.000
487534.637,16.602,21.484,30.762,36.133,38.574,0.000,0.000,0.000
487534.641,-11.719,22.461,29.785,22.461,-85.938,0.000,0.000,0.000
487534.645,21.973,25.391,32.227,36.621,-79.590,0.000,0.000,0.000
487534.649,45.898,27.832,33.691,53.223,16.602,0.000,0.000,0.000
487534.652,18.555,28.809,27.832,40.039,-8.301,0.000,0.000,0.000
487534.656,-13.184,28.320,26.367,22.461,-62.012,0.000,0.000,0.000
487534.660,11.230,25.879,32.227,29.785,-46.387,0.000,0.000,0.000
487534.664,44.922,24.414,32.715,51.270,73.242,0.000,0.000,0.000
487534.668,31.738,21.484,32.715,43.945,153.320,0.000,0.000,0.000
487534.672,-6.836,18.066,28.320,23.438,78.613,0.000,0.000,0.000
487534.676,1.953,15.137,24.414,34.180,31.738,0.000,0.000,0.000
487534.680,41.016,18.555,26.855,56.152,39.551,0.000,0.000,0.000
487534.684,47.363,20.508,33.691,55.664,71.777,0.000,0.000,0.000
487534.688,7.812,20.508,35.645,30.273,18.066,0.000,0.000,0.000
487534.691,2.441,19.043,29.297,26.855,-83.008,0.000,0.000,0.000
487534.695,40.527,15.137,25.391,51.270,-20.020,0.000,0.000,0.000
487534.699,54.199,18.066,28.320,61.035,112.305,0.000,0.000,0.000
487534.703,19.531,24.414,34.180,39.062,48.340,0.000,0.000,0.000
487534.707,-2.441,26.367,33.691,21.484,-47.852,0.000,0.000,0.000
487534.711,29.785,26.855,32.227,44.922,1.465,0.000,0.000,0.000
487534.715,49.316,27.344,32.715,66.406,62.988,0.000,0.000,0.000
487534.719,27.344,29.785,32.227,38.086,75.684,0.000,0.000,0.000
487534.723,-4.883,27.344,32.227,24.902,36.133,0.000,0.000,0.000
487534.727,12.207,23.438,29.785,46.387,6.836,0.000,0.000,0.000
487534.731,47.852,28.320,29.785,48.340,82.520,0.000,0.000,0.000
487534.734,41.992,36.133,35.645,41.016,143.066,0.000,0.000,0.000
487534.738,2.441,34.668,39.551,31.738,50.293,0.000,0.000,0.000
487534.742,4.883,24.414,35.156,31.250,-38.086,0.000,0.000,0.000
487534.746,41.504,23.438,32.227,50.781,16.113,0.000,0.000,0.000
487534.750,49.805,31.738,31.250,50.293,78.125,0.000,0.000,0.000
487534.754,9.277,35.156,30.762,28.320,7.324,0.000,0.000,0.000
487534.758,-4.883,34.180,31.250,23.926,-61.523,0.000,0.000,0.000
487534.762,33.691,34.180,33.691,47.852,-28.809,0.000,0.000,0.000
487534.766,54.688,37.109,38.086,56.152,62.500,0.000,0.000,0.000
487534.770,22.949,37.109,38.086,34.180,45.898,0.000,0.000,0.000
487534.773,-5.371,33.203,34.668,26.367,9.277,0.000,0.000,0.000
487534.777,24.902,33.691,28.320,41.016,61.035,0.000,0.000,0.000
487534.781,52.734,34.180,26.855,50.781,119.141,0.000,0.000,0.000
487534.785,29.785,29.785,33.203,38.574,37.109,0.000,0.000,0.000
487534.789,-6.348,30.762,35.645,26.855,-77.637,0.000,0.000,0.000
487534.793,11.230,34.180,33.691,38.086,-105.957,0.000,0.000,0.000
487534.797,46.387,35.645,29.785,48.828,-47.363,0.000,0.000,0.000
487534.801,47.363,35.645,28.320,51.270,17.578,0.000,0.000,0.000
487534.805,10.742,29.785,31.738,34.668,-20.508,0.000,0.000,0.000
487534.809,7.812,26.855,33.691,31.738,-23.926,0.000,0.000,0.000
487534.813,46.387,28.809,28.809,57.129,98.633,0.000,0.000,0.000
487534.816,63.477,30.762,25.879,58.105,218.750,0.000,0.000,0.000
487534.820,23.438,27.832,27.832,38.086,127.441,0.000,0.000,0.000
487534.824,-0.488,24.902,27.832,37.598,-17.578,0.000,0.000,0.000
487534.828,37.109,26.367,33.203,50.293,-29.297,0.000,0.000,0.000
487534.832,62.012,23.438,38.086,58.594,15.625,0.000,0.000,0.000
487534.836,33.691,19.043,37.109,48.828,-50.781,0.000,0.000,0.000
487534.840,0.488,19.531,35.156,25.391,-137.695,0.000,0.000,0.000
487534.844,23.926,23.926,34.668,30.273,-12.207,0.000,0.000,0.000
487534.848,54.199,27.344,28.320,55.176,98.633,0.000,0.000,0.000
487534.852,41.504,30.273,23.438,57.617,92.285,0.000,0.000,0.000
487534.856,2.930,37.598,23.438,37.109,21.973,0.000,0.000,0.000
487534.859,13.672,40.039,28.809,42.480,-52.246,0.000,0.000,0.000
487534.863,54.199,31.250,41.016,72.266,-4.395,0.000,0.000,0.000
487534.867,53.223,30.273,41.504,61.035,23.438,0.000,0.000,0.000
487534.871,12.695,33.691,28.809,32.715,-36.133,0.000,0.000,0.000
487534.875,4.395,30.273,26.367,36.133,-86.914,0.000,0.000,0.000
487534.879,39.062,34.668,35.645,58.105,-20.508,0.000,0.000,0.000
487534.883,54.199,38.574,34.668,58.594,57.617,0.000,0.000,0.000
487534.887,23.438,41.504,30.762,41.992,13.184,0.000,0.000,0.000
487534.891,3.418,42.969,33.203,28.320,-78.125,0.000,0.000,0.000
487534.895,32.715,42.969,31.738,26.855,25.879,0.000,0.000,0.000
487534.898,63.965,43.945,26.367,38.086,197.266,0.000,0.000,0.000
487534.902,43.457,41.992,25.879,38.086,161.133,0.000,0.000,0.000
487534.906,3.906,35.645,31.738,21.484,-4.883,0.000,0.000,0.000
487534.910,25.391,33.691,35.645,11.230,-48.340,0.000,0.000,0.000
487534.914,60.059,34.668,32.227,31.738,75.195,0.000,0.000,0.000
487534.918,49.316,35.156,30.273,32.715,90.820,0.000,0.000,0.000
487534.922,10.254,36.133,32.715,18.066,-50.293,0.000,0.000,0.000
487534.926,21.484,36.621,32.227,29.785,-93.750,0.000,0.000,0.000
487534.930,57.129,30.273,27.832,46.387,14.648,0.000,0.000,0.000
487534.934,50.293,30.273,24.902,40.039,74.219,0.000,0.000,0.000
487534.938,12.207,35.645,25.879,24.902,-5.859,0.000,0.000,0.000
487534.941,15.137,32.715,21.973,30.762,-55.176,0.000,0.000,0.000
487534.945,50.293,29.297,20.020,58.594,-28.809,0.000,0.000,0.000
487534.949,58.105,26.855,26.367,63.965,42.480,0.000,0.000,0.000
487534.953,26.855,30.273,25.391,41.504,4.883,0.000,0.000,0.000
487534.957,5.859,30.273,28.320,32.227,-99.609,0.000,0.000,0.000
487534.961,38.086,26.367,35.156,44.434,-51.270,0.000,0.000,0.000
487534.965,66.895,28.320,33.691,58.594,86.426,0.000,0.000,0.000
487534.969,48.828,27.832,30.762,53.711,117.188,0.000,0.000,0.000
487534.973,12.207,27.832,30.273,35.156,-21.973,0.000,0.000,0.000
487534.977,28.809,29.297,29.785,37.598,-30.762,0.000,0.000,0.000
487534.981,64.453,31.738,25.391,54.688,47.852,0.000,0.000,0.000
487534.984,54.688,35.645,24.414,52.246,-31.738,0.000,0.000,0.000
487534.988,6.836,36.133,29.785,37.109,-124.023,0.000,0.000,0.000
487534.992,6.348,32.715,31.250,37.109,-45.410,0.000,0.000,0.000
487534.996,44.922,33.203,26.367,50.781,78.125,0.000,0.000,0.000
487535.000,47.852,35.645,24.902,52.246,75.684,0.000,0.000,0.000
487535.004,5.371,32.715,28.809,37.109,42.480,0.000,0.000,0.000
487535.008,-9.277,27.832,30.273,28.809,-29.297,0.000,0.000,0.000
487535.012,32.715,25.879,28.809,42.480,-78.125,0.000,0.000,0.000
487535.016,54.199,25.879,27.344,53.711,-4.395,0.000,0.000,0.000
487535.020,18.066,25.391,27.832,36.133,3.418,0.000,0.000,0.000
487535.023,-8.789,21.973,27.344,20.996,-67.871,0.000,0.000,0.000
487535.027,20.996,20.508,27.344,31.250,-55.176,0.000,0.000,0.000
487535.031,49.316,20.996,30.762,44.434,23.438,0.000,0.000,0.000
487535.035,31.738,22.949,30.762,44.922,31.250,0.000,0.000,0.000
487535.039,-3.418,28.809,25.879,26.855,-43.945,0.000,0.000,0.000
487535.043,12.207,27.832,29.785,30.273,-32.715,0.000,0.000,0.000
487535.047,45.410,26.367,32.715,55.176,11.230,0.000,0.000,0.000
487535.051,38.086,28.320,22.461,51.758,43.457,0.000,0.000,0.000
487535.055,-1.465,27.832,20.996,28.809,41.504,0.000,0.000,0.000
487535.059,3.906,27.344,26.855,20.996,-21.484,0.000,0.000,0.000
487535.063,42.969,25.391,27.832,36.133,57.617,0.000,0.000,0.000
487535.066,50.781,23.926,27.344,44.922,123.535,0.000,0.000,0.000
487535.070,18.555,21.973,28.320,22.949,38.574,0.000,0.000,0.000
487535.074,4.395,27.344,24.902,11.719,-91.797,0.000,0.000,0.000
487535.078,35.645,35.645,23.926,34.180,-107.910,0.000,0.000,0.000
487535.082,54.199,33.691,22.461,45.898,23.926,0.000,0.000,0.000
487535.086,20.020,33.203,23.438,25.879,78.125,0.000,0.000,0.000
487535.090,-13.672,35.156,30.762,14.160,1.953,0.000,0.000,0.000
487535.094,14.160,33.691,30.273,29.297,-14.160,0.000,0.000,0.000
487535.098,45.410,34.668,25.879,44.922,51.758,0.000,0.000,0.000
487535.102,27.832,29.297,25.391,42.969,-2.930,0.000,0.000,0.000
487535.106,-10.254,22.461,30.762,29.297,-124.512,0.000,0.000,0.000
487535.109,6.836,24.902,31.250,27.344,-142.578,0.000,0.000,0.000
487535.113,43.945,29.297,24.902,48.828,-33.691,0.000,0.000,0.000
487535.117,41.992,32.227,27.832,54.199,59.570,0.000,0.000,0.000
487535.121,1.465,27.832,34.180,36.621,-53.223,0.000,0.000,0.000
487535.125,-5.371,26.367,31.738,32.715,-92.285,0.000,0.000,0.000
487535.129,37.109,30.273,27.344,44.434,18.066,0.000,0.000,0.000
487535.133,52.246,30.273,27.832,44.434,62.988,0.000,0.000,0.000
487535.137,16.113,26.367,32.227,28.809,-47.852,0.000,0.000,0.000
487535.141,-0.977,25.391,33.691,23.926,-129.883,0.000,0.000,0.000
487535.145,34.180,29.297,33.691,41.504,-58.594,0.000,0.000,0.000
487535.148,56.152,31.250,29.297,45.410,17.090,0.000,0.000,0.000
487535.152,29.297,27.344,22.461,29.297,13.672,0.000,0.000,0.000
487535.156,-5.859,23.926,23.438,21.973,-14.160,0.000,0.000,0.000
487535.160,11.719,23.926,28.320,28.320,15.625,0.000,0.000,0.000
487535.164,42.969,24.902,31.250,42.969,88.867,0.000,0.000,0.000
487535.168,34.180,25.391,32.715,44.922,62.500,0.000,0.000,0.000
487535.172,-0.488,25.879,32.227,35.645,-103.027,0.000,0.000,0.000
487535.176,11.230,27.344,30.762,34.180,-140.137,0.000,0.000,0.000
487535.180,43.457,24.902,31.738,47.852,2.930,0.000,0.000,0.000
487535.184,43.945,21.973,31.250,50.293,51.270,0.000,0.000,0.000
487535.188,5.371,25.879,31.250,33.691,-39.551,0.000,0.000,0.000
487535.191,-2.930,31.738,26.367,33.203,-99.121,0.000,0.000,0.000
487535.195,35.156,30.762,26.855,58.594,-38.086,0.000,0.000,0.000
487535.199,48.828,23.926,29.785,67.871,56.152,0.000,0.000,0.000
487535.203,13.184,25.391,28.809,43.457,10.254,0.000,0.000,0.000
487535.207,-10.742,24.902,31.738,25.879,-70.801,0.000,0.000,0.000
487535.211,22.949,25.391,31.250,39.062,-43.457,0.000,0.000,0.000
487535.215,53.711,30.762,28.320,54.688,69.336,0.000,0.000,0.000
487535.219,33.691,34.668,24.414,41.016,67.871,0.000,0.000,0.000
487535.223,0.000,35.645,22.949,23.926,-51.758,0.000,0.000,0.000
487535.227,19.531,32.227,22.949,36.133,-41.504,0.000,0.000,0.000
487535.230,50.293,29.297,24.902,51.758,77.637,0.000,0.000,0.000
487535.234,41.992,26.367,28.809,49.805,106.445,0.000,0.000,0.000
487535.238,1.953,26.367,29.785,34.668,-15.137,0.000,0.000,0.000
487535.242,0.977,30.273,28.809,34.180,-56.152,0.000,0.000,0.000
487535.246,40.527,27.344,30.273,50.293,78.125,0.000,0.000,0.000
487535.250,49.805,24.902,30.762,54.199,122.559,0.000,0.000,0.000
487535.254,6.348,28.320,26.367,37.598,35.156,0.000,0.000,0.000
487535.258,-7.812,29.297,21.973,35.156,-23.438,0.000,0.000,0.000
487535.262,31.738,28.320,24.902,52.734,11.230,0.000,0.000,0.000
487535.266,48.828,29.785,29.785,61.523,95.703,0.000,0.000,0.000
487535.270,19.043,32.227,29.297,50.293,61.035,0.000,0.000,0.000
487535.273,-1.953,29.785,30.273,39.551,-59.570,0.000,0.000,0.000
487535.277,25.879,22.949,31.738,48.340,-24.414,0.000,0.000,0.000
487535.281,52.734,24.414,31.250,64.453,117.188,0.000,0.000,0.000
487535.285,39.062,24.902,33.691,53.711,111.816,0.000,0.000,0.000
487535.289,0.977,25.879,32.715,29.785,19.531,0.000,0.000,0.000
487535.293,12.207,30.762,30.762,42.480,48.828,0.000,0.000,0.000
487535.297,49.316,29.297,30.762,69.824,120.117,0.000,0.000,0.000
487535.301,43.457,28.809,31.250,58.594,112.793,0.000,0.000,0.000
487535.305,1.465,30.762,28.320,30.762,91.797,0.000,0.000,0.000
