timestamps,TP9,AF7,AF8,TP10,Right AUX,Frequency,Contrast,Orientation
483179.741,-68.848,78.125,42.480,0.000,-101.562,0.000,0.000,0.000
483179.745,-55.176,78.613,37.598,-17.578,-207.031,0.000,0.000,0.000
483179.749,24.414,62.500,5.859,110.352,-14.160,0.000,0.000,0.000
483179.753,21.973,49.805,-4.395,147.461,139.160,0.000,0.000,0.000
483179.757,-36.621,73.730,60.547,58.105,-50.293,0.000,0.000,0.000
483179.761,-40.039,90.820,87.891,12.695,-244.629,0.000,0.000,0.000
483179.765,35.156,68.359,48.828,108.398,-131.348,0.000,0.000,0.000
483179.769,69.336,52.246,29.297,191.406,91.797,0.000,0.000,0.000
483179.773,-41.504,63.477,36.133,69.336,74.707,0.000,0.000,0.000
483179.777,-100.098,64.453,46.387,-35.156,-81.543,0.000,0.000,0.000
483179.781,-43.457,46.875,13.184,31.250,-25.391,0.000,0.000,0.000
483179.784,-12.207,27.344,-26.855,129.395,223.145,0.000,0.000,0.000
483179.788,-36.133,34.180,1.465,100.098,195.801,0.000,0.000,0.000
483179.792,-71.777,68.359,60.059,11.230,-69.824,0.000,0.000,0.000
483179.796,-46.875,56.152,33.203,8.789,-83.496,0.000,0.000,0.000
483179.800,6.836,29.785,-11.230,121.094,130.371,0.000,0.000,0.000
483179.804,-6.836,32.227,-2.930,125.488,159.668,0.000,0.000,0.000
483179.808,-54.688,57.617,60.059,29.785,-82.031,0.000,0.000,0.000
483179.812,-3.906,71.289,91.309,36.621,-246.582,0.000,0.000,0.000
483179.816,9.277,35.645,0.000,83.984,-83.496,0.000,0.000,0.000
483179.820,-38.574,11.230,-63.477,89.844,133.301,0.000,0.000,0.000
483179.824,-48.828,47.363,37.109,51.270,9.766,0.000,0.000,0.000
483179.827,-66.406,52.734,64.941,-21.484,-139.648,0.000,0.000,0.000
483179.831,-61.523,18.066,-28.809,9.277,-1.465,0.000,0.000,0.000
483179.835,-27.832,4.395,-52.734,101.562,196.777,0.000,0.000,0.000
483179.839,-17.090,41.016,40.039,100.098,70.801,0.000,0.000,0.000
483179.843,-64.941,63.965,70.312,-1.465,-168.945,0.000,0.000,0.000
483179.847,-88.867,26.367,-19.531,-29.785,-160.156,0.000,0.000,0.000
483179.851,-21.484,7.324,-48.340,104.492,30.762,0.000,0.000,0.000
483179.855,38.574,39.551,41.504,156.250,25.879,0.000,0.000,0.000
483179.859,-16.602,73.242,104.004,46.875,-194.336,0.000,0.000,0.000
483179.863,-92.773,35.156,6.348,-57.617,-221.191,0.000,0.000,0.000
483179.866,-26.855,5.371,-42.969,61.035,5.859,0.000,0.000,0.000
483179.870,12.207,22.949,0.977,132.324,96.680,0.000,0.000,0.000
483179.874,-62.988,59.082,49.805,17.578,-80.566,0.000,0.000,0.000
483179.878,-84.473,56.641,25.391,-48.340,-192.871,0.000,0.000,0.000
483179.882,-21.973,18.555,-31.250,43.457,-25.391,0.000,0.000,0.000
483179.886,25.391,12.695,-20.020,123.535,122.559,0.000,0.000,0.000
483179.890,-15.137,56.641,48.828,60.547,-36.621,0.000,0.000,0.000
483179.894,-62.988,72.754,50.293,-34.668,-233.887,0.000,0.000,0.000
483179.898,-22.461,37.598,-6.836,24.902,-138.184,0.000,0.000,0.000
483179.902,46.875,27.344,-10.254,152.344,116.699,0.000,0.000,0.000
483179.906,4.395,51.270,30.762,91.309,43.945,0.000,0.000,0.000
483179.909,-80.078,69.336,44.434,-34.180,-181.641,0.000,0.000,0.000
483179.913,-27.344,50.293,20.996,3.418,-162.109,0.000,0.000,0.000
483179.917,26.855,24.902,-12.695,122.070,62.500,0.000,0.000,0.000
483179.921,-14.648,35.156,-1.953,93.750,104.980,0.000,0.000,0.000
483179.925,-68.848,60.547,53.711,-17.090,-130.859,0.000,0.000,0.000
483179.929,-43.457,59.570,51.270,-13.672,-212.891,0.000,0.000,0.000
483179.933,22.949,44.434,8.301,116.699,22.461,0.000,0.000,0.000
483179.937,-21.973,21.973,-39.551,104.980,178.223,0.000,0.000,0.000
483179.941,-89.355,40.527,13.672,-0.977,-10.742,0.000,0.000,0.000
483179.945,-57.617,56.641,56.152,-17.578,-203.613,0.000,0.000,0.000
483179.949,5.371,36.133,0.977,78.613,-75.684,0.000,0.000,0.000
483179.952,20.508,25.391,-21.484,146.973,117.676,0.000,0.000,0.000
483179.956,-43.457,42.969,29.297,64.453,-50.293,0.000,0.000,0.000
483179.960,-50.781,68.359,73.730,-3.906,-266.602,0.000,0.000,0.000
483179.964,5.371,60.059,34.668,53.711,-153.320,0.000,0.000,0.000
483179.968,-27.832,13.672,-61.523,92.773,120.117,0.000,0.000,0.000
483179.972,-53.223,24.414,-17.090,64.453,67.383,0.000,0.000,0.000
483179.976,-82.520,60.059,49.805,-16.113,-182.617,0.000,0.000,0.000
483179.980,-63.477,47.363,9.277,-21.973,-175.781,0.000,0.000,0.000
483179.984,-10.254,21.973,-38.086,89.844,107.910,0.000,0.000,0.000
483179.988,-6.348,28.320,-0.488,110.840,209.961,0.000,0.000,0.000
483179.991,-66.406,55.664,57.617,8.301,11.719,0.000,0.000,0.000
483179.995,-62.012,59.570,42.969,-14.160,-86.914,0.000,0.000,0.000
483179.999,-20.996,26.855,-18.555,76.660,47.363,0.000,0.000,0.000
483180.003,-7.324,10.742,-28.320,125.000,131.348,0.000,0.000,0.000
483180.007,-32.227,51.270,61.523,70.801,-117.188,0.000,0.000,0.000
483180.011,-95.215,52.246,42.969,-41.992,-266.602,0.000,0.000,0.000
483180.015,-72.754,22.949,-41.992,9.277,-71.777,0.000,0.000,0.000
483180.019,14.160,21.484,-16.113,146.484,111.816,0.000,0.000,0.000
483180.023,-7.812,41.992,57.129,96.191,-39.062,0.000,0.000,0.000
483180.027,-97.656,51.758,42.969,-45.410,-228.027,0.000,0.000,0.000
483180.031,-62.500,33.203,-14.648,-7.812,-125.977,0.000,0.000,0.000
483180.034,11.719,16.602,-26.855,131.836,92.773,0.000,0.000,0.000
483180.038,-10.254,32.227,19.043,102.539,56.152,0.000,0.000,0.000
483180.042,-65.918,63.477,61.523,-6.836,-171.387,0.000,0.000,0.000
483180.046,-48.828,59.570,22.949,-6.348,-214.355,0.000,0.000,0.000
483180.050,20.508,39.551,-8.789,125.000,26.367,0.000,0.000,0.000
483180.054,34.668,39.062,22.461,153.320,100.586,0.000,0.000,0.000
483180.058,-85.449,55.664,32.715,-18.555,-83.496,0.000,0.000,0.000
483180.062,-81.055,57.617,29.297,-42.969,-205.566,0.000,0.000,0.000
483180.066,0.488,35.645,-3.418,94.727,-62.012,0.000,0.000,0.000
483180.070,0.488,31.738,-18.555,133.301,142.090,0.000,0.000,0.000
483180.074,-54.688,57.129,40.527,46.875,21.484,0.000,0.000,0.000
483180.077,-67.383,74.707,63.477,-22.949,-161.133,0.000,0.000,0.000
483180.081,-28.320,47.363,3.418,37.109,-36.621,0.000,0.000,0.000
483180.085,2.441,20.996,-32.715,131.348,169.922,0.000,0.000,0.000
483180.089,-4.395,50.781,43.457,103.027,63.477,0.000,0.000,0.000
483180.093,-47.852,77.637,83.496,4.395,-132.324,0.000,0.000,0.000
483180.097,15.137,69.824,64.941,56.152,-117.188,0.000,0.000,0.000
483180.101,36.133,38.574,1.465,133.301,77.637,0.000,0.000,0.000
483180.105,-45.410,31.738,-22.949,63.477,79.590,0.000,0.000,0.000
483180.109,-68.359,69.824,60.059,-0.488,-155.273,0.000,0.000,0.000
483180.113,-45.410,64.941,46.387,1.465,-202.637,0.000,0.000,0.000
483180.116,-22.461,30.273,-32.715,73.242,19.531,0.000,0.000,0.000
483180.120,-12.207,34.180,-17.090,101.562,162.109,0.000,0.000,0.000
483180.124,-35.645,76.172,80.078,47.852,-44.922,0.000,0.000,0.000
483180.128,-59.570,70.801,69.336,-10.742,-218.262,0.000,0.000,0.000
483180.132,-30.273,29.785,-12.695,58.594,-60.059,0.000,0.000,0.000
483180.136,17.090,27.832,-5.371,145.996,155.762,0.000,0.000,0.000
483180.140,16.113,77.637,102.051,109.863,2.930,0.000,0.000,0.000
483180.144,-32.227,89.355,103.027,18.555,-220.703,0.000,0.000,0.000
483180.148,-65.430,40.039,-18.555,9.766,-68.359,0.000,0.000,0.000
483180.152,-16.113,17.578,-43.457,117.676,166.504,0.000,0.000,0.000
483180.156,-9.766,49.316,34.668,106.445,89.844,0.000,0.000,0.000
483180.159,-58.105,81.543,78.125,6.348,-127.441,0.000,0.000,0.000
483180.163,-60.547,51.758,11.230,1.953,-107.910,0.000,0.000,0.000
483180.167,-4.883,22.461,-31.250,121.582,117.676,0.000,0.000,0.000
483180.171,7.812,46.387,21.484,136.230,146.484,0.000,0.000,0.000
483180.175,-60.059,78.125,65.430,12.695,-88.379,0.000,0.000,0.000
483180.179,-46.387,84.473,41.992,-5.371,-178.223,0.000,0.000,0.000
483180.183,20.508,58.105,3.906,123.047,32.227,0.000,0.000,0.000
483180.187,71.777,52.734,39.062,193.359,132.324,0.000,0.000,0.000
483180.191,-20.996,77.637,74.707,60.059,-80.078,0.000,0.000,0.000
483180.195,-112.305,59.570,16.602,-68.848,-215.820,0.000,0.000,0.000
483180.198,-18.066,40.039,-9.766,54.199,-65.430,0.000,0.000,0.000
483180.202,32.715,35.645,-6.348,147.461,140.625,0.000,0.000,0.000
483180.206,-27.832,62.500,42.480,53.223,54.199,0.000,0.000,0.000
483180.210,-60.059,83.008,72.754,-27.832,-171.387,0.000,0.000,0.000
483180.214,-7.812,58.105,31.738,41.992,-123.535,0.000,0.000,0.000
483180.218,37.109,35.645,2.441,145.508,142.090,0.000,0.000,0.000
483180.222,-5.859,51.758,22.949,90.820,108.398,0.000,0.000,0.000
483180.226,-54.688,80.566,58.594,-8.301,-134.277,0.000,0.000,0.000
483180.230,20.508,73.242,68.848,60.059,-146.484,0.000,0.000,0.000
483180.234,67.383,51.270,28.320,165.527,98.633,0.000,0.000,0.000
483180.238,-19.043,45.410,-18.555,77.637,209.961,0.000,0.000,0.000
483180.241,-70.801,67.383,40.527,-13.184,-50.293,0.000,0.000,0.000
483180.245,-53.711,65.918,47.852,-21.973,-180.176,0.000,0.000,0.000
483180.249,-23.926,37.109,-23.926,62.012,74.219,0.000,0.000,0.000
483180.253,-16.113,25.879,-30.273,107.422,304.688,0.000,0.000,0.000
483180.257,-56.152,59.082,46.875,31.250,128.418,0.000,0.000,0.000
483180.261,-65.918,65.430,65.430,-19.531,-94.238,0.000,0.000,0.000
483180.265,-17.090,35.156,9.766,57.617,3.418,0.000,0.000,0.000
483180.269,11.230,23.438,-14.160,138.184,221.680,0.000,0.000,0.000
483180.273,-19.531,50.781,55.176,85.938,126.465,0.000,0.000,0.000
483180.277,-42.969,75.684,106.445,12.695,-90.820,0.000,0.000,0.000
483180.281,-26.855,53.711,37.598,40.527,-19.531,0.000,0.000,0.000
483180.284,-22.461,20.508,-38.574,99.609,198.242,0.000,0.000,0.000
483180.288,-26.855,34.180,14.648,92.285,186.035,0.000,0.000,0.000
483180.292,-28.320,80.566,105.469,40.527,-45.898,0.000,0.000,0.000
483180.296,-56.152,65.430,31.738,-19.531,-115.234,0.000,0.000,0.000
483180.300,-36.621,25.391,-46.875,66.895,113.770,0.000,0.000,0.000
483180.304,11.230,35.645,14.648,138.184,191.406,0.000,0.000,0.000
483180.308,-38.574,64.453,81.055,41.016,-53.223,0.000,0.000,0.000
483180.312,-68.848,56.641,36.133,-31.738,-137.207,0.000,0.000,0.000
483180.316,-13.672,31.738,-18.555,69.336,71.289,0.000,0.000,0.000
483180.320,27.344,30.762,1.953,161.621,132.324,0.000,0.000,0.000
483180.323,-4.883,69.336,72.266,97.656,-90.332,0.000,0.000,0.000
483180.327,-40.527,71.777,76.660,9.766,-289.062,0.000,0.000,0.000
483180.331,-32.715,34.668,-6.836,41.992,-176.758,0.000,0.000,0.000
483180.335,52.246,36.133,4.395,182.129,28.320,0.000,0.000,0.000
483180.339,31.250,61.523,74.219,140.625,-92.285,0.000,0.000,0.000
483180.343,-96.191,57.617,41.992,-43.945,-289.062,0.000,0.000,0.000
483180.347,-50.781,43.945,-0.488,3.906,-157.715,0.000,0.000,0.000
483180.351,19.531,31.738,-25.391,135.254,111.816,0.000,0.000,0.000
483180.355,-10.742,34.668,3.906,102.051,95.215,0.000,0.000,0.000
483180.359,-84.961,52.734,48.828,-15.625,-112.793,0.000,0.000,0.000
483180.363,-66.406,42.969,28.320,-18.066,-120.117,0.000,0.000,0.000
483180.366,-2.930,17.090,-21.484,98.145,92.285,0.000,0.000,0.000
483180.370,29.297,28.809,12.207,139.648,76.660,0.000,0.000,0.000
483180.374,-28.320,70.312,79.590,41.992,-184.082,0.000,0.000,0.000
483180.378,-63.477,63.965,44.922,-27.832,-246.582,0.000,0.000,0.000
483180.382,35.156,42.969,26.367,107.910,-71.777,0.000,0.000,0.000
483180.386,26.855,20.996,-11.719,144.531,97.168,0.000,0.000,0.000
483180.390,-51.758,32.715,14.160,30.762,-27.344,0.000,0.000,0.000
483180.394,-27.832,57.617,71.289,2.930,-251.465,0.000,0.000,0.000
483180.398,-5.371,32.715,5.371,53.711,-180.176,0.000,0.000,0.000
483180.402,-7.324,6.836,-41.992,112.305,44.922,0.000,0.000,0.000
483180.406,-16.113,37.598,21.973,87.402,-9.766,0.000,0.000,0.000
483180.409,-43.945,74.219,76.172,4.883,-225.586,0.000,0.000,0.000
483180.413,-40.039,50.293,26.855,7.324,-103.516,0.000,0.000,0.000
483180.417,19.531,27.344,-9.766,137.695,175.293,0.000,0.000,0.000
483180.421,0.977,37.598,7.812,121.094,105.469,0.000,0.000,0.000
483180.425,-35.156,72.266,85.938,36.133,-192.383,0.000,0.000,0.000
483180.429,-24.414,65.430,68.848,16.113,-224.609,0.000,0.000,0.000
483180.433,-33.203,19.043,-45.410,60.547,10.254,0.000,0.000,0.000
483180.437,-3.418,20.996,-19.043,122.070,113.281,0.000,0.000,0.000
483180.441,-30.273,62.988,72.754,51.270,-97.168,0.000,0.000,0.000
483180.445,-58.594,64.941,55.176,-23.438,-188.965,0.000,0.000,0.000
483180.448,-27.344,24.902,-16.113,44.922,-13.184,0.000,0.000,0.000
483180.452,21.484,16.113,-9.277,145.508,128.418,0.000,0.000,0.000
483180.456,-23.926,49.805,53.711,76.660,60.059,0.000,0.000,0.000
483180.460,-70.801,62.500,67.871,-24.414,-148.438,0.000,0.000,0.000
483180.464,-11.230,41.016,26.855,44.922,-122.070,0.000,0.000,0.000
483180.468,41.504,28.320,2.441,152.344,82.520,0.000,0.000,0.000
483180.472,42.969,63.965,76.172,143.066,2.441,0.000,0.000,0.000
483180.476,-41.992,81.055,93.750,9.277,-209.473,0.000,0.000,0.000
483180.480,-68.359,41.504,13.672,-24.902,-178.223,0.000,0.000,0.000
483180.484,16.602,20.508,-6.836,130.859,40.039,0.000,0.000,0.000
483180.488,15.625,30.762,20.020,134.766,130.371,0.000,0.000,0.000
483180.491,-62.988,55.664,62.012,7.324,-49.805,0.000,0.000,0.000
483180.495,-60.059,48.340,46.875,-12.695,-179.199,0.000,0.000,0.000
483180.499,13.184,25.879,4.395,108.887,11.719,0.000,0.000,0.000
483180.503,26.367,23.438,5.371,149.902,159.668,0.000,0.000,0.000
483180.507,-45.898,52.246,62.988,39.551,-17.090,0.000,0.000,0.000
483180.511,-55.664,62.988,74.707,-10.742,-187.988,0.000,0.000,0.000
483180.515,19.043,38.086,41.016,102.539,-46.387,0.000,0.000,0.000
483180.519,46.875,31.738,24.902,177.246,152.344,0.000,0.000,0.000
483180.523,-64.941,44.922,24.902,41.016,67.383,0.000,0.000,0.000
483180.527,-98.633,58.105,51.758,-44.434,-140.137,0.000,0.000,0.000
483180.531,-29.785,45.898,24.414,27.344,-109.863,0.000,0.000,0.000
483180.534,8.301,24.902,-21.484,123.047,120.117,0.000,0.000,0.000
483180.538,-20.996,39.062,15.137,88.867,125.488,0.000,0.000,0.000
483180.542,-64.941,67.383,75.195,-1.953,-105.469,0.000,0.000,0.000
483180.546,-39.551,54.688,47.363,7.812,-180.664,0.000,0.000,0.000
483180.550,-2.930,25.879,-14.160,104.492,34.668,0.000,0.000,0.000
483180.554,2.930,31.738,2.441,118.652,115.723,0.000,0.000,0.000
483180.558,-23.926,76.660,85.449,46.875,-98.145,0.000,0.000,0.000
483180.562,-46.387,69.336,57.617,-10.742,-191.406,0.000,0.000,0.000
483180.566,-20.508,30.762,-15.137,59.570,-9.277,0.000,0.000,0.000
483180.570,7.324,32.715,-5.371,133.301,123.047,0.000,0.000,0.000
483180.573,-25.879,66.895,68.359,65.918,-31.250,0.000,0.000,0.000
483180.577,-18.555,79.590,99.609,20.996,-225.098,0.000,0.000,0.000
483180.581,-24.902,46.387,5.371,45.410,-49.316,0.000,0.000,0.000
483180.585,-19.043,20.020,-45.898,99.121,246.582,0.000,0.000,0.000
483180.589,2.441,48.828,48.828,96.680,127.441,0.000,0.000,0.000
483180.593,-39.551,75.195,93.750,9.766,-133.301,0.000,0.000,0.000
483180.597,-53.711,44.922,8.301,0.000,-130.859,0.000,0.000,0.000
483180.601,-12.207,16.113,-35.645,105.469,131.348,0.000,0.000,0.000
483180.605,40.039,55.664,66.895,149.414,148.438,0.000,0.000,0.000
483180.609,-4.883,95.703,133.301,55.176,-162.598,0.000,0.000,0.000
483180.613,-92.773,47.852,19.531,-48.828,-155.762,0.000,0.000,0.000
483180.616,-32.715,15.625,-34.668,67.383,144.531,0.000,0.000,0.000
483180.620,-2.930,34.180,6.836,123.535,202.637,0.000,0.000,0.000
483180.624,-41.992,81.543,92.773,42.480,-24.414,0.000,0.000,0.000
483180.628,-52.246,75.195,67.871,-11.719,-186.523,0.000,0.000,0.000
483180.632,-29.297,26.855,-19.531,55.176,-13.672,0.000,0.000,0.000
483180.636,14.648,21.484,-7.324,139.648,165.039,0.000,0.000,0.000
483180.640,-28.320,58.594,57.617,64.453,11.230,0.000,0.000,0.000
483180.644,-71.777,73.730,67.871,-27.344,-160.156,0.000,0.000,0.000
483180.648,-38.574,44.922,8.789,35.156,-63.477,0.000,0.000,0.000
483180.652,28.809,36.133,8.301,162.109,107.422,0.000,0.000,0.000
483180.655,-2.930,59.082,57.129,102.539,2.441,0.000,0.000,0.000
483180.659,-74.219,74.219,67.871,-25.879,-237.793,0.000,0.000,0.000
483180.663,-39.551,51.758,28.320,2.441,-185.547,0.000,0.000,0.000
483180.667,22.949,29.297,-2.930,129.395,75.195,0.000,0.000,0.000
483180.671,8.301,50.293,18.555,115.723,83.008,0.000,0.000,0.000
483180.675,-65.918,83.984,59.082,-5.859,-138.184,0.000,0.000,0.000
483180.679,-34.668,73.730,63.477,9.277,-183.105,0.000,0.000,0.000
483180.683,50.781,49.316,37.598,147.949,23.438,0.000,0.000,0.000
483180.687,13.184,39.551,6.348,130.859,131.836,0.000,0.000,0.000
483180.691,-66.406,61.523,44.922,11.719,-58.594,0.000,0.000,0.000
483180.695,-45.898,74.219,70.801,-10.742,-185.059,0.000,0.000,0.000
483180.698,19.043,49.805,26.367,93.262,-19.043,0.000,0.000,0.000
483180.702,29.785,29.297,-0.488,146.484,178.223,0.000,0.000,0.000
483180.706,-20.996,58.594,53.223,68.359,51.270,0.000,0.000,0.000
483180.710,-55.664,69.824,71.289,-14.648,-149.902,0.000,0.000,0.000
483180.714,-31.738,33.203,4.395,23.438,-55.176,0.000,0.000,0.000
483180.718,7.324,16.602,-24.414,123.047,156.250,0.000,0.000,0.000
483180.722,-17.578,43.945,32.227,89.844,84.961,0.000,0.000,0.000
483180.726,-29.297,81.543,106.934,30.762,-161.133,0.000,0.000,0.000
483180.730,-12.207,61.523,64.941,31.738,-167.969,0.000,0.000,0.000
483180.734,-17.090,20.020,-28.320,88.379,41.016,0.000,0.000,0.000
483180.738,-3.906,38.086,4.883,107.910,135.254,0.000,0.000,0.000
483180.741,-37.109,71.289,79.102,20.020,-42.480,0.000,0.000,0.000
483180.745,-38.574,68.359,57.617,-2.930,-91.797,0.000,0.000,0.000
483180.749,-7.324,41.992,-16.602,84.473,172.852,0.000,0.000,0.000
483180.753,3.418,34.668,-10.742,125.488,301.270,0.000,0.000,0.000
483180.757,10.254,87.891,117.188,94.727,16.113,0.000,0.000,0.000
483180.761,-50.293,87.891,83.984,-11.230,-223.633,0.000,0.000,0.000
483180.765,-72.266,22.949,-46.875,2.441,-35.645,0.000,0.000,0.000
483180.769,17.090,15.137,-11.230,136.719,183.105,0.000,0.000,0.000
483180.773,-10.742,53.223,64.941,82.520,69.824,0.000,0.000,0.000
483180.777,-95.703,71.289,49.316,-49.805,-165.527,0.000,0.000,0.000
483180.780,-57.617,43.945,-6.348,-11.230,-114.258,0.000,0.000,0.000
483180.784,18.066,23.438,-18.555,123.047,105.957,0.000,0.000,0.000
483180.788,4.395,51.758,32.715,103.027,46.875,0.000,0.000,0.000
483180.792,-57.129,83.496,84.473,-1.953,-170.898,0.000,0.000,0.000
483180.796,-81.055,49.805,32.227,-32.227,-160.156,0.000,0.000,0.000
483180.800,-8.789,22.949,-1.953,95.215,53.223,0.000,0.000,0.000
483180.804,17.578,39.062,33.691,133.789,93.750,0.000,0.000,0.000
483180.808,-105.469,50.293,31.738,-32.227,-125.977,0.000,0.000,0.000
483180.812,-97.656,41.992,13.184,-62.988,-209.961,0.000,0.000,0.000
483180.816,-13.184,25.391,-19.531,59.570,47.363,0.000,0.000,0.000
483180.820,-5.859,29.297,-25.391,103.027,232.422,0.000,0.000,0.000
483180.823,-76.660,55.176,25.879,1.953,106.445,0.000,0.000,0.000
483180.827,-76.172,62.988,55.664,-44.434,-69.336,0.000,0.000,0.000
483180.831,-18.066,35.156,11.719,47.363,-0.488,0.000,0.000,0.000
483180.835,7.812,17.090,-21.484,124.023,204.590,0.000,0.000,0.000
483180.839,-15.625,40.527,44.922,80.566,127.930,0.000,0.000,0.000
483180.843,-57.617,59.570,83.008,-7.324,-90.820,0.000,0.000,0.000
483180.847,1.465,52.246,49.805,46.875,-124.023,0.000,0.000,0.000
483180.851,9.766,19.043,-19.531,120.605,72.266,0.000,0.000,0.000
483180.855,-53.711,20.020,-17.578,57.617,89.355,0.000,0.000,0.000
483180.859,-58.105,66.895,77.637,-1.953,-130.371,0.000,0.000,0.000
483180.863,-35.645,55.176,51.758,-6.348,-167.480,0.000,0.000,0.000
483180.866,-33.203,5.859,-48.828,55.176,27.344,0.000,0.000,0.000
483180.870,-21.973,11.230,-28.320,88.379,99.609,0.000,0.000,0.000
483180.874,-31.250,57.617,75.684,36.133,-153.809,0.000,0.000,0.000
483180.878,-42.969,51.758,59.570,-9.766,-278.320,0.000,0.000,0.000
483180.882,-17.090,18.066,-24.414,56.152,-29.297,0.000,0.000,0.000
483180.886,35.156,28.809,-5.371,143.066,235.352,0.000,0.000,0.000
483180.890,28.320,74.707,98.633,109.375,28.809,0.000,0.000,0.000
483180.894,-34.180,69.824,87.891,0.977,-250.977,0.000,0.000,0.000
483180.898,-45.898,23.438,-21.484,0.000,-114.746,0.000,0.000,0.000
483180.902,12.695,13.184,-26.367,115.234,107.422,0.000,0.000,0.000
483180.905,-3.418,45.410,49.805,97.168,23.926,0.000,0.000,0.000
483180.909,-63.477,71.289,67.383,-15.137,-201.660,0.000,0.000,0.000
483180.913,-62.988,37.598,-9.277,-23.438,-167.480,0.000,0.000,0.000
483180.917,30.762,23.438,-13.184,128.906,123.047,0.000,0.000,0.000
483180.921,29.785,40.039,31.738,131.836,156.738,0.000,0.000,0.000
483180.925,-69.824,55.664,53.711,-9.277,-87.891,0.000,0.000,0.000
483180.929,-65.430,46.387,20.020,-27.344,-137.695,0.000,0.000,0.000
483180.933,17.578,27.344,-6.348,115.234,19.531,0.000,0.000,0.000
483180.937,68.848,48.340,45.410,182.617,48.340,0.000,0.000,0.000
483180.941,-39.551,67.871,60.547,26.855,-105.469,0.000,0.000,0.000
483180.945,-92.285,51.270,16.113,-62.988,-195.801,0.000,0.000,0.000
483180.948,6.348,34.180,-2.441,77.148,-68.848,0.000,0.000,0.000
483180.952,49.316,33.691,3.418,167.480,124.023,0.000,0.000,0.000
483180.956,-35.645,52.734,32.715,53.711,33.203,0.000,0.000,0.000
483180.960,-69.824,65.430,43.457,-35.645,-190.918,0.000,0.000,0.000
483180.964,-14.160,46.387,7.812,37.109,-111.328,0.000,0.000,0.000
483180.968,25.879,20.996,-23.438,133.789,156.250,0.000,0.000,0.000
483180.972,-13.672,33.203,7.324,78.613,150.391,0.000,0.000,0.000
483180.976,-47.852,70.312,72.266,-1.953,-121.582,0.000,0.000,0.000
483180.980,0.488,61.523,59.082,41.016,-141.113,0.000,0.000,0.000
483180.984,28.809,28.320,-5.371,129.883,143.555,0.000,0.000,0.000
483180.987,-7.812,29.785,0.000,99.609,158.203,0.000,0.000,0.000
483180.991,-75.195,56.641,49.316,-7.324,-71.777,0.000,0.000,0.000
483180.995,-15.137,66.895,68.359,17.090,-167.480,0.000,0.000,0.000
483180.999,51.758,48.828,25.879,131.836,5.859,0.000,0.000,0.000
483181.003,-4.883,26.367,-21.973,109.863,143.066,0.000,0.000,0.000
483181.007,-65.918,48.340,43.945,20.508,-70.801,0.000,0.000,0.000
483181.011,-70.312,52.246,61.035,-27.832,-226.562,0.000,0.000,0.000
483181.015,-20.508,26.367,1.465,45.898,-79.102,0.000,0.000,0.000
483181.019,0.977,14.648,-21.973,122.559,101.562,0.000,0.000,0.000
483181.023,-24.902,46.387,48.340,75.195,14.648,0.000,0.000,0.000
483181.027,-30.762,74.219,104.004,17.578,-185.059,0.000,0.000,0.000
483181.030,-13.672,50.293,37.109,40.527,-111.328,0.000,0.000,0.000
483181.034,1.953,16.113,-27.832,112.305,157.715,0.000,0.000,0.000
483181.038,-1.953,30.762,30.762,105.469,117.188,0.000,0.000,0.000
483181.042,-18.066,74.707,108.887,39.551,-146.973,0.000,0.000,0.000
483181.046,-51.758,52.734,24.414,-11.230,-163.086,0.000,0.000,0.000
483181.050,-43.457,8.301,-58.105,58.105,109.375,0.000,0.000,0.000
483181.054,-1.465,27.344,8.301,113.770,185.547,0.000,0.000,0.000
483181.058,-56.641,61.523,75.684,19.531,-32.227,0.000,0.000,0.000
483181.062,-76.660,53.223,41.992,-34.180,-138.672,0.000,0.000,0.000
483181.066,-13.672,27.832,-11.230,72.754,18.555,0.000,0.000,0.000
483181.070,19.043,24.902,-1.953,134.277,177.734,0.000,0.000,0.000
483181.073,-15.625,71.777,75.684,61.523,-27.344,0.000,0.000,0.000
483181.077,-60.059,86.914,74.219,-18.066,-244.141,0.000,0.000,0.000
483181.081,-56.641,31.250,-18.555,16.113,-79.102,0.000,0.000,0.000
483181.085,30.273,23.438,7.324,151.367,107.422,0.000,0.000,0.000
483181.089,-4.883,64.453,69.824,94.727,32.715,0.000,0.000,0.000
483181.093,-111.816,63.477,45.410,-66.895,-120.117,0.000,0.000,0.000
483181.097,-67.383,34.180,3.906,-15.625,-91.309,0.000,0.000,0.000
483181.101,-7.812,17.578,-35.645,103.516,166.504,0.000,0.000,0.000
483181.105,-27.344,36.621,-0.488,82.031,166.992,0.000,0.000,0.000
483181.109,-83.496,62.988,56.641,-20.508,-128.906,0.000,0.000,0.000
483181.112,-49.805,58.105,41.504,-16.602,-196.289,0.000,0.000,0.000
483181.116,14.160,41.504,-6.348,106.445,45.898,0.000,0.000,0.000
483181.120,25.391,45.410,20.508,130.371,123.047,0.000,0.000,0.000
483181.124,-44.434,62.988,80.078,14.160,-139.648,0.000,0.000,0.000
483181.128,-62.988,56.152,48.340,-42.969,-188.965,0.000,0.000,0.000
483181.132,25.391,41.992,16.113,87.402,23.926,0.000,0.000,0.000
483181.136,5.371,27.832,-12.695,122.070,139.648,0.000,0.000,0.000
483181.140,-89.355,44.434,11.230,-3.906,-10.254,0.000,0.000,0.000
483181.144,-62.012,70.801,64.453,-30.762,-191.895,0.000,0.000,0.000
483181.148,-13.672,44.434,18.066,41.016,-66.406,0.000,0.000,0.000
483181.152,-3.906,28.809,-30.762,110.840,149.414,0.000,0.000,0.000
483181.155,-39.062,48.828,16.602,64.453,43.945,0.000,0.000,0.000
483181.159,-82.031,58.594,62.500,-25.879,-186.035,0.000,0.000,0.000
483181.163,-45.898,45.410,25.391,10.742,-144.531,0.000,0.000,0.000
483181.167,13.672,26.855,-6.348,128.418,104.492,0.000,0.000,0.000
483181.171,-24.902,30.273,3.418,90.332,139.160,0.000,0.000,0.000
483181.175,-49.805,69.336,83.984,25.391,-105.469,0.000,0.000,0.000
483181.179,-22.461,66.895,75.195,28.809,-202.637,0.000,0.000,0.000
483181.183,-42.480,14.648,-41.504,61.523,35.645,0.000,0.000,0.000
483181.187,-20.996,10.254,-22.949,101.562,221.191,0.000,0.000,0.000
483181.191,-56.641,54.199,62.988,26.855,48.828,2.000,1.000,45.000
483181.195,-90.332,54.688,47.363,-36.621,-153.320,0.000,0.000,0.000
483181.198,-58.105,13.184,-29.785,38.574,-44.434,0.000,0.000,0.000
483181.202,-4.395,10.254,-21.973,129.883,123.535,0.000,0.000,0.000
483181.206,-39.551,50.293,53.223,57.617,-28.809,0.000,0.000,0.000
483181.210,-78.125,60.547,68.359,-32.227,-263.184,0.000,0.000,0.000
483181.214,-34.668,36.133,11.719,34.180,-158.203,0.000,0.000,0.000
483181.218,10.742,25.879,-15.625,139.160,110.840,0.000,0.000,0.000
483181.222,-12.695,46.387,36.621,99.121,70.801,0.000,0.000,0.000
483181.226,-96.680,57.129,52.734,-39.551,-62.012,0.000,0.000,0.000
483181.230,-83.008,28.809,-0.977,-36.133,18.555,0.000,0.000,0.000
483181.234,8.789,16.602,-17.578,124.023,245.117,0.000,0.000,0.000
483181.237,52.734,51.270,59.082,171.875,219.727,0.000,0.000,0.000
483181.241,-58.105,67.383,79.590,12.207,-31.738,0.000,0.000,0.000
483181.245,-100.098,42.969,11.719,-60.547,-97.656,0.000,0.000,0.000
483181.249,-1.953,29.785,-14.648,82.520,55.664,0.000,0.000,0.000
483181.253,20.996,25.391,-4.883,131.348,172.852,0.000,0.000,0.000
483181.257,-53.711,53.223,49.316,17.090,34.668,0.000,0.000,0.000
483181.261,-53.711,68.359,67.871,-12.695,-140.137,0.000,0.000,0.000
483181.265,21.484,48.340,20.996,95.703,-7.812,0.000,0.000,0.000
483181.269,54.688,39.062,9.766,164.062,186.523,0.000,0.000,0.000
483181.273,-40.039,52.246,25.879,47.363,13.672,0.000,0.000,0.000
483181.277,-83.008,67.871,38.086,-43.945,-218.750,0.000,0.000,0.000
483181.280,-27.832,46.875,8.301,32.715,-120.605,0.000,0.000,0.000
483181.284,2.930,24.902,-24.902,126.465,101.074,0.000,0.000,0.000
483181.288,-29.297,41.016,10.742,76.660,49.316,0.000,0.000,0.000
483181.292,-74.707,61.523,62.012,-13.184,-170.410,0.000,0.000,0.000
483181.296,-47.852,49.316,36.621,0.977,-185.059,0.000,0.000,0.000
483181.300,-6.348,24.902,-15.137,110.840,48.828,0.000,0.000,0.000
483181.304,-8.301,29.785,3.418,116.211,93.750,0.000,0.000,0.000
483181.308,-44.434,73.242,75.195,30.273,-125.000,0.000,0.000,0.000
483181.312,-9.766,83.984,91.309,35.645,-221.680,0.000,0.000,0.000
483181.316,-1.465,34.180,2.441,88.867,-22.949,0.000,0.000,0.000
483181.320,-47.363,2.441,-52.734,80.566,176.270,0.000,0.000,0.000
483181.323,-54.688,43.457,45.410,28.320,-13.672,0.000,0.000,0.000
483181.327,-38.574,61.523,83.496,-5.859,-234.863,0.000,0.000,0.000
483181.331,-13.672,36.133,3.906,49.316,-77.637,0.000,0.000,0.000
483181.335,5.371,24.902,-32.227,116.699,130.371,0.000,0.000,0.000
483181.339,-17.578,53.223,34.668,81.543,26.855,0.000,0.000,0.000
483181.343,-61.035,71.777,61.035,-20.508,-205.566,0.000,0.000,0.000
483181.347,-47.852,45.410,-5.371,-7.812,-130.371,0.000,0.000,0.000
483181.351,3.418,23.926,-38.574,112.793,192.871,0.000,0.000,0.000
483181.355,45.410,60.059,57.129,142.578,196.777,0.000,0.000,0.000
483181.359,-14.648,89.355,108.887,36.133,-40.527,0.000,0.000,0.000
483181.362,-100.586,39.551,-1.953,-56.152,-0.977,0.000,0.000,0.000
483181.366,-31.738,15.625,-41.016,71.777,204.590,0.000,0.000,0.000
483181.370,17.090,40.527,13.184,137.207,146.484,0.000,0.000,0.000
483181.374,-60.059,65.918,59.082,11.230,-102.539,0.000,0.000,0.000
483181.378,-85.449,55.664,25.391,-50.293,-178.223,0.000,0.000,0.000
483181.382,-16.602,31.738,-14.160,61.035,13.184,0.000,0.000,0.000
483181.386,13.672,32.227,-4.395,126.953,173.340,0.000,0.000,0.000
483181.390,-60.059,54.199,32.227,22.949,42.480,0.000,0.000,0.000
483181.394,-90.332,54.199,40.527,-58.594,-141.602,0.000,0.000,0.000
483181.398,-16.602,37.109,8.789,33.691,-40.039,0.000,0.000,0.000
483181.402,38.574,26.855,-8.301,140.137,150.879,0.000,0.000,0.000
483181.405,-16.602,39.062,29.785,76.172,43.945,0.000,0.000,0.000
483181.409,-87.402,58.105,49.805,-40.039,-199.219,0.000,0.000,0.000
483181.413,-49.316,45.898,10.742,-2.441,-93.750,0.000,0.000,0.000
483181.417,49.805,36.133,20.020,165.527,147.949,0.000,0.000,0.000
483181.421,1.953,38.086,29.785,104.492,115.234,0.000,0.000,0.000
483181.425,-104.492,45.410,32.715,-55.176,-82.031,0.000,0.000,0.000
483181.429,-41.504,49.805,38.086,-14.160,-145.508,0.000,0.000,0.000
483181.433,23.438,30.762,-2.930,104.492,37.109,0.000,0.000,0.000
483181.437,-14.648,20.996,-19.531,99.609,135.742,0.000,0.000,0.000
483181.441,-57.617,58.594,53.223,15.625,-31.250,0.000,0.000,0.000
483181.444,-42.480,69.824,66.895,-6.836,-128.418,0.000,0.000,0.000
483181.448,13.184,40.039,16.602,96.191,12.695,0.000,0.000,0.000
483181.452,24.414,23.926,-6.348,143.555,173.828,0.000,0.000,0.000
483181.456,-68.848,29.785,18.066,17.578,89.355,0.000,0.000,0.000
483181.460,-55.664,49.316,73.242,-22.461,-71.777,0.000,0.000,0.000
483181.464,0.488,40.527,38.086,56.152,6.348,0.000,0.000,0.000
483181.468,-36.621,6.836,-48.828,84.473,240.234,0.000,0.000,0.000
483181.472,-55.176,25.879,-0.488,54.199,207.520,0.000,0.000,0.000
483181.476,-66.895,62.500,72.754,-6.348,-60.059,0.000,0.000,0.000
483181.480,-47.363,39.062,19.043,-2.441,-55.176,0.000,0.000,0.000
483181.484,-6.348,5.371,-42.480,97.168,138.184,0.000,0.000,0.000
483181.487,6.348,27.344,9.277,122.070,86.914,0.000,0.000,0.000
483181.491,-36.621,66.406,83.008,35.156,-157.715,0.000,0.000,0.000
483181.495,-34.180,56.152,59.082,15.137,-230.957,0.000,0.000,0.000
483181.499,-0.977,24.414,-9.277,94.238,6.348,0.000,0.000,0.000
483181.503,-2.930,16.602,-5.859,116.699,147.461,0.000,0.000,0.000
483181.507,-21.973,53.711,95.703,68.359,-96.680,0.000,0.000,0.000
483181.511,-63.965,56.152,77.637,-16.602,-286.133,0.000,0.000,0.000
483181.515,-58.105,18.066,-29.297,26.367,-96.680,0.000,0.000,0.000
483181.519,2.930,13.184,-25.391,137.207,189.941,0.000,0.000,0.000
483181.523,-20.996,45.898,50.781,83.008,126.465,0.000,0.000,0.000
483181.527,-72.266,66.406,53.711,-22.461,-110.840,0.000,0.000,0.000
483181.530,-50.293,32.715,-9.277,13.184,-79.590,0.000,0.000,0.000
483181.534,16.113,13.672,-20.020,139.160,107.422,0.000,0.000,0.000
483181.538,14.160,43.945,41.016,119.629,55.176,0.000,0.000,0.000
483181.542,-49.316,62.988,86.914,8.301,-196.289,0.000,0.000,0.000
483181.546,-50.293,36.621,30.762,1.465,-164.551,0.000,0.000,0.000
483181.550,34.668,21.484,4.883,147.461,129.395,0.000,0.000,0.000
483181.554,41.504,37.598,38.574,163.574,133.301,0.000,0.000,0.000
483181.558,-84.473,43.457,37.598,-18.555,-112.793,0.000,0.000,0.000
483181.562,-68.359,37.598,30.762,-33.691,-182.129,0.000,0.000,0.000
483181.566,1.465,14.648,-13.672,90.820,-11.230,0.000,0.000,0.000
483181.569,10.254,10.254,-19.531,125.000,100.098,0.000,0.000,0.000
483181.573,-54.688,43.945,34.668,25.879,-49.805,0.000,0.000,0.000
483181.577,-60.547,51.270,49.805,-31.250,-217.773,0.000,0.000,0.000
483181.581,-4.395,20.020,0.977,55.176,-102.051,0.000,0.000,0.000
483181.585,14.160,2.441,-28.320,135.254,127.930,0.000,0.000,0.000
483181.589,-2.930,31.738,44.922,92.773,17.578,0.000,0.000,0.000
483181.593,-36.133,54.688,79.102,7.812,-240.234,0.000,0.000,0.000
483181.597,12.695,39.551,48.340,57.617,-143.066,0.000,0.000,0.000
483181.601,32.227,13.672,-5.859,137.695,116.211,0.000,0.000,0.000
483181.605,-27.832,21.484,-4.883,82.520,88.379,0.000,0.000,0.000
483181.609,-56.641,56.641,69.336,11.719,-128.906,0.000,0.000,0.000
483181.612,-35.645,40.039,40.039,15.137,-148.926,0.000,0.000,0.000
483181.616,-0.977,10.742,-28.809,98.145,84.961,0.000,0.000,0.000
483181.620,17.090,22.461,7.324,127.441,142.090,0.000,0.000,0.000
483181.624,-31.250,57.617,78.613,41.016,-79.102,0.000,0.000,0.000
483181.628,-45.898,54.199,53.223,-10.254,-167.480,0.000,0.000,0.000
483181.632,-0.488,26.855,-11.719,83.008,34.180,0.000,0.000,0.000
483181.636,25.391,21.484,-7.812,148.926,202.148,0.000,0.000,0.000
483181.640,9.766,61.035,87.891,97.656,-11.719,0.000,0.000,0.000
483181.644,-20.996,69.824,95.703,17.578,-243.652,0.000,0.000,0.000
483181.648,-52.734,18.066,-24.902,10.742,-18.555,0.000,0.000,0.000
483181.652,-5.371,2.441,-35.156,116.211,287.598,0.000,0.000,0.000
483181.655,-4.883,39.062,46.875,94.238,153.320,0.000,0.000,0.000
483181.659,-56.152,58.105,68.359,-9.766,-133.301,0.000,0.000,0.000
483181.663,-43.945,29.297,6.348,8.789,-111.328,0.000,0.000,0.000
483181.667,23.438,13.184,-3.418,142.578,92.773,0.000,0.000,0.000
483181.671,20.508,39.062,43.945,139.648,79.102,0.000,0.000,0.000
483181.675,-60.547,60.547,62.988,3.418,-111.816,0.000,0.000,0.000
483181.679,-37.109,49.805,47.363,2.930,-145.996,0.000,0.000,0.000
483181.683,32.227,31.738,18.066,138.672,100.098,0.000,0.000,0.000
483181.687,68.359,42.480,52.246,191.406,192.871,0.000,0.000,0.000
483181.691,-27.832,63.477,77.637,47.363,-90.820,0.000,0.000,0.000
483181.694,-102.051,42.969,15.137,-68.848,-221.191,0.000,0.000,0.000
483181.698,-0.977,23.926,-5.371,69.824,-12.207,0.000,0.000,0.000
483181.702,44.434,27.344,1.953,149.414,163.086,0.000,0.000,0.000
483181.706,-40.039,46.387,33.203,35.156,23.926,0.000,0.000,0.000
483181.710,-66.406,56.641,50.293,-36.621,-164.551,0.000,0.000,0.000
483181.714,7.324,41.016,21.973,52.246,-78.125,0.000,0.000,0.000
483181.718,39.551,23.926,-3.418,146.484,148.926,0.000,0.000,0.000
483181.722,-17.578,41.992,28.809,72.754,88.867,0.000,0.000,0.000
483181.726,-61.035,63.477,68.848,-22.461,-104.492,0.000,0.000,0.000
483181.730,-4.883,52.246,47.852,38.086,-81.055,0.000,0.000,0.000
483181.734,68.848,37.598,32.715,170.898,105.957,0.000,0.000,0.000
483181.737,9.766,41.992,29.785,116.211,107.422,0.000,0.000,0.000
483181.741,-69.824,65.430,65.430,-12.207,-122.070,0.000,0.000,0.000
483181.745,-47.852,53.711,47.852,-19.043,-194.336,0.000,0.000,0.000
483181.749,14.160,30.273,1.465,102.051,74.219,0.000,0.000,0.000
483181.753,11.719,29.297,-1.953,123.535,262.207,0.000,0.000,0.000
483181.757,-40.039,56.641,61.523,33.203,-4.883,0.000,0.000,0.000
483181.761,-41.992,62.988,73.242,-6.836,-219.727,0.000,0.000,0.000
483181.765,-3.906,37.598,4.883,72.754,-41.016,0.000,0.000,0.000
483181.769,9.766,21.484,-15.137,141.602,147.949,0.000,0.000,0.000
483181.773,-23.438,51.270,59.082,81.543,22.461,0.000,0.000,0.000
483181.777,-39.551,75.195,93.750,16.113,-199.219,0.000,0.000,0.000
483181.780,-15.625,51.270,26.855,55.664,-88.867,0.000,0.000,0.000
483181.784,5.859,26.367,-15.625,130.859,168.945,0.000,0.000,0.000
483181.788,-9.766,41.504,35.645,101.074,105.957,0.000,0.000,0.000
483181.792,8.789,83.496,125.488,57.617,-151.367,0.000,0.000,0.000
483181.796,-3.418,59.570,62.500,32.715,-164.551,0.000,0.000,0.000
483181.800,-26.367,16.113,-42.969,83.984,110.840,0.000,0.000,0.000
483181.804,19.531,40.527,15.625,130.859,163.574,0.000,0.000,0.000
483181.808,-14.160,79.102,91.309,41.016,-99.609,0.000,0.000,0.000
483181.812,-44.434,67.383,46.875,-15.625,-188.477,0.000,0.000,0.000
483181.816,-10.254,35.645,-17.578,79.590,52.246,0.000,0.000,0.000
483181.819,36.133,41.992,20.508,160.156,194.824,0.000,0.000,0.000
483181.823,4.883,80.566,105.469,91.797,-20.020,0.000,0.000,0.000
483181.827,-61.035,80.078,70.312,-12.207,-177.734,0.000,0.000,0.000
483181.831,-48.828,39.062,-19.043,25.879,20.996,0.000,0.000,0.000
483181.835,41.992,29.297,4.883,157.227,247.070,0.000,0.000,0.000
483181.839,19.531,62.988,82.520,113.770,101.562,0.000,0.000,0.000
483181.843,-99.121,62.988,45.410,-53.711,-89.355,0.000,0.000,0.000
483181.847,-63.965,39.551,-8.789,-12.207,10.742,0.000,0.000,0.000
483181.851,12.695,26.367,-12.695,120.117,158.691,0.000,0.000,0.000
483181.855,2.930,42.480,40.527,101.074,35.156,0.000,0.000,0.000
483181.859,-81.055,62.500,59.082,-30.273,-177.246,0.000,0.000,0.000
483181.862,-64.941,51.270,20.508,-29.297,-157.715,0.000,0.000,0.000
483181.866,9.277,26.855,-11.230,100.098,69.336,0.000,0.000,0.000
483181.870,26.367,33.691,18.555,124.023,121.094,0.000,0.000,0.000
483181.874,-40.039,73.242,74.219,19.531,-90.332,0.000,0.000,0.000
483181.878,-64.941,67.383,40.039,-29.785,-175.293,0.000,0.000,0.000
483181.882,37.598,48.340,29.297,112.793,-25.879,0.000,0.000,0.000
483181.886,18.555,37.109,2.930,131.348,138.672,0.000,0.000,0.000
483181.890,-95.215,41.992,5.859,-11.719,9.277,0.000,0.000,0.000
483181.894,-75.195,58.105,55.176,-35.645,-170.898,0.000,0.000,0.000
483181.898,-13.184,38.086,12.695,49.316,-63.477,0.000,0.000,0.000
483181.901,-19.043,12.695,-45.898,94.238,142.090,0.000,0.000,0.000
483181.905,-59.082,32.715,9.766,39.062,64.941,0.000,0.000,0.000
483181.909,-51.758,64.453,77.637,-14.160,-182.129,0.000,0.000,0.000
483181.913,-17.090,49.805,28.320,21.484,-140.625,0.000,0.000,0.000
483181.917,7.812,25.879,-20.020,114.746,127.930,0.000,0.000,0.000
483181.921,-14.648,36.133,10.254,86.426,126.465,0.000,0.000,0.000
483181.925,-53.223,63.477,67.871,-1.465,-103.027,0.000,0.000,0.000
483181.929,-14.648,62.012,57.617,6.836,-160.156,0.000,0.000,0.000
483181.933,-24.414,18.555,-46.387,54.688,54.688,0.000,0.000,0.000
483181.937,-20.020,19.043,-33.691,88.867,169.922,0.000,0.000,0.000
483181.941,-41.992,67.383,59.082,21.973,13.672,0.000,0.000,0.000
483181.944,-61.523,63.965,42.969,-33.691,-103.027,0.000,0.000,0.000
483181.948,-17.090,33.691,-21.973,52.734,94.238,0.000,0.000,0.000
483181.952,22.949,36.621,-16.113,130.859,208.984,0.000,0.000,0.000
483181.956,-20.996,56.641,49.805,51.758,-23.438,0.000,0.000,0.000
483181.960,-63.477,59.570,50.781,-37.598,-180.664,0.000,0.000,0.000
483181.964,-20.996,41.504,3.906,39.062,-56.152,0.000,0.000,0.000
483181.968,20.020,27.344,-12.695,135.742,166.016,0.000,0.000,0.000
483181.972,19.531,58.105,65.918,117.188,128.418,0.000,0.000,0.000
483181.976,-63.965,71.289,77.148,-13.672,-71.777,0.000,0.000,0.000
483181.980,-92.285,29.297,-17.090,-44.922,-104.004,0.000,0.000,0.000
483181.984,-9.766,8.301,-26.855,107.422,125.977,0.000,0.000,0.000
483181.987,0.977,31.250,27.832,119.629,129.395,0.000,0.000,0.000
483181.991,-87.891,54.199,55.176,-20.508,-114.746,0.000,0.000,0.000
483181.995,-94.238,33.203,13.672,-52.734,-153.809,0.000,0.000,0.000
483181.999,3.418,18.555,-5.859,99.121,33.203,0.000,0.000,0.000
483182.003,13.184,25.391,3.906,131.836,158.691,0.000,0.000,0.000
483182.007,-63.477,50.293,52.734,0.977,-33.203,0.000,0.000,0.000
483182.011,-55.176,63.477,66.406,-31.738,-200.684,0.000,0.000,0.000
483182.015,25.879,43.457,25.879,88.867,-40.039,0.000,0.000,0.000
483182.019,43.457,25.391,4.883,145.020,140.137,0.000,0.000,0.000
483182.023,-83.008,34.180,-0.488,4.883,38.086,0.000,0.000,0.000
483182.026,-99.121,49.805,37.598,-54.688,-119.629,0.000,0.000,0.000
483182.030,-25.391,36.621,13.672,26.855,-71.777,0.000,0.000,0.000
483182.034,-5.371,14.160,-38.086,108.398,147.461,0.000,0.000,0.000
483182.038,-49.805,24.902,-3.906,58.105,138.672,0.000,0.000,0.000
483182.042,-90.332,47.363,46.875,-30.273,-136.230,0.000,0.000,0.000
483182.046,-53.223,35.156,14.160,-7.324,-161.621,0.000,0.000,0.000
483182.050,-24.902,11.719,-46.387,83.984,138.672,0.000,0.000,0.000
483182.054,-23.926,21.973,-11.719,94.238,215.820,0.000,0.000,0.000
483182.058,-55.176,55.176,73.242,19.043,-68.848,0.000,0.000,0.000
483182.062,-28.809,57.129,82.031,20.996,-177.734,0.000,0.000,0.000
483182.066,-4.395,26.367,4.883,89.355,47.363,0.000,0.000,0.000
483182.069,-43.945,12.207,-31.250,79.590,233.887,0.000,0.000,0.000
483182.073,-66.406,40.039,56.152,22.461,34.180,0.000,0.000,0.000
483182.077,-70.801,43.457,59.570,-28.809,-182.617,0.000,0.000,0.000
483182.081,-60.547,15.137,-27.344,14.160,-24.902,0.000,0.000,0.000
483182.085,-21.484,5.859,-34.668,102.051,191.406,0.000,0.000,0.000
483182.089,-36.621,33.203,43.457,64.453,74.219,0.000,0.000,0.000
483182.093,-85.938,47.363,63.965,-34.668,-144.043,0.000,0.000,0.000
483182.097,-68.848,22.461,-3.906,-11.719,-82.520,0.000,0.000,0.000
483182.101,-23.926,0.000,-48.340,88.867,200.684,0.000,0.000,0.000
483182.105,19.531,36.621,40.527,123.535,217.773,0.000,0.000,0.000
483182.109,-23.438,71.777,102.539,30.273,-76.172,0.000,0.000,0.000
483182.112,-79.102,33.691,1.465,-45.410,-143.066,0.000,0.000,0.000
483182.116,-28.320,2.930,-54.199,67.871,103.027,0.000,0.000,0.000
483182.120,-2.930,15.625,-8.301,108.887,168.945,0.000,0.000,0.000
483182.124,-57.617,48.340,46.875,-0.977,-84.473,0.000,0.000,0.000
483182.128,-77.637,42.480,20.508,-48.828,-177.246,0.000,0.000,0.000
483182.132,-24.902,17.578,-27.832,63.965,57.129,0.000,0.000,0.000
483182.136,0.977,18.555,-17.090,127.441,195.801,0.000,0.000,0.000
483182.140,-70.312,41.016,32.715,22.461,-4.883,0.000,0.000,0.000
483182.144,-74.707,52.246,59.570,-27.832,-203.613,0.000,0.000,0.000
483182.148,-8.789,40.039,30.762,68.359,-19.043,0.000,0.000,0.000
483182.151,19.531,25.391,-3.418,145.508,255.371,0.000,0.000,0.000
483182.155,-31.738,35.156,34.668,81.543,170.898,0.000,0.000,0.000
483182.159,-118.164,39.062,37.109,-47.363,-34.180,0.000,0.000,0.000
483182.163,-62.988,20.996,6.836,-4.883,-31.738,0.000,0.000,0.000
483182.167,39.551,16.602,21.973,156.250,132.324,0.000,0.000,0.000
483182.171,-23.926,29.785,22.949,91.797,142.090,0.000,0.000,0.000
483182.175,-114.258,48.340,45.410,-48.828,-89.355,0.000,0.000,0.000
483182.179,-60.059,40.039,47.852,-12.207,-167.969,0.000,0.000,0.000
483182.183,-2.441,16.602,-1.953,97.168,70.801,0.000,0.000,0.000
483182.187,-16.113,9.766,-0.488,97.168,116.699,0.000,0.000,0.000
483182.191,-78.613,35.645,57.129,-0.488,-105.957,0.000,0.000,0.000
483182.194,-64.941,46.875,62.500,-21.973,-160.156,0.000,0.000,0.000
483182.198,-2.930,23.438,14.160,83.008,16.602,0.000,0.000,0.000
483182.202,15.137,19.531,1.953,136.230,125.488,0.000,0.000,0.000
483182.206,-47.852,50.293,50.781,44.434,0.488,0.000,0.000,0.000
483182.210,-48.828,64.941,85.938,-4.395,-149.902,0.000,0.000,0.000
483182.214,7.812,39.062,34.668,60.059,-76.660,0.000,0.000,0.000
483182.218,-19.531,3.906,-41.016,87.891,163.086,0.000,0.000,0.000
483182.222,-48.340,24.414,14.648,49.316,97.168,0.000,0.000,0.000
483182.226,-83.984,45.410,54.688,-32.715,-124.512,0.000,0.000,0.000
483182.230,-59.082,24.414,5.859,-11.719,-56.152,0.000,0.000,0.000
483182.233,-7.324,7.812,-36.621,98.633,209.473,0.000,0.000,0.000
483182.237,-15.625,26.855,6.836,96.191,227.539,0.000,0.000,0.000
483182.241,-67.871,57.617,66.406,0.488,-7.324,0.000,0.000,0.000
483182.245,-53.223,53.223,47.852,-10.254,-55.664,0.000,0.000,0.000
483182.249,-0.488,30.273,-2.441,95.215,102.539,0.000,0.000,0.000
483182.253,11.230,32.715,9.277,125.488,142.578,0.000,0.000,0.000
483182.257,-22.461,71.777,98.633,54.199,-67.383,0.000,0.000,0.000
483182.261,-66.406,63.477,67.383,-27.832,-200.684,0.000,0.000,0.000
483182.265,-62.500,16.113,-33.203,8.789,-23.438,0.000,0.000,0.000
483182.269,9.766,19.043,-12.207,122.070,144.531,0.000,0.000,0.000
483182.273,-16.602,56.641,61.035,70.312,-48.340,0.000,0.000,0.000
483182.276,-91.309,54.199,50.781,-53.223,-229.004,0.000,0.000,0.000
483182.280,-45.410,28.809,-4.883,7.324,-99.121,0.000,0.000,0.000
483182.284,18.555,16.113,-19.531,136.230,103.027,0.000,0.000,0.000
483182.288,-2.441,37.109,39.062,98.633,79.590,0.000,0.000,0.000
483182.292,-43.457,66.895,92.773,-1.953,-126.465,0.000,0.000,0.000
483182.296,-56.641,37.598,20.508,-23.438,-120.117,0.000,0.000,0.000
483182.300,10.254,16.113,-13.184,106.934,103.516,0.000,0.000,0.000
483182.304,30.273,37.598,45.898,134.277,147.949,0.000,0.000,0.000
483182.308,-107.422,45.898,44.434,-42.969,-39.551,0.000,0.000,0.000
483182.312,-103.516,29.785,15.625,-64.941,-147.949,0.000,0.000,0.000
483182.316,-24.902,6.836,-22.461,62.012,53.711,0.000,0.000,0.000
483182.319,11.230,19.531,2.930,126.465,157.715,0.000,0.000,0.000
483182.323,-39.551,49.805,66.895,40.527,-62.500,0.000,0.000,0.000
483182.327,-80.078,43.945,48.828,-36.621,-196.777,0.000,0.000,0.000
483182.331,-31.738,19.043,-8.789,47.363,4.395,0.000,0.000,0.000
483182.335,1.953,7.324,-19.531,126.465,228.027,0.000,0.000,0.000
483182.339,-16.602,45.410,52.246,73.730,68.359,0.000,0.000,0.000
483182.343,-63.477,60.547,71.777,-17.578,-135.742,0.000,0.000,0.000
483182.347,-4.395,35.645,42.969,55.176,-19.043,0.000,0.000,0.000
483182.351,4.395,8.301,-21.484,117.676,213.379,0.000,0.000,0.000
483182.355,-68.848,9.766,-23.438,31.250,201.660,0.000,0.000,0.000
483182.358,-70.312,47.852,61.523,-21.973,-6.348,0.000,0.000,0.000
483182.362,-39.551,42.969,37.598,-0.488,-79.102,0.000,0.000,0.000
483182.366,-20.996,9.277,-26.367,82.031,67.871,0.000,0.000,0.000
483182.370,-24.414,10.742,-10.742,88.379,117.188,0.000,0.000,0.000
483182.374,-57.129,46.875,63.477,3.418,-130.859,0.000,0.000,0.000
483182.378,-41.016,57.617,63.965,-10.254,-261.230,0.000,0.000,0.000
483182.382,1.465,26.367,-5.371,86.426,-50.293,0.000,0.000,0.000
483182.386,19.531,24.414,-11.230,128.906,70.312,0.000,0.000,0.000
483182.390,-11.230,55.664,69.336,59.570,-93.750,0.000,0.000,0.000
483182.394,-55.664,56.152,67.871,-26.367,-223.633,0.000,0.000,0.000
483182.398,-60.059,19.043,-41.016,-12.207,-67.871,0.000,0.000,0.000
483182.401,-4.883,4.395,-45.410,96.191,215.332,0.000,0.000,0.000
483182.405,-28.320,38.086,25.391,61.523,127.441,0.000,0.000,0.000
483182.409,-69.336,56.152,50.781,-35.156,-185.547,0.000,0.000,0.000
483182.413,-57.129,25.391,-11.719,-11.719,-121.094,0.000,0.000,0.000
483182.417,-7.324,15.137,-43.457,105.469,139.160,0.000,0.000,0.000
483182.421,-6.348,41.016,16.113,97.168,110.352,0.000,0.000,0.000
483182.425,-83.008,53.223,53.711,-26.855,-150.879,0.000,0.000,0.000
483182.429,-69.824,41.016,19.531,-35.156,-201.172,0.000,0.000,0.000
483182.433,20.996,29.785,4.883,112.305,50.293,0.000,0.000,0.000
483182.437,21.973,32.715,20.508,131.348,174.316,0.000,0.000,0.000
483182.441,-63.965,57.129,58.105,3.418,-43.945,0.000,0.000,0.000
483182.444,-78.613,50.781,41.992,-47.363,-144.531,0.000,0.000,0.000
483182.448,-2.930,27.344,-10.254,67.871,79.590,0.000,0.000,0.000
483182.452,33.691,27.832,-2.930,145.508,201.172,0.000,0.000,0.000
483182.456,-51.270,49.805,42.480,38.574,-56.641,0.000,0.000,0.000
483182.460,-99.609,50.293,38.574,-55.176,-258.789,0.000,0.000,0.000
483182.464,-17.578,33.691,10.254,41.992,-93.750,0.000,0.000,0.000
483182.468,57.617,34.180,20.508,173.828,145.020,0.000,0.000,0.000
483182.472,-32.715,41.016,26.367,63.477,41.504,0.000,0.000,0.000
483182.476,-96.680,51.270,40.527,-58.594,-208.496,0.000,0.000,0.000
483182.480,-37.598,38.574,25.391,2.441,-150.879,0.000,0.000,0.000
483182.483,-1.953,16.602,-20.508,103.516,159.668,0.000,0.000,0.000
483182.487,-42.969,21.484,-18.066,64.453,191.406,0.000,0.000,0.000
483182.491,-92.285,43.457,38.086,-30.762,-57.617,0.000,0.000,0.000
483182.495,-57.617,38.574,29.297,-18.066,-116.699,0.000,0.000,0.000
483182.499,-18.555,12.207,-33.203,78.613,137.207,0.000,0.000,0.000
483182.503,-30.273,9.766,-29.297,85.449,211.426,0.000,0.000,0.000
483182.507,-76.660,40.527,38.086,-2.930,-48.340,0.000,0.000,0.000
483182.511,-24.414,64.453,80.566,7.324,-219.238,0.000,0.000,0.000
483182.515,16.602,49.316,24.902,87.891,-68.848,0.000,0.000,0.000
483182.519,-30.762,13.672,-40.527,92.773,167.969,0.000,0.000,0.000
483182.523,-51.270,41.504,39.062,42.480,91.797,0.000,0.000,0.000
483182.526,-53.223,76.172,85.938,-3.906,-83.984,0.000,0.000,0.000
483182.530,-38.574,40.527,20.020,28.809,-10.254,0.000,0.000,0.000
483182.534,-30.762,-0.977,-41.016,84.473,221.191,0.000,0.000,0.000
483182.538,-23.438,28.320,21.484,80.566,120.605,0.000,0.000,0.000
483182.542,-55.664,60.059,72.266,-4.883,-198.242,0.000,0.000,0.000
483182.546,-58.594,35.645,3.418,-26.367,-162.109,0.000,0.000,0.000
483182.550,-8.301,12.207,-40.039,85.449,118.164,0.000,0.000,0.000
483182.554,20.508,37.109,21.973,122.070,141.602,0.000,0.000,0.000
483182.558,-30.273,70.312,76.660,27.832,-113.770,0.000,0.000,0.000
483182.562,-59.570,50.293,24.902,-31.250,-238.281,0.000,0.000,0.000
483182.566,-12.695,26.855,-27.832,75.195,-13.672,0.000,0.000,0.000
483182.569,47.363,38.574,16.113,158.691,144.043,0.000,0.000,0.000
483182.573,30.762,79.102,107.422,91.309,-118.652,0.000,0.000,0.000
483182.577,-69.824,63.477,37.109,-41.016,-265.625,0.000,0.000,0.000
483182.581,-61.035,24.414,-54.688,10.254,-68.359,0.000,0.000,0.000
483182.585,38.574,30.762,-11.719,149.902,103.027,0.000,0.000,0.000
483182.589,17.090,69.824,72.266,94.238,-17.578,0.000,0.000,0.000
483182.593,-80.566,69.824,42.969,-55.664,-184.570,0.000,0.000,0.000
483182.597,-45.410,35.156,-19.043,-9.277,-85.938,0.000,0.000,0.000
483182.601,28.320,25.391,-19.043,122.559,119.629,0.000,0.000,0.000
483182.605,-14.648,41.016,13.184,73.730,92.773,0.000,0.000,0.000
483182.608,-88.867,58.105,40.039,-52.734,-110.840,0.000,0.000,0.000
483182.612,-35.645,49.805,32.715,-12.695,-133.789,0.000,0.000,0.000
483182.616,19.043,28.320,-3.906,113.770,75.684,0.000,0.000,0.000
483182.620,8.301,48.340,19.531,119.629,117.676,0.000,0.000,0.000
483182.624,-56.641,75.684,67.871,5.859,-104.980,0.000,0.000,0.000
483182.628,-68.359,58.594,37.109,-46.875,-182.129,0.000,0.000,0.000
483182.632,24.902,42.480,25.879,96.191,25.879,0.000,0.000,0.000
483182.636,22.461,34.668,12.695,128.418,173.340,0.000,0.000,0.000
483182.640,-68.848,53.223,25.879,-2.441,2.441,0.000,0.000,0.000
483182.644,-57.129,68.359,60.059,-22.949,-195.312,0.000,0.000,0.000
483182.648,-6.836,49.316,13.672,56.152,-56.641,0.000,0.000,0.000
483182.651,2.441,27.832,-28.320,103.027,128.906,0.000,0.000,0.000
483182.655,-28.809,46.875,30.273,57.617,14.648,0.000,0.000,0.000
483182.659,-42.969,82.031,81.055,-9.766,-159.668,0.000,0.000,0.000
483182.663,-19.043,56.152,19.043,16.602,-63.965,0.000,0.000,0.000
483182.667,17.578,21.484,-23.438,116.699,197.754,0.000,0.000,0.000
483182.671,3.906,46.875,28.809,95.703,135.254,0.000,0.000,0.000
483182.675,-29.785,88.379,96.680,19.531,-166.016,0.000,0.000,0.000
483182.679,-28.320,66.895,53.223,7.324,-184.570,0.000,0.000,0.000
483182.683,-32.715,24.902,-46.387,59.082,93.262,0.000,0.000,0.000
483182.687,-10.742,33.691,-24.414,86.426,180.664,0.000,0.000,0.000
483182.690,-40.039,72.754,59.570,12.207,-76.172,0.000,0.000,0.000
483182.694,-62.500,74.219,32.227,-32.715,-178.223,0.000,0.000,0.000
483182.698,-23.926,41.504,-35.645,59.082,42.480,0.000,0.000,0.000
483182.702,16.113,34.668,-19.531,141.602,180.664,0.000,0.000,0.000
483182.706,-26.855,63.477,57.129,58.594,-9.277,4.000,1.000,45.000
483182.710,-66.406,72.754,64.453,-34.180,-191.406,0.000,0.000,0.000
483182.714,-9.766,55.176,16.602,59.082,-41.992,0.000,0.000,0.000
483182.718,27.344,42.969,-3.906,153.320,168.945,0.000,0.000,0.000
483182.722,23.438,77.637,72.754,126.465,50.293,0.000,0.000,0.000
483182.726,-50.293,86.426,85.449,1.465,-139.648,0.000,0.000,0.000
483182.730,-63.477,42.480,-2.930,-19.043,-66.406,0.000,0.000,0.000
483182.733,20.508,32.715,-14.648,125.488,135.254,0.000,0.000,0.000
483182.737,19.531,56.641,37.109,123.047,172.363,0.000,0.000,0.000
483182.741,-70.312,73.730,55.176,-14.160,-8.789,0.000,0.000,0.000
483182.745,-69.336,51.270,13.184,-35.645,-43.945,0.000,0.000,0.000
483182.749,13.184,30.762,-8.789,104.980,134.277,0.000,0.000,0.000
483182.753,29.297,44.922,15.625,139.648,170.410,0.000,0.000,0.000
483182.757,-48.828,73.730,60.547,20.996,-57.617,0.000,0.000,0.000
483182.761,-41.016,76.660,62.500,0.977,-197.754,0.000,0.000,0.000
483182.765,34.180,52.246,22.461,108.887,-31.250,0.000,0.000,0.000
483182.769,38.574,39.062,-0.977,147.949,160.156,0.000,0.000,0.000
483182.773,-36.621,60.547,40.039,52.246,87.891,0.000,0.000,0.000
483182.776,-77.637,67.871,54.199,-36.621,-73.242,0.000,0.000,0.000
483182.780,14.160,55.664,41.016,73.730,-29.785,0.000,0.000,0.000
483182.784,62.012,37.598,20.508,175.781,177.246,0.000,0.000,0.000
483182.788,-32.227,40.039,14.160,67.383,138.672,0.000,0.000,0.000
483182.792,-87.402,62.012,46.387,-28.809,-80.566,0.000,0.000,0.000
483182.796,-49.316,45.898,14.160,-3.906,-86.426,0.000,0.000,0.000
483182.800,0.977,21.484,-32.715,103.027,153.809,0.000,0.000,0.000
483182.804,-4.395,32.227,1.465,104.004,250.000,0.000,0.000,0.000
483182.808,-41.504,68.848,75.195,21.484,28.320,0.000,0.000,0.000
483182.812,-7.812,71.289,74.707,30.273,-143.555,0.000,0.000,0.000
483182.815,9.277,34.180,-4.395,95.215,5.371,0.000,0.000,0.000
483182.819,-31.250,13.672,-38.086,84.473,126.465,0.000,0.000,0.000
483182.823,-64.941,41.504,36.133,20.996,-17.578,0.000,0.000,0.000
483182.827,-64.453,49.316,55.664,-12.207,-114.258,0.000,0.000,0.000
483182.831,-34.668,20.508,-11.230,48.340,21.973,0.000,0.000,0.000
483182.835,-3.906,3.906,-27.344,114.746,162.109,0.000,0.000,0.000
483182.839,-21.484,36.621,53.223,76.172,41.016,0.000,0.000,0.000
483182.843,-55.664,54.688,82.031,-11.719,-150.879,0.000,0.000,0.000
483182.847,-34.180,28.320,9.277,20.508,-72.754,0.000,0.000,0.000
483182.851,7.324,11.719,-26.855,123.535,148.926,0.000,0.000,0.000
483182.855,37.109,47.363,62.988,135.254,88.379,0.000,0.000,0.000
483182.858,-14.648,74.707,100.586,32.227,-152.344,0.000,0.000,0.000
483182.862,-62.500,34.180,-1.953,-37.598,-115.234,0.000,0.000,0.000
483182.866,0.488,10.254,-34.180,87.891,138.672,0.000,0.000,0.000
483182.870,16.602,30.762,16.602,125.488,175.781,0.000,0.000,0.000
483182.874,-44.922,68.359,80.078,19.043,-69.336,0.000,0.000,0.000
483182.878,-52.246,58.594,54.688,-16.113,-226.074,0.000,0.000,0.000
483182.882,-4.883,19.043,-10.254,77.637,13.184,0.000,0.000,0.000
483182.886,28.809,17.578,6.836,140.625,184.082,0.000,0.000,0.000
483182.890,-28.320,54.199,67.871,54.199,-32.227,0.000,0.000,0.000
483182.894,-63.965,53.711,59.570,-25.391,-199.707,0.000,0.000,0.000
483182.898,-13.672,25.879,5.371,52.734,-38.574,0.000,0.000,0.000
483182.901,35.156,21.973,1.465,148.438,182.617,0.000,0.000,0.000
483182.905,4.883,50.781,62.500,96.191,49.805,0.000,0.000,0.000
483182.909,-62.988,64.941,78.125,-10.742,-137.695,0.000,0.000,0.000
483182.913,-40.527,41.016,23.438,19.531,-12.695,0.000,0.000,0.000
483182.917,58.105,34.668,29.297,176.758,211.426,0.000,0.000,0.000
483182.921,10.742,45.410,47.363,118.652,175.293,0.000,0.000,0.000
483182.925,-76.172,64.941,61.523,-22.461,-81.055,0.000,0.000,0.000
483182.929,-21.484,64.453,63.477,25.879,-112.305,0.000,0.000,0.000
483182.933,26.855,35.156,12.695,133.301,179.688,0.000,0.000,0.000
483182.937,4.395,28.320,8.301,119.629,266.602,0.000,0.000,0.000
483182.940,-54.199,59.082,64.453,10.254,5.371,0.000,0.000,0.000
483182.944,-23.438,73.242,77.637,-2.441,-183.594,0.000,0.000,0.000
483182.948,35.156,48.340,31.250,114.258,-22.949,0.000,0.000,0.000
483182.952,29.297,30.273,9.277,153.809,131.348,0.000,0.000,0.000
483182.956,-41.016,56.641,55.176,49.316,-62.500,0.000,0.000,0.000
483182.960,-37.598,75.195,86.426,-4.395,-204.590,0.000,0.000,0.000
483182.964,29.297,59.570,50.781,81.543,-76.660,0.000,0.000,0.000
483182.968,-1.953,34.180,-23.926,120.605,118.164,0.000,0.000,0.000
483182.972,-30.762,57.129,27.832,68.848,31.738,0.000,0.000,0.000
483182.976,-56.152,82.520,76.172,-14.648,-177.734,0.000,0.000,0.000
483182.980,-38.574,59.082,26.855,6.836,-112.305,0.000,0.000,0.000
483182.983,11.719,28.809,-4.395,119.629,109.375,0.000,0.000,0.000
483182.987,-1.953,30.273,27.832,112.793,92.773,0.000,0.000,0.000
483182.991,-64.941,54.688,66.406,0.488,-103.516,0.000,0.000,0.000
483182.995,-37.109,57.617,47.852,-2.441,-139.160,0.000,0.000,0.000
483182.999,15.137,35.645,0.977,103.027,40.039,0.000,0.000,0.000
483183.003,6.348,33.691,4.883,113.281,145.996,0.000,0.000,0.000
483183.007,-5.371,80.566,102.051,67.871,-54.688,0.000,0.000,0.000
483183.011,-43.945,70.801,68.359,-6.348,-202.148,0.000,0.000,0.000
483183.015,-41.992,22.461,-33.203,32.715,-15.625,0.000,0.000,0.000
483183.019,18.555,32.715,-15.137,127.930,182.617,0.000,0.000,0.000
483183.023,-14.160,68.848,54.688,72.266,38.574,0.000,0.000,0.000
483183.026,-79.590,61.523,41.992,-36.621,-175.781,0.000,0.000,0.000
483183.030,-30.273,37.109,-11.230,16.602,-64.453,0.000,0.000,0.000
483183.034,39.551,29.297,-9.277,147.461,176.758,0.000,0.000,0.000
483183.038,0.977,45.898,40.527,100.586,98.633,0.000,0.000,0.000
483183.042,-52.734,65.430,75.195,0.000,-133.789,0.000,0.000,0.000
483183.046,-25.391,51.758,40.527,27.344,-117.676,0.000,0.000,0.000
483183.050,30.273,30.762,2.441,136.230,105.957,0.000,0.000,0.000
483183.054,13.672,38.574,18.066,115.723,113.770,0.000,0.000,0.000
483183.058,-77.637,56.641,43.945,-24.902,-94.727,0.000,0.000,0.000
483183.062,-72.754,48.340,21.484,-41.504,-146.484,0.000,0.000,0.000
483183.065,41.504,42.480,23.438,127.441,32.227,0.000,0.000,0.000
483183.069,50.781,45.898,33.203,164.551,138.184,0.000,0.000,0.000
483183.073,-82.520,47.852,31.250,-5.371,-19.531,0.000,0.000,0.000
483183.077,-72.266,56.641,54.199,-40.039,-180.176,0.000,0.000,0.000
483183.081,-0.977,41.016,16.602,64.941,-38.574,0.000,0.000,0.000
483183.085,15.137,28.320,-10.742,123.047,186.035,0.000,0.000,0.000
483183.089,-9.277,62.988,59.570,68.848,57.129,0.000,0.000,0.000
483183.093,-67.383,72.754,72.266,-33.691,-135.742,0.000,0.000,0.000
483183.097,9.277,57.129,51.758,51.270,-68.848,0.000,0.000,0.000
483183.101,43.945,38.086,5.371,143.066,119.629,0.000,0.000,0.000
483183.105,-42.969,40.039,-2.441,52.734,104.004,0.000,0.000,0.000
483183.108,-63.477,68.848,65.918,-14.648,-105.957,0.000,0.000,0.000
483183.112,-39.551,54.199,33.203,3.906,-141.602,0.000,0.000,0.000
483183.116,-13.184,22.461,-32.715,84.473,114.258,0.000,0.000,0.000
483183.120,-16.113,37.598,-1.953,89.844,201.660,0.000,0.000,0.000
483183.124,-51.758,71.777,75.684,18.555,-44.922,0.000,0.000,0.000
483183.128,-44.434,61.035,49.805,-7.812,-149.414,0.000,0.000,0.000
483183.132,-4.883,31.250,-18.555,79.590,93.750,0.000,0.000,0.000
483183.136,29.297,35.645,2.930,148.438,273.926,0.000,0.000,0.000
483183.140,0.977,67.871,83.984,81.543,41.016,0.000,0.000,0.000
483183.144,-35.156,70.801,80.566,-2.930,-207.031,0.000,0.000,0.000
483183.147,-44.434,26.367,-23.926,8.301,-61.035,0.000,0.000,0.000
483183.151,0.488,11.230,-38.574,100.586,164.551,0.000,0.000,0.000
483183.155,-3.906,52.246,46.387,72.266,45.898,0.000,0.000,0.000
483183.159,-65.430,64.941,63.965,-33.203,-151.367,0.000,0.000,0.000
483183.163,-61.035,30.762,-7.812,-9.766,-67.383,0.000,0.000,0.000
483183.167,7.324,13.184,-25.879,114.258,140.625,0.000,0.000,0.000
483183.171,8.789,41.016,35.156,107.422,135.742,0.000,0.000,0.000
483183.175,-61.523,71.289,70.312,-4.395,-41.992,0.000,0.000,0.000
483183.179,-66.895,45.898,18.555,-20.996,-46.875,0.000,0.000,0.000
483183.183,2.441,17.090,-11.719,107.910,215.332,0.000,0.000,0.000
483183.187,53.711,39.062,56.152,169.922,215.820,0.000,0.000,0.000
483183.190,-46.875,62.012,87.891,27.832,-98.145,0.000,0.000,0.000
483183.194,-86.914,47.852,38.086,-47.852,-121.582,0.000,0.000,0.000
483183.198,11.230,27.832,18.555,96.680,141.113,0.000,0.000,0.000
483183.202,11.230,22.461,13.672,145.020,274.902,0.000,0.000,0.000
483183.206,-71.289,46.875,48.340,32.227,103.516,0.000,0.000,0.000
483183.210,-94.727,49.805,53.711,-40.527,-95.703,0.000,0.000,0.000
483183.214,-21.484,27.832,17.578,49.316,-5.371,0.000,0.000,0.000
483183.218,16.113,21.973,1.465,136.230,207.520,0.000,0.000,0.000
483183.222,-51.758,36.621,25.879,53.223,126.465,0.000,0.000,0.000
483183.226,-81.055,52.734,58.594,-30.762,-96.680,0.000,0.000,0.000
483183.230,0.488,47.852,50.781,47.852,-54.199,0.000,0.000,0.000
483183.233,39.062,27.832,5.859,143.066,168.945,0.000,0.000,0.000
483183.237,-31.738,26.367,-2.441,69.824,193.359,0.000,0.000,0.000
483183.241,-86.914,54.688,47.852,-27.832,-6.836,0.000,0.000,0.000
483183.245,-28.809,57.617,53.711,8.789,-145.508,0.000,0.000,0.000
483183.249,13.672,26.855,-6.348,100.098,11.230,0.000,0.000,0.000
483183.253,10.254,26.855,-7.324,103.027,125.488,0.000,0.000,0.000
483183.257,-23.438,65.918,71.289,27.832,-102.539,0.000,0.000,0.000
483183.261,-56.641,56.152,46.875,-33.203,-225.098,0.000,0.000,0.000
483183.265,-22.461,24.414,-26.855,41.016,-43.945,0.000,0.000,0.000
483183.269,2.930,16.113,-32.227,110.840,118.652,0.000,0.000,0.000
483183.272,-24.902,50.293,48.828,55.176,-42.480,0.000,0.000,0.000
483183.276,-37.598,69.824,83.984,-5.371,-244.141,0.000,0.000,0.000
483183.280,-18.555,38.574,13.184,39.551,-102.539,0.000,0.000,0.000
483183.284,-12.207,18.555,-35.156,105.469,141.113,0.000,0.000,0.000
483183.288,-32.715,38.574,18.555,66.406,74.219,0.000,0.000,0.000
483183.292,-34.668,73.242,97.656,16.113,-142.090,0.000,0.000,0.000
483183.296,-39.062,49.316,32.715,8.789,-135.254,0.000,0.000,0.000
483183.300,-27.344,12.207,-44.434,81.543,98.145,0.000,0.000,0.000
483183.304,6.836,32.227,26.367,123.535,96.680,0.000,0.000,0.000
483183.308,-54.688,61.035,74.707,22.949,-167.480,0.000,0.000,0.000
483183.312,-75.195,50.781,30.273,-24.414,-189.941,0.000,0.000,0.000
483183.315,4.395,31.250,0.977,99.609,63.477,0.000,0.000,0.000
483183.319,16.602,23.926,5.371,132.812,176.270,0.000,0.000,0.000
483183.323,-37.598,46.387,64.941,38.574,-60.547,0.000,0.000,0.000
483183.327,-54.688,47.852,62.500,-21.484,-194.824,0.000,0.000,0.000
483183.331,-33.691,16.602,-10.254,37.598,-8.789,0.000,0.000,0.000
483183.335,30.273,15.625,4.395,153.809,123.047,0.000,0.000,0.000
483183.339,1.465,53.711,69.336,98.633,-45.898,0.000,0.000,0.000
483183.343,-110.840,49.805,30.273,-62.500,-192.871,0.000,0.000,0.000
483183.347,-60.059,20.996,-12.207,1.465,-70.312,0.000,0.000,0.000
483183.351,10.742,15.625,-16.602,124.023,159.668,0.000,0.000,0.000
483183.355,-18.555,42.969,29.785,84.473,98.633,0.000,0.000,0.000
483183.358,-83.984,62.988,51.270,-30.762,-148.438,0.000,0.000,0.000
483183.362,-55.176,40.039,11.230,-20.020,-184.570,0.000,0.000,0.000
483183.366,0.000,16.113,-22.461,102.539,63.965,0.000,0.000,0.000
483183.370,4.395,29.297,11.719,115.723,135.254,0.000,0.000,0.000
483183.374,-47.363,57.129,71.289,14.648,-110.352,0.000,0.000,0.000
483183.378,-45.898,46.875,45.410,-12.207,-173.828,0.000,0.000,0.000
483183.382,44.922,38.086,19.043,121.094,14.160,0.000,0.000,0.000
483183.386,21.484,38.086,1.465,126.953,168.457,0.000,0.000,0.000
483183.390,-80.566,45.410,23.438,-4.883,35.645,0.000,0.000,0.000
483183.394,-57.129,55.664,53.711,-24.902,-136.719,0.000,0.000,0.000
483183.397,-2.930,33.691,5.371,59.082,-12.695,0.000,0.000,0.000
483183.401,-1.465,10.742,-33.691,105.469,210.449,0.000,0.000,0.000
483183.405,-20.996,44.922,41.016,61.523,104.980,0.000,0.000,0.000
483183.409,-54.199,65.430,76.660,-14.648,-132.812,0.000,0.000,0.000
483183.413,-36.133,27.344,11.719,16.113,-74.219,0.000,0.000,0.000
483183.417,32.227,14.648,-7.812,140.625,138.672,0.000,0.000,0.000
483183.421,-4.395,36.133,19.043,95.215,166.504,0.000,0.000,0.000
483183.425,-43.457,65.918,79.590,11.230,-24.414,0.000,0.000,0.000
483183.429,-4.395,59.082,76.172,37.109,-62.988,0.000,0.000,0.000
483183.433,-17.578,17.578,-20.508,80.078,200.195,0.000,0.000,0.000
483183.437,-13.184,22.461,-6.836,104.492,270.020,0.000,0.000,0.000
483183.440,-61.035,57.617,62.012,20.996,59.570,0.000,0.000,0.000
483183.444,-69.336,53.223,43.457,-29.297,-53.223,0.000,0.000,0.000
483183.448,-15.625,30.273,-16.113,62.988,77.148,0.000,0.000,0.000
483183.452,13.672,24.902,-12.207,128.906,142.090,0.000,0.000,0.000
483183.456,-33.203,46.387,49.805,53.711,-72.754,0.000,0.000,0.000
483183.460,-71.289,47.363,50.781,-39.551,-254.883,0.000,0.000,0.000
483183.464,-10.742,23.926,3.418,39.551,-124.512,0.000,0.000,0.000
483183.468,42.969,20.996,-8.789,146.973,103.516,0.000,0.000,0.000
483183.472,37.598,56.152,79.590,128.906,20.508,0.000,0.000,0.000
483183.476,-49.316,66.895,82.031,-1.953,-167.480,0.000,0.000,0.000
483183.479,-68.848,29.297,-16.113,-23.438,-104.980,0.000,0.000,0.000
483183.483,11.719,14.160,-21.973,122.559,121.582,0.000,0.000,0.000
483183.487,16.113,36.621,35.156,125.488,137.207,0.000,0.000,0.000
483183.491,-62.988,58.594,71.289,-6.348,-87.402,0.000,0.000,0.000
483183.495,-75.195,35.645,22.461,-41.504,-141.113,0.000,0.000,0.000
483183.499,12.695,23.438,-8.789,100.586,55.176,0.000,0.000,0.000
483183.503,13.184,28.809,7.324,122.559,156.250,0.000,0.000,0.000
483183.507,-74.707,43.945,46.875,-7.324,-24.414,0.000,0.000,0.000
483183.511,-74.707,49.316,46.387,-38.574,-137.695,0.000,0.000,0.000
483183.515,13.672,42.480,22.461,96.191,2.441,0.000,0.000,0.000
483183.519,41.992,44.922,23.926,157.227,127.930,0.000,0.000,0.000
483183.522,-64.941,49.316,30.762,16.602,18.555,0.000,0.000,0.000
483183.526,-95.703,48.828,38.086,-57.129,-130.859,0.000,0.000,0.000
483183.530,-27.832,32.715,7.812,32.227,-12.695,0.000,0.000,0.000
483183.534,17.090,17.578,-11.230,135.742,171.875,0.000,0.000,0.000
483183.538,-34.668,29.785,20.996,66.895,140.137,0.000,0.000,0.000
483183.542,-84.961,50.781,52.246,-39.551,-5.859,0.000,0.000,0.000
483183.546,-25.879,37.598,33.203,9.277,-24.902,0.000,0.000,0.000
483183.550,10.254,17.090,-8.789,112.305,163.574,0.000,0.000,0.000
483183.554,-17.578,29.297,7.324,91.797,214.844,0.000,0.000,0.000
483183.558,-42.969,64.453,83.008,18.555,-58.594,0.000,0.000,0.000
483183.562,-0.977,63.477,94.727,41.504,-216.797,0.000,0.000,0.000
483183.565,13.184,23.926,9.277,100.098,61.035,0.000,0.000,0.000
483183.569,-22.949,13.184,-22.949,82.520,270.020,0.000,0.000,0.000
483183.573,-38.086,56.152,62.500,20.996,-25.879,0.000,0.000,0.000
483183.577,-55.664,59.570,55.176,-33.691,-208.008,0.000,0.000,0.000
483183.581,-31.250,30.273,-15.137,36.133,5.859,0.000,0.000,0.000
483183.585,12.207,23.926,-17.578,116.211,194.336,0.000,0.000,0.000
483183.589,-9.766,55.664,55.176,64.453,65.918,0.000,0.000,0.000
483183.593,-43.945,69.824,81.543,-12.207,-159.668,0.000,0.000,0.000
483183.597,-30.273,39.551,10.742,24.414,-75.684,0.000,0.000,0.000
483183.601,9.277,18.555,-21.484,119.629,142.578,0.000,0.000,0.000
483183.604,42.969,46.387,67.383,132.324,82.520,0.000,0.000,0.000
483183.608,-13.184,68.848,102.539,22.949,-104.492,0.000,0.000,0.000
483183.612,-72.754,38.086,2.930,-42.969,-55.176,0.000,0.000,0.000
483183.616,-16.602,18.066,-35.645,80.566,207.031,0.000,0.000,0.000
483183.620,6.348,31.250,18.066,118.164,170.410,0.000,0.000,0.000
483183.624,-55.664,59.082,70.801,6.348,-158.203,0.000,0.000,0.000
483183.628,-69.336,47.852,27.832,-40.039,-224.609,0.000,0.000,0.000
483183.632,-6.348,23.438,-15.625,75.684,40.039,0.000,0.000,0.000
483183.636,21.973,26.855,4.883,133.301,177.734,0.000,0.000,0.000
483183.640,-39.551,55.664,59.570,37.109,3.906,0.000,0.000,0.000
483183.644,-77.148,55.176,41.992,-50.293,-90.332,0.000,0.000,0.000
483183.647,-2.930,30.273,4.883,52.734,13.672,0.000,0.000,0.000
483183.651,62.500,34.668,12.695,163.086,192.383,0.000,0.000,0.000
483183.655,-22.461,50.781,35.645,56.152,59.082,0.000,0.000,0.000
483183.659,-98.633,47.852,40.527,-64.453,-206.055,0.000,0.000,0.000
483183.663,-20.508,36.621,25.391,19.043,-112.793,0.000,0.000,0.000
483183.667,41.016,25.879,10.742,147.461,117.188,0.000,0.000,0.000
483183.671,-22.949,27.344,19.043,75.195,69.824,0.000,0.000,0.000
483183.675,-81.543,53.223,56.641,-29.297,-158.691,0.000,0.000,0.000
483183.679,-41.992,52.246,38.574,2.930,-161.621,0.000,0.000,0.000
483183.683,35.156,30.762,0.488,122.070,50.293,0.000,0.000,0.000
483183.687,13.184,30.273,0.000,117.188,140.625,0.000,0.000,0.000
483183.690,-63.965,56.152,47.852,9.766,-24.902,0.000,0.000,0.000
483183.694,-30.273,59.570,63.965,2.441,-166.016,0.000,0.000,0.000
483183.698,32.715,34.668,21.973,108.887,-6.836,0.000,0.000,0.000
483183.702,22.949,23.926,-0.977,135.254,169.434,0.000,0.000,0.000
483183.706,-50.293,47.852,36.621,27.832,32.227,0.000,0.000,0.000
483183.710,-35.645,62.988,71.289,-8.301,-174.316,0.000,0.000,0.000
483183.714,27.832,47.363,35.156,83.984,-74.219,0.000,0.000,0.000
483183.718,-13.672,18.066,-40.039,98.633,163.086,0.000,0.000,0.000
483183.722,-30.762,36.621,25.391,59.570,92.773,0.000,0.000,0.000
483183.726,-44.434,64.453,68.848,-2.441,-139.160,0.000,0.000,0.000
483183.729,-47.363,37.598,-5.859,5.371,-37.109,0.000,0.000,0.000
483183.733,-12.695,12.695,-43.457,104.004,290.039,0.000,0.000,0.000
483183.737,-13.672,29.297,4.395,91.309,233.887,0.000,0.000,0.000
483183.741,-42.969,67.383,74.219,8.301,-23.438,0.000,0.000,0.000
483183.745,-35.156,54.688,39.062,2.930,-25.879,0.000,0.000,0.000
483183.749,13.184,23.926,-10.742,114.746,180.176,0.000,0.000,0.000
483183.753,20.508,26.855,10.254,138.184,231.445,0.000,0.000,0.000
483183.757,-8.301,64.453,87.402,58.105,25.391,0.000,0.000,0.000
483183.761,-42.480,58.594,58.594,-15.137,-82.031,0.000,0.000,0.000
483183.765,-42.480,15.137,-43.945,29.297,108.887,0.000,0.000,0.000
483183.769,27.832,18.555,-12.695,137.695,282.227,0.000,0.000,0.000
483183.772,-17.090,48.340,54.199,67.871,135.742,0.000,0.000,0.000
483183.776,-95.215,41.992,30.273,-54.688,-51.758,0.000,0.000,0.000
483183.780,-21.484,23.926,5.371,37.109,30.762,0.000,0.000,0.000
483183.784,41.992,26.855,-0.488,156.250,266.113,0.000,0.000,0.000
483183.788,-7.812,44.922,32.715,85.938,147.461,0.000,0.000,0.000
483183.792,-51.758,64.941,72.754,-8.789,-168.945,0.000,0.000,0.000
483183.796,-38.574,41.504,19.043,3.418,-161.621,0.000,0.000,0.000
483183.800,22.949,16.602,-12.695,122.559,82.520,0.000,0.000,0.000
483183.804,37.109,37.598,40.527,133.789,84.961,0.000,0.000,0.000
483183.808,-79.102,56.641,52.246,-27.832,-110.840,0.000,0.000,0.000
483183.812,-76.172,42.969,17.578,-40.527,-171.387,0.000,0.000,0.000
483183.815,-0.977,20.020,-18.066,89.844,62.988,0.000,0.000,0.000
483183.819,0.488,28.809,0.977,116.699,243.164,0.000,0.000,0.000
483183.823,-59.570,57.129,53.711,19.043,33.691,0.000,0.000,0.000
483183.827,-56.152,58.594,51.270,-20.508,-117.676,0.000,0.000,0.000
483183.831,-10.742,38.574,-5.859,66.895,74.707,0.000,0.000,0.000
483183.835,16.113,25.391,-18.066,138.184,204.590,0.000,0.000,0.000
483183.839,1.465,52.734,65.430,92.285,2.441,0.000,0.000,0.000
483183.843,-46.875,63.477,74.707,-4.395,-161.133,0.000,0.000,0.000
483183.847,17.090,49.316,48.340,72.754,-115.723,0.000,0.000,0.000
483183.851,28.809,20.020,-6.348,137.695,93.262,0.000,0.000,0.000
483183.854,-37.109,20.996,-12.695,47.363,99.609,0.000,0.000,0.000
483183.858,-44.922,55.664,64.453,-9.766,-159.668,0.000,0.000,0.000
483183.862,-30.762,37.109,29.297,9.766,-175.293,0.000,0.000,0.000
483183.866,-12.207,5.371,-38.086,93.750,55.664,0.000,0.000,0.000
483183.870,-20.996,13.672,-11.719,92.285,87.402,0.000,0.000,0.000
483183.874,-43.945,57.129,65.430,17.090,-152.344,0.000,0.000,0.000
483183.878,-40.527,59.570,41.504,-7.812,-225.586,0.000,0.000,0.000
483183.882,-9.766,17.578,-27.832,79.102,-1.953,0.000,0.000,0.000
483183.886,30.762,18.066,3.906,143.555,117.188,0.000,0.000,0.000
483183.890,-0.488,61.035,89.844,76.172,-41.016,0.000,0.000,0.000
483183.894,-37.598,59.082,71.289,-3.418,-126.953,0.000,0.000,0.000
483183.897,-26.855,23.438,-20.020,36.621,64.941,0.000,0.000,0.000
483183.901,0.488,13.184,-34.668,117.188,260.742,0.000,0.000,0.000
483183.905,9.277,48.828,58.594,95.215,125.977,0.000,0.000,0.000
483183.909,-43.945,61.523,75.684,-0.977,-104.004,0.000,0.000,0.000
483183.913,-62.500,23.438,-12.695,-8.301,-3.906,0.000,0.000,0.000
483183.917,-7.324,7.812,-33.691,102.539,248.047,0.000,0.000,0.000
483183.921,-13.184,36.133,25.879,89.355,193.848,0.000,0.000,0.000
483183.925,-73.242,58.594,63.477,-23.438,-101.074,0.000,0.000,0.000
483183.929,-58.105,41.504,22.461,-19.531,-126.953,0.000,0.000,0.000
483183.933,21.484,27.832,-5.859,114.258,100.586,0.000,0.000,0.000
483183.936,46.387,36.133,37.598,144.043,87.402,0.000,0.000,0.000
483183.940,-47.363,53.711,58.105,4.883,-131.836,0.000,0.000,0.000
483183.944,-83.984,38.086,5.859,-62.988,-201.172,0.000,0.000,0.000
483183.948,5.371,20.020,-14.648,82.520,1.953,0.000,0.000,0.000
483183.952,39.551,20.996,-1.953,155.762,136.719,0.000,0.000,0.000
483183.956,-28.320,47.852,48.828,50.781,-60.547,0.000,0.000,0.000
483183.960,-85.938,50.293,35.156,-45.898,-227.539,0.000,0.000,0.000
483183.964,-19.043,28.809,4.395,54.688,-110.840,0.000,0.000,0.000
483183.968,28.809,23.438,0.000,150.879,138.672,0.000,0.000,0.000
483183.972,-23.926,48.828,34.180,64.941,59.082,0.000,0.000,0.000
483183.976,-68.848,67.383,61.523,-29.297,-204.102,0.000,0.000,0.000
483183.979,-9.277,53.223,40.039,45.898,-127.930,0.000,0.000,0.000
483183.983,43.457,27.344,1.953,155.273,93.750,0.000,0.000,0.000
483183.987,-33.203,19.531,-10.254,68.848,77.148,0.000,0.000,0.000
483183.991,-81.543,49.316,42.480,-29.785,-126.953,0.000,0.000,0.000
483183.995,-42.480,44.434,35.645,-4.883,-153.320,0.000,0.000,0.000
483183.999,-6.348,12.695,-18.555,95.703,142.578,0.000,0.000,0.000
483184.003,-12.695,14.160,-10.254,98.145,305.176,0.000,0.000,0.000
483184.007,-65.918,44.922,47.852,1.465,101.074,0.000,0.000,0.000
483184.011,-51.270,53.223,52.246,-27.832,-68.359,0.000,0.000,0.000
483184.015,0.488,29.297,-1.465,61.523,109.375,0.000,0.000,0.000
483184.019,3.418,12.695,-26.855,110.352,246.582,0.000,0.000,0.000
483184.022,-41.504,40.039,32.227,37.109,80.078,0.000,0.000,0.000
483184.026,-47.852,57.129,65.918,-11.719,-96.680,0.000,0.000,0.000
483184.030,-0.488,33.691,15.137,51.270,-30.762,0.000,0.000,0.000
483184.034,8.789,7.324,-35.156,109.863,129.395,0.000,0.000,0.000
483184.038,-14.160,26.855,23.926,77.148,65.430,0.000,0.000,0.000
483184.042,-13.184,61.523,101.074,25.391,-218.262,0.000,0.000,0.000
483184.046,-21.484,41.016,26.855,13.184,-216.797,0.000,0.000,0.000
483184.050,-12.695,10.254,-45.410,85.449,100.098,2.000,1.000,0.000
483184.054,15.137,26.855,21.973,107.422,105.957,0.000,0.000,0.000
483184.058,-34.668,58.594,81.543,16.113,-130.371,0.000,0.000,0.000
483184.061,-49.805,42.480,29.297,-22.949,-182.129,0.000,0.000,0.000
483184.065,-3.906,13.184,-20.996,85.449,26.855,0.000,0.000,0.000
483184.069,11.719,20.020,11.719,132.812,171.387,0.000,0.000,0.000
483184.073,-13.184,65.918,92.285,63.477,-34.668,0.000,0.000,0.000
483184.077,-32.227,66.406,82.031,12.695,-206.543,0.000,0.000,0.000
483184.081,-22.461,21.484,-0.977,59.570,6.836,0.000,0.000,0.000
483184.085,27.344,23.926,7.812,151.367,254.883,0.000,0.000,0.000
483184.089,0.977,57.129,79.102,94.238,84.961,0.000,0.000,0.000
483184.093,-96.680,52.246,43.457,-51.270,-128.418,0.000,0.000,0.000
483184.097,-55.664,23.438,-5.371,14.648,-20.020,0.000,0.000,0.000
483184.101,13.672,12.207,-8.301,134.277,181.641,0.000,0.000,0.000
483184.104,-27.344,32.227,24.902,72.266,84.961,0.000,0.000,0.000
483184.108,-82.520,49.805,56.641,-40.039,-161.621,0.000,0.000,0.000
483184.112,-45.410,35.156,27.832,-17.090,-160.645,0.000,0.000,0.000
483184.116,24.902,19.043,-3.906,115.723,63.477,0.000,0.000,0.000
483184.120,34.180,39.062,37.598,131.348,95.703,0.000,0.000,0.000
483184.124,-64.941,55.176,65.430,0.488,-91.797,0.000,0.000,0.000
483184.128,-84.473,33.691,23.926,-41.992,-139.160,0.000,0.000,0.000
483184.132,50.293,38.086,37.109,134.277,9.766,0.000,0.000,0.000
483184.136,39.551,39.551,23.438,155.273,125.977,0.000,0.000,0.000
483184.140,-82.031,43.945,26.367,-0.977,-52.734,0.000,0.000,0.000
483184.144,-59.082,59.570,62.500,-12.207,-229.004,0.000,0.000,0.000
483184.147,2.441,44.434,16.602,82.031,-71.777,0.000,0.000,0.000
483184.151,0.488,20.996,-29.785,115.723,137.695,0.000,0.000,0.000
483184.155,-41.992,41.992,27.832,54.688,35.156,0.000,0.000,0.000
483184.159,-60.547,62.012,68.848,-10.742,-136.719,0.000,0.000,0.000
483184.163,-15.625,37.598,17.090,36.621,-65.918,0.000,0.000,0.000
483184.167,26.855,20.996,-15.137,133.789,161.621,0.000,0.000,0.000
483184.171,-12.695,37.109,18.066,84.473,218.750,0.000,0.000,0.000
483184.175,-28.809,65.918,81.543,18.066,8.789,0.000,0.000,0.000
483184.179,7.324,62.012,60.547,38.574,-57.129,0.000,0.000,0.000
483184.183,-20.020,12.207,-41.992,75.195,187.988,0.000,0.000,0.000
483184.186,-10.742,20.020,-12.207,91.797,279.785,0.000,0.000,0.000
483184.190,-40.039,61.523,62.988,14.160,42.969,0.000,0.000,0.000
483184.194,-63.965,37.598,24.414,-32.715,-43.457,0.000,0.000,0.000
483184.198,-8.301,11.230,-21.484,62.500,112.305,0.000,0.000,0.000
483184.202,21.484,19.043,-5.859,121.094,189.453,0.000,0.000,0.000
483184.206,-23.438,52.246,63.965,44.922,-15.625,0.000,0.000,0.000
483184.210,-61.035,53.223,67.383,-30.762,-170.410,0.000,0.000,0.000
483184.214,-3.906,30.762,23.438,65.430,-16.602,0.000,0.000,0.000
483184.218,30.273,18.066,-1.953,147.461,152.344,0.000,0.000,0.000
483184.222,14.160,48.828,70.801,108.398,104.492,0.000,0.000,0.000
483184.226,-48.340,62.500,83.984,-10.742,-57.129,0.000,0.000,0.000
483184.229,-67.383,24.902,-14.160,-29.785,-13.184,0.000,0.000,0.000
483184.233,13.184,16.602,-18.555,122.559,213.379,0.000,0.000,0.000
483184.237,10.742,37.598,33.691,113.281,205.566,0.000,0.000,0.000
483184.241,-72.754,54.199,55.664,-22.461,-36.621,0.000,0.000,0.000
483184.245,-53.223,43.457,33.691,-22.949,-90.332,0.000,0.000,0.000
483184.249,23.438,27.344,11.719,115.234,122.559,0.000,0.000,0.000
483184.253,12.207,27.344,16.113,126.953,185.059,0.000,0.000,0.000
483184.257,-60.059,55.664,58.594,7.324,-36.621,0.000,0.000,0.000
483184.261,-60.059,60.547,59.082,-25.879,-168.945,0.000,0.000,0.000
483184.265,21.973,37.109,29.785,94.238,-4.883,0.000,0.000,0.000
483184.269,48.340,34.668,22.461,147.949,138.672,0.000,0.000,0.000
483184.272,-63.477,43.945,19.043,10.254,-32.715,0.000,0.000,0.000
483184.276,-78.613,55.176,35.156,-44.922,-188.477,0.000,0.000,0.000
483184.280,-6.348,42.969,9.766,50.293,-21.484,0.000,0.000,0.000
483184.284,15.137,20.020,-27.832,115.234,228.516,0.000,0.000,0.000
483184.288,-12.695,41.504,14.648,57.129,165.039,0.000,0.000,0.000
483184.292,-56.152,61.523,55.664,-20.996,-56.152,0.000,0.000,0.000
483184.296,-29.785,41.992,19.043,12.207,-35.156,0.000,0.000,0.000
483184.300,30.273,29.297,-8.301,132.812,182.129,0.000,0.000,0.000
483184.304,11.719,38.086,20.996,116.211,198.242,0.000,0.000,0.000
483184.308,-36.621,62.012,81.055,20.508,-52.246,0.000,0.000,0.000
483184.311,14.648,69.336,87.402,50.293,-155.762,0.000,0.000,0.000
483184.315,33.691,37.598,2.441,123.047,-3.906,0.000,0.000,0.000
483184.319,-19.531,22.461,-31.250,101.562,75.195,0.000,0.000,0.000
483184.323,-50.781,53.223,47.852,21.973,-105.469,0.000,0.000,0.000
483184.327,-44.922,53.711,55.664,-14.160,-277.832,0.000,0.000,0.000
483184.331,-18.555,23.926,-12.695,61.035,-103.027,0.000,0.000,0.000
483184.335,-0.488,16.113,-25.391,115.234,126.953,0.000,0.000,0.000
483184.339,-16.602,54.688,54.688,72.754,-27.832,0.000,0.000,0.000
483184.343,-45.410,70.312,78.613,-1.953,-250.488,0.000,0.000,0.000
483184.347,-22.461,39.551,11.719,33.691,-138.184,0.000,0.000,0.000
483184.351,19.043,16.113,-21.484,129.883,92.773,0.000,0.000,0.000
483184.354,25.879,42.480,57.617,127.930,83.984,0.000,0.000,0.000
483184.358,-24.902,71.289,104.492,33.203,-101.562,0.000,0.000,0.000
483184.362,-60.547,39.062,14.160,-13.672,-38.086,0.000,0.000,0.000
483184.366,-6.348,8.301,-30.762,101.562,235.840,0.000,0.000,0.000
483184.370,7.324,28.809,18.555,116.699,239.258,0.000,0.000,0.000
483184.374,-55.176,61.523,70.312,6.348,-62.500,0.000,0.000,0.000
483184.378,-75.195,43.945,26.855,-31.738,-182.129,0.000,0.000,0.000
483184.382,-3.906,21.973,-6.348,87.891,18.555,0.000,0.000,0.000
483184.386,24.902,33.203,20.996,146.484,108.398,0.000,0.000,0.000
483184.390,-50.293,56.641,62.500,38.086,-57.617,0.000,0.000,0.000
483184.393,-80.078,44.922,40.527,-39.062,-186.035,0.000,0.000,0.000
483184.397,-15.137,17.090,-0.488,55.664,-26.367,0.000,0.000,0.000
483184.401,39.551,21.973,15.625,154.297,170.410,0.000,0.000,0.000
483184.405,-28.809,50.781,47.852,62.500,35.645,0.000,0.000,0.000
483184.409,-88.867,54.688,49.316,-47.363,-130.371,0.000,0.000,0.000
483184.413,-26.855,38.574,17.578,24.902,-14.648,0.000,0.000,0.000
483184.417,55.176,38.574,16.602,165.527,205.566,0.000,0.000,0.000
483184.421,3.906,53.711,39.551,97.168,212.891,0.000,0.000,0.000
483184.425,-67.871,65.918,60.547,-21.973,-54.688,0.000,0.000,0.000
483184.429,-31.738,45.898,38.574,7.324,-161.133,0.000,0.000,0.000
483184.433,13.672,16.113,-4.395,115.723,86.914,0.000,0.000,0.000
483184.436,-13.672,19.531,0.488,106.934,197.754,0.000,0.000,0.000
483184.440,-74.219,49.805,56.152,-5.371,0.488,0.000,0.000,0.000
483184.444,-48.340,51.758,59.570,-19.043,-141.602,0.000,0.000,0.000
483184.448,23.926,31.738,29.785,106.445,-47.363,0.000,0.000,0.000
483184.452,38.086,27.344,29.785,151.367,79.590,0.000,0.000,0.000
483184.456,-51.270,48.828,49.805,25.391,-68.359,0.000,0.000,0.000
483184.460,-41.992,71.777,81.055,-11.230,-248.047,0.000,0.000,0.000
483184.464,22.949,48.340,44.922,84.473,-139.160,0.000,0.000,0.000
483184.468,-17.578,3.418,-32.715,92.773,125.000,0.000,0.000,0.000
483184.472,-44.922,24.902,28.320,41.016,52.246,0.000,0.000,0.000
483184.476,-69.824,57.129,64.941,-33.203,-199.707,0.000,0.000,0.000
483184.479,-24.902,41.016,23.926,12.207,-136.719,0.000,0.000,0.000
483184.483,21.973,15.625,-9.766,117.188,131.348,0.000,0.000,0.000
483184.487,0.000,32.715,25.391,89.355,93.750,0.000,0.000,0.000
483184.491,-46.387,67.383,80.566,2.930,-148.438,0.000,0.000,0.000
483184.495,-43.945,53.223,38.086,-6.348,-119.629,0.000,0.000,0.000
483184.499,9.277,30.762,-7.324,100.586,110.840,0.000,0.000,0.000
483184.503,17.578,41.016,19.043,126.953,127.930,0.000,0.000,0.000
483184.507,-26.367,76.660,92.285,45.410,-49.805,0.000,0.000,0.000
483184.511,-62.988,59.082,51.270,-22.461,-167.480,0.000,0.000,0.000
483184.515,-41.504,12.207,-34.180,36.621,0.977,0.000,0.000,0.000
483184.518,20.508,20.020,-6.348,123.047,175.293,0.000,0.000,0.000
483184.522,-27.832,52.246,52.246,48.340,-0.488,0.000,0.000,0.000
483184.526,-83.984,49.805,44.922,-45.410,-208.496,0.000,0.000,0.000
483184.530,-34.668,26.855,-2.441,21.484,-106.934,0.000,0.000,0.000
483184.534,20.508,21.484,-5.859,132.812,137.695,0.000,0.000,0.000
483184.538,0.000,54.688,55.176,96.191,86.426,0.000,0.000,0.000
483184.542,-47.852,69.336,79.102,5.371,-149.902,0.000,0.000,0.000
483184.546,-43.457,32.227,20.508,13.672,-139.160,0.000,0.000,0.000
483184.550,0.488,7.812,-21.973,110.352,132.812,0.000,0.000,0.000
483184.554,-3.906,26.855,9.277,98.145,129.883,0.000,0.000,0.000
483184.558,-74.219,53.711,46.387,-19.043,-127.441,0.000,0.000,0.000
483184.561,-72.754,38.086,10.742,-33.203,-144.531,0.000,0.000,0.000
483184.565,44.434,27.344,13.184,127.930,55.664,0.000,0.000,0.000
483184.569,59.570,38.574,35.645,156.738,130.859,0.000,0.000,0.000
483184.573,-78.613,44.434,31.250,-13.184,-32.715,0.000,0.000,0.000
483184.577,-65.918,49.316,47.363,-32.715,-191.406,0.000,0.000,0.000
483184.581,-3.418,32.715,4.883,76.660,-40.039,0.000,0.000,0.000
483184.585,-5.859,11.719,-24.414,114.746,183.594,0.000,0.000,0.000
483184.589,-36.133,37.598,49.316,54.688,32.715,0.000,0.000,0.000
483184.593,-67.383,57.617,62.988,-24.902,-161.133,0.000,0.000,0.000
483184.597,0.000,41.504,30.273,53.711,-41.992,0.000,0.000,0.000
483184.601,25.879,15.625,-4.883,137.207,134.766,0.000,0.000,0.000
483184.604,-62.500,16.602,-10.254,38.086,67.871,0.000,0.000,0.000
483184.608,-72.266,52.246,54.199,-25.391,-170.898,0.000,0.000,0.000
483184.612,-31.250,41.992,29.785,8.301,-161.621,0.000,0.000,0.000
483184.616,-2.441,13.672,-24.902,95.215,85.449,0.000,0.000,0.000
483184.620,-21.973,24.902,-2.441,83.008,121.094,0.000,0.000,0.000
483184.624,-57.617,54.688,64.941,0.977,-114.746,0.000,0.000,0.000
483184.628,-34.668,54.688,51.270,-13.184,-176.758,0.000,0.000,0.000
483184.632,-0.977,23.926,-10.254,74.707,87.402,0.000,0.000,0.000
483184.636,16.602,17.578,-0.488,120.117,211.914,0.000,0.000,0.000
483184.640,-12.695,52.246,77.637,54.199,-17.578,0.000,0.000,0.000
483184.643,-32.715,55.664,80.566,10.742,-190.918,0.000,0.000,0.000
483184.647,-41.992,13.184,-31.738,31.738,15.625,0.000,0.000,0.000
483184.651,-9.277,7.324,-41.504,95.215,249.512,0.000,0.000,0.000
483184.655,-14.160,48.340,48.340,62.500,63.477,0.000,0.000,0.000
483184.659,-67.871,51.270,47.852,-36.133,-171.875,0.000,0.000,0.000
483184.663,-55.664,11.230,-19.531,-5.859,-70.312,0.000,0.000,0.000
483184.667,2.441,3.906,-33.691,108.398,155.762,0.000,0.000,0.000
483184.671,-5.371,36.133,25.391,85.938,128.418,0.000,0.000,0.000
483184.675,-62.988,52.734,64.941,-16.602,-89.844,0.000,0.000,0.000
483184.679,-48.828,35.645,21.484,-7.812,-95.215,0.000,0.000,0.000
483184.683,25.391,21.484,2.930,126.953,107.422,0.000,0.000,0.000
483184.686,58.105,41.992,64.453,166.016,133.789,0.000,0.000,0.000
483184.690,-32.715,67.383,87.891,24.902,-112.305,0.000,0.000,0.000
483184.694,-92.285,40.527,10.742,-61.523,-175.293,0.000,0.000,0.000
483184.698,-16.602,17.578,-22.461,71.777,40.527,0.000,0.000,0.000
483184.702,20.020,21.973,8.301,139.160,195.801,0.000,0.000,0.000
483184.706,-52.734,52.246,53.223,28.809,48.340,0.000,0.000,0.000
483184.710,-85.938,57.129,37.598,-44.434,-83.496,0.000,0.000,0.000
483184.714,-13.672,35.156,-0.488,58.105,61.523,0.000,0.000,0.000
483184.718,43.945,33.203,0.488,161.133,182.129,0.000,0.000,0.000
483184.722,-18.555,52.246,37.109,76.172,51.758,0.000,0.000,0.000
483184.726,-62.988,60.059,64.941,-20.996,-164.551,0.000,0.000,0.000
483184.729,15.137,44.922,54.199,61.035,-132.324,0.000,0.000,0.000
483184.733,61.035,29.785,20.020,162.109,125.488,0.000,0.000,0.000
483184.737,-34.180,33.691,-0.488,67.383,142.578,0.000,0.000,0.000
483184.741,-92.773,56.152,44.434,-34.180,-101.074,0.000,0.000,0.000
483184.745,-46.875,49.805,36.133,-11.230,-152.344,0.000,0.000,0.000
483184.749,-3.418,24.902,-19.531,88.379,66.895,0.000,0.000,0.000
483184.753,-5.371,29.297,-6.348,96.191,156.738,0.000,0.000,0.000
483184.757,-52.246,62.012,59.570,8.789,-56.641,0.000,0.000,0.000
483184.761,-55.176,56.641,50.293,-15.137,-177.734,0.000,0.000,0.000
483184.765,-8.301,20.996,-3.906,71.289,-14.160,0.000,0.000,0.000
483184.768,8.301,18.555,-1.465,111.328,166.504,0.000,0.000,0.000
483184.772,-33.691,57.617,59.570,38.574,41.992,0.000,0.000,0.000
483184.776,-39.062,66.895,83.984,-0.977,-146.973,0.000,0.000,0.000
483184.780,-10.742,33.691,15.137,47.363,-49.805,0.000,0.000,0.000
483184.784,-10.254,11.230,-42.480,96.680,146.973,0.000,0.000,0.000
483184.788,-27.832,41.504,24.902,65.430,69.824,0.000,0.000,0.000
483184.792,-37.598,74.219,87.891,-0.488,-164.062,0.000,0.000,0.000
483184.796,-32.227,42.969,20.508,3.906,-93.262,0.000,0.000,0.000
483184.800,-11.719,11.719,-36.621,85.938,173.828,0.000,0.000,0.000
483184.804,7.324,37.598,27.344,103.027,121.094,0.000,0.000,0.000
483184.808,-45.410,69.336,82.031,7.324,-128.418,0.000,0.000,0.000
483184.811,-62.500,46.387,26.367,-33.203,-157.715,0.000,0.000,0.000
483184.815,2.441,21.484,-18.066,84.961,52.734,0.000,0.000,0.000
483184.819,31.250,32.715,20.508,132.812,155.762,0.000,0.000,0.000
483184.823,-9.766,64.941,90.820,50.781,-67.871,0.000,0.000,0.000
483184.827,-46.875,55.176,52.734,-19.043,-218.750,0.000,0.000,0.000
483184.831,-14.160,22.949,-13.672,57.617,-34.668,0.000,0.000,0.000
483184.835,50.781,27.832,16.113,163.574,161.621,0.000,0.000,0.000
483184.839,-0.977,57.129,71.777,81.055,34.668,0.000,0.000,0.000
483184.843,-93.262,55.176,39.551,-55.176,-116.211,0.000,0.000,0.000
483184.847,-53.223,25.879,-4.883,12.207,-4.395,0.000,0.000,0.000
483184.850,1.953,2.441,-13.672,123.535,197.266,0.000,0.000,0.000
483184.854,-31.250,28.809,27.344,63.965,114.258,0.000,0.000,0.000
483184.858,-82.031,55.664,60.547,-41.992,-151.855,0.000,0.000,0.000
483184.862,-47.852,32.227,18.555,-13.184,-123.047,0.000,0.000,0.000
483184.866,8.789,13.672,-11.230,109.375,134.277,0.000,0.000,0.000
483184.870,14.648,30.762,33.691,125.977,157.227,0.000,0.000,0.000
483184.874,-44.434,62.988,81.055,22.949,-57.617,0.000,0.000,0.000
483184.878,-64.941,47.852,36.133,-23.438,-124.512,0.000,0.000,0.000
483184.882,28.809,22.949,16.113,117.188,58.105,0.000,0.000,0.000
483184.886,16.113,15.625,8.301,127.441,185.547,0.000,0.000,0.000
483184.890,-76.660,41.504,41.016,0.977,11.719,0.000,0.000,0.000
483184.893,-52.246,59.082,70.312,-12.207,-167.480,0.000,0.000,0.000
483184.897,-11.719,28.320,4.883,62.012,1.953,0.000,0.000,0.000
483184.901,4.883,13.672,-19.043,116.699,158.691,0.000,0.000,0.000
483184.905,-37.109,43.457,41.504,45.898,29.297,0.000,0.000,0.000
483184.909,-63.477,65.430,67.871,-24.414,-64.941,0.000,0.000,0.000
483184.913,-8.301,47.852,24.414,39.062,45.410,0.000,0.000,0.000
483184.917,25.391,25.391,-11.230,124.023,214.844,0.000,0.000,0.000
483184.921,-12.207,38.574,21.973,79.102,92.285,0.000,0.000,0.000
483184.925,-58.594,57.617,59.082,-19.531,-172.363,0.000,0.000,0.000
483184.929,-39.551,43.457,21.484,-13.184,-172.852,0.000,0.000,0.000
483184.933,-7.812,21.973,-36.621,81.055,100.098,0.000,0.000,0.000
483184.936,-15.137,27.344,-13.184,75.684,158.691,0.000,0.000,0.000
483184.940,-22.949,70.801,90.820,23.438,-85.449,0.000,0.000,0.000
483184.944,-24.902,70.801,67.871,-0.488,-162.109,0.000,0.000,0.000
483184.948,-20.508,27.832,-24.902,59.570,122.559,0.000,0.000,0.000
483184.952,10.254,22.949,-6.348,124.512,254.395,0.000,0.000,0.000
483184.956,-55.664,47.852,41.992,23.438,20.508,0.000,0.000,0.000
483184.960,-74.707,49.316,51.758,-35.156,-141.602,0.000,0.000,0.000
483184.964,-2.930,30.273,15.625,70.312,24.414,0.000,0.000,0.000
483184.968,21.973,20.508,-11.230,151.367,295.898,0.000,0.000,0.000
483184.972,15.137,52.734,70.312,112.305,121.582,0.000,0.000,0.000
483184.975,-39.062,70.801,82.520,-4.395,-183.105,0.000,0.000,0.000
483184.979,-51.758,35.645,-12.695,-9.766,-90.820,0.000,0.000,0.000
483184.983,33.203,22.949,-18.066,128.906,146.484,0.000,0.000,0.000
483184.987,20.996,51.270,36.621,104.004,107.422,0.000,0.000,0.000
483184.991,-63.477,74.707,59.082,-25.879,-69.336,0.000,0.000,0.000
483184.995,-54.688,51.270,17.090,-25.391,-35.156,0.000,0.000,0.000
483184.999,19.043,26.367,-11.230,111.816,187.988,0.000,0.000,0.000
483185.003,16.602,30.762,3.906,121.094,251.953,0.000,0.000,0.000
483185.007,-41.016,64.453,61.523,11.719,-19.043,0.000,0.000,0.000
483185.011,-30.273,66.895,60.059,-6.836,-220.703,0.000,0.000,0.000
483185.015,29.785,39.062,16.602,109.863,-59.570,0.000,0.000,0.000
483185.018,59.570,39.062,28.320,171.875,50.781,0.000,0.000,0.000
483185.022,-55.664,49.805,32.227,19.043,-104.980,0.000,0.000,0.000
483185.026,-97.168,48.340,26.367,-65.918,-210.938,0.000,0.000,0.000
483185.030,-11.719,33.691,8.789,46.387,-54.199,0.000,0.000,0.000
483185.034,29.785,24.902,-0.488,139.160,134.766,0.000,0.000,0.000
483185.038,-33.203,41.016,26.855,64.941,101.074,0.000,0.000,0.000
483185.042,-81.055,49.805,50.781,-31.738,-62.500,0.000,0.000,0.000
483185.046,-23.926,34.668,33.691,21.484,-64.453,0.000,0.000,0.000
483185.050,7.812,14.648,-9.766,123.047,171.875,0.000,0.000,0.000
483185.054,-12.207,25.879,19.043,104.980,181.152,0.000,0.000,0.000
483185.058,-49.316,51.270,80.078,15.137,-106.445,0.000,0.000,0.000
483185.061,-7.812,48.340,76.660,21.973,-187.012,0.000,0.000,0.000
483185.065,24.902,23.438,13.184,115.723,63.477,0.000,0.000,0.000
483185.069,-27.344,6.836,-20.508,89.355,189.453,0.000,0.000,0.000
483185.073,-54.688,43.457,56.641,16.602,-45.898,0.000,0.000,0.000
483185.077,-49.316,52.734,60.059,-0.977,-222.656,0.000,0.000,0.000
483185.081,-30.273,14.160,-21.973,59.082,-20.020,0.000,0.000,0.000
483185.085,-4.883,11.230,-31.250,118.164,180.664,0.000,0.000,0.000
483185.089,-23.926,51.270,52.734,76.660,13.672,0.000,0.000,0.000
483185.093,-44.922,63.965,72.754,11.230,-184.082,0.000,0.000,0.000
483185.097,-26.367,37.109,0.488,46.875,-63.965,0.000,0.000,0.000
483185.100,9.277,16.602,-26.855,124.023,165.527,0.000,0.000,0.000
483185.104,21.973,48.340,53.223,117.188,85.449,0.000,0.000,0.000
483185.108,-16.113,82.031,99.609,28.809,-168.945,0.000,0.000,0.000
483185.112,-52.246,41.016,11.719,-15.625,-156.250,0.000,0.000,0.000
483185.116,-13.184,10.742,-40.039,89.844,110.352,0.000,0.000,0.000
483185.120,7.812,37.109,12.207,109.375,156.250,0.000,0.000,0.000
483185.124,-38.574,68.359,75.684,15.137,-98.145,0.000,0.000,0.000
483185.128,-54.199,51.270,31.738,-13.672,-138.184,0.000,0.000,0.000
483185.132,-2.930,20.508,-20.508,89.844,86.426,0.000,0.000,0.000
483185.136,22.461,25.879,9.277,138.672,161.621,0.000,0.000,0.000
483185.140,-44.434,57.617,60.547,35.156,-56.152,0.000,0.000,0.000
483185.143,-63.477,55.176,46.875,-30.273,-171.387,0.000,0.000,0.000
483185.147,-7.324,25.391,2.930,70.312,65.430,0.000,0.000,0.000
483185.151,39.062,19.531,19.043,167.969,276.855,0.000,0.000,0.000
483185.155,-22.461,43.457,65.918,79.590,144.043,0.000,0.000,0.000
483185.159,-85.449,44.922,58.594,-28.320,-69.336,0.000,0.000,0.000
483185.163,-36.133,20.020,13.184,34.668,-62.988,0.000,0.000,0.000
483185.167,57.617,23.926,28.809,182.129,135.254,0.000,0.000,0.000
483185.171,10.254,44.922,58.105,121.094,160.156,0.000,0.000,0.000
483185.175,-89.844,48.340,53.223,-25.391,-102.051,0.000,0.000,0.000
483185.179,-35.156,41.992,42.480,14.160,-148.438,0.000,0.000,0.000
483185.182,44.922,30.273,26.855,148.926,105.957,0.000,0.000,0.000
483185.186,8.301,26.367,17.578,122.559,159.668,0.000,0.000,0.000
483185.190,-69.336,55.176,45.898,-3.418,-60.059,0.000,0.000,0.000
483185.194,-31.250,59.570,57.129,8.301,-189.453,0.000,0.000,0.000
483185.198,40.527,35.645,25.391,138.184,-22.949,0.000,0.000,0.000
483185.202,16.113,23.438,-4.395,136.719,151.855,0.000,0.000,0.000
483185.206,-57.129,45.898,35.645,15.137,-63.965,0.000,0.000,0.000
483185.210,-26.367,67.383,78.125,8.789,-254.883,0.000,0.000,0.000
483185.214,23.438,47.363,34.180,97.168,-15.625,0.000,0.000,0.000
483185.218,-18.066,19.043,-31.738,102.051,219.238,0.000,0.000,0.000
483185.222,-48.828,41.016,21.973,43.457,48.340,0.000,0.000,0.000
483185.225,-57.617,67.871,65.430,-14.648,-195.312,0.000,0.000,0.000
483185.229,-34.180,43.945,13.184,18.555,-107.910,0.000,0.000,0.000
483185.233,-4.883,15.625,-31.738,114.258,173.340,0.000,0.000,0.000
483185.237,-17.090,35.156,17.090,94.727,168.457,0.000,0.000,0.000
483185.241,-43.945,67.383,88.379,14.160,-94.727,0.000,0.000,0.000
483185.245,-16.113,58.105,52.246,28.809,-88.867,0.000,0.000,0.000
483185.249,32.227,31.250,-4.395,135.254,162.598,0.000,0.000,0.000
483185.253,33.691,35.645,19.531,143.555,215.820,0.000,0.000,0.000
483185.257,1.953,70.801,94.238,57.129,34.180,0.000,0.000,0.000
483185.261,-33.691,52.246,60.547,-7.324,-69.336,0.000,0.000,0.000
483185.265,-37.109,5.371,-37.109,49.805,92.285,0.000,0.000,0.000
483185.268,21.973,14.648,-9.277,148.438,197.754,0.000,0.000,0.000
483185.272,-4.883,47.852,70.801,83.008,-20.508,0.000,0.000,0.000
483185.276,-66.895,39.062,46.387,-26.855,-173.828,0.000,0.000,0.000
483185.280,-11.719,13.672,-2.930,51.270,-54.688,0.000,0.000,0.000
483185.284,54.199,15.625,1.953,164.551,135.742,0.000,0.000,0.000
483185.288,10.742,42.969,48.340,98.633,62.500,0.000,0.000,0.000
483185.292,-34.180,56.152,76.172,9.766,-206.543,0.000,0.000,0.000
483185.296,-19.043,36.621,18.555,28.320,-117.676,0.000,0.000,0.000
483185.300,53.711,30.273,12.207,152.832,139.160,0.000,0.000,0.000
483185.304,55.176,46.875,61.035,152.344,37.109,0.000,0.000,0.000
483185.307,-64.453,49.316,41.992,-18.555,-170.410,0.000,0.000,0.000
483185.311,-58.594,36.621,1.953,-33.691,-121.094,0.000,0.000,0.000
483185.315,24.902,22.949,-17.090,105.957,116.211,0.000,0.000,0.000
483185.319,30.273,26.855,10.254,130.371,190.430,0.000,0.000,0.000
483185.323,-46.875,55.664,51.270,18.066,-5.859,0.000,0.000,0.000
483185.327,-39.551,58.594,50.781,-11.719,-156.738,0.000,0.000,0.000
483185.331,25.879,35.645,12.695,91.797,44.922,0.000,0.000,0.000
483185.335,32.715,31.738,-0.977,138.184,321.289,0.000,0.000,0.000
483185.339,-12.695,57.617,58.594,62.012,130.371,0.000,0.000,0.000
483185.343,-47.363,58.594,76.660,-7.812,-164.551,0.000,0.000,0.000
483185.347,11.230,41.992,41.504,77.637,-55.664,0.000,0.000,0.000
483185.350,20.020,20.020,-9.277,139.160,244.629,0.000,0.000,0.000
483185.354,-53.711,23.438,4.395,35.645,226.562,0.000,0.000,0.000
483185.358,-56.152,57.617,74.707,-21.973,-40.527,0.000,0.000,0.000
483185.362,-36.621,43.945,30.273,6.348,-33.691,0.000,0.000,0.000
483185.366,-7.324,14.160,-30.762,91.309,190.918,0.000,0.000,0.000
483185.370,-13.184,24.414,4.395,93.262,166.016,0.000,0.000,0.000
483185.374,-44.434,62.500,79.590,10.742,-113.281,0.000,0.000,0.000
483185.378,-29.297,54.688,55.664,-7.324,-209.961,0.000,0.000,0.000
483185.382,13.672,24.902,-12.695,95.703,36.621,0.000,0.000,0.000
483185.386,43.945,29.297,10.254,142.090,136.230,0.000,0.000,0.000
483185.390,8.301,61.035,87.402,70.312,-88.867,0.000,0.000,0.000
483185.393,-10.254,62.012,77.637,7.324,-230.957,0.000,0.000,0.000
483185.397,-13.184,24.414,-21.484,30.762,-62.012,0.000,0.000,0.000
483185.401,6.348,16.602,-36.621,105.957,130.371,0.000,0.000,0.000
483185.405,-24.414,44.434,42.969,51.270,11.230,0.000,0.000,0.000
483185.409,-67.871,55.664,62.012,-40.039,-118.652,0.000,0.000,0.000
483185.413,-30.762,31.738,5.859,1.465,-66.406,0.000,0.000,0.000
483185.417,20.020,20.020,-9.277,113.281,78.613,0.000,0.000,0.000
483185.421,-13.672,48.828,40.039,79.590,49.316,0.000,0.000,0.000
483185.425,-84.473,63.477,62.988,-47.363,-161.133,0.000,0.000,0.000
483185.429,-72.754,32.715,5.371,-41.504,-151.367,0.000,0.000,0.000
483185.432,13.672,25.879,-11.719,101.074,121.094,0.000,0.000,0.000
483185.436,43.457,56.152,51.758,137.207,150.879,0.000,0.000,0.000
483185.440,-53.223,62.500,68.848,2.441,-131.348,0.000,0.000,0.000
483185.444,-94.727,35.645,12.695,-70.312,-192.383,0.000,0.000,0.000
483185.448,-17.090,20.996,-8.301,67.383,43.945,0.000,0.000,0.000
483185.452,3.418,21.484,2.441,122.070,184.570,0.000,0.000,0.000
483185.456,-75.684,42.480,42.969,1.953,-4.883,0.000,0.000,0.000
483185.460,-98.145,44.434,30.762,-56.641,-152.832,0.000,0.000,0.000
483185.464,-9.277,26.367,1.953,59.082,6.348,0.000,0.000,0.000
483185.468,31.250,20.996,6.348,149.902,156.250,0.000,0.000,0.000
483185.472,-42.969,34.180,30.762,49.316,25.879,0.000,0.000,0.000
483185.475,-72.754,49.316,57.617,-35.156,-194.336,0.000,0.000,0.000
483185.479,-1.953,43.457,47.852,55.664,-148.926,0.000,0.000,0.000
483185.483,48.828,32.715,25.879,158.203,87.891,0.000,0.000,0.000
483185.487,-34.668,26.855,3.906,51.270,87.402,0.000,0.000,0.000
483185.491,-104.492,37.109,29.297,-71.289,-95.703,0.000,0.000,0.000
483185.495,-53.223,38.086,30.762,-28.320,-27.832,0.000,0.000,0.000
483185.499,3.906,21.484,-10.254,96.191,180.664,0.000,0.000,0.000
483185.503,-14.160,21.973,-5.371,84.473,166.504,0.000,0.000,0.000
483185.507,-70.312,49.805,50.293,-19.043,-73.730,0.000,0.000,0.000
483185.511,-70.801,45.898,36.621,-55.664,-142.578,0.000,0.000,0.000
483185.515,-11.719,24.414,-8.301,44.434,77.637,0.000,0.000,0.000
483185.518,-1.465,23.438,-12.695,97.656,203.613,0.000,0.000,0.000
483185.522,-50.781,54.199,48.828,11.230,20.996,0.000,0.000,0.000
483185.526,-42.480,71.289,76.172,-22.461,-164.551,0.000,0.000,0.000
483185.530,-3.418,48.828,6.836,42.480,-26.855,0.000,0.000,0.000
483185.534,20.996,29.785,-17.578,110.840,169.434,0.000,0.000,0.000
483185.538,-24.414,48.340,27.832,58.105,67.871,0.000,0.000,0.000
483185.542,-28.320,77.148,84.961,7.812,-137.695,0.000,0.000,0.000
483185.546,-3.906,58.105,34.668,35.156,-29.297,0.000,0.000,0.000
483185.550,-20.996,6.836,-55.176,76.660,253.906,0.000,0.000,0.000
483185.554,-13.184,20.996,6.836,75.195,215.332,0.000,0.000,0.000
483185.557,-55.176,54.688,69.336,-3.418,-94.238,0.000,0.000,0.000
483185.561,-65.430,38.574,19.531,-25.879,-129.883,0.000,0.000,0.000
483185.565,-12.207,17.578,-21.973,77.637,177.246,0.000,0.000,0.000
483185.569,16.113,24.902,19.043,121.094,254.883,0.000,0.000,0.000
483185.573,-32.715,52.734,82.031,35.156,3.418,0.000,0.000,0.000
483185.577,-76.660,45.410,47.363,-30.273,-91.797,4.000,1.000,0.000
483185.581,-45.410,18.555,-14.160,53.711,102.539,0.000,0.000,0.000
483185.585,18.555,23.926,8.789,147.949,231.445,0.000,0.000,0.000
483185.589,-15.137,53.223,70.312,65.918,41.992,0.000,0.000,0.000
483185.593,-81.055,53.711,48.828,-51.758,-234.375,0.000,0.000,0.000
483185.597,-41.016,25.391,-9.766,10.254,-182.617,0.000,0.000,0.000
483185.600,11.230,14.160,-22.949,108.398,50.293,0.000,0.000,0.000
483185.604,-23.438,41.504,27.832,59.570,-29.297,0.000,0.000,0.000
483185.608,-85.938,58.594,48.828,-50.781,-223.145,0.000,0.000,0.000
483185.612,-39.551,44.922,20.020,-9.766,-194.824,0.000,0.000,0.000
483185.616,20.020,25.879,-11.230,108.398,31.250,0.000,0.000,0.000
483185.620,3.906,33.691,17.578,91.309,35.645,0.000,0.000,0.000
483185.624,-47.363,63.477,78.125,2.441,-214.355,0.000,0.000,0.000
483185.628,-45.898,53.223,47.852,-15.137,-268.066,0.000,0.000,0.000
483185.632,27.344,29.785,13.184,114.258,-20.508,0.000,0.000,0.000
483185.636,18.555,24.902,10.254,126.465,69.824,0.000,0.000,0.000
483185.639,-98.145,33.691,22.461,-26.367,-100.586,0.000,0.000,0.000
483185.643,-82.031,39.551,40.527,-40.527,-147.461,0.000,0.000,0.000
483185.647,9.277,27.344,20.508,85.449,68.359,0.000,0.000,0.000
483185.651,32.227,21.973,0.000,137.207,198.730,0.000,0.000,0.000
483185.655,-42.480,41.016,30.762,31.738,3.418,0.000,0.000,0.000
483185.659,-62.988,61.035,64.453,-24.902,-186.523,0.000,0.000,0.000
483185.663,-22.461,38.086,15.625,37.109,-88.379,0.000,0.000,0.000
483185.667,12.695,15.137,-12.207,121.582,129.883,0.000,0.000,0.000
483185.671,-26.855,37.109,30.273,68.359,74.219,0.000,0.000,0.000
483185.675,-66.895,62.988,74.219,-18.066,-162.598,0.000,0.000,0.000
483185.679,-14.648,51.758,58.105,31.738,-166.016,0.000,0.000,0.000
483185.682,-19.531,16.113,-28.809,90.820,104.980,0.000,0.000,0.000
483185.686,-22.461,26.855,-6.348,74.219,153.320,0.000,0.000,0.000
483185.690,-59.082,53.711,58.105,-12.695,-88.379,0.000,0.000,0.000
483185.694,-73.730,37.109,23.438,-41.504,-148.438,0.000,0.000,0.000
483185.698,-18.555,12.207,-22.949,59.082,80.078,0.000,0.000,0.000
483185.702,14.160,21.484,-0.488,115.234,218.262,0.000,0.000,0.000
483185.706,-37.109,53.711,62.012,22.461,69.336,0.000,0.000,0.000
483185.710,-56.641,56.152,54.688,-31.738,-43.457,0.000,0.000,0.000
483185.714,11.230,38.574,21.973,76.660,54.199,0.000,0.000,0.000
483185.718,38.574,28.320,4.883,145.020,142.578,0.000,0.000,0.000
483185.722,12.207,59.082,65.918,95.703,-42.480,0.000,0.000,0.000
483185.725,-46.875,69.336,76.172,-18.066,-228.027,0.000,0.000,0.000
483185.729,-56.641,30.273,-21.973,-22.949,-69.824,0.000,0.000,0.000
483185.733,15.625,20.508,-28.809,114.258,177.734,0.000,0.000,0.000
483185.737,8.301,49.316,34.668,96.680,154.785,0.000,0.000,0.000
483185.741,-79.590,64.941,52.246,-34.180,-40.527,0.000,0.000,0.000
483185.745,-65.918,38.574,8.789,-37.109,-105.957,0.000,0.000,0.000
483185.749,24.414,25.879,-1.953,105.957,45.410,0.000,0.000,0.000
483185.753,23.926,40.039,26.855,122.559,103.027,0.000,0.000,0.000
483185.757,-51.270,65.430,62.500,3.906,-126.953,0.000,0.000,0.000
483185.761,-44.434,56.641,41.504,-21.973,-219.238,0.000,0.000,0.000
483185.764,33.691,33.203,10.742,97.168,-16.602,0.000,0.000,0.000
483185.768,55.176,32.227,21.484,150.879,112.793,0.000,0.000,0.000
483185.772,-62.988,41.992,20.996,8.301,-39.551,0.000,0.000,0.000
483185.776,-89.844,45.898,27.832,-46.387,-194.824,0.000,0.000,0.000
483185.780,-11.230,32.227,9.766,53.223,-87.891,0.000,0.000,0.000
483185.784,16.113,26.855,-10.254,117.188,159.180,0.000,0.000,0.000
483185.788,-38.086,48.828,24.414,52.246,54.199,0.000,0.000,0.000
483185.792,-79.590,58.105,52.734,-32.227,-212.891,0.000,0.000,0.000
483185.796,-41.504,30.762,17.090,7.324,-148.926,0.000,0.000,0.000
483185.800,0.488,5.371,-25.391,104.980,152.344,0.000,0.000,0.000
483185.804,-20.508,16.113,5.371,71.289,195.312,0.000,0.000,0.000
483185.807,-49.805,50.781,73.242,-5.859,-57.617,0.000,0.000,0.000
483185.811,5.371,55.664,76.172,30.762,-134.766,0.000,0.000,0.000
483185.815,19.043,19.043,0.488,103.516,42.480,0.000,0.000,0.000
483185.819,-39.062,3.906,-25.879,68.359,142.090,0.000,0.000,0.000
483185.823,-62.500,45.898,60.059,2.441,-101.562,0.000,0.000,0.000
483185.827,-55.664,48.340,49.805,-32.715,-224.121,0.000,0.000,0.000
483185.831,-34.668,7.324,-35.645,26.367,12.207,0.000,0.000,0.000
483185.835,-16.602,-3.906,-41.016,85.938,190.430,0.000,0.000,0.000
483185.839,-27.344,40.527,42.969,42.480,9.277,0.000,0.000,0.000
483185.843,-53.711,59.082,56.641,-25.391,-163.574,0.000,0.000,0.000
483185.847,-44.922,26.367,-20.508,17.090,-9.766,0.000,0.000,0.000
483185.850,4.883,17.090,-25.879,124.512,235.840,0.000,0.000,0.000
483185.854,21.973,56.152,67.383,119.141,151.855,0.000,0.000,0.000
483185.858,-15.137,80.078,104.980,25.879,-126.953,0.000,0.000,0.000
483185.862,-51.270,40.039,9.277,-20.020,-113.281,0.000,0.000,0.000
483185.866,-6.836,11.719,-35.156,92.285,147.949,0.000,0.000,0.000
483185.870,4.395,34.668,15.625,111.328,167.969,0.000,0.000,0.000
483185.874,-53.223,65.430,65.918,-10.254,-94.727,0.000,0.000,0.000
483185.878,-53.223,51.758,27.344,-40.527,-132.812,0.000,0.000,0.000
483185.882,8.789,25.391,-20.508,83.008,121.582,0.000,0.000,0.000
483185.886,29.785,34.668,15.625,132.812,197.754,0.000,0.000,0.000
483185.889,-51.758,51.270,52.734,14.160,5.371,0.000,0.000,0.000
483185.893,-70.312,47.852,32.227,-41.016,-114.258,0.000,0.000,0.000
483185.897,-8.789,28.809,-7.812,60.547,-3.906,0.000,0.000,0.000
483185.901,39.062,25.391,0.000,142.578,145.508,0.000,0.000,0.000
483185.905,-20.508,52.734,50.781,60.547,60.059,0.000,0.000,0.000
483185.909,-87.891,53.711,44.922,-50.781,-96.191,0.000,0.000,0.000
483185.913,-29.297,32.227,2.441,19.043,-30.762,0.000,0.000,0.000
483185.917,56.641,26.367,18.555,163.086,173.340,0.000,0.000,0.000
483185.921,-3.906,39.062,41.504,81.543,73.730,0.000,0.000,0.000
483185.925,-99.609,52.734,33.691,-56.152,-192.383,0.000,0.000,0.000
483185.929,-36.133,40.527,28.809,7.812,-200.684,0.000,0.000,0.000
483185.932,28.320,20.020,5.859,127.441,11.230,0.000,0.000,0.000
483185.936,-24.902,14.648,-1.465,79.590,64.941,0.000,0.000,0.000
483185.940,-79.102,41.016,46.875,-19.531,-114.258,0.000,0.000,0.000
483185.944,-33.691,51.758,59.082,3.906,-209.961,0.000,0.000,0.000
483185.948,11.230,26.367,11.230,99.121,-15.625,0.000,0.000,0.000
483185.952,-2.930,13.672,-3.906,111.328,151.855,0.000,0.000,0.000
483185.956,-84.473,31.250,23.926,-8.301,-28.320,0.000,0.000,0.000
483185.960,-64.941,41.016,48.828,-36.621,-192.383,0.000,0.000,0.000
483185.964,11.719,29.297,25.879,83.008,-31.250,0.000,0.000,0.000
483185.968,-0.977,10.254,-22.949,104.492,135.254,0.000,0.000,0.000
483185.972,-49.805,25.391,12.695,12.207,26.855,0.000,0.000,0.000
483185.975,-81.055,39.551,38.086,-53.711,-90.820,0.000,0.000,0.000
483185.979,-38.574,20.996,-5.859,-2.441,11.230,0.000,0.000,0.000
483185.983,5.371,6.836,-35.156,93.750,205.078,0.000,0.000,0.000
483185.987,-15.625,29.297,19.531,68.848,66.895,0.000,0.000,0.000
483185.991,-63.477,51.758,72.266,-20.508,-160.156,0.000,0.000,0.000
483185.995,-48.828,37.109,29.297,-11.230,-77.637,0.000,0.000,0.000
483185.999,3.906,12.695,-11.719,99.121,167.969,0.000,0.000,0.000
483186.003,11.719,25.391,24.902,114.258,225.098,0.000,0.000,0.000
483186.007,-61.035,51.270,58.594,-1.953,16.113,0.000,0.000,0.000
483186.011,-75.684,40.527,28.320,-46.875,-149.414,0.000,0.000,0.000
483186.014,-19.531,19.531,-18.555,55.176,0.977,0.000,0.000,0.000
483186.018,16.602,19.043,-0.488,121.094,157.227,0.000,0.000,0.000
483186.022,-0.977,51.270,88.379,68.848,-86.426,0.000,0.000,0.000
483186.026,-63.965,47.363,49.805,-38.574,-266.113,0.000,0.000,0.000
483186.030,-45.410,15.137,-29.297,9.766,-70.312,0.000,0.000,0.000
483186.034,25.391,18.555,-7.324,129.883,149.414,0.000,0.000,0.000
483186.038,-20.508,38.574,40.039,60.547,107.422,0.000,0.000,0.000
483186.042,-77.637,45.410,49.316,-37.598,-69.824,0.000,0.000,0.000
483186.046,-50.293,30.762,0.977,0.488,-11.230,0.000,0.000,0.000
483186.050,16.602,21.973,-20.996,118.164,229.492,0.000,0.000,0.000
483186.054,9.766,35.156,26.367,104.004,133.301,0.000,0.000,0.000
483186.057,-69.824,50.781,56.152,-24.414,-157.715,0.000,0.000,0.000
483186.061,-68.848,30.273,9.766,-38.574,-181.152,0.000,0.000,0.000
483186.065,12.207,11.230,-9.277,104.980,62.012,0.000,0.000,0.000
483186.069,16.113,24.414,18.555,121.582,206.055,0.000,0.000,0.000
483186.073,-96.191,40.527,28.320,-35.645,43.457,0.000,0.000,0.000
483186.077,-65.918,46.875,40.039,-41.504,-80.566,0.000,0.000,0.000
483186.081,11.719,27.344,1.953,75.195,57.617,0.000,0.000,0.000
483186.085,8.301,9.277,-18.066,112.793,167.969,0.000,0.000,0.000
483186.089,-43.945,36.133,42.969,40.039,-1.953,0.000,0.000,0.000
483186.093,-65.430,49.316,55.664,-28.809,-186.523,0.000,0.000,0.000
483186.096,-20.020,27.832,9.277,30.273,-97.656,0.000,0.000,0.000
483186.100,3.418,11.719,-20.996,107.422,133.789,0.000,0.000,0.000
483186.104,-37.109,30.762,14.648,48.828,119.141,0.000,0.000,0.000
483186.108,-61.035,53.223,58.594,-24.902,-146.484,0.000,0.000,0.000
483186.112,11.230,51.758,59.570,45.410,-187.988,0.000,0.000,0.000
483186.116,27.344,22.949,8.301,120.605,67.871,0.000,0.000,0.000
483186.120,-35.645,16.602,-6.348,58.594,96.191,0.000,0.000,0.000
483186.124,-66.406,48.828,58.105,-14.160,-144.043,0.000,0.000,0.000
483186.128,-53.711,34.180,33.691,-24.414,-183.105,0.000,0.000,0.000
483186.132,-13.672,4.395,-27.832,62.988,82.031,0.000,0.000,0.000
483186.136,20.996,13.672,5.859,114.746,153.809,0.000,0.000,0.000
483186.139,-9.277,55.176,84.473,44.922,-106.445,0.000,0.000,0.000
483186.143,-13.184,63.477,80.566,-0.977,-291.016,0.000,0.000,0.000
483186.147,-12.695,26.855,-16.602,42.969,-117.676,0.000,0.000,0.000
483186.151,-0.977,13.672,-40.039,100.586,161.621,0.000,0.000,0.000
483186.155,-15.625,50.781,41.504,48.340,33.691,0.000,0.000,0.000
483186.159,-56.641,61.523,47.363,-35.645,-132.812,0.000,0.000,0.000
483186.163,-39.551,20.020,-24.902,0.977,44.434,0.000,0.000,0.000
483186.167,12.695,7.324,-32.715,104.980,253.906,0.000,0.000,0.000
483186.171,-7.324,37.598,24.902,76.660,184.082,0.000,0.000,0.000
483186.175,-58.105,62.988,58.105,-16.602,-79.102,0.000,0.000,0.000
483186.179,-40.527,44.434,19.531,-7.324,-79.102,0.000,0.000,0.000
483186.182,18.066,21.484,-12.207,104.492,210.449,0.000,0.000,0.000
483186.186,51.758,45.410,49.805,137.695,201.660,0.000,0.000,0.000
483186.190,-44.922,66.406,73.730,2.441,-85.938,0.000,0.000,0.000
483186.194,-96.680,41.504,4.395,-66.406,-169.434,0.000,0.000,0.000
483186.198,-16.113,14.160,-17.090,63.477,22.949,0.000,0.000,0.000
483186.202,2.441,18.066,3.906,114.258,104.492,0.000,0.000,0.000
483186.206,-68.359,47.852,43.457,4.395,-116.699,0.000,0.000,0.000
483186.210,-92.773,37.598,35.645,-59.082,-248.535,0.000,0.000,0.000
483186.214,-13.672,20.020,5.859,55.176,-73.730,0.000,0.000,0.000
483186.218,26.855,20.508,4.395,141.113,113.770,0.000,0.000,0.000
483186.221,-59.082,31.250,25.391,38.574,17.090,0.000,0.000,0.000
483186.225,-91.309,40.527,43.945,-40.039,-177.734,0.000,0.000,0.000
483186.229,-7.812,36.133,33.691,57.129,-84.473,0.000,0.000,0.000
483186.233,48.828,24.414,20.996,169.922,131.348,0.000,0.000,0.000
483186.237,-14.160,29.785,33.203,91.309,73.242,0.000,0.000,0.000
483186.241,-94.238,41.992,46.387,-32.227,-111.328,0.000,0.000,0.000
483186.245,-14.160,39.062,55.664,33.203,-112.305,0.000,0.000,0.000
483186.249,52.734,25.391,28.320,150.391,89.355,0.000,0.000,0.000
483186.253,-22.461,11.719,-8.789,82.031,183.594,0.000,0.000,0.000
483186.257,-79.590,34.668,43.457,-19.531,-30.762,0.000,0.000,0.000
483186.261,-63.965,41.016,36.621,-34.668,-145.020,0.000,0.000,0.000
483186.264,-7.812,22.949,-13.184,65.918,-16.602,0.000,0.000,0.000
483186.268,-8.789,7.812,-26.367,98.145,81.543,0.000,0.000,0.000
483186.272,-51.758,31.250,36.621,13.184,-74.707,0.000,0.000,0.000
483186.276,-39.551,56.641,71.289,-18.066,-226.562,0.000,0.000,0.000
483186.280,-3.418,31.250,12.695,59.570,-61.035,0.000,0.000,0.000
483186.284,11.719,6.836,-27.832,109.375,106.445,0.000,0.000,0.000
483186.288,-14.648,36.133,27.344,42.969,-32.715,0.000,0.000,0.000
483186.292,-25.879,65.430,79.590,-12.207,-210.938,0.000,0.000,0.000
483186.296,-20.508,34.668,13.184,6.836,-102.051,0.000,0.000,0.000
483186.300,8.301,11.719,-35.156,100.586,135.254,0.000,0.000,0.000
483186.304,22.949,40.527,26.367,106.934,87.891,0.000,0.000,0.000
483186.307,-33.203,61.035,71.777,3.906,-167.480,0.000,0.000,0.000
483186.311,-35.645,42.480,28.809,-12.207,-172.852,0.000,0.000,0.000
483186.315,25.391,26.367,-7.324,112.793,77.148,0.000,0.000,0.000
483186.319,48.828,42.969,30.762,148.926,165.039,0.000,0.000,0.000
483186.323,6.348,75.195,96.191,56.641,-49.316,0.000,0.000,0.000
483186.327,-23.926,62.988,64.453,-9.277,-179.199,0.000,0.000,0.000
483186.331,-9.277,24.902,-18.555,46.875,11.230,0.000,0.000,0.000
483186.335,49.316,28.809,3.418,144.043,169.922,0.000,0.000,0.000
483186.339,7.812,64.453,68.848,69.336,27.344,0.000,0.000,0.000
483186.343,-82.031,59.082,32.715,-62.988,-148.926,0.000,0.000,0.000
483186.346,-27.344,37.598,-4.395,21.484,-18.555,0.000,0.000,0.000
483186.350,38.086,33.203,-2.441,135.742,259.277,0.000,0.000,0.000
483186.354,-7.324,50.293,29.785,75.684,154.297,0.000,0.000,0.000
483186.358,-64.453,59.570,47.852,-24.414,-168.457,0.000,0.000,0.000
483186.362,-23.438,44.922,14.160,20.020,-167.480,0.000,0.000,0.000
483186.366,30.762,26.855,-11.230,137.207,85.449,0.000,0.000,0.000
483186.370,26.367,43.945,33.203,124.023,119.629,0.000,0.000,0.000
483186.374,-36.133,72.266,72.266,8.301,-77.637,0.000,0.000,0.000
483186.378,-39.062,52.246,25.879,-20.020,-142.090,0.000,0.000,0.000
483186.382,55.664,40.039,14.160,122.559,30.762,0.000,0.000,0.000
483186.386,33.691,39.062,9.766,121.582,168.945,0.000,0.000,0.000
483186.389,-70.801,48.828,22.461,-23.926,8.789,0.000,0.000,0.000
483186.393,-39.062,62.012,54.688,-20.508,-135.254,0.000,0.000,0.000
483186.397,6.348,34.668,3.906,72.754,61.035,0.000,0.000,0.000
483186.401,6.348,17.578,-19.531,109.375,243.164,0.000,0.000,0.000
483186.405,-47.363,39.551,31.738,28.809,34.668,0.000,0.000,0.000
483186.409,-52.734,53.223,65.918,-22.461,-223.145,0.000,0.000,0.000
483186.413,1.953,37.598,32.227,54.688,-124.023,0.000,0.000,0.000
483186.417,31.250,21.973,6.348,142.578,110.840,0.000,0.000,0.000
483186.421,-7.812,46.875,42.969,89.844,48.340,0.000,0.000,0.000
483186.425,-52.734,68.848,76.660,-5.859,-189.453,0.000,0.000,0.000
483186.428,-11.230,50.781,51.758,20.996,-180.664,0.000,0.000,0.000
483186.432,-13.672,14.648,-28.809,76.660,109.863,0.000,0.000,0.000
483186.436,-19.043,28.809,0.488,78.613,179.688,0.000,0.000,0.000
483186.440,-50.781,66.406,73.730,5.371,-56.641,0.000,0.000,0.000
483186.444,-50.781,55.664,41.992,-22.461,-163.086,0.000,0.000,0.000
483186.448,2.930,31.250,-11.719,83.008,4.395,0.000,0.000,0.000
483186.452,24.902,34.180,12.695,141.602,97.656,0.000,0.000,0.000
483186.456,-29.297,62.500,68.848,37.109,-56.152,0.000,0.000,0.000
483186.460,-46.875,71.289,55.176,-28.320,-180.176,0.000,0.000,0.000
483186.464,6.348,44.922,11.719,69.336,-27.832,0.000,0.000,0.000
483186.468,35.156,26.855,-3.906,137.207,186.035,0.000,0.000,0.000
483186.471,19.531,62.012,71.289,96.680,1.465,0.000,0.000,0.000
483186.475,-46.387,67.871,76.660,-13.672,-200.684,0.000,0.000,0.000
483186.479,-56.152,30.273,-14.160,-10.742,-46.875,0.000,0.000,0.000
483186.483,24.902,23.926,-13.184,122.070,143.066,0.000,0.000,0.000
483186.487,10.254,43.457,41.016,92.285,136.230,0.000,0.000,0.000
483186.491,-71.777,57.617,48.340,-31.738,-48.340,0.000,0.000,0.000
483186.495,-56.641,40.039,7.324,-25.391,-107.422,0.000,0.000,0.000
483186.499,13.184,17.090,-12.695,104.980,119.141,0.000,0.000,0.000
483186.503,0.977,23.438,0.000,99.609,213.379,0.000,0.000,0.000
483186.507,-73.242,47.363,39.551,-19.531,-1.465,0.000,0.000,0.000
483186.511,-53.223,36.133,38.574,-22.461,-119.141,0.000,0.000,0.000
483186.514,22.461,13.184,6.836,102.539,63.965,0.000,0.000,0.000
483186.518,51.758,22.461,19.043,154.297,176.758,0.000,0.000,0.000
483186.522,-39.551,47.363,48.340,20.020,-1.465,0.000,0.000,0.000
483186.526,-64.941,48.340,49.316,-38.574,-134.766,0.000,0.000,0.000
483186.530,-12.207,12.695,1.465,54.688,12.695,0.000,0.000,0.000
483186.534,13.672,-6.836,-21.484,127.930,182.617,0.000,0.000,0.000
483186.538,-28.809,22.949,22.461,68.359,85.938,0.000,0.000,0.000
483186.542,-55.664,42.969,62.012,-17.090,-126.953,0.000,0.000,0.000
483186.546,-15.137,22.949,24.414,24.414,-102.051,0.000,0.000,0.000
483186.550,21.973,8.789,-11.719,131.836,126.953,0.000,0.000,0.000
483186.553,3.906,27.344,27.344,104.004,122.559,0.000,0.000,0.000
483186.557,-30.762,59.570,83.984,20.996,-96.680,0.000,0.000,0.000
483186.561,24.902,64.453,89.844,61.035,-111.328,0.000,0.000,0.000
483186.565,42.969,36.621,20.996,133.789,151.855,0.000,0.000,0.000
483186.569,-13.672,22.461,-9.277,96.191,265.625,0.000,0.000,0.000
483186.573,-46.387,50.781,67.871,24.902,46.875,0.000,0.000,0.000
483186.577,-41.992,51.758,62.988,-1.465,-66.895,0.000,0.000,0.000
483186.581,-3.418,18.066,-2.441,73.730,124.023,0.000,0.000,0.000
483186.585,33.203,18.066,10.254,142.090,260.254,0.000,0.000,0.000
483186.589,-8.301,54.199,79.102,78.125,81.543,0.000,0.000,0.000
483186.593,-48.340,62.012,76.172,-1.465,-83.984,0.000,0.000,0.000
483186.596,-25.391,31.738,1.465,46.875,18.066,0.000,0.000,0.000
483186.600,23.926,21.484,-8.301,135.254,204.590,0.000,0.000,0.000
483186.604,17.090,54.199,67.871,109.863,136.230,0.000,0.000,0.000
483186.608,-25.391,75.195,88.867,18.066,-98.145,0.000,0.000,0.000
483186.612,-31.250,49.316,13.184,-0.977,-23.438,0.000,0.000,0.000
483186.616,-3.418,15.625,-28.809,93.750,178.711,0.000,0.000,0.000
483186.620,20.996,40.527,32.227,108.887,96.191,0.000,0.000,0.000
483186.624,-20.020,76.172,83.496,8.301,-153.809,0.000,0.000,0.000
483186.628,-61.035,50.781,15.625,-39.551,-204.102,0.000,0.000,0.000
483186.632,3.418,30.762,-23.438,76.172,37.109,0.000,0.000,0.000
483186.636,15.137,36.621,-3.906,107.422,127.441,0.000,0.000,0.000
483186.639,-49.805,58.105,42.480,2.930,-83.984,0.000,0.000,0.000
483186.643,-47.363,54.688,43.945,-29.785,-148.926,0.000,0.000,0.000
483186.647,-4.395,28.809,-7.324,58.105,38.574,0.000,0.000,0.000
483186.651,27.832,23.926,-5.371,131.348,156.250,0.000,0.000,0.000
483186.655,-25.391,47.363,47.363,58.594,14.160,0.000,0.000,0.000
483186.659,-92.285,46.387,42.480,-52.246,-148.438,0.000,0.000,0.000
483186.663,-40.039,20.996,5.859,19.043,-39.062,0.000,0.000,0.000
483186.667,42.480,18.555,15.137,161.621,144.043,0.000,0.000,0.000
483186.671,-14.160,39.551,40.527,82.520,74.219,0.000,0.000,0.000
483186.675,-83.008,56.641,45.898,-36.133,-151.367,0.000,0.000,0.000
483186.678,-39.062,32.715,12.207,7.812,-168.457,0.000,0.000,0.000
483186.682,10.742,7.324,-18.066,111.816,99.609,0.000,0.000,0.000
483186.686,-10.742,23.926,3.418,89.844,156.738,0.000,0.000,0.000
483186.690,-62.012,56.152,59.082,-6.836,-88.379,0.000,0.000,0.000
483186.694,-38.574,48.828,53.711,-7.812,-177.734,0.000,0.000,0.000
483186.698,18.066,21.973,3.418,100.586,22.461,0.000,0.000,0.000
483186.702,14.160,20.996,-0.488,121.582,162.598,0.000,0.000,0.000
483186.706,-66.895,47.363,36.133,4.395,-14.160,0.000,0.000,0.000
483186.710,-50.293,61.523,61.035,-21.484,-197.266,0.000,0.000,0.000
483186.714,21.484,44.434,26.367,82.031,-36.133,0.000,0.000,0.000
483186.718,-10.254,20.020,-39.062,85.938,162.598,0.000,0.000,0.000
483186.721,-54.688,40.039,14.648,13.672,-0.977,0.000,0.000,0.000
483186.725,-67.871,54.199,47.363,-43.945,-192.871,0.000,0.000,0.000
483186.729,-24.414,36.621,0.000,10.254,-86.426,0.000,0.000,0.000
483186.733,3.906,19.043,-33.203,101.074,139.648,0.000,0.000,0.000
483186.737,-21.484,33.203,14.160,63.477,79.102,0.000,0.000,0.000
483186.741,-61.035,64.941,61.035,-22.461,-178.711,0.000,0.000,0.000
483186.745,-30.762,61.035,29.785,0.977,-160.645,0.000,0.000,0.000
483186.749,20.996,36.133,-8.789,103.516,96.191,0.000,0.000,0.000
483186.753,2.930,41.016,5.859,91.797,154.785,0.000,0.000,0.000
483186.757,-14.648,85.938,94.727,25.879,-103.027,0.000,0.000,0.000
483186.761,-28.320,80.078,58.105,-11.230,-165.039,0.000,0.000,0.000
483186.764,-27.832,34.180,-41.992,47.852,67.871,0.000,0.000,0.000
483186.768,17.578,39.551,-4.395,113.281,186.035,0.000,0.000,0.000
483186.772,-28.320,72.754,61.523,28.809,38.574,0.000,0.000,0.000
483186.776,-70.312,64.453,41.504,-56.152,-97.168,0.000,0.000,0.000
483186.780,-16.602,32.227,-10.254,23.438,32.227,0.000,0.000,0.000
483186.784,39.062,32.227,-1.465,135.254,187.988,0.000,0.000,0.000
483186.788,-4.395,64.453,51.758,74.707,69.824,0.000,0.000,0.000
483186.792,-54.199,78.613,65.430,-16.602,-130.859,0.000,0.000,0.000
483186.796,-22.949,53.223,19.531,17.090,-74.219,0.000,0.000,0.000
483186.800,32.227,36.621,-0.488,121.582,163.086,0.000,0.000,0.000
483186.803,22.461,54.199,50.781,106.934,109.375,0.000,0.000,0.000
483186.807,-77.637,65.918,47.852,-42.969,-132.812,0.000,0.000,0.000
483186.811,-68.848,52.734,7.324,-36.621,-116.699,0.000,0.000,0.000
483186.815,0.488,32.227,-16.602,97.168,115.234,0.000,0.000,0.000
483186.819,-0.488,30.273,3.906,104.492,162.109,0.000,0.000,0.000
