timestamps,TP9,AF7,AF8,TP10,Right AUX,Frequency,Contrast,Orientation
489290.725,-53.223,41.016,24.902,7.812,11.230,0.000,0.000,0.000
489290.729,18.555,31.738,20.020,14.160,15.137,0.000,0.000,0.000
489290.733,87.402,23.438,20.508,30.762,19.043,0.000,0.000,0.000
489290.737,34.668,33.203,26.855,24.414,13.184,0.000,0.000,0.000
489290.741,-61.035,26.855,27.832,1.953,11.230,0.000,0.000,0.000
489290.745,-15.625,20.020,25.879,10.254,13.672,0.000,0.000,0.000
489290.749,78.613,27.832,26.855,32.715,5.859,0.000,0.000,0.000
489290.753,57.129,30.762,25.391,28.320,8.301,0.000,0.000,0.000
489290.757,-41.992,30.273,24.414,5.859,5.859,0.000,0.000,0.000
489290.761,-29.297,33.691,25.391,7.812,15.625,0.000,0.000,0.000
489290.765,70.312,31.738,26.855,31.738,29.297,0.000,0.000,0.000
489290.768,84.961,26.855,26.367,32.715,20.020,0.000,0.000,0.000
489290.772,-11.230,27.832,26.855,14.160,10.254,0.000,0.000,0.000
489290.776,-50.781,24.414,27.832,9.277,3.418,0.000,0.000,0.000
489290.780,43.457,21.484,21.973,24.414,3.906,0.000,0.000,0.000
489290.784,92.285,24.414,20.508,28.320,3.418,0.000,0.000,0.000
489290.788,10.742,25.879,24.902,8.789,8.301,0.000,0.000,0.000
489290.792,-46.387,31.738,26.367,2.441,29.297,0.000,0.000,0.000
489290.796,34.180,37.598,29.297,29.297,32.715,0.000,0.000,0.000
489290.800,110.840,41.504,28.809,47.852,20.996,0.000,0.000,0.000
489290.804,62.012,37.109,25.879,32.227,26.367,0.000,0.000,0.000
489290.808,-24.902,34.668,27.832,11.719,36.621,0.000,0.000,0.000
489290.811,13.184,34.668,27.344,22.461,40.527,0.000,0.000,0.000
489290.815,100.586,29.785,24.414,42.480,32.715,0.000,0.000,0.000
489290.819,83.008,28.320,20.996,30.273,23.926,0.000,0.000,0.000
489290.823,-17.578,29.297,24.902,9.766,29.785,0.000,0.000,0.000
489290.827,-15.625,31.738,33.203,21.973,36.133,0.000,0.000,0.000
489290.831,83.984,31.738,30.762,46.875,30.273,0.000,0.000,0.000
489290.835,108.398,23.926,24.902,49.805,27.344,0.000,0.000,0.000
489290.839,21.484,33.203,25.879,24.902,29.297,0.000,0.000,0.000
489290.843,-21.973,34.668,21.973,7.324,20.996,0.000,0.000,0.000
489290.847,65.430,22.949,20.020,27.832,20.508,0.000,0.000,0.000
489290.850,122.559,28.320,23.438,36.621,22.949,0.000,0.000,0.000
489290.854,54.688,27.344,23.926,14.160,17.578,0.000,0.000,0.000
489290.858,-15.625,26.367,24.902,3.906,20.996,0.000,0.000,0.000
489290.862,44.922,29.297,26.367,20.020,15.137,0.000,0.000,0.000
489290.866,122.070,22.461,26.855,33.691,11.719,0.000,0.000,0.000
489290.870,65.918,21.973,30.762,22.461,20.508,0.000,0.000,0.000
489290.874,-41.504,31.738,30.762,0.488,33.203,0.000,0.000,0.000
489290.878,1.465,31.738,25.879,2.930,35.156,0.000,0.000,0.000
489290.882,94.238,28.809,28.320,32.227,34.668,0.000,0.000,0.000
489290.886,75.195,27.344,31.250,32.227,33.691,0.000,0.000,0.000
489290.890,-18.066,25.879,29.297,4.883,30.762,0.000,0.000,0.000
489290.893,-11.230,24.902,27.832,9.766,42.969,0.000,0.000,0.000
489290.897,89.844,33.203,31.738,35.645,46.875,0.000,0.000,0.000
489290.901,113.281,40.039,37.109,40.039,46.387,0.000,0.000,0.000
489290.905,24.902,35.156,36.133,20.020,38.086,0.000,0.000,0.000
489290.909,-34.668,32.715,29.785,6.348,29.785,0.000,0.000,0.000
489290.913,41.504,34.668,30.762,27.344,36.133,0.000,0.000,0.000
489290.917,110.352,28.320,32.227,44.434,38.574,0.000,0.000,0.000
489290.921,48.340,23.926,32.227,29.785,35.645,0.000,0.000,0.000
489290.925,-38.574,28.320,34.668,15.137,43.457,0.000,0.000,0.000
489290.929,10.742,28.320,33.691,24.902,39.062,0.000,0.000,0.000
489290.932,102.539,28.809,35.645,47.363,33.203,0.000,0.000,0.000
489290.936,76.660,34.180,33.691,41.504,33.691,0.000,0.000,0.000
489290.940,-35.156,27.832,25.879,10.254,32.715,0.000,0.000,0.000
489290.944,-24.902,18.066,22.461,11.719,38.086,0.000,0.000,0.000
489290.948,77.637,21.973,22.949,36.621,38.574,0.000,0.000,0.000
489290.952,87.891,29.785,25.879,28.320,21.973,0.000,0.000,0.000
489290.956,-10.742,37.598,28.320,2.441,18.066,0.000,0.000,0.000
489290.960,-48.340,34.180,22.949,-7.324,17.090,0.000,0.000,0.000
489290.964,53.223,33.203,25.879,14.648,20.020,0.000,0.000,0.000
489290.968,110.352,37.109,25.391,33.691,33.203,0.000,0.000,0.000
489290.972,22.949,29.785,22.461,17.090,25.391,0.000,0.000,0.000
489290.975,-48.340,26.855,25.879,6.836,29.785,0.000,0.000,0.000
489290.979,18.555,25.879,22.949,25.391,30.273,0.000,0.000,0.000
489290.983,91.797,20.508,24.414,38.086,4.395,0.000,0.000,0.000
489290.987,40.039,25.391,27.832,27.832,7.812,0.000,0.000,0.000
489290.991,-46.875,26.855,28.809,6.348,20.996,0.000,0.000,0.000
489290.995,0.000,29.785,33.203,7.324,21.973,0.000,0.000,0.000
489290.999,89.355,33.691,32.715,32.227,15.625,0.000,0.000,0.000
489291.003,70.312,30.762,22.949,30.273,7.324,0.000,0.000,0.000
489291.007,-36.621,29.297,22.949,8.301,10.254,0.000,0.000,0.000
489291.011,-35.156,23.926,24.414,7.812,12.695,0.000,0.000,0.000
489291.015,73.730,20.996,22.949,33.203,20.020,0.000,0.000,0.000
489291.018,96.680,24.902,26.855,38.574,22.461,0.000,0.000,0.000
489291.022,-7.324,27.344,29.785,14.160,14.160,0.000,0.000,0.000
489291.026,-50.781,26.367,25.391,6.348,15.625,0.000,0.000,0.000
489291.030,46.387,28.320,21.484,30.273,21.973,0.000,0.000,0.000
489291.034,107.910,37.109,29.297,48.340,34.668,0.000,0.000,0.000
489291.038,25.879,42.480,30.762,32.227,38.086,0.000,0.000,0.000
489291.042,-54.199,33.203,25.879,9.277,28.320,0.000,0.000,0.000
489291.046,16.113,26.367,28.320,23.438,34.668,0.000,0.000,0.000
489291.050,104.980,28.809,30.273,49.805,29.297,0.000,0.000,0.000
489291.054,62.012,30.762,32.227,40.039,14.648,0.000,0.000,0.000
489291.057,-37.598,27.832,31.250,15.137,11.230,0.000,0.000,0.000
489291.061,-3.418,25.879,30.762,25.879,21.484,0.000,0.000,0.000
489291.065,92.285,26.367,32.715,53.223,25.879,0.000,0.000,0.000
489291.069,91.309,31.738,38.574,51.758,26.367,0.000,0.000,0.000
489291.073,-13.672,35.645,39.062,23.926,28.320,0.000,0.000,0.000
489291.077,-30.273,25.391,28.809,15.625,25.391,0.000,0.000,0.000
489291.081,71.289,23.438,29.297,42.480,30.273,0.000,0.000,0.000
489291.085,99.609,32.715,34.180,47.852,33.203,0.000,0.000,0.000
489291.089,3.418,35.645,37.598,25.879,40.527,0.000,0.000,0.000
489291.093,-47.852,30.762,35.645,19.043,40.039,0.000,0.000,0.000
489291.097,39.062,31.738,27.344,33.691,28.809,0.000,0.000,0.000
489291.100,101.074,29.785,23.926,43.457,27.344,0.000,0.000,0.000
489291.104,35.645,33.691,31.250,32.227,29.785,0.000,0.000,0.000
489291.108,-46.387,39.551,33.691,13.184,36.133,0.000,0.000,0.000
489291.112,3.906,26.367,24.902,16.602,27.344,0.000,0.000,0.000
489291.116,96.680,24.902,21.973,36.621,18.555,0.000,0.000,0.000
489291.120,64.453,34.668,27.344,36.621,22.461,0.000,0.000,0.000
489291.124,-46.387,37.598,29.297,13.184,23.926,0.000,0.000,0.000
489291.128,-26.855,35.156,26.855,-1.953,30.762,0.000,0.000,0.000
489291.132,71.289,34.668,24.414,19.531,34.180,0.000,0.000,0.000
489291.136,76.172,35.156,24.902,25.391,22.461,0.000,0.000,0.000
489291.139,-24.902,39.551,30.762,0.977,26.367,0.000,0.000,0.000
489291.143,-50.293,40.527,31.250,3.906,20.508,0.000,0.000,0.000
489291.147,39.062,28.809,21.973,20.996,3.906,0.000,0.000,0.000
489291.151,89.355,28.809,19.531,26.367,12.207,0.000,0.000,0.000
489291.155,5.859,28.320,27.344,19.531,24.902,0.000,0.000,0.000
489291.159,-63.965,25.879,30.273,5.859,28.809,0.000,0.000,0.000
489291.163,20.996,32.715,27.344,18.066,33.691,0.000,0.000,0.000
489291.167,103.027,31.250,30.273,36.133,28.320,0.000,0.000,0.000
489291.171,43.457,32.227,31.738,20.020,17.578,0.000,0.000,0.000
489291.175,-51.270,44.434,35.156,0.488,18.066,0.000,0.000,0.000
489291.179,-2.930,45.410,34.668,17.090,21.484,0.000,0.000,0.000
489291.182,93.750,35.156,28.809,41.992,24.414,0.000,0.000,0.000
489291.186,71.289,30.273,27.344,30.273,29.297,0.000,0.000,0.000
489291.190,-36.133,30.273,29.297,4.883,32.715,0.000,0.000,0.000
489291.194,-26.367,34.180,28.809,9.766,31.738,0.000,0.000,0.000
489291.198,76.660,37.109,27.344,34.668,27.344,0.000,0.000,0.000
489291.202,91.309,29.785,24.414,44.434,27.832,0.000,0.000,0.000
489291.206,-11.719,31.738,26.367,21.973,36.621,0.000,0.000,0.000
489291.210,-44.922,39.062,30.273,7.324,51.270,0.000,0.000,0.000
489291.214,54.688,33.691,30.273,32.715,51.758,0.000,0.000,0.000
489291.218,107.422,26.855,26.855,42.480,34.668,0.000,0.000,0.000
489291.222,19.043,23.926,21.973,18.555,25.879,0.000,0.000,0.000
489291.225,-55.176,25.879,23.438,0.000,35.645,0.000,0.000,0.000
489291.229,16.113,28.320,24.902,13.184,35.645,0.000,0.000,0.000
489291.233,96.680,29.785,24.414,38.574,17.090,0.000,0.000,0.000
489291.237,43.457,35.645,24.902,21.484,14.160,0.000,0.000,0.000
489291.241,-60.059,28.320,23.438,-3.418,26.367,0.000,0.000,0.000
489291.245,-15.625,20.508,23.438,10.254,22.461,0.000,0.000,0.000
489291.249,90.820,26.855,27.344,38.086,9.277,0.000,0.000,0.000
489291.253,71.289,22.949,25.879,34.668,4.395,0.000,0.000,0.000
489291.257,-35.645,19.043,22.949,6.836,12.207,0.000,0.000,0.000
489291.261,-30.762,28.809,23.926,5.859,27.832,0.000,0.000,0.000
489291.264,68.848,28.809,23.926,26.855,29.785,0.000,0.000,0.000
489291.268,94.238,25.391,20.508,28.809,32.715,0.000,0.000,0.000
489291.272,-5.859,32.715,22.461,8.789,29.785,0.000,0.000,0.000
489291.276,-55.176,30.273,25.879,4.395,26.367,0.000,0.000,0.000
489291.280,36.621,22.461,21.484,25.391,26.367,0.000,0.000,0.000
489291.284,97.168,19.531,24.902,34.668,26.367,0.000,0.000,0.000
489291.288,21.973,26.855,24.414,21.484,27.832,0.000,0.000,0.000
489291.292,-52.246,31.738,26.855,12.207,30.762,0.000,0.000,0.000
489291.296,20.508,33.203,30.273,24.902,31.738,0.000,0.000,0.000
489291.300,101.562,39.551,23.926,42.969,32.227,0.000,0.000,0.000
489291.304,50.293,36.133,21.484,25.391,27.832,0.000,0.000,0.000
489291.307,-52.734,28.320,23.438,-1.465,18.555,0.000,0.000,0.000
489291.311,-20.508,35.645,27.832,11.719,21.973,0.000,0.000,0.000
489291.315,81.543,35.156,28.320,35.645,23.926,0.000,0.000,0.000
489291.319,85.449,28.809,28.809,35.645,26.367,0.000,0.000,0.000
489291.323,-24.902,28.320,30.273,10.254,21.973,0.000,0.000,0.000
489291.327,-43.945,28.320,27.344,1.953,22.461,0.000,0.000,0.000
489291.331,66.406,35.156,27.832,35.156,18.555,0.000,0.000,0.000
489291.335,99.121,38.574,26.367,34.668,4.395,0.000,0.000,0.000
489291.339,0.000,33.691,24.902,5.859,7.324,0.000,0.000,0.000
489291.343,-55.176,31.250,24.902,-6.348,10.742,0.000,0.000,0.000
489291.346,31.250,32.715,27.832,16.113,13.184,0.000,0.000,0.000
489291.350,103.027,40.039,33.203,39.062,21.973,0.000,0.000,0.000
489291.354,32.715,40.527,32.227,22.949,27.344,0.000,0.000,0.000
489291.358,-57.129,37.598,31.250,2.441,25.391,0.000,0.000,0.000
489291.362,4.883,37.598,29.785,15.625,30.273,0.000,0.000,0.000
489291.366,92.285,36.133,30.762,37.109,28.809,0.000,0.000,0.000
489291.370,51.758,34.668,29.297,26.855,11.719,0.000,0.000,0.000
489291.374,-48.340,35.645,29.297,2.930,13.672,0.000,0.000,0.000
489291.378,-23.438,33.203,31.250,6.836,24.902,0.000,0.000,0.000
489291.382,85.938,38.086,28.809,32.227,28.809,0.000,0.000,0.000
489291.386,92.285,39.551,28.809,26.367,19.531,0.000,0.000,0.000
489291.389,-19.043,31.738,24.902,2.441,17.090,0.000,0.000,0.000
489291.393,-38.574,31.738,23.926,1.465,34.180,0.000,0.000,0.000
489291.397,61.523,32.227,26.855,22.949,31.738,0.000,0.000,0.000
489291.401,101.562,36.621,23.926,27.832,16.602,0.000,0.000,0.000
489291.405,7.812,38.086,23.438,5.371,18.066,0.000,0.000,0.000
489291.409,-56.641,33.691,26.367,-1.465,25.879,0.000,0.000,0.000
489291.413,22.949,36.621,29.297,22.949,33.203,0.000,0.000,0.000
489291.417,97.656,48.340,29.785,35.645,25.391,0.000,0.000,0.000
489291.421,38.086,41.992,26.367,22.949,28.320,0.000,0.000,0.000
489291.425,-58.105,29.297,26.855,2.930,35.645,0.000,0.000,0.000
489291.429,-9.277,29.297,26.367,3.418,13.672,0.000,0.000,0.000
489291.432,90.332,32.715,26.367,24.414,9.766,0.000,0.000,0.000
489291.436,72.266,38.574,28.320,27.344,21.484,0.000,0.000,0.000
489291.440,-32.227,41.504,28.320,8.301,26.855,0.000,0.000,0.000
489291.444,-26.367,34.668,25.391,2.930,27.344,0.000,0.000,0.000
489291.448,79.590,30.273,24.902,37.598,29.297,0.000,0.000,0.000
489291.452,100.586,33.691,25.879,45.898,28.809,0.000,0.000,0.000
489291.456,-5.859,41.016,26.367,8.301,26.855,0.000,0.000,0.000
489291.460,-46.875,37.598,29.297,-8.789,27.832,0.000,0.000,0.000
489291.464,48.340,32.715,27.344,14.160,23.438,0.000,0.000,0.000
489291.468,104.004,34.668,25.391,29.297,23.926,0.000,0.000,0.000
489291.471,23.438,34.180,28.809,10.742,21.973,0.000,0.000,0.000
489291.475,-50.293,35.156,29.785,-3.418,21.973,0.000,0.000,0.000
489291.479,23.926,35.645,28.320,20.020,35.645,0.000,0.000,0.000
489291.483,105.957,33.691,26.855,39.551,40.039,0.000,0.000,0.000
489291.487,52.734,27.344,25.879,19.531,16.113,0.000,0.000,0.000
489291.491,-46.387,32.227,29.297,0.000,15.625,0.000,0.000,0.000
489291.495,-10.742,35.156,26.367,11.230,26.855,0.000,0.000,0.000
489291.499,88.379,25.391,20.508,30.762,23.926,0.000,0.000,0.000
489291.503,79.102,24.902,19.531,23.438,21.484,0.000,0.000,0.000
489291.507,-35.645,32.715,22.949,0.000,18.066,0.000,0.000,0.000
489291.511,-37.598,36.621,24.902,0.000,19.043,0.000,0.000,0.000
489291.514,72.266,35.645,22.461,30.762,23.438,0.000,0.000,0.000
489291.518,98.633,32.227,21.484,29.785,16.113,0.000,0.000,0.000
489291.522,-2.441,37.109,22.949,-0.488,9.766,0.000,0.000,0.000
489291.526,-47.852,37.598,22.461,-5.371,13.672,0.000,0.000,0.000
489291.530,44.434,30.762,22.949,12.695,13.672,0.000,0.000,0.000
489291.534,108.398,33.203,20.996,26.855,10.742,0.000,0.000,0.000
489291.538,32.227,33.203,18.066,10.254,12.695,0.000,0.000,0.000
489291.542,-57.617,29.297,18.555,-11.230,17.578,0.000,0.000,0.000
489291.546,9.277,36.133,20.508,5.859,20.508,0.000,0.000,0.000
489291.550,108.398,44.434,20.996,26.367,24.414,0.000,0.000,0.000
489291.553,65.918,41.504,20.508,16.113,23.438,0.000,0.000,0.000
489291.557,-42.969,33.203,15.137,-8.789,20.508,0.000,0.000,0.000
489291.561,-9.766,35.645,20.020,5.859,40.039,0.000,0.000,0.000
489291.565,88.867,40.039,28.320,39.551,46.875,0.000,0.000,0.000
489291.569,79.102,34.180,22.949,27.344,26.367,0.000,0.000,0.000
489291.573,-28.809,33.203,21.484,0.488,20.996,0.000,0.000,0.000
489291.577,-43.945,35.156,26.367,1.953,37.598,0.000,0.000,0.000
489291.581,60.059,40.527,26.367,31.250,43.457,0.000,0.000,0.000
489291.585,98.633,34.180,23.926,38.086,18.066,0.000,0.000,0.000
489291.589,7.812,28.809,24.414,6.836,12.207,0.000,0.000,0.000
489291.593,-43.945,36.133,21.973,-5.859,20.996,0.000,0.000,0.000
489291.596,35.156,37.109,21.973,16.602,17.090,0.000,0.000,0.000
489291.600,103.027,33.203,24.414,31.250,10.254,0.000,0.000,0.000
489291.604,42.969,35.645,24.414,16.602,6.348,0.000,0.000,0.000
489291.608,-47.363,32.227,26.855,0.000,10.742,0.000,0.000,0.000
489291.612,6.836,30.273,27.344,9.766,21.484,0.000,0.000,0.000
489291.616,103.516,33.203,23.926,30.762,29.297,0.000,0.000,0.000
489291.620,68.848,32.715,26.367,27.344,35.156,0.000,0.000,0.000
489291.624,-35.156,37.109,30.762,6.836,33.691,0.000,0.000,0.000
489291.628,-15.137,35.156,30.762,7.812,24.414,0.000,0.000,0.000
489291.632,83.496,24.414,29.297,35.156,27.832,0.000,0.000,0.000
489291.636,95.703,25.391,28.809,38.086,28.809,0.000,0.000,0.000
489291.639,-8.789,32.227,29.297,9.766,16.602,0.000,0.000,0.000
489291.643,-40.039,40.039,25.879,5.859,11.230,0.000,0.000,0.000
489291.647,59.082,33.203,19.531,31.250,20.996,0.000,0.000,0.000
489291.651,107.910,28.320,20.020,37.109,21.484,0.000,0.000,0.000
489291.655,21.484,33.691,23.438,11.719,19.043,0.000,0.000,0.000
489291.659,-46.875,30.762,24.414,-6.348,23.926,0.000,0.000,0.000
489291.663,36.621,34.180,23.926,11.719,31.738,0.000,0.000,0.000
489291.667,117.676,32.715,20.996,32.715,21.973,0.000,0.000,0.000
489291.671,52.734,28.809,22.949,11.719,13.672,0.000,0.000,0.000
489291.675,-42.480,38.086,28.809,-5.859,31.250,0.000,0.000,0.000
489291.678,2.930,43.945,27.344,6.836,28.809,0.000,0.000,0.000
489291.682,96.680,36.133,24.902,31.250,18.066,0.000,0.000,0.000
489291.686,71.777,32.227,26.367,24.414,20.020,0.000,0.000,0.000
489291.690,-42.480,28.809,27.344,-5.371,13.672,0.000,0.000,0.000
489291.694,-30.273,29.297,31.250,0.488,5.859,0.000,0.000,0.000
489291.698,76.172,33.203,31.738,21.484,-0.488,0.000,0.000,0.000
489291.702,92.285,32.227,31.738,24.902,9.766,0.000,0.000,0.000
489291.706,-8.301,26.855,31.738,7.324,15.137,0.000,0.000,0.000
489291.710,-43.945,30.762,30.762,-5.371,11.719,0.000,0.000,0.000
489291.714,54.688,38.086,26.855,20.996,23.926,0.000,0.000,0.000
489291.718,109.375,32.715,25.391,31.738,38.574,0.000,0.000,0.000
489291.721,24.414,29.297,27.832,5.371,38.574,0.000,0.000,0.000
489291.725,-53.223,27.832,25.879,-11.230,24.902,0.000,0.000,0.000
489291.729,20.020,29.297,24.414,6.836,17.578,0.000,0.000,0.000
489291.733,102.051,32.227,20.508,24.414,20.508,0.000,0.000,0.000
489291.737,52.246,36.621,21.973,11.230,25.879,0.000,0.000,0.000
489291.741,-43.945,33.691,29.297,-8.301,27.344,0.000,0.000,0.000
489291.745,-5.859,34.668,28.320,-0.488,35.156,0.000,0.000,0.000
489291.749,92.773,40.039,26.367,30.273,47.852,0.000,0.000,0.000
489291.753,80.566,29.785,25.879,28.809,32.227,0.000,0.000,0.000
489291.757,-30.273,25.391,29.297,0.977,5.859,0.000,0.000,0.000
489291.760,-37.109,27.344,29.785,1.465,4.883,0.000,0.000,0.000
489291.764,62.500,27.344,22.949,20.996,6.836,0.000,0.000,0.000
489291.768,90.332,26.855,20.996,22.949,3.906,0.000,0.000,0.000
489291.772,-9.277,25.879,25.391,2.930,11.230,0.000,0.000,0.000
489291.776,-49.805,27.832,26.855,-1.465,19.531,0.000,0.000,0.000
489291.780,52.246,34.180,27.344,22.461,26.855,0.000,0.000,0.000
489291.784,110.840,27.832,26.855,38.574,38.086,0.000,0.000,0.000
489291.788,30.273,20.508,24.414,17.090,39.551,0.000,0.000,0.000
489291.792,-51.758,25.879,25.391,-4.395,32.227,0.000,0.000,0.000
489291.796,12.695,25.391,25.879,11.719,36.621,0.000,0.000,0.000
489291.800,103.027,27.832,26.855,35.645,33.691,0.000,0.000,0.000
489291.803,59.082,26.367,28.320,28.809,23.438,0.000,0.000,0.000
489291.807,-51.758,21.973,28.809,7.812,25.391,0.000,0.000,0.000
489291.811,-21.973,34.668,30.762,11.230,24.414,0.000,0.000,0.000
489291.815,83.008,34.180,29.297,27.344,13.672,0.000,0.000,0.000
489291.819,80.566,23.438,25.879,19.531,3.906,0.000,0.000,0.000
489291.823,-25.879,20.020,24.414,-3.906,4.395,0.000,0.000,0.000
489291.827,-36.621,19.531,23.438,1.465,18.555,0.000,0.000,0.000
489291.831,71.289,28.320,21.484,33.691,32.227,0.000,0.000,0.000
489291.835,101.562,33.203,21.484,30.762,28.809,0.000,0.000,0.000
489291.839,1.465,38.574,26.367,4.395,38.574,0.000,0.000,0.000
489291.843,-51.758,46.387,27.344,-1.953,41.504,0.000,0.000,0.000
489291.846,32.227,40.039,24.414,16.113,12.695,0.000,0.000,0.000
489291.850,98.633,33.203,26.367,29.785,-1.465,0.000,0.000,0.000
489291.854,27.344,28.320,21.484,11.230,-3.418,0.000,0.000,0.000
489291.858,-61.035,28.320,18.066,-7.812,3.906,0.000,0.000,0.000
489291.862,-6.836,29.297,18.555,2.930,12.695,0.000,0.000,0.000
489291.866,85.938,28.320,17.578,26.367,15.625,0.000,0.000,0.000
489291.870,60.059,27.832,18.066,24.414,26.367,0.000,0.000,0.000
489291.874,-40.527,33.691,22.461,2.930,38.574,0.000,0.000,0.000
489291.878,-24.414,35.156,20.996,4.883,30.762,0.000,0.000,0.000
489291.882,79.102,31.738,20.996,26.855,29.297,0.000,0.000,0.000
489291.885,86.914,30.762,24.414,25.879,36.621,0.000,0.000,0.000
489291.889,-20.508,28.320,22.949,2.441,23.438,0.000,0.000,0.000
489291.893,-44.434,31.250,20.508,-7.324,17.578,0.000,0.000,0.000
489291.897,57.129,32.227,19.043,4.883,16.602,0.000,0.000,0.000
489291.901,104.492,35.156,20.508,18.555,14.648,0.000,0.000,0.000
489291.905,15.137,35.645,22.461,6.836,22.949,0.000,0.000,0.000
489291.909,-49.316,33.691,24.414,-8.301,28.320,0.000,0.000,0.000
489291.913,31.250,34.180,22.461,15.137,26.367,0.000,0.000,0.000
489291.917,111.328,28.809,23.438,38.574,31.738,0.000,0.000,0.000
489291.921,57.129,26.367,26.855,20.996,46.875,0.000,0.000,0.000
489291.925,-41.016,22.949,23.438,-5.859,37.109,0.000,0.000,0.000
489291.928,2.441,26.367,23.926,7.812,23.926,0.000,0.000,0.000
489291.932,102.539,33.203,23.926,39.551,42.480,0.000,0.000,0.000
489291.936,84.961,30.762,22.461,26.367,32.715,0.000,0.000,0.000
489291.940,-18.555,36.133,28.320,-5.859,15.625,0.000,0.000,0.000
489291.944,-11.230,32.715,30.762,-4.883,23.926,0.000,0.000,0.000
489291.948,82.520,16.602,24.902,20.020,26.367,0.000,0.000,0.000
489291.952,96.191,14.648,24.902,24.902,27.832,0.000,0.000,0.000
489291.956,-6.836,20.508,26.367,-4.395,33.203,0.000,0.000,0.000
489291.960,-43.457,25.391,23.926,-5.859,40.527,0.000,0.000,0.000
489291.964,52.246,31.250,23.926,24.414,35.156,0.000,0.000,0.000
489291.967,104.492,28.809,23.438,32.715,25.391,0.000,0.000,0.000
489291.971,22.461,30.273,25.879,11.719,27.832,0.000,0.000,0.000
489291.975,-52.246,37.109,30.273,-6.348,24.414,0.000,0.000,0.000
489291.979,16.602,28.320,28.320,2.930,13.672,0.000,0.000,0.000
489291.983,101.562,23.438,26.367,26.367,12.695,0.000,0.000,0.000
489291.987,57.617,26.367,33.203,23.438,14.648,0.000,0.000,0.000
489291.991,-43.457,27.832,33.691,-2.441,21.484,0.000,0.000,0.000
489291.995,-8.789,31.250,26.367,4.395,28.320,0.000,0.000,0.000
489291.999,96.680,41.016,26.367,35.156,32.715,0.000,0.000,0.000
489292.003,91.797,43.457,27.344,31.738,29.297,0.000,0.000,0.000
489292.007,-17.578,29.297,26.855,12.207,28.320,0.000,0.000,0.000
489292.010,-23.438,28.809,27.344,11.230,39.551,0.000,0.000,0.000
489292.014,84.961,36.621,27.832,34.668,47.363,0.000,0.000,0.000
489292.018,113.281,34.668,31.250,35.645,32.227,0.000,0.000,0.000
489292.022,11.230,39.551,34.180,11.230,26.855,0.000,0.000,0.000
489292.026,-33.691,41.016,30.273,6.348,32.715,0.000,0.000,0.000
489292.030,57.617,38.574,29.297,24.414,17.090,0.000,0.000,0.000
489292.034,119.141,39.062,30.273,31.738,12.695,0.000,0.000,0.000
489292.038,39.062,38.086,25.391,10.742,24.414,0.000,0.000,0.000
489292.042,-44.434,38.574,23.926,0.488,24.414,0.000,0.000,0.000
489292.046,22.461,41.504,23.926,16.602,15.625,0.000,0.000,0.000
489292.050,105.957,33.691,20.996,35.156,10.254,0.000,0.000,0.000
489292.053,65.430,32.227,24.902,28.809,15.137,0.000,0.000,0.000
489292.057,-35.156,36.133,31.738,11.719,25.391,0.000,0.000,0.000
489292.061,-7.324,30.273,29.297,13.184,30.762,0.000,0.000,0.000
489292.065,92.285,27.832,27.832,36.621,33.691,0.000,0.000,0.000
489292.069,94.727,30.273,29.297,39.551,41.016,0.000,0.000,0.000
489292.073,-13.184,31.250,31.738,11.230,48.828,0.000,0.000,0.000
489292.077,-35.645,27.832,33.203,6.348,41.992,0.000,0.000,0.000
489292.081,65.430,22.949,27.344,33.691,30.273,0.000,0.000,0.000
489292.085,104.980,24.902,25.879,40.039,27.344,0.000,0.000,0.000
489292.089,13.184,30.273,26.855,20.508,24.902,0.000,0.000,0.000
489292.092,-43.945,28.320,26.855,12.695,28.809,0.000,0.000,0.000
489292.096,42.480,27.832,26.855,31.738,33.203,0.000,0.000,0.000
489292.100,118.652,27.344,26.855,41.992,30.273,0.000,0.000,0.000
489292.104,52.246,21.484,31.250,25.391,35.645,0.000,0.000,0.000
489292.108,-45.410,19.531,31.738,3.906,47.363,0.000,0.000,0.000
489292.112,8.301,24.414,28.809,16.602,46.387,0.000,0.000,0.000
489292.116,109.863,29.297,27.344,44.434,36.133,0.000,0.000,0.000
489292.120,75.684,20.996,24.414,29.785,19.043,0.000,0.000,0.000
489292.124,-37.598,17.090,25.879,4.395,16.113,0.000,0.000,0.000
489292.128,-17.090,21.973,23.926,8.301,33.203,0.000,0.000,0.000
489292.132,85.938,23.438,22.949,33.203,34.180,0.000,0.000,0.000
489292.135,89.844,24.414,24.414,34.668,22.461,0.000,0.000,0.000
489292.139,-18.555,25.879,26.367,6.348,17.578,0.000,0.000,0.000
489292.143,-42.480,24.902,27.832,-0.977,30.273,0.000,0.000,0.000
489292.147,59.082,31.250,26.855,24.414,41.016,0.000,0.000,0.000
489292.151,108.398,33.203,27.832,39.062,21.484,0.000,0.000,0.000
489292.155,18.066,24.414,28.809,19.531,10.742,0.000,0.000,0.000
489292.159,-51.270,21.973,30.273,5.371,19.531,0.000,0.000,0.000
489292.163,28.320,25.391,31.738,24.902,24.902,0.000,0.000,0.000
489292.167,106.934,27.344,28.320,45.410,31.250,0.000,0.000,0.000
489292.171,47.852,28.809,28.320,32.227,24.902,0.000,0.000,0.000
489292.174,-50.293,24.414,28.320,12.695,35.156,0.000,0.000,0.000
489292.178,-3.906,27.344,28.809,22.461,52.734,0.000,0.000,0.000
489292.182,93.262,30.762,33.691,48.828,39.062,0.000,0.000,0.000
489292.186,71.777,17.578,32.227,39.551,22.461,0.000,0.000,0.000
489292.190,-38.574,11.230,31.738,4.883,26.367,0.000,0.000,0.000
489292.194,-31.250,18.555,30.762,6.348,36.133,0.000,0.000,0.000
489292.198,78.613,24.414,30.273,31.738,36.621,0.000,0.000,0.000
489292.202,96.191,24.902,30.762,33.691,34.668,0.000,0.000,0.000
489292.206,-10.742,25.879,27.832,12.207,33.691,0.000,0.000,0.000
489292.210,-47.363,33.203,26.855,2.441,29.785,0.000,0.000,0.000
489292.214,51.758,39.551,28.320,26.855,32.715,0.000,0.000,0.000
489292.217,106.934,33.691,26.855,41.504,36.133,0.000,0.000,0.000
489292.221,18.066,23.926,28.320,17.090,34.180,0.000,0.000,0.000
489292.225,-56.152,30.762,31.250,-0.488,37.109,0.000,0.000,0.000
489292.229,19.531,35.156,27.832,18.066,30.762,0.000,0.000,0.000
489292.233,103.027,34.668,26.367,33.203,13.672,0.000,0.000,0.000
489292.237,43.945,31.738,25.879,11.719,-8.789,0.000,0.000,0.000
489292.241,-64.453,24.902,24.902,-8.789,-11.719,0.000,0.000,0.000
489292.245,-21.973,36.621,27.344,1.953,5.859,0.000,0.000,0.000
489292.249,83.496,42.480,29.785,29.297,10.742,0.000,0.000,0.000
489292.253,71.289,27.832,33.203,31.738,12.207,0.000,0.000,0.000
489292.257,-39.551,30.273,29.785,-0.977,11.719,0.000,0.000,0.000
489292.260,-40.527,34.180,25.391,-4.395,19.531,0.000,0.000,0.000
489292.264,73.242,36.133,29.785,30.762,36.621,0.000,0.000,0.000
489292.268,102.051,39.062,29.785,36.621,27.344,0.000,0.000,0.000
489292.272,-6.348,37.598,24.414,8.301,19.043,0.000,0.000,0.000
489292.276,-53.711,36.621,27.344,-3.906,20.996,0.000,0.000,0.000
489292.280,35.645,38.086,33.203,20.996,16.602,0.000,0.000,0.000
489292.284,91.309,34.180,29.297,35.156,10.254,2.000,1.000,45.000
489292.288,20.508,33.691,31.250,15.625,13.672,0.000,0.000,0.000
489292.292,-52.734,35.645,31.738,5.371,26.855,0.000,0.000,0.000
489292.296,15.625,29.297,29.297,29.297,47.363,0.000,0.000,0.000
489292.299,101.562,29.297,23.926,45.410,60.547,0.000,0.000,0.000
489292.303,64.453,33.203,21.484,31.738,42.969,0.000,0.000,0.000
489292.307,-38.086,38.574,28.320,12.207,22.461,0.000,0.000,0.000
489292.311,-16.602,37.109,27.344,5.371,16.113,0.000,0.000,0.000
489292.315,85.449,41.504,23.926,25.879,17.090,0.000,0.000,0.000
489292.319,87.402,41.016,20.996,25.879,24.902,0.000,0.000,0.000
489292.323,-20.020,30.762,21.484,-1.465,25.879,0.000,0.000,0.000
489292.327,-39.062,30.762,23.438,-6.836,29.785,0.000,0.000,0.000
489292.331,59.570,34.180,24.902,17.090,22.949,0.000,0.000,0.000
489292.335,95.215,35.156,23.438,27.832,16.602,0.000,0.000,0.000
489292.339,-1.465,31.250,20.020,7.324,16.113,0.000,0.000,0.000
489292.342,-61.523,28.809,25.391,-6.348,21.484,0.000,0.000,0.000
489292.346,23.926,35.156,23.438,14.648,29.297,0.000,0.000,0.000
489292.350,94.238,36.621,18.555,38.086,19.043,0.000,0.000,0.000
489292.354,31.250,34.180,24.414,29.297,24.414,0.000,0.000,0.000
489292.358,-57.617,34.180,29.785,10.742,31.250,0.000,0.000,0.000
489292.362,-10.254,22.949,26.367,23.438,23.438,0.000,0.000,0.000
489292.366,83.008,21.484,25.391,43.457,24.414,0.000,0.000,0.000
489292.370,56.152,28.809,29.785,28.809,23.926,0.000,0.000,0.000
489292.374,-47.363,31.250,26.855,4.883,27.344,0.000,0.000,0.000
489292.378,-23.438,37.109,22.461,5.371,44.434,0.000,0.000,0.000
489292.381,78.613,32.715,24.414,35.645,39.062,0.000,0.000,0.000
489292.385,92.285,30.762,32.227,47.363,18.555,0.000,0.000,0.000
489292.389,-13.672,40.039,33.203,20.020,15.625,0.000,0.000,0.000
489292.393,-51.270,27.832,28.809,4.883,8.789,0.000,0.000,0.000
489292.397,51.758,20.508,27.832,28.809,1.953,0.000,0.000,0.000
489292.401,99.121,27.832,24.414,40.039,7.812,0.000,0.000,0.000
489292.405,8.301,32.227,25.879,15.137,12.207,0.000,0.000,0.000
489292.409,-55.176,35.645,30.762,0.000,12.695,0.000,0.000,0.000
489292.413,28.320,35.645,32.715,23.926,13.672,0.000,0.000,0.000
489292.417,108.887,37.109,32.227,47.852,10.742,0.000,0.000,0.000
489292.421,50.781,41.016,32.227,29.297,-6.348,0.000,0.000,0.000
489292.424,-43.457,38.574,33.203,4.883,-17.578,0.000,0.000,0.000
489292.428,1.953,30.273,30.762,15.625,-5.859,0.000,0.000,0.000
489292.432,94.727,27.344,26.855,39.551,19.043,0.000,0.000,0.000
489292.436,73.242,31.738,27.832,33.203,13.672,0.000,0.000,0.000
489292.440,-37.598,32.715,27.344,4.883,-7.812,0.000,0.000,0.000
489292.444,-34.668,31.250,25.879,5.859,-1.465,0.000,0.000,0.000
489292.448,68.359,33.203,26.855,21.973,11.719,0.000,0.000,0.000
489292.452,84.961,36.133,25.879,17.578,32.715,0.000,0.000,0.000
489292.456,-20.996,25.391,26.367,-6.836,46.875,0.000,0.000,0.000
489292.460,-53.223,24.414,30.762,-10.254,22.461,0.000,0.000,0.000
489292.464,43.945,32.715,28.320,16.602,0.977,0.000,0.000,0.000
489292.467,100.586,31.250,25.391,31.250,8.301,0.000,0.000,0.000
489292.471,19.043,33.203,28.809,17.578,21.973,0.000,0.000,0.000
489292.475,-59.082,31.738,28.320,2.441,31.738,0.000,0.000,0.000
489292.479,16.113,34.668,24.902,16.113,36.621,0.000,0.000,0.000
489292.483,95.703,34.180,24.414,29.785,33.691,0.000,0.000,0.000
489292.487,41.992,27.344,27.344,10.742,19.043,0.000,0.000,0.000
489292.491,-58.105,31.250,30.273,-8.789,20.508,0.000,0.000,0.000
489292.495,-27.344,35.156,27.344,-5.859,19.043,0.000,0.000,0.000
489292.499,67.871,31.738,27.832,18.066,10.254,0.000,0.000,0.000
489292.503,62.500,27.344,29.297,24.414,14.160,0.000,0.000,0.000
489292.506,-40.527,29.297,28.809,7.324,19.531,0.000,0.000,0.000
489292.510,-38.574,38.086,32.715,12.695,27.832,0.000,0.000,0.000
489292.514,60.547,28.320,28.809,27.344,29.297,0.000,0.000,0.000
489292.518,84.473,15.625,22.949,26.367,34.180,0.000,0.000,0.000
489292.522,-12.207,22.949,26.855,9.277,29.297,0.000,0.000,0.000
489292.526,-52.734,32.227,29.297,0.000,23.438,0.000,0.000,0.000
489292.530,46.387,37.598,30.762,25.879,33.203,0.000,0.000,0.000
489292.534,106.934,34.180,31.250,45.898,37.598,0.000,0.000,0.000
489292.538,30.762,30.762,30.273,26.855,29.297,0.000,0.000,0.000
489292.542,-49.316,35.645,28.809,4.883,17.578,0.000,0.000,0.000
489292.546,15.625,30.762,26.855,15.625,22.949,0.000,0.000,0.000
489292.549,107.422,19.531,24.902,42.969,22.949,0.000,0.000,0.000
489292.553,70.801,22.461,26.855,39.551,29.297,0.000,0.000,0.000
489292.557,-36.621,28.320,31.250,18.066,38.574,0.000,0.000,0.000
489292.561,-8.789,31.250,31.250,24.414,34.180,0.000,0.000,0.000
489292.565,94.727,30.273,27.832,56.152,29.785,0.000,0.000,0.000
489292.569,97.168,40.039,30.273,55.176,28.320,0.000,0.000,0.000
489292.573,-11.719,38.086,31.738,25.879,27.832,0.000,0.000,0.000
489292.577,-34.180,21.484,30.273,14.648,29.785,0.000,0.000,0.000
489292.581,60.059,22.461,28.809,26.855,29.785,0.000,0.000,0.000
489292.585,93.750,28.320,26.367,36.621,19.043,0.000,0.000,0.000
489292.589,0.000,32.227,27.832,20.020,16.113,0.000,0.000,0.000
489292.592,-53.223,33.691,26.367,5.371,24.902,0.000,0.000,0.000
489292.596,37.109,37.109,26.855,22.949,30.762,0.000,0.000,0.000
489292.600,111.328,47.363,30.762,40.527,22.949,0.000,0.000,0.000
489292.604,44.922,46.387,26.367,23.438,16.602,0.000,0.000,0.000
489292.608,-43.945,35.156,25.391,4.395,21.484,0.000,0.000,0.000
489292.612,12.207,28.320,26.855,19.531,34.668,0.000,0.000,0.000
489292.616,105.957,32.715,23.926,47.852,41.016,0.000,0.000,0.000
489292.620,80.078,36.133,27.344,37.109,26.855,0.000,0.000,0.000
489292.624,-23.926,29.785,33.203,10.742,19.531,0.000,0.000,0.000
489292.628,-14.160,36.621,31.738,10.254,20.508,0.000,0.000,0.000
489292.631,77.637,45.410,29.785,27.832,22.949,0.000,0.000,0.000
489292.635,87.402,39.551,31.250,32.227,10.254,0.000,0.000,0.000
489292.639,-20.508,35.645,31.738,5.859,-3.418,0.000,0.000,0.000
489292.643,-56.152,31.738,30.762,-0.488,1.953,0.000,0.000,0.000
489292.647,46.875,34.180,33.203,32.227,13.184,0.000,0.000,0.000
489292.651,97.168,36.133,32.227,45.410,20.508,0.000,0.000,0.000
489292.655,11.719,33.691,33.691,20.020,13.672,0.000,0.000,0.000
489292.659,-53.711,33.691,31.250,4.883,19.043,0.000,0.000,0.000
489292.663,29.785,35.156,28.809,26.855,37.109,0.000,0.000,0.000
489292.667,110.352,44.922,34.668,55.176,41.992,0.000,0.000,0.000
489292.671,45.898,41.504,30.762,34.180,32.715,0.000,0.000,0.000
489292.674,-59.082,31.250,26.367,2.441,33.691,0.000,0.000,0.000
489292.678,-17.090,30.762,26.855,16.113,41.016,4.000,1.000,45.000
489292.682,87.891,32.715,30.273,41.016,41.504,0.000,0.000,0.000
489292.686,76.660,38.574,32.715,32.227,33.203,0.000,0.000,0.000
489292.690,-30.273,43.945,33.203,13.672,31.250,0.000,0.000,0.000
489292.694,-19.531,38.086,29.785,24.902,34.668,0.000,0.000,0.000
489292.698,84.961,28.320,28.320,41.504,24.414,0.000,0.000,0.000
489292.702,105.469,31.738,32.715,41.504,28.320,0.000,0.000,0.000
489292.706,4.883,38.086,36.621,22.949,38.086,0.000,0.000,0.000
489292.710,-38.086,40.039,33.691,6.836,39.551,0.000,0.000,0.000
489292.713,60.059,34.180,27.344,27.832,36.621,0.000,0.000,0.000
489292.717,115.234,33.203,26.367,37.598,28.809,0.000,0.000,0.000
489292.721,29.297,41.016,26.855,18.066,25.391,0.000,0.000,0.000
489292.725,-50.293,36.133,23.926,1.953,18.066,0.000,0.000,0.000
489292.729,18.066,32.227,23.926,11.719,20.996,0.000,0.000,0.000
489292.733,98.633,39.062,24.902,33.203,30.273,0.000,0.000,0.000
489292.737,46.387,38.574,22.461,25.391,25.879,0.000,0.000,0.000
489292.741,-52.734,37.109,25.879,4.395,33.203,0.000,0.000,0.000
489292.745,-16.602,34.180,25.879,11.230,43.945,0.000,0.000,0.000
489292.749,82.520,32.227,21.973,35.156,33.203,0.000,0.000,0.000
489292.753,82.031,42.969,26.367,30.762,20.508,0.000,0.000,0.000
489292.756,-25.879,41.016,25.391,6.836,18.066,0.000,0.000,0.000
489292.760,-41.504,27.344,19.531,0.977,15.625,0.000,0.000,0.000
489292.764,64.453,29.297,22.461,24.902,27.344,0.000,0.000,0.000
489292.768,97.168,35.156,24.902,34.180,29.297,0.000,0.000,0.000
489292.772,-2.930,34.180,24.902,13.672,15.625,0.000,0.000,0.000
489292.776,-52.246,33.691,29.785,2.930,28.809,0.000,0.000,0.000
489292.780,36.621,39.062,29.785,23.438,38.574,0.000,0.000,0.000
489292.784,102.051,38.086,27.344,38.086,18.066,0.000,0.000,0.000
489292.788,31.250,36.133,28.320,17.090,8.301,0.000,0.000,0.000
489292.792,-52.246,38.574,28.320,4.883,15.625,0.000,0.000,0.000
489292.796,7.812,33.691,29.297,17.578,12.207,0.000,0.000,0.000
489292.799,98.633,26.855,28.320,28.809,10.742,0.000,0.000,0.000
489292.803,60.547,27.832,27.344,19.531,17.578,0.000,0.000,0.000
489292.807,-43.457,32.227,31.250,2.441,32.715,0.000,0.000,0.000
489292.811,-15.137,32.715,30.273,11.719,46.875,0.000,0.000,0.000
489292.815,82.520,30.762,28.809,41.504,44.434,0.000,0.000,0.000
489292.819,85.938,35.156,29.785,40.039,32.227,0.000,0.000,0.000
489292.823,-21.484,39.062,26.855,3.418,20.996,0.000,0.000,0.000
489292.827,-44.922,31.250,24.414,-6.836,15.625,0.000,0.000,0.000
489292.831,54.688,24.902,30.273,18.066,8.301,0.000,0.000,0.000
489292.835,89.844,24.902,35.156,32.227,5.859,0.000,0.000,0.000
489292.838,-1.953,26.367,30.273,6.836,2.441,0.000,0.000,0.000
489292.842,-54.688,31.738,29.297,-9.277,-2.930,0.000,0.000,0.000
489292.846,36.621,40.039,32.227,23.438,6.836,0.000,0.000,0.000
489292.850,109.375,38.086,28.809,42.969,8.301,0.000,0.000,0.000
489292.854,37.598,28.320,29.785,24.902,13.184,0.000,0.000,0.000
489292.858,-56.641,35.156,33.691,8.789,30.273,0.000,0.000,0.000
489292.862,-2.930,39.062,26.855,12.695,32.227,0.000,0.000,0.000
489292.866,91.797,28.320,24.902,32.715,29.297,0.000,0.000,0.000
489292.870,62.012,28.809,28.320,25.879,34.668,0.000,0.000,0.000
489292.874,-38.574,36.133,34.180,3.906,25.391,0.000,0.000,0.000
489292.878,-20.996,38.574,33.203,13.184,19.043,0.000,0.000,0.000
489292.881,75.684,33.691,29.785,37.109,25.391,0.000,0.000,0.000
489292.885,89.844,28.320,30.273,31.250,23.438,0.000,0.000,0.000
489292.889,-10.742,33.203,31.250,6.348,22.461,0.000,0.000,0.000
489292.893,-49.805,33.203,30.273,-0.977,20.508,0.000,0.000,0.000
489292.897,43.945,29.785,25.879,20.020,13.672,0.000,0.000,0.000
489292.901,96.191,27.344,23.926,33.691,16.113,0.000,0.000,0.000
489292.905,10.254,26.855,27.832,15.625,16.113,0.000,0.000,0.000
489292.909,-49.316,32.715,30.762,1.465,9.766,0.000,0.000,0.000
489292.913,33.203,34.668,28.809,23.438,15.625,0.000,0.000,0.000
489292.917,107.422,34.180,30.273,42.969,21.973,0.000,0.000,0.000
489292.920,51.758,35.645,30.762,25.879,34.180,0.000,0.000,0.000
489292.924,-45.898,38.086,28.320,-0.977,31.738,0.000,0.000,0.000
489292.928,-1.953,35.645,26.855,3.906,20.508,0.000,0.000,0.000
489292.932,96.680,31.738,21.973,30.273,19.043,0.000,0.000,0.000
489292.936,77.148,28.809,21.973,26.855,13.184,0.000,0.000,0.000
489292.940,-32.715,29.297,27.832,2.930,17.578,0.000,0.000,0.000
489292.944,-26.855,30.273,26.367,0.488,29.785,0.000,0.000,0.000
489292.948,84.961,35.645,28.809,27.344,32.227,0.000,0.000,0.000
489292.952,103.516,38.574,32.227,36.621,31.250,0.000,0.000,0.000
489292.956,-8.301,34.668,29.297,7.324,33.691,0.000,0.000,0.000
489292.960,-40.039,38.086,28.809,-4.395,31.250,0.000,0.000,0.000
489292.963,55.664,40.527,28.809,25.391,32.227,0.000,0.000,0.000
489292.967,103.027,29.785,26.855,36.621,23.926,0.000,0.000,0.000
489292.971,21.973,22.949,25.391,7.812,5.859,0.000,0.000,0.000
489292.975,-53.223,26.367,26.855,-5.371,13.184,0.000,0.000,0.000
489292.979,7.324,25.391,26.367,11.230,14.160,0.000,0.000,0.000
489292.983,90.820,27.832,30.273,33.203,16.602,0.000,0.000,0.000
489292.987,50.781,37.598,34.668,24.902,18.066,0.000,0.000,0.000
489292.991,-48.828,37.598,32.715,3.418,20.508,0.000,0.000,0.000
489292.995,-8.789,34.180,33.691,13.672,30.273,0.000,0.000,0.000
489292.999,92.285,33.203,31.738,34.668,29.297,0.000,0.000,0.000
489293.003,78.125,25.391,28.809,30.273,30.762,0.000,0.000,0.000
489293.006,-31.250,33.203,34.180,11.719,33.691,0.000,0.000,0.000
489293.010,-31.250,38.086,34.180,15.625,35.156,0.000,0.000,0.000
489293.014,73.730,30.762,30.762,41.504,30.273,0.000,0.000,0.000
489293.018,99.121,32.715,33.203,42.480,32.715,0.000,0.000,0.000
489293.022,0.977,33.691,35.156,14.160,40.039,0.000,0.000,0.000
489293.026,-49.316,31.738,31.738,6.348,32.227,0.000,0.000,0.000
489293.030,46.387,31.250,28.809,34.180,28.320,2.000,1.000,0.000
489293.034,120.117,37.598,30.762,50.781,36.621,0.000,0.000,0.000
489293.038,43.945,40.039,28.320,31.250,35.645,0.000,0.000,0.000
489293.042,-43.457,29.785,27.832,15.137,39.062,0.000,0.000,0.000
489293.045,25.391,29.297,31.738,23.926,43.457,0.000,0.000,0.000
489293.049,110.840,31.738,27.344,33.203,32.227,0.000,0.000,0.000
489293.053,61.523,28.809,25.879,20.996,21.484,0.000,0.000,0.000
489293.057,-45.898,31.738,30.273,-1.953,17.090,0.000,0.000,0.000
489293.061,-22.949,34.180,26.367,-0.977,15.625,0.000,0.000,0.000
489293.065,79.102,32.227,21.973,24.414,17.578,0.000,0.000,0.000
489293.069,89.355,33.203,26.367,31.738,20.996,0.000,0.000,0.000
489293.073,-13.672,39.551,31.250,14.648,22.949,0.000,0.000,0.000
489293.077,-42.480,38.086,28.320,7.324,26.367,0.000,0.000,0.000
489293.081,54.199,29.785,22.949,26.367,30.762,0.000,0.000,0.000
489293.085,99.121,34.668,27.832,40.039,40.039,0.000,0.000,0.000
489293.088,1.953,34.668,28.809,20.508,39.062,0.000,0.000,0.000
489293.092,-60.059,25.879,23.926,4.395,22.949,0.000,0.000,0.000
489293.096,25.879,28.809,24.902,19.531,24.414,0.000,0.000,0.000
489293.100,96.680,33.203,28.809,36.621,23.926,0.000,0.000,0.000
489293.104,35.156,33.203,30.762,25.391,11.719,0.000,0.000,0.000
489293.108,-54.688,28.320,34.668,5.859,11.230,0.000,0.000,0.000
489293.112,-2.930,31.738,29.297,17.090,2.441,0.000,0.000,0.000
489293.116,86.914,28.809,20.996,42.969,-4.883,0.000,0.000,0.000
489293.120,54.688,26.367,23.438,20.996,-4.883,0.000,0.000,0.000
489293.124,-46.875,36.133,28.320,-9.277,-13.672,0.000,0.000,0.000
489293.127,-31.250,32.715,24.902,-6.348,-18.066,0.000,0.000,0.000
489293.131,71.777,27.344,23.926,20.508,-7.324,0.000,0.000,0.000
489293.135,88.867,24.902,29.297,31.250,-0.977,0.000,0.000,0.000
489293.139,-16.602,23.438,31.250,12.207,0.977,0.000,0.000,0.000
489293.143,-42.969,29.785,31.738,5.859,4.395,0.000,0.000,0.000
489293.147,61.523,33.203,33.691,34.180,14.160,0.000,0.000,0.000
489293.151,112.793,39.551,32.227,41.016,22.949,0.000,0.000,0.000
489293.155,20.508,35.156,24.902,2.930,9.766,0.000,0.000,0.000
489293.159,-50.293,23.438,25.879,-11.230,12.207,0.000,0.000,0.000
489293.163,28.320,25.879,25.879,12.207,11.719,0.000,0.000,0.000
489293.167,103.027,28.320,23.438,30.273,-13.672,0.000,0.000,0.000
489293.170,44.922,24.414,27.344,23.438,-18.555,0.000,0.000,0.000
489293.174,-50.781,23.926,28.809,-0.488,-5.371,0.000,0.000,0.000
489293.178,-2.930,23.438,29.297,5.859,4.883,0.000,0.000,0.000
489293.182,104.004,31.250,29.785,43.945,17.578,0.000,0.000,0.000
489293.186,87.891,35.645,27.344,39.062,30.273,0.000,0.000,0.000
489293.190,-28.809,22.949,22.949,3.906,30.273,0.000,0.000,0.000
489293.194,-16.602,25.879,25.391,7.324,30.762,0.000,0.000,0.000
489293.198,91.797,31.250,24.902,31.738,34.180,0.000,0.000,0.000
489293.202,107.422,27.832,23.926,34.668,29.785,0.000,0.000,0.000
489293.206,5.371,30.273,30.273,14.648,25.879,0.000,0.000,0.000
489293.210,-37.109,30.273,32.715,9.277,27.832,0.000,0.000,0.000
489293.213,54.688,31.738,31.738,31.250,25.391,0.000,0.000,0.000
489293.217,114.746,38.086,31.738,45.410,26.855,0.000,0.000,0.000
489293.221,33.691,39.062,28.809,30.762,40.527,0.000,0.000,0.000
489293.225,-47.363,33.203,22.461,18.066,47.852,0.000,0.000,0.000
489293.229,25.391,28.809,22.949,30.273,42.969,0.000,0.000,0.000
489293.233,113.770,30.762,24.902,44.434,31.738,0.000,0.000,0.000
489293.237,67.383,27.832,28.320,32.227,27.832,0.000,0.000,0.000
489293.241,-36.621,26.855,32.227,10.254,41.992,0.000,0.000,0.000
489293.245,-2.930,36.133,32.227,24.414,46.387,0.000,0.000,0.000
489293.249,90.820,36.621,31.738,47.363,31.250,0.000,0.000,0.000
489293.252,77.637,33.203,30.273,39.551,27.344,0.000,0.000,0.000
489293.256,-32.715,33.203,32.227,16.113,26.367,0.000,0.000,0.000
489293.260,-37.598,28.320,32.715,9.277,22.461,0.000,0.000,0.000
489293.264,69.336,25.391,28.320,36.133,21.484,0.000,0.000,0.000
489293.268,100.586,29.785,28.809,44.434,21.973,0.000,0.000,0.000
489293.272,3.906,33.691,31.250,20.508,36.621,0.000,0.000,0.000
489293.276,-41.992,28.320,30.762,14.648,38.574,0.000,0.000,0.000
489293.280,50.293,30.762,30.273,28.809,20.020,0.000,0.000,0.000
489293.284,111.328,34.180,29.785,42.969,23.438,0.000,0.000,0.000
489293.288,39.551,30.273,31.250,33.203,33.203,0.000,0.000,0.000
489293.292,-46.387,31.250,31.738,14.160,34.668,0.000,0.000,0.000
489293.295,12.695,29.297,26.367,20.996,30.273,0.000,0.000,0.000
489293.299,99.121,21.973,24.902,37.109,25.391,0.000,0.000,0.000
489293.303,55.664,23.438,25.391,23.926,31.250,0.000,0.000,0.000
489293.307,-50.293,27.344,25.391,1.953,29.785,0.000,0.000,0.000
489293.311,-20.508,26.367,25.391,14.160,23.438,0.000,0.000,0.000
489293.315,82.520,28.809,22.949,38.086,21.973,0.000,0.000,0.000
489293.319,74.219,32.227,23.438,28.320,16.113,0.000,0.000,0.000
489293.323,-30.762,32.715,30.762,5.371,27.344,0.000,0.000,0.000
489293.327,-45.898,28.809,30.762,3.906,43.457,0.000,0.000,0.000
489293.331,51.758,26.855,24.414,19.531,24.902,0.000,0.000,0.000
489293.334,90.820,26.855,23.926,23.438,1.953,0.000,0.000,0.000
489293.338,-2.441,33.691,26.367,9.277,7.324,0.000,0.000,0.000
489293.342,-55.664,36.133,27.832,0.488,22.461,0.000,0.000,0.000
489293.346,35.156,28.320,25.879,18.555,25.879,0.000,0.000,0.000
489293.350,106.934,32.715,28.320,40.527,20.508,0.000,0.000,0.000
489293.354,43.457,35.156,32.715,26.855,25.879,0.000,0.000,0.000
489293.358,-41.504,32.715,31.738,6.348,34.668,0.000,0.000,0.000
489293.362,12.207,36.133,27.344,14.160,41.016,0.000,0.000,0.000
489293.366,104.492,34.668,26.367,42.480,29.297,0.000,0.000,0.000
489293.370,73.730,31.250,26.367,33.691,7.324,0.000,0.000,0.000
489293.374,-34.668,33.203,21.973,-5.371,10.742,0.000,0.000,0.000
489293.377,-15.625,31.250,19.043,-0.977,12.695,0.000,0.000,0.000
489293.381,81.543,29.297,19.531,22.461,10.254,0.000,0.000,0.000
489293.385,82.520,28.320,23.438,21.484,13.672,0.000,0.000,0.000
489293.389,-18.066,29.297,29.785,0.977,16.113,0.000,0.000,0.000
489293.393,-40.039,33.691,30.273,0.000,21.484,0.000,0.000,0.000
489293.397,61.523,35.156,27.832,28.320,23.438,0.000,0.000,0.000
489293.401,112.793,30.762,24.902,37.109,23.926,0.000,0.000,0.000
489293.405,24.414,28.320,22.949,12.695,29.297,0.000,0.000,0.000
489293.409,-48.828,31.250,24.902,-2.441,27.344,0.000,0.000,0.000
489293.413,26.855,37.598,21.973,12.207,23.438,0.000,0.000,0.000
489293.417,102.539,36.621,19.531,29.785,28.809,0.000,0.000,0.000
489293.420,34.668,27.344,20.020,19.531,25.879,4.000,1.000,0.000
489293.424,-62.500,26.367,22.461,-5.859,11.230,0.000,0.000,0.000
489293.428,-12.695,28.320,25.391,-2.930,11.230,0.000,0.000,0.000
489293.432,88.379,25.879,28.809,26.367,24.414,0.000,0.000,0.000
489293.436,70.801,28.320,28.320,27.832,19.043,0.000,0.000,0.000
489293.440,-41.016,26.367,26.367,5.371,9.277,0.000,0.000,0.000
489293.444,-37.598,22.461,27.344,12.207,19.043,0.000,0.000,0.000
489293.448,66.895,27.344,26.367,34.668,19.043,0.000,0.000,0.000
489293.452,91.309,31.250,30.762,34.668,17.578,0.000,0.000,0.000
489293.456,-9.766,32.227,32.227,12.207,27.344,0.000,0.000,0.000
489293.459,-47.363,38.086,32.227,6.836,21.973,0.000,0.000,0.000
489293.463,51.270,34.668,31.250,31.738,16.113,0.000,0.000,0.000
489293.467,106.445,18.066,24.414,38.086,16.602,0.000,0.000,0.000
489293.471,24.414,19.043,25.391,19.531,17.578,0.000,0.000,0.000
489293.475,-56.641,25.879,27.344,4.883,14.648,0.000,0.000,0.000
489293.479,15.137,30.273,27.832,18.555,17.578,0.000,0.000,0.000
489293.483,96.680,31.250,30.273,38.574,21.973,0.000,0.000,0.000
489293.487,40.527,30.762,29.297,22.461,15.137,0.000,0.000,0.000
489293.491,-62.988,34.180,28.809,-2.441,12.207,0.000,0.000,0.000
489293.495,-26.367,37.109,33.203,12.695,18.555,0.000,0.000,0.000
489293.499,75.684,28.320,30.273,36.133,19.043,0.000,0.000,0.000
489293.502,64.941,23.438,27.832,29.297,24.414,0.000,0.000,0.000
489293.506,-42.480,27.344,29.297,13.184,43.945,0.000,0.000,0.000
489293.510,-47.852,20.996,25.391,15.137,32.227,0.000,0.000,0.000
489293.514,57.129,20.020,23.926,31.738,21.484,0.000,0.000,0.000
489293.518,93.262,33.691,27.344,40.039,36.133,0.000,0.000,0.000
489293.522,-2.441,34.180,31.738,28.809,28.320,0.000,0.000,0.000
489293.526,-49.805,24.414,33.203,19.531,18.066,0.000,0.000,0.000
489293.530,38.086,30.762,30.762,31.738,14.160,0.000,0.000,0.000
489293.534,100.586,32.715,29.297,48.828,16.602,0.000,0.000,0.000
489293.538,35.156,28.809,33.691,39.062,13.672,0.000,0.000,0.000
489293.541,-45.410,32.227,32.715,11.719,6.836,0.000,0.000,0.000
489293.545,12.695,28.320,25.391,24.414,14.160,0.000,0.000,0.000
489293.549,104.492,29.785,23.926,52.734,27.344,0.000,0.000,0.000
489293.553,70.801,31.250,27.344,43.457,34.668,0.000,0.000,0.000
489293.557,-34.180,25.879,29.297,21.484,38.574,0.000,0.000,0.000
489293.561,-11.230,28.809,25.391,21.973,33.203,0.000,0.000,0.000
489293.565,94.238,37.109,25.879,44.434,24.902,0.000,0.000,0.000
489293.569,96.191,38.574,29.785,44.434,20.996,0.000,0.000,0.000
489293.573,-18.066,32.227,29.785,15.137,12.695,0.000,0.000,0.000
489293.577,-38.086,28.809,27.344,8.789,6.836,0.000,0.000,0.000
489293.581,62.012,26.855,27.344,33.203,7.812,0.000,0.000,0.000
489293.584,96.680,24.902,29.785,41.992,8.301,0.000,0.000,0.000
489293.588,4.883,23.438,32.227,18.555,7.812,0.000,0.000,0.000
489293.592,-53.711,30.762,31.250,-2.441,17.090,0.000,0.000,0.000
489293.596,25.391,38.086,29.785,17.090,33.203,0.000,0.000,0.000
489293.600,87.891,32.715,28.809,34.180,30.273,0.000,0.000,0.000
489293.604,21.484,25.391,26.367,20.996,12.207,0.000,0.000,0.000
489293.608,-70.312,24.902,26.367,5.859,8.301,0.000,0.000,0.000
489293.612,-14.160,32.227,28.320,16.602,14.648,0.000,0.000,0.000
489293.616,87.402,36.133,30.273,40.527,22.461,0.000,0.000,0.000
489293.620,55.176,36.621,30.273,25.879,16.113,0.000,0.000,0.000
489293.624,-54.688,33.203,29.297,1.953,13.184,0.000,0.000,0.000
489293.627,-29.297,29.785,29.297,6.836,23.438,0.000,0.000,0.000
489293.631,80.566,31.250,26.855,31.250,19.043,0.000,0.000,0.000
489293.635,86.426,34.180,31.250,34.668,12.695,0.000,0.000,0.000
489293.639,-25.391,27.832,29.785,11.230,27.344,0.000,0.000,0.000
489293.643,-48.828,30.762,26.367,13.184,24.414,0.000,0.000,0.000
489293.647,58.105,38.086,27.832,39.551,6.348,0.000,0.000,0.000
489293.651,104.492,27.344,27.344,41.504,10.742,0.000,0.000,0.000
489293.655,18.555,27.832,26.367,16.113,17.090,0.000,0.000,0.000
489293.659,-50.293,38.086,28.809,5.371,19.531,0.000,0.000,0.000
489293.663,23.926,39.062,27.344,24.414,11.719,0.000,0.000,0.000
489293.666,104.980,38.086,26.855,50.781,6.348,0.000,0.000,0.000
489293.670,46.875,35.645,28.809,42.480,15.625,0.000,0.000,0.000
489293.674,-55.664,31.738,26.855,14.648,22.461,0.000,0.000,0.000
489293.678,-12.695,30.762,23.438,20.996,18.555,0.000,0.000,0.000
489293.682,85.449,30.273,24.414,37.109,22.949,0.000,0.000,0.000
489293.686,64.453,34.668,25.879,34.668,34.668,0.000,0.000,0.000
489293.690,-41.504,38.574,27.832,18.555,39.551,0.000,0.000,0.000
489293.694,-40.527,27.832,27.344,18.066,33.691,0.000,0.000,0.000
489293.698,62.988,25.391,26.367,41.016,18.555,0.000,0.000,0.000
489293.702,86.914,26.855,27.832,47.363,12.207,0.000,0.000,0.000
489293.706,-12.207,29.785,29.297,20.996,12.207,0.000,0.000,0.000
489293.709,-49.316,31.250,28.809,3.418,13.672,0.000,0.000,0.000
489293.713,43.945,29.297,24.902,24.902,20.996,0.000,0.000,0.000
489293.717,99.121,30.762,22.949,40.039,21.973,0.000,0.000,0.000
489293.721,19.043,26.367,24.902,20.508,21.973,0.000,0.000,0.000
489293.725,-56.641,28.809,26.367,6.836,28.809,0.000,0.000,0.000
489293.729,16.602,32.715,24.902,24.414,36.133,0.000,0.000,0.000
489293.733,105.957,39.062,24.902,46.875,30.273,0.000,0.000,0.000
489293.737,54.199,40.527,25.879,34.668,23.438,0.000,0.000,0.000
489293.741,-50.781,33.203,27.832,13.672,28.320,0.000,0.000,0.000
489293.745,-14.160,30.273,27.344,20.020,20.996,0.000,0.000,0.000
489293.748,94.727,37.598,23.926,43.457,16.113,0.000,0.000,0.000
489293.752,86.914,39.062,25.391,43.945,20.020,0.000,0.000,0.000
489293.756,-31.738,36.621,28.809,9.277,8.301,0.000,0.000,0.000
489293.760,-37.109,33.691,26.855,9.766,5.371,0.000,0.000,0.000
489293.764,74.707,35.645,27.344,45.410,15.625,0.000,0.000,0.000
489293.768,103.516,42.969,29.297,50.781,15.137,0.000,0.000,0.000
489293.772,7.324,45.410,34.180,34.668,20.020,0.000,0.000,0.000
489293.776,-33.691,47.363,36.133,27.832,33.203,0.000,0.000,0.000
489293.780,49.805,46.875,31.738,43.945,43.945,2.000,1.000,90.000
489293.784,103.516,34.180,30.273,48.828,41.504,0.000,0.000,0.000
489293.788,27.832,30.273,26.855,23.438,26.367,0.000,0.000,0.000
489293.791,-52.734,35.156,27.344,7.812,33.691,0.000,0.000,0.000
489293.795,11.719,35.156,26.367,26.855,59.082,0.000,0.000,0.000
489293.799,101.074,38.574,24.902,55.664,52.246,0.000,0.000,0.000
489293.803,65.918,41.016,24.414,43.945,32.227,0.000,0.000,0.000
489293.807,-40.039,38.086,25.391,18.066,38.574,0.000,0.000,0.000
489293.811,-16.113,41.504,30.273,31.250,51.758,0.000,0.000,0.000
489293.815,88.379,52.246,27.832,61.523,36.621,0.000,0.000,0.000
489293.819,91.309,49.316,22.949,52.246,16.602,0.000,0.000,0.000
489293.823,-18.066,40.527,23.438,20.996,16.113,0.000,0.000,0.000
489293.827,-35.156,39.062,24.414,13.184,13.672,0.000,0.000,0.000
489293.831,69.824,41.504,24.902,39.551,14.648,0.000,0.000,0.000
489293.834,101.074,35.156,25.391,46.387,19.043,0.000,0.000,0.000
489293.838,8.789,34.180,28.320,20.996,10.254,0.000,0.000,0.000
489293.842,-43.457,33.691,28.809,8.789,-0.977,0.000,0.000,0.000
489293.846,37.598,28.320,24.414,25.391,4.395,0.000,0.000,0.000
489293.850,105.469,28.320,24.414,42.969,11.230,0.000,0.000,0.000
489293.854,35.156,32.227,25.391,29.297,6.836,0.000,0.000,0.000
489293.858,-57.617,37.598,27.344,15.137,15.625,0.000,0.000,0.000
489293.862,0.000,37.598,29.297,32.715,32.715,0.000,0.000,0.000
489293.866,97.656,39.062,29.785,45.898,25.391,0.000,0.000,0.000
489293.870,64.941,35.645,27.832,32.715,10.254,0.000,0.000,0.000
489293.873,-43.945,25.391,26.367,11.230,14.160,0.000,0.000,0.000
489293.877,-23.438,24.414,27.832,22.461,23.926,0.000,0.000,0.000
489293.881,81.055,31.250,24.902,48.340,32.227,0.000,0.000,0.000
489293.885,93.262,31.738,23.926,46.387,37.109,0.000,0.000,0.000
489293.889,-19.531,26.855,26.855,18.555,21.484,0.000,0.000,0.000
489293.893,-53.223,28.320,24.414,10.742,12.695,0.000,0.000,0.000
489293.897,55.664,38.574,26.855,39.062,23.438,0.000,0.000,0.000
489293.901,100.586,42.480,27.832,46.387,17.578,0.000,0.000,0.000
489293.905,7.324,28.320,25.391,18.066,8.301,0.000,0.000,0.000
489293.909,-60.059,22.461,26.855,-0.488,9.277,0.000,0.000,0.000
489293.913,19.043,28.320,31.250,24.414,17.090,0.000,0.000,0.000
489293.916,96.191,31.738,31.738,51.270,19.043,0.000,0.000,0.000
489293.920,33.691,30.762,26.855,30.762,-4.883,0.000,0.000,0.000
489293.924,-56.152,32.227,25.879,5.371,-13.672,0.000,0.000,0.000
489293.928,4.395,40.039,26.855,22.461,8.789,0.000,0.000,0.000
489293.932,103.027,46.875,28.809,49.805,12.207,0.000,0.000,0.000
489293.936,76.172,37.109,28.809,40.527,6.836,0.000,0.000,0.000
489293.940,-34.180,27.344,28.809,16.113,27.832,0.000,0.000,0.000
489293.944,-31.738,26.855,26.855,16.602,36.133,0.000,0.000,0.000
489293.948,73.242,24.414,30.273,41.016,23.926,0.000,0.000,0.000
489293.952,96.191,28.809,30.762,35.156,17.578,0.000,0.000,0.000
489293.955,-9.277,30.273,26.367,8.301,24.414,0.000,0.000,0.000
489293.959,-50.781,26.367,25.391,1.465,32.227,0.000,0.000,0.000
489293.963,44.434,28.320,25.879,23.438,33.203,0.000,0.000,0.000
489293.967,103.516,37.598,26.855,39.062,34.668,0.000,0.000,0.000
489293.971,20.508,31.250,25.879,19.043,38.574,0.000,0.000,0.000
489293.975,-57.617,21.484,25.391,4.395,37.598,0.000,0.000,0.000
489293.979,14.648,24.902,24.414,23.926,38.574,0.000,0.000,0.000
489293.983,97.656,28.320,23.926,46.387,49.805,0.000,0.000,0.000
489293.987,50.293,32.715,24.414,36.621,48.340,0.000,0.000,0.000
489293.991,-46.387,31.250,24.414,7.812,25.879,0.000,0.000,0.000
489293.995,-15.137,26.855,23.438,6.836,14.648,0.000,0.000,0.000
489293.998,79.102,31.250,24.902,29.785,19.043,0.000,0.000,0.000
489294.002,69.336,22.949,28.809,23.438,13.672,0.000,0.000,0.000
489294.006,-39.062,17.578,32.715,2.441,10.742,0.000,0.000,0.000
489294.010,-42.969,24.414,28.809,3.906,9.277,0.000,0.000,0.000
489294.014,63.965,25.879,26.367,24.414,4.883,0.000,0.000,0.000
489294.018,101.074,26.855,27.832,37.109,10.254,0.000,0.000,0.000
489294.022,8.301,39.551,28.320,22.949,18.555,0.000,0.000,0.000
489294.026,-45.410,39.062,24.414,5.371,21.484,0.000,0.000,0.000
489294.030,41.016,25.391,21.484,16.602,24.414,0.000,0.000,0.000
489294.034,108.887,31.250,21.484,34.668,21.484,0.000,0.000,0.000
489294.038,36.133,33.691,20.508,16.602,12.207,0.000,0.000,0.000
489294.041,-47.852,25.879,24.902,-8.301,12.207,0.000,0.000,0.000
489294.045,12.207,24.902,26.367,9.277,12.207,0.000,0.000,0.000
489294.049,99.609,22.949,22.461,33.203,20.020,0.000,0.000,0.000
489294.053,67.871,23.438,25.879,25.879,30.762,0.000,0.000,0.000
489294.057,-31.738,37.109,32.227,9.766,27.344,0.000,0.000,0.000
489294.061,-8.301,41.504,30.762,16.113,29.297,0.000,0.000,0.000
489294.065,90.332,25.391,26.855,37.598,26.855,0.000,0.000,0.000
489294.069,92.285,22.949,27.344,38.574,26.367,0.000,0.000,0.000
489294.073,-20.508,29.297,27.344,11.230,28.320,0.000,0.000,0.000
489294.077,-42.480,27.832,27.832,5.859,22.949,0.000,0.000,0.000
489294.080,58.594,28.809,30.762,39.062,14.648,0.000,0.000,0.000
489294.084,90.820,33.691,27.344,38.574,12.695,0.000,0.000,0.000
489294.088,-4.395,34.180,25.879,11.719,13.672,0.000,0.000,0.000
489294.092,-62.500,38.086,27.344,1.953,13.672,0.000,0.000,0.000
489294.096,15.137,35.156,21.484,15.625,4.883,0.000,0.000,0.000
489294.100,85.449,19.043,20.996,31.738,-2.441,0.000,0.000,0.000
489294.104,25.391,18.555,20.996,13.672,-7.324,0.000,0.000,0.000
489294.108,-62.012,24.902,22.949,-2.930,-1.465,0.000,0.000,0.000
489294.112,-2.930,29.297,28.320,12.695,13.672,0.000,0.000,0.000
489294.116,95.215,35.645,25.391,34.180,17.578,0.000,0.000,0.000
489294.120,68.359,34.180,27.832,35.645,19.043,0.000,0.000,0.000
489294.123,-35.645,38.574,31.250,21.484,19.043,0.000,0.000,0.000
489294.127,-28.320,37.598,24.902,19.043,20.996,0.000,0.000,0.000
489294.131,68.848,29.785,25.391,36.133,18.066,0.000,0.000,0.000
489294.135,84.961,35.645,25.391,35.156,13.184,0.000,0.000,0.000
489294.139,-18.555,32.715,23.926,13.184,19.043,0.000,0.000,0.000
489294.143,-44.922,30.273,26.855,14.648,23.438,0.000,0.000,0.000
489294.147,53.711,37.598,30.762,40.527,24.902,0.000,0.000,0.000
489294.151,106.445,39.551,30.762,46.875,35.645,0.000,0.000,0.000
489294.155,19.043,35.645,27.832,25.879,38.086,0.000,0.000,0.000
489294.159,-60.059,35.156,27.344,17.578,16.113,0.000,0.000,0.000
489294.162,21.973,32.715,25.879,34.668,6.348,0.000,0.000,0.000
489294.166,102.051,29.297,21.484,45.898,10.254,0.000,0.000,0.000
489294.170,42.480,29.297,23.438,32.227,13.184,0.000,0.000,0.000
489294.174,-48.340,29.297,23.438,7.812,22.461,0.000,0.000,0.000
489294.178,0.977,30.762,20.508,17.090,27.832,0.000,0.000,0.000
489294.182,101.562,34.180,22.461,46.875,34.180,4.000,1.000,90.000
489294.186,81.055,36.133,25.879,43.945,32.715,0.000,0.000,0.000
489294.190,-30.762,37.598,27.832,17.578,28.809,0.000,0.000,0.000
489294.194,-27.344,39.551,30.273,18.066,41.992,0.000,0.000,0.000
489294.198,72.266,36.621,26.367,45.410,57.617,0.000,0.000,0.000
489294.202,97.656,27.832,18.555,41.992,25.391,0.000,0.000,0.000
489294.205,0.977,29.785,19.043,8.789,-1.465,0.000,0.000,0.000
489294.209,-40.039,33.203,22.461,0.488,14.648,0.000,0.000,0.000
489294.213,55.176,34.180,22.461,27.832,21.484,0.000,0.000,0.000
489294.217,107.422,38.574,22.949,45.410,21.973,0.000,0.000,0.000
489294.221,24.414,46.875,30.762,25.391,28.809,0.000,0.000,0.000
489294.225,-52.246,42.480,29.785,2.441,40.039,0.000,0.000,0.000
489294.229,18.555,33.691,23.926,15.625,40.039,0.000,0.000,0.000
489294.233,102.539,33.691,25.391,44.922,29.297,0.000,0.000,0.000
489294.237,59.082,35.156,27.344,37.109,26.855,0.000,0.000,0.000
489294.241,-38.086,31.738,25.391,12.207,37.109,0.000,0.000,0.000
489294.245,-3.418,32.715,26.367,26.367,47.363,0.000,0.000,0.000
489294.248,91.797,32.227,28.320,57.129,29.785,0.000,0.000,0.000
489294.252,78.125,28.809,28.809,54.199,14.160,0.000,0.000,0.000
489294.256,-23.438,31.250,30.273,25.391,21.973,0.000,0.000,0.000
489294.260,-27.832,31.738,30.762,20.020,32.715,0.000,0.000,0.000
489294.264,68.359,33.203,27.832,43.945,41.504,0.000,0.000,0.000
489294.268,96.191,30.273,26.367,45.410,34.668,0.000,0.000,0.000
489294.272,-2.930,23.926,24.902,18.066,31.250,0.000,0.000,0.000
489294.276,-53.711,24.902,24.902,12.695,33.691,0.000,0.000,0.000
489294.280,33.691,28.320,23.926,36.133,26.855,0.000,0.000,0.000
489294.284,96.680,26.855,24.902,49.805,25.391,0.000,0.000,0.000
489294.287,22.949,24.902,29.297,38.574,20.996,0.000,0.000,0.000
489294.291,-59.570,23.438,29.297,13.672,21.973,0.000,0.000,0.000
489294.295,10.742,28.809,28.809,24.902,36.621,0.000,0.000,0.000
489294.299,109.375,35.645,32.227,57.617,38.086,0.000,0.000,0.000
489294.303,66.406,29.785,27.344,43.457,28.320,0.000,0.000,0.000
489294.307,-40.039,27.344,28.809,15.625,30.273,0.000,0.000,0.000
489294.311,-4.883,36.133,30.273,25.391,32.715,0.000,0.000,0.000
489294.315,95.215,41.992,26.855,53.223,34.180,0.000,0.000,0.000
489294.319,91.309,41.016,27.832,60.059,37.109,0.000,0.000,0.000
489294.323,-22.949,28.809,30.273,37.109,34.180,0.000,0.000,0.000
489294.327,-49.316,21.973,30.273,19.531,21.973,0.000,0.000,0.000
489294.330,56.641,30.762,25.879,37.598,25.879,0.000,0.000,0.000
489294.334,102.051,33.691,27.344,54.199,29.297,0.000,0.000,0.000
489294.338,5.859,40.527,30.762,32.715,28.320,0.000,0.000,0.000
489294.342,-55.664,40.039,30.762,15.137,37.109,0.000,0.000,0.000
489294.346,29.785,29.297,27.344,40.039,30.273,0.000,0.000,0.000
489294.350,98.633,30.762,24.414,57.617,20.020,0.000,0.000,0.000
489294.354,30.762,31.250,25.879,36.133,21.973,0.000,0.000,0.000
489294.358,-59.082,34.180,31.738,20.508,22.949,0.000,0.000,0.000
489294.362,-9.766,38.086,31.250,32.227,19.531,0.000,0.000,0.000
489294.366,81.543,33.203,26.855,45.898,16.602,0.000,0.000,0.000
489294.369,49.805,30.762,29.785,31.738,10.254,0.000,0.000,0.000
489294.373,-56.152,36.133,32.715,7.324,13.184,0.000,0.000,0.000
489294.377,-38.574,31.738,26.855,17.578,27.832,0.000,0.000,0.000
489294.381,63.965,29.297,27.832,38.086,38.574,0.000,0.000,0.000
489294.385,77.637,34.180,29.785,35.156,33.691,0.000,0.000,0.000
489294.389,-25.391,33.691,29.785,13.672,33.691,0.000,0.000,0.000
489294.393,-55.176,23.926,29.297,6.836,43.945,0.000,0.000,0.000
489294.397,42.969,21.973,28.320,37.109,37.109,0.000,0.000,0.000
489294.401,84.473,33.203,26.855,47.363,7.324,0.000,0.000,0.000
489294.405,-7.812,29.297,27.832,17.090,-7.324,0.000,0.000,0.000
489294.409,-71.777,27.832,31.250,-0.488,5.371,0.000,0.000,0.000
489294.412,7.324,37.109,32.227,19.043,13.184,0.000,0.000,0.000
489294.416,85.938,29.297,30.762,32.227,10.742,0.000,0.000,0.000
489294.420,28.320,20.996,24.414,16.602,3.418,0.000,0.000,0.000
489294.424,-60.547,31.250,22.461,-1.465,14.160,0.000,0.000,0.000
489294.428,-6.836,35.645,25.879,12.695,40.039,0.000,0.000,0.000
489294.432,89.844,31.738,26.367,38.574,40.527,0.000,0.000,0.000
489294.436,72.266,29.785,24.414,34.180,19.531,0.000,0.000,0.000
489294.440,-42.969,28.320,23.438,9.766,13.184,0.000,0.000,0.000
489294.444,-44.922,34.668,24.902,5.371,22.461,0.000,0.000,0.000
489294.448,68.359,41.504,27.344,31.738,26.855,0.000,0.000,0.000
489294.452,90.332,34.180,23.926,34.668,15.625,0.000,0.000,0.000
489294.455,-20.020,24.902,20.020,4.883,7.812,0.000,0.000,0.000
489294.459,-56.641,28.320,21.973,-7.812,14.648,0.000,0.000,0.000
489294.463,39.551,33.203,24.414,22.949,16.602,0.000,0.000,0.000
489294.467,93.262,31.738,26.367,48.340,16.113,0.000,0.000,0.000
489294.471,15.625,34.668,27.344,24.414,19.043,2.000,1.000,135.000
489294.475,-65.430,29.785,26.855,-3.906,14.160,0.000,0.000,0.000
489294.479,11.719,27.344,27.344,16.602,23.926,0.000,0.000,0.000
489294.483,103.516,35.156,25.879,43.457,41.016,0.000,0.000,0.000
489294.487,51.270,34.668,23.926,25.391,27.344,0.000,0.000,0.000
489294.491,-49.805,28.320,22.461,0.488,10.254,0.000,0.000,0.000
489294.494,-18.066,25.391,20.996,5.859,9.766,0.000,0.000,0.000
489294.498,80.078,31.738,20.508,31.250,9.277,0.000,0.000,0.000
489294.502,73.242,33.691,20.996,27.832,8.789,0.000,0.000,0.000
489294.506,-34.180,36.621,22.949,1.953,13.184,0.000,0.000,0.000
489294.510,-39.062,36.133,23.926,3.418,16.113,0.000,0.000,0.000
489294.514,66.895,33.203,25.879,33.691,12.695,0.000,0.000,0.000
489294.518,93.262,27.832,24.414,43.457,10.254,0.000,0.000,0.000
489294.522,-7.324,23.926,21.973,13.672,14.648,0.000,0.000,0.000
489294.526,-50.781,30.273,25.391,6.348,26.367,0.000,0.000,0.000
489294.530,44.922,35.156,28.320,37.598,27.832,0.000,0.000,0.000
489294.534,106.445,34.668,25.391,44.922,16.113,0.000,0.000,0.000
489294.537,24.414,32.715,25.879,19.531,-0.488,0.000,0.000,0.000
489294.541,-62.012,33.691,26.367,4.883,-1.465,0.000,0.000,0.000
489294.545,0.977,36.133,22.949,20.508,8.789,0.000,0.000,0.000
489294.549,85.938,35.645,24.902,41.504,10.742,0.000,0.000,0.000
489294.553,42.969,33.203,25.391,30.273,18.066,0.000,0.000,0.000
489294.557,-61.523,30.273,21.484,4.395,25.391,0.000,0.000,0.000
489294.561,-30.273,26.367,20.996,13.672,28.320,0.000,0.000,0.000
489294.565,72.754,25.391,21.973,41.016,28.320,0.000,0.000,0.000
489294.569,70.312,29.785,20.996,34.668,24.902,0.000,0.000,0.000
489294.573,-33.203,28.320,22.949,9.277,26.367,0.000,0.000,0.000
489294.577,-48.828,31.250,25.391,8.789,39.062,0.000,0.000,0.000
489294.580,52.734,37.109,22.949,31.250,29.785,0.000,0.000,0.000
489294.584,94.238,37.109,21.973,33.203,9.277,0.000,0.000,0.000
489294.588,4.395,34.668,22.461,12.695,14.160,0.000,0.000,0.000
489294.592,-61.035,31.250,15.137,-3.418,12.207,0.000,0.000,0.000
489294.596,16.602,33.691,11.719,6.836,7.324,0.000,0.000,0.000
489294.600,96.191,33.691,15.625,31.250,18.555,0.000,0.000,0.000
489294.604,35.645,35.156,20.996,25.879,17.578,0.000,0.000,0.000
489294.608,-56.152,34.668,22.461,5.859,8.301,0.000,0.000,0.000
489294.612,3.906,31.738,21.484,15.137,6.836,0.000,0.000,0.000
489294.616,105.469,39.551,28.320,37.598,-1.465,0.000,0.000,0.000
489294.619,69.336,42.480,28.809,28.809,-23.926,0.000,0.000,0.000
489294.623,-48.340,28.320,25.391,4.395,-33.203,0.000,0.000,0.000
489294.627,-37.109,24.902,24.902,8.301,-20.996,0.000,0.000,0.000
489294.631,68.359,29.297,21.973,27.344,-14.160,0.000,0.000,0.000
489294.635,91.309,35.156,21.973,27.344,-5.859,0.000,0.000,0.000
489294.639,-9.277,38.574,23.926,10.742,12.695,0.000,0.000,0.000
489294.643,-40.039,40.039,26.855,8.789,29.785,0.000,0.000,0.000
489294.647,55.176,35.156,23.926,29.785,35.645,0.000,0.000,0.000
489294.651,104.004,30.762,25.879,46.387,41.992,0.000,0.000,0.000
489294.655,14.160,29.785,29.785,23.438,43.457,0.000,0.000,0.000
489294.659,-59.570,30.762,30.273,-0.488,38.086,0.000,0.000,0.000
489294.662,18.555,31.250,25.879,20.996,26.367,0.000,0.000,0.000
489294.666,99.121,36.621,24.902,49.316,27.344,0.000,0.000,0.000
489294.670,40.039,43.457,27.832,37.109,39.551,0.000,0.000,0.000
489294.674,-55.176,38.086,26.367,9.766,45.410,0.000,0.000,0.000
489294.678,-5.371,29.785,25.391,20.996,38.574,0.000,0.000,0.000
489294.682,92.773,28.809,26.855,47.363,32.227,0.000,0.000,0.000
489294.686,80.566,32.227,25.879,39.551,35.645,0.000,0.000,0.000
489294.690,-32.227,32.227,28.320,9.766,30.273,0.000,0.000,0.000
489294.694,-34.180,24.902,31.250,15.137,28.809,0.000,0.000,0.000
489294.698,66.406,29.297,24.902,34.180,27.344,0.000,0.000,0.000
489294.701,81.055,36.133,20.020,23.438,16.113,0.000,0.000,0.000
489294.705,-17.090,34.668,21.484,0.000,11.230,0.000,0.000,0.000
489294.709,-56.152,31.250,20.996,-9.277,18.555,0.000,0.000,0.000
489294.713,38.574,27.832,20.996,19.531,28.809,0.000,0.000,0.000
489294.717,100.586,35.156,23.438,39.062,22.461,0.000,0.000,0.000
489294.721,19.531,33.203,21.973,23.926,18.066,0.000,0.000,0.000
489294.725,-56.152,24.414,21.973,9.766,29.785,0.000,0.000,0.000
489294.729,22.949,25.879,23.438,26.855,32.227,0.000,0.000,0.000
489294.733,108.887,30.273,27.344,54.688,27.832,0.000,0.000,0.000
489294.737,61.035,42.480,28.809,43.945,33.203,0.000,0.000,0.000
489294.741,-39.062,45.410,26.367,22.461,39.551,0.000,0.000,0.000
489294.744,-13.184,30.273,25.391,21.484,29.785,0.000,0.000,0.000
489294.748,86.426,29.297,27.832,41.016,21.484,0.000,0.000,0.000
489294.752,84.961,33.203,29.297,41.992,25.879,0.000,0.000,0.000
489294.756,-18.066,31.250,29.297,28.809,35.645,0.000,0.000,0.000
489294.760,-30.273,34.668,30.273,25.879,48.828,0.000,0.000,0.000
489294.764,66.895,36.621,26.855,40.039,38.574,0.000,0.000,0.000
489294.768,96.680,37.598,24.902,45.898,27.344,0.000,0.000,0.000
489294.772,0.977,41.504,28.320,19.043,42.969,0.000,0.000,0.000
489294.776,-43.457,41.992,26.367,8.789,46.875,0.000,0.000,0.000
489294.780,46.387,36.133,25.391,35.156,30.762,0.000,0.000,0.000
489294.784,108.398,30.273,25.391,47.852,24.902,0.000,0.000,0.000
489294.787,40.039,30.762,26.367,28.320,32.227,0.000,0.000,0.000
489294.791,-44.434,24.902,26.367,9.277,31.250,0.000,0.000,0.000
489294.795,16.113,26.367,23.926,25.391,30.762,0.000,0.000,0.000
489294.799,112.793,32.715,25.879,52.734,33.691,0.000,0.000,0.000
489294.803,74.219,32.715,25.391,38.574,29.785,0.000,0.000,0.000
489294.807,-35.156,34.180,28.320,11.719,29.785,0.000,0.000,0.000
489294.811,-12.695,30.273,29.297,23.926,24.414,0.000,0.000,0.000
489294.815,91.309,29.297,25.879,47.852,18.555,0.000,0.000,0.000
489294.819,89.844,36.621,24.414,33.203,16.602,0.000,0.000,0.000
489294.823,-20.020,29.297,26.855,1.465,18.555,0.000,0.000,0.000
489294.826,-38.086,21.973,27.344,-0.977,21.484,0.000,0.000,0.000
489294.830,67.871,23.926,24.902,28.320,13.672,0.000,0.000,0.000
489294.834,114.258,30.273,27.344,40.039,7.324,0.000,0.000,0.000
489294.838,15.625,35.645,31.250,21.484,10.254,0.000,0.000,0.000
489294.842,-49.316,34.180,31.738,7.812,18.555,0.000,0.000,0.000
489294.846,29.785,35.645,30.762,24.902,26.367,0.000,0.000,0.000
489294.850,99.121,32.715,26.855,40.527,27.344,0.000,0.000,0.000
489294.854,33.691,25.879,24.902,18.555,21.484,0.000,0.000,0.000
489294.858,-55.176,29.785,26.855,4.883,25.391,0.000,0.000,0.000
489294.862,-8.301,26.855,25.391,19.043,26.367,0.000,0.000,0.000
489294.866,80.566,22.949,26.855,37.598,18.555,0.000,0.000,0.000
489294.869,58.594,29.297,30.762,32.715,18.555,0.000,0.000,0.000
489294.873,-46.387,28.320,30.762,8.789,26.367,4.000,1.000,135.000
489294.877,-34.668,27.344,26.855,4.883,33.203,0.000,0.000,0.000
489294.881,68.359,36.133,25.879,26.855,11.230,0.000,0.000,0.000
489294.885,78.125,41.016,26.367,32.715,-6.836,0.000,0.000,0.000
489294.889,-26.367,39.551,28.320,4.883,1.953,0.000,0.000,0.000
489294.893,-55.176,30.762,26.367,-0.488,6.836,0.000,0.000,0.000
489294.897,45.410,27.832,22.949,27.344,6.836,0.000,0.000,0.000
489294.901,104.004,35.645,27.344,38.574,9.277,0.000,0.000,0.000
489294.905,15.625,37.109,27.832,17.578,12.695,0.000,0.000,0.000
489294.908,-60.547,30.762,25.391,0.488,21.484,0.000,0.000,0.000
489294.912,20.996,37.598,27.344,17.578,20.996,0.000,0.000,0.000
489294.916,105.957,39.551,25.879,39.062,16.602,0.000,0.000,0.000
489294.920,43.457,25.879,24.902,28.809,13.184,0.000,0.000,0.000
489294.924,-58.105,28.809,26.367,4.883,0.977,0.000,0.000,0.000
489294.928,-11.230,41.992,23.438,14.160,2.930,0.000,0.000,0.000
489294.932,91.797,39.062,20.996,40.527,15.137,0.000,0.000,0.000
489294.936,75.684,31.738,20.508,34.180,18.555,0.000,0.000,0.000
489294.940,-33.691,33.203,24.414,11.230,29.785,0.000,0.000,0.000
489294.944,-30.273,36.621,30.273,13.672,24.902,0.000,0.000,0.000
489294.948,75.195,41.016,30.273,38.574,4.395,0.000,0.000,0.000
489294.951,97.656,39.062,25.391,41.504,15.137,0.000,0.000,0.000
489294.955,-13.184,34.180,24.414,13.184,10.254,0.000,0.000,0.000
489294.959,-60.059,31.738,25.391,1.465,-5.859,0.000,0.000,0.000
489294.963,40.039,31.738,27.344,29.785,12.695,0.000,0.000,0.000
489294.967,99.121,35.645,24.902,39.551,27.344,0.000,0.000,0.000
489294.971,17.578,38.574,19.531,14.160,32.227,0.000,0.000,0.000
489294.975,-58.105,32.227,21.484,-0.488,44.434,0.000,0.000,0.000
489294.979,13.672,30.273,21.973,22.461,50.781,0.000,0.000,0.000
489294.983,99.121,37.109,20.508,42.969,34.668,0.000,0.000,0.000
489294.987,60.059,42.480,26.367,28.809,32.227,0.000,0.000,0.000
489294.991,-40.527,37.598,28.809,3.906,29.297,0.000,0.000,0.000
489294.994,-14.648,31.250,24.414,9.766,11.719,0.000,0.000,0.000
489294.998,84.473,31.250,23.926,38.574,10.254,0.000,0.000,0.000
489295.002,80.566,30.762,24.414,33.691,7.812,0.000,0.000,0.000
489295.006,-24.902,36.133,27.832,11.719,12.695,0.000,0.000,0.000
489295.010,-37.598,32.715,26.367,14.160,20.508,0.000,0.000,0.000
489295.014,60.547,28.809,21.973,37.598,23.926,0.000,0.000,0.000
489295.018,92.285,34.180,24.414,45.410,24.902,0.000,0.000,0.000
489295.022,-5.371,35.645,26.855,29.297,34.180,0.000,0.000,0.000
489295.026,-46.387,36.621,28.809,10.742,52.246,0.000,0.000,0.000
489295.030,43.457,33.691,25.391,24.414,41.504,0.000,0.000,0.000
489295.033,98.145,27.344,24.414,37.109,14.160,0.000,0.000,0.000
489295.037,22.949,22.949,26.855,18.066,0.000,0.000,0.000,0.000
489295.041,-59.082,24.902,25.879,2.441,-10.254,0.000,0.000,0.000
489295.045,1.953,26.367,26.367,13.672,-10.742,0.000,0.000,0.000
489295.049,89.355,34.668,25.879,33.203,-8.301,0.000,0.000,0.000
489295.053,50.293,35.645,24.414,19.531,-11.719,0.000,0.000,0.000
489295.057,-56.152,22.949,23.926,-6.836,-10.742,0.000,0.000,0.000
489295.061,-29.785,21.484,22.461,0.000,-1.953,0.000,0.000,0.000
489295.065,77.637,26.367,23.438,23.438,12.695,0.000,0.000,0.000
489295.069,83.008,28.809,25.391,24.902,33.691,0.000,0.000,0.000
489295.073,-20.508,31.250,26.367,8.301,35.156,0.000,0.000,0.000
489295.076,-33.691,38.086,28.320,5.859,23.926,0.000,0.000,0.000
489295.080,68.359,36.621,25.879,30.273,33.203,0.000,0.000,0.000
489295.084,108.398,28.320,25.391,41.504,41.504,0.000,0.000,0.000
489295.088,11.719,29.297,29.297,17.090,36.133,0.000,0.000,0.000
489295.092,-48.340,31.738,30.273,3.906,25.879,0.000,0.000,0.000
489295.096,39.062,32.227,28.809,29.297,24.414,0.000,0.000,0.000
489295.100,108.398,26.855,30.762,46.875,29.297,0.000,0.000,0.000
489295.104,41.016,28.809,31.738,24.414,33.691,0.000,0.000,0.000
489295.108,-49.316,34.668,27.344,6.348,29.297,0.000,0.000,0.000
489295.112,7.324,30.762,20.508,11.719,11.230,0.000,0.000,0.000
489295.115,101.074,22.949,20.508,29.297,12.695,0.000,0.000,0.000
489295.119,70.312,28.320,27.832,25.879,20.508,0.000,0.000,0.000
489295.123,-38.086,32.715,32.715,2.930,10.254,0.000,0.000,0.000
489295.127,-28.809,25.391,25.391,2.441,4.395,0.000,0.000,0.000
489295.131,72.266,23.926,25.879,26.855,8.301,0.000,0.000,0.000
489295.135,82.520,29.785,30.273,30.762,6.348,0.000,0.000,0.000
489295.139,-23.926,35.645,30.762,10.742,6.348,0.000,0.000,0.000
489295.143,-55.176,30.762,25.879,2.441,9.766,0.000,0.000,0.000
489295.147,41.992,22.949,20.996,25.879,12.695,0.000,0.000,0.000
489295.151,97.656,28.809,23.438,41.504,18.066,0.000,0.000,0.000
489295.155,8.301,31.250,21.484,16.113,17.090,0.000,0.000,0.000
489295.158,-66.895,21.484,19.043,-8.301,18.555,0.000,0.000,0.000
489295.162,13.184,22.461,20.020,10.254,24.902,0.000,0.000,0.000
489295.166,88.867,25.391,22.461,32.715,29.785,0.000,0.000,0.000
489295.170,25.879,23.926,23.438,19.531,26.855,0.000,0.000,0.000
489295.174,-68.359,27.832,24.902,7.324,19.531,0.000,0.000,0.000
489295.178,-17.578,27.344,24.414,17.090,18.066,0.000,0.000,0.000
489295.182,80.078,24.414,23.926,30.273,13.672,0.000,0.000,0.000
489295.186,69.336,27.832,26.367,34.668,13.672,0.000,0.000,0.000
489295.190,-32.715,32.715,25.879,20.020,20.020,0.000,0.000,0.000
489295.194,-31.738,27.344,24.414,18.066,31.250,0.000,0.000,0.000
489295.198,70.801,26.855,25.391,40.527,28.320,0.000,0.000,0.000
489295.201,91.797,32.715,25.391,38.574,18.555,0.000,0.000,0.000
489295.205,-8.301,29.297,23.926,16.113,28.320,0.000,0.000,0.000
489295.209,-50.293,22.461,24.414,2.441,13.184,0.000,0.000,0.000
489295.213,39.551,19.531,23.438,21.484,-7.812,0.000,0.000,0.000
489295.217,96.680,23.926,21.973,37.109,6.836,0.000,0.000,0.000
489295.221,20.020,30.273,24.902,19.043,14.648,0.000,0.000,0.000
489295.225,-57.129,32.715,26.855,10.254,10.254,0.000,0.000,0.000
489295.229,9.277,29.785,21.973,20.508,13.184,0.000,0.000,0.000
489295.233,97.656,34.668,19.531,36.621,19.531,0.000,0.000,0.000
489295.237,49.316,38.086,17.090,26.855,20.996,0.000,0.000,0.000
489295.240,-53.223,35.156,20.020,8.789,12.695,0.000,0.000,0.000
489295.244,-12.695,34.180,21.973,16.602,14.648,0.000,0.000,0.000
489295.248,90.820,32.715,21.484,41.504,25.879,0.000,0.000,0.000
489295.252,78.613,36.621,24.902,45.410,26.855,0.000,0.000,0.000
489295.256,-34.180,37.109,24.414,15.137,19.531,0.000,0.000,0.000
489295.260,-38.086,25.879,21.484,6.836,20.996,0.000,0.000,0.000
489295.264,65.918,29.297,28.320,37.598,20.508,1.000,1.000,45.000
489295.268,95.215,39.062,31.738,40.039,3.906,0.000,0.000,0.000
489295.272,-2.930,33.203,25.879,15.137,-0.488,0.000,0.000,0.000
489295.276,-57.129,30.273,25.391,5.859,9.766,0.000,0.000,0.000
489295.280,34.180,29.785,23.438,24.902,15.625,0.000,0.000,0.000
489295.283,105.957,32.715,19.043,42.969,19.531,0.000,0.000,0.000
489295.287,34.668,33.203,21.973,22.949,25.391,0.000,0.000,0.000
489295.291,-41.504,28.320,26.855,7.812,29.297,0.000,0.000,0.000
489295.295,29.785,32.227,25.391,27.832,31.738,0.000,0.000,0.000
489295.299,119.629,34.668,25.391,51.758,38.086,0.000,0.000,0.000
489295.303,77.148,34.668,29.297,47.852,33.691,0.000,0.000,0.000
489295.307,-29.785,31.738,30.762,26.855,41.504,0.000,0.000,0.000
489295.311,-5.371,31.250,29.785,29.785,40.039,0.000,0.000,0.000
489295.315,92.285,25.391,28.320,45.898,19.043,0.000,0.000,0.000
489295.319,93.262,23.438,29.297,41.504,22.949,0.000,0.000,0.000
489295.322,-6.348,30.273,30.762,27.344,41.016,0.000,0.000,0.000
489295.326,-20.508,31.250,31.738,27.832,46.387,0.000,0.000,0.000
489295.330,76.660,28.809,30.762,50.293,30.273,0.000,0.000,0.000
489295.334,115.234,25.879,31.250,62.500,24.414,0.000,0.000,0.000
489295.338,20.508,26.367,30.273,44.922,33.691,0.000,0.000,0.000
489295.342,-44.922,27.832,30.273,20.020,31.738,0.000,0.000,0.000
489295.346,28.320,31.250,31.250,30.273,29.297,0.000,0.000,0.000
489295.350,94.238,35.156,30.273,47.363,28.809,0.000,0.000,0.000
489295.354,29.297,31.250,28.320,27.832,18.066,0.000,0.000,0.000
489295.358,-57.617,30.762,26.855,5.859,15.137,0.000,0.000,0.000
489295.362,-2.441,41.992,29.297,22.461,18.555,0.000,0.000,0.000
489295.365,82.520,42.969,25.879,41.992,11.230,0.000,0.000,0.000
489295.369,52.246,39.551,21.484,32.227,10.254,0.000,0.000,0.000
489295.373,-52.734,36.133,24.902,7.812,15.137,0.000,0.000,0.000
489295.377,-35.645,31.738,21.973,9.766,16.113,0.000,0.000,0.000
489295.381,66.406,30.273,19.531,43.945,20.508,0.000,0.000,0.000
489295.385,78.125,33.691,27.344,54.688,27.832,0.000,0.000,0.000
489295.389,-22.949,37.109,29.785,20.508,28.809,0.000,0.000,0.000
489295.393,-50.781,39.062,25.879,4.883,29.785,0.000,0.000,0.000
489295.397,46.387,40.527,19.531,31.738,28.809,0.000,0.000,0.000
489295.401,95.215,38.086,18.555,36.621,24.414,0.000,0.000,0.000
489295.405,6.836,34.180,20.508,11.719,27.832,0.000,0.000,0.000
489295.408,-59.570,36.621,21.973,6.348,48.828,0.000,0.000,0.000
489295.412,22.461,41.016,22.461,30.273,64.453,0.000,0.000,0.000
489295.416,105.957,41.504,24.414,55.664,50.781,0.000,0.000,0.000
489295.420,55.176,38.086,23.438,42.480,35.156,0.000,0.000,0.000
489295.424,-42.480,33.691,23.438,21.484,41.504,0.000,0.000,0.000
489295.428,-0.488,30.762,28.809,41.504,48.340,0.000,0.000,0.000
489295.432,100.098,37.109,28.320,66.895,46.875,0.000,0.000,0.000
489295.436,80.078,44.434,26.855,50.293,45.410,0.000,0.000,0.000
489295.440,-32.227,35.156,26.855,18.555,45.410,0.000,0.000,0.000
489295.444,-25.879,30.762,24.902,16.602,46.875,0.000,0.000,0.000
489295.447,82.031,36.621,23.926,45.410,42.480,0.000,0.000,0.000
489295.451,100.098,39.551,26.855,51.270,34.180,0.000,0.000,0.000
489295.455,-3.418,45.410,30.273,25.391,46.875,0.000,0.000,0.000
489295.459,-39.062,46.387,30.762,18.555,40.527,0.000,0.000,0.000
489295.463,45.410,37.598,28.320,37.109,10.742,0.000,0.000,0.000
489295.467,96.191,32.227,28.809,50.293,5.371,0.000,0.000,0.000
489295.471,24.902,34.668,30.762,31.250,14.648,0.000,0.000,0.000
489295.475,-53.223,38.574,28.320,5.371,21.484,0.000,0.000,0.000
489295.479,7.812,31.250,21.973,18.066,22.461,0.000,0.000,0.000
489295.483,92.773,27.832,20.020,37.598,14.160,0.000,0.000,0.000
489295.487,50.293,31.250,18.066,22.949,10.254,0.000,0.000,0.000
489295.490,-52.734,32.715,19.531,0.488,16.602,0.000,0.000,0.000
489295.494,-23.438,32.715,20.996,2.441,18.555,0.000,0.000,0.000
489295.498,80.566,34.180,24.414,32.227,18.066,0.000,0.000,0.000
489295.502,76.660,28.809,25.879,34.668,12.695,0.000,0.000,0.000
489295.506,-33.203,24.902,26.367,10.254,17.578,0.000,0.000,0.000
489295.510,-44.434,28.809,25.879,9.277,29.297,0.000,0.000,0.000
489295.514,60.547,24.414,24.902,38.574,36.133,0.000,0.000,0.000
489295.518,97.656,20.996,26.855,51.758,26.855,0.000,0.000,0.000
489295.522,0.000,22.461,27.344,24.902,27.832,0.000,0.000,0.000
489295.526,-48.340,25.391,29.297,16.113,32.715,0.000,0.000,0.000
489295.529,41.992,29.297,23.926,37.109,21.973,0.000,0.000,0.000
489295.533,103.516,29.297,20.508,48.340,27.344,0.000,0.000,0.000
489295.537,27.344,25.391,27.832,38.086,30.273,0.000,0.000,0.000
489295.541,-60.547,23.438,29.297,16.113,24.902,0.000,0.000,0.000
489295.545,0.000,24.902,28.809,23.438,33.203,0.000,0.000,0.000
489295.549,86.914,26.367,30.762,46.387,37.109,0.000,0.000,0.000
489295.553,57.617,30.762,32.715,39.062,29.785,0.000,0.000,0.000
489295.557,-44.434,27.832,32.715,15.137,26.367,0.000,0.000,0.000
489295.561,-25.391,21.484,26.855,19.043,29.297,0.000,0.000,0.000
489295.565,78.125,27.832,26.367,43.945,33.691,0.000,0.000,0.000
489295.569,84.473,27.832,29.785,39.551,29.785,0.000,0.000,0.000
489295.572,-21.484,21.484,28.809,15.137,23.926,0.000,0.000,0.000
489295.576,-41.016,23.438,24.902,6.836,23.438,0.000,0.000,0.000
489295.580,67.871,27.832,27.344,33.691,36.133,0.000,0.000,0.000
489295.584,110.840,24.902,29.297,48.340,26.855,0.000,0.000,0.000
489295.588,14.160,26.367,25.391,20.996,11.230,0.000,0.000,0.000
489295.592,-45.410,26.367,24.414,7.812,19.043,0.000,0.000,0.000
489295.596,37.598,30.762,27.344,32.227,24.902,0.000,0.000,0.000
489295.600,106.445,36.133,26.855,45.898,36.133,0.000,0.000,0.000
489295.604,36.621,25.879,29.297,29.297,30.273,0.000,0.000,0.000
489295.608,-55.176,14.160,34.668,12.695,19.043,0.000,0.000,0.000
489295.612,2.441,17.578,36.133,27.832,28.320,0.000,0.000,0.000
489295.615,96.191,21.973,35.645,54.199,29.297,0.000,0.000,0.000
489295.619,68.848,22.949,36.133,49.805,30.762,0.000,0.000,0.000
489295.623,-37.598,27.832,36.621,24.902,37.598,0.000,0.000,0.000
489295.627,-25.391,23.438,31.738,23.438,44.434,0.000,0.000,0.000
489295.631,80.078,23.438,28.809,51.270,47.363,0.000,0.000,0.000
489295.635,95.703,27.832,28.320,51.270,42.969,0.000,0.000,0.000
489295.639,-7.812,28.809,29.297,23.926,45.898,0.000,0.000,0.000
489295.643,-36.621,25.391,28.320,16.602,44.922,0.000,0.000,0.000
489295.647,62.500,25.391,30.273,39.551,33.203,0.000,0.000,0.000
489295.651,115.723,30.273,32.715,55.176,38.086,3.000,1.000,45.000
489295.654,27.832,30.273,32.715,33.203,48.340,0.000,0.000,0.000
489295.658,-47.363,22.461,30.273,16.113,40.039,0.000,0.000,0.000
489295.662,29.297,21.973,21.973,31.250,24.902,0.000,0.000,0.000
489295.666,104.980,29.785,18.066,40.527,20.020,0.000,0.000,0.000
489295.670,43.457,31.738,20.996,24.902,17.090,0.000,0.000,0.000
489295.674,-51.758,36.621,20.020,1.465,14.160,0.000,0.000,0.000
489295.678,-8.789,37.598,18.066,8.789,14.648,0.000,0.000,0.000
489295.682,82.031,42.480,20.996,35.645,10.254,0.000,0.000,0.000
489295.686,57.617,40.527,19.531,26.367,4.883,0.000,0.000,0.000
489295.690,-51.758,36.133,22.461,6.348,23.926,0.000,0.000,0.000
489295.694,-52.734,42.969,23.926,2.930,34.668,0.000,0.000,0.000
489295.697,49.805,39.062,17.090,19.531,15.137,0.000,0.000,0.000
489295.701,69.824,30.273,16.602,22.949,-4.395,0.000,0.000,0.000
489295.705,-35.645,35.156,16.113,-8.789,-10.254,0.000,0.000,0.000
489295.709,-71.777,38.086,15.625,-14.648,-1.953,0.000,0.000,0.000
489295.713,25.391,31.738,17.090,17.578,11.230,0.000,0.000,0.000
489295.717,83.008,29.785,18.066,25.879,15.137,0.000,0.000,0.000
489295.721,8.789,39.062,20.508,6.836,9.277,0.000,0.000,0.000
489295.725,-61.523,40.039,20.508,0.000,13.672,0.000,0.000,0.000
489295.729,10.742,33.203,21.484,25.391,20.996,0.000,0.000,0.000
489295.733,96.191,30.273,22.949,44.922,14.648,0.000,0.000,0.000
489295.736,49.316,29.785,24.414,28.320,4.883,0.000,0.000,0.000
489295.740,-41.504,35.156,28.809,18.066,7.324,0.000,0.000,0.000
489295.744,2.930,34.180,31.738,30.273,19.043,0.000,0.000,0.000
489295.748,102.539,37.598,34.180,50.781,34.668,0.000,0.000,0.000
489295.752,86.426,38.086,33.691,44.922,30.762,0.000,0.000,0.000
489295.756,-19.531,34.668,31.738,20.508,17.578,0.000,0.000,0.000
489295.760,-21.484,33.203,31.738,22.949,23.438,0.000,0.000,0.000
489295.764,78.613,31.250,29.785,42.969,20.508,0.000,0.000,0.000
489295.768,110.840,27.344,28.809,43.945,8.301,0.000,0.000,0.000
489295.772,8.789,28.320,30.273,26.367,8.789,0.000,0.000,0.000
489295.776,-45.410,31.738,30.762,18.555,19.531,0.000,0.000,0.000
489295.779,46.387,37.109,30.762,38.574,29.297,0.000,0.000,0.000
489295.783,108.398,35.645,29.297,50.781,21.484,0.000,0.000,0.000
489295.787,36.133,36.133,27.832,28.320,7.812,0.000,0.000,0.000
489295.791,-56.152,34.668,24.902,0.000,6.836,0.000,0.000,0.000
489295.795,-3.418,23.438,21.484,6.348,5.371,0.000,0.000,0.000
489295.799,90.332,23.438,25.879,32.715,9.766,0.000,0.000,0.000
489295.803,58.105,32.227,33.691,28.809,18.066,0.000,0.000,0.000
489295.807,-53.711,32.227,32.227,2.930,19.531,0.000,0.000,0.000
489295.811,-28.809,29.297,29.297,16.113,28.809,0.000,0.000,0.000
489295.815,78.613,28.809,29.297,41.016,28.809,0.000,0.000,0.000
489295.819,75.684,29.297,31.250,40.039,26.855,0.000,0.000,0.000
489295.822,-31.738,31.250,31.738,20.996,36.133,0.000,0.000,0.000
489295.826,-45.898,37.109,31.250,11.230,41.016,0.000,0.000,0.000
489295.830,56.152,43.457,27.344,29.297,25.391,0.000,0.000,0.000
489295.834,97.168,34.180,22.949,41.992,4.883,0.000,0.000,0.000
489295.838,5.371,36.621,29.785,20.508,6.836,0.000,0.000,0.000
489295.842,-56.152,44.922,34.668,-4.883,6.836,0.000,0.000,0.000
489295.846,22.949,37.109,24.902,10.254,-6.348,0.000,0.000,0.000
489295.850,91.797,33.203,17.578,27.344,-9.277,0.000,0.000,0.000
489295.854,26.855,30.762,21.973,8.301,-7.812,0.000,0.000,0.000
489295.858,-63.477,27.344,24.902,-5.371,-5.859,0.000,0.000,0.000
489295.861,-5.371,29.785,26.367,13.672,1.953,0.000,0.000,0.000
489295.865,90.332,21.484,26.855,40.039,13.672,0.000,0.000,0.000
489295.869,69.824,24.902,26.855,39.062,21.973,0.000,0.000,0.000
489295.873,-33.691,36.621,31.250,15.137,26.367,0.000,0.000,0.000
489295.877,-25.879,36.133,33.691,17.090,29.297,0.000,0.000,0.000
489295.881,80.078,36.621,30.762,40.527,25.391,0.000,0.000,0.000
489295.885,92.773,42.969,32.715,40.039,25.391,0.000,0.000,0.000
489295.889,-20.508,40.527,33.691,13.184,24.414,0.000,0.000,0.000
489295.893,-51.758,32.227,28.809,0.977,29.785,0.000,0.000,0.000
489295.897,41.016,25.391,25.879,21.973,23.926,0.000,0.000,0.000
489295.901,84.961,22.461,29.297,27.832,4.395,0.000,0.000,0.000
489295.904,5.371,28.809,31.250,8.789,4.395,0.000,0.000,0.000
489295.908,-52.246,32.227,28.809,2.441,18.066,0.000,0.000,0.000
489295.912,27.832,32.227,26.367,21.484,32.715,0.000,0.000,0.000
489295.916,103.516,32.227,26.367,41.504,43.457,0.000,0.000,0.000
489295.920,45.410,36.621,28.320,27.832,36.133,0.000,0.000,0.000
489295.924,-52.734,40.527,27.832,-0.977,13.672,0.000,0.000,0.000
489295.928,-5.371,34.180,26.855,11.230,16.602,0.000,0.000,0.000
489295.932,90.332,31.250,28.320,35.645,26.855,0.000,0.000,0.000
489295.936,73.242,26.855,23.926,23.926,25.879,0.000,0.000,0.000
489295.940,-31.738,26.367,25.879,3.906,17.578,0.000,0.000,0.000
489295.943,-34.180,29.297,30.273,7.324,12.695,0.000,0.000,0.000
489295.947,72.266,31.250,28.320,31.250,22.949,0.000,0.000,0.000
489295.951,100.586,35.156,27.832,39.062,25.391,0.000,0.000,0.000
489295.955,-2.441,38.574,30.273,15.625,19.043,0.000,0.000,0.000
489295.959,-46.387,38.086,28.809,1.953,16.602,0.000,0.000,0.000
489295.963,47.852,39.551,26.367,24.414,16.602,1.000,1.000,45.000
489295.967,105.957,45.898,27.344,33.203,15.625,0.000,0.000,0.000
489295.971,22.949,37.598,27.832,4.395,7.812,0.000,0.000,0.000
489295.975,-58.594,23.926,27.344,-11.230,-1.465,0.000,0.000,0.000
489295.979,12.695,29.297,23.926,7.812,2.930,0.000,0.000,0.000
489295.983,97.656,33.203,24.902,28.320,9.277,0.000,0.000,0.000
489295.986,42.969,30.762,25.391,12.695,11.230,0.000,0.000,0.000
489295.990,-57.617,36.133,25.879,-9.766,13.184,0.000,0.000,0.000
489295.994,-20.508,32.715,26.367,1.953,9.766,0.000,0.000,0.000
489295.998,83.008,32.227,26.367,30.273,7.324,0.000,0.000,0.000
489296.002,75.195,31.738,23.438,27.344,3.906,0.000,0.000,0.000
489296.006,-41.016,26.367,20.508,0.000,11.719,0.000,0.000,0.000
489296.010,-50.781,28.320,24.902,0.977,26.855,0.000,0.000,0.000
489296.014,54.688,28.320,26.855,23.438,10.254,0.000,0.000,0.000
489296.018,90.820,26.855,26.855,26.367,-0.488,0.000,0.000,0.000
489296.022,-0.977,31.250,26.855,6.348,13.184,0.000,0.000,0.000
489296.026,-50.293,31.738,24.902,-2.441,11.230,0.000,0.000,0.000
489296.029,41.992,31.250,25.879,21.484,15.625,0.000,0.000,0.000
489296.033,107.910,35.156,26.367,44.434,25.879,0.000,0.000,0.000
489296.037,37.109,33.203,30.273,27.344,20.996,0.000,0.000,0.000
489296.041,-44.434,37.598,33.691,10.254,20.996,0.000,0.000,0.000
489296.045,13.672,35.645,23.438,22.461,27.832,0.000,0.000,0.000
489296.049,97.168,29.297,18.555,38.574,29.297,0.000,0.000,0.000
489296.053,60.059,29.297,23.438,22.949,20.020,0.000,0.000,0.000
489296.057,-44.922,28.809,26.367,-5.859,13.672,0.000,0.000,0.000
489296.061,-18.555,31.250,27.344,2.930,13.672,0.000,0.000,0.000
489296.065,81.543,31.250,30.762,24.902,1.953,0.000,0.000,0.000
489296.068,82.520,29.297,33.203,23.926,-0.977,0.000,0.000,0.000
489296.072,-19.531,30.762,34.180,13.672,9.277,0.000,0.000,0.000
489296.076,-35.156,34.180,40.039,21.484,15.625,0.000,0.000,0.000
489296.080,65.430,30.762,41.016,45.898,22.461,0.000,0.000,0.000
489296.084,104.980,23.438,34.668,51.758,24.902,0.000,0.000,0.000
489296.088,10.742,25.879,33.691,30.273,16.602,0.000,0.000,0.000
489296.092,-51.758,34.180,30.762,10.742,5.859,0.000,0.000,0.000
489296.096,24.414,32.227,28.320,24.414,1.465,0.000,0.000,0.000
489296.100,92.285,29.297,24.902,39.062,5.371,0.000,0.000,0.000
489296.104,36.133,29.785,24.414,20.508,10.742,0.000,0.000,0.000
489296.108,-49.316,27.832,31.250,5.371,20.020,0.000,0.000,0.000
489296.111,0.000,27.832,28.809,11.719,17.578,0.000,0.000,0.000
489296.115,95.215,23.438,28.809,30.762,13.184,0.000,0.000,0.000
489296.119,70.312,26.855,32.227,28.809,19.043,0.000,0.000,0.000
489296.123,-33.691,33.203,30.762,7.812,21.484,0.000,0.000,0.000
489296.127,-17.578,32.715,27.832,12.207,27.832,0.000,0.000,0.000
489296.131,81.055,26.855,25.391,40.039,37.109,0.000,0.000,0.000
489296.135,85.938,20.996,23.926,38.574,25.879,0.000,0.000,0.000
489296.139,-22.949,21.973,21.484,8.301,10.254,0.000,0.000,0.000
489296.143,-47.852,28.809,20.996,-4.883,22.949,0.000,0.000,0.000
489296.147,49.316,28.809,19.531,11.719,19.531,0.000,0.000,0.000
489296.150,97.656,29.785,18.555,22.949,9.277,0.000,0.000,0.000
489296.154,14.160,37.598,22.461,3.418,11.230,0.000,0.000,0.000
489296.158,-55.664,35.156,20.996,-10.254,7.324,0.000,0.000,0.000
489296.162,21.973,24.902,18.555,11.230,7.324,0.000,0.000,0.000
489296.166,99.609,23.438,20.508,34.180,17.578,0.000,0.000,0.000
489296.170,39.062,26.367,22.949,24.902,11.719,0.000,0.000,0.000
489296.174,-53.223,26.367,24.902,8.789,-1.953,0.000,0.000,0.000
489296.178,-0.488,22.949,22.949,17.090,-0.977,0.000,0.000,0.000
489296.182,96.191,23.438,22.949,42.480,0.488,0.000,0.000,0.000
489296.186,74.219,23.438,23.926,41.992,-5.371,0.000,0.000,0.000
489296.190,-31.250,30.273,25.391,8.789,-2.441,0.000,0.000,0.000
489296.193,-18.555,37.109,27.832,8.789,7.812,0.000,0.000,0.000
489296.197,85.938,32.227,31.250,34.668,11.230,0.000,0.000,0.000
489296.201,100.586,30.273,26.855,32.227,12.695,0.000,0.000,0.000
489296.205,-0.488,30.762,21.484,8.301,11.230,0.000,0.000,0.000
489296.209,-42.480,27.832,24.414,1.465,8.301,0.000,0.000,0.000
489296.213,48.828,31.250,24.902,22.949,16.602,0.000,0.000,0.000
489296.217,103.027,31.250,21.484,36.621,23.438,0.000,0.000,0.000
489296.221,16.602,27.344,18.066,13.184,16.113,0.000,0.000,0.000
489296.225,-62.988,28.809,20.020,-6.348,18.066,0.000,0.000,0.000
489296.229,3.906,32.227,20.996,15.137,15.625,0.000,0.000,0.000
489296.233,87.402,33.203,20.020,32.227,19.531,0.000,0.000,0.000
489296.236,41.504,33.203,20.996,13.184,28.809,0.000,0.000,0.000
489296.240,-56.641,28.320,20.996,-7.812,12.207,0.000,0.000,0.000
489296.244,-20.020,34.668,25.879,5.371,8.789,0.000,0.000,0.000
489296.248,81.055,38.574,27.344,31.250,27.344,0.000,0.000,0.000
489296.252,76.172,32.227,24.902,31.738,31.250,0.000,0.000,0.000
489296.256,-35.156,30.273,25.391,9.277,25.391,0.000,0.000,0.000
489296.260,-38.086,30.273,25.879,7.812,25.879,0.000,0.000,0.000
489296.264,68.848,35.645,24.414,38.086,26.367,0.000,0.000,0.000
489296.268,98.145,35.645,24.414,44.434,29.297,0.000,0.000,0.000
489296.272,1.953,33.203,26.367,16.113,28.809,0.000,0.000,0.000
489296.275,-46.387,36.621,25.879,7.324,26.855,0.000,0.000,0.000
489296.279,45.898,40.039,26.367,29.297,28.320,0.000,0.000,0.000
489296.283,108.398,38.086,24.902,36.621,19.043,0.000,0.000,0.000
489296.287,26.855,38.086,22.949,16.113,16.602,0.000,0.000,0.000
489296.291,-60.059,41.504,23.438,-3.906,19.043,0.000,0.000,0.000
489296.295,7.812,46.387,23.438,13.672,14.648,0.000,0.000,0.000
489296.299,100.098,38.574,20.996,37.109,14.160,0.000,0.000,0.000
489296.303,53.711,20.020,18.555,22.461,6.836,0.000,0.000,0.000
489296.307,-54.199,20.508,20.996,2.441,10.742,0.000,0.000,0.000
489296.311,-21.973,28.320,24.414,9.766,29.785,0.000,0.000,0.000
489296.315,73.730,26.367,22.461,33.203,17.090,0.000,0.000,0.000
489296.318,69.824,26.855,22.461,31.250,-11.719,0.000,0.000,0.000
489296.322,-32.227,31.250,25.391,4.395,-3.418,0.000,0.000,0.000
489296.326,-47.852,31.738,25.391,2.441,9.277,0.000,0.000,0.000
489296.330,54.199,30.762,20.996,31.250,19.531,0.000,0.000,0.000
489296.334,90.820,26.855,19.043,37.109,29.297,0.000,0.000,0.000
489296.338,-5.371,22.949,23.438,13.672,19.531,0.000,0.000,0.000
489296.342,-60.059,28.809,26.367,6.348,16.113,0.000,0.000,0.000
489296.346,27.344,37.109,25.879,29.297,26.367,0.000,0.000,0.000
489296.350,101.074,32.227,25.879,47.363,16.602,0.000,0.000,0.000
489296.354,33.691,21.484,23.926,25.391,11.719,0.000,0.000,0.000
489296.358,-56.641,20.508,27.832,4.395,25.391,0.000,0.000,0.000
489296.361,-0.488,20.996,28.320,19.043,32.715,3.000,1.000,45.000
489296.365,98.145,19.043,22.949,41.992,36.621,0.000,0.000,0.000
489296.369,75.195,23.926,25.879,39.062,27.344,0.000,0.000,0.000
489296.373,-34.180,28.809,26.855,8.789,22.461,0.000,0.000,0.000
489296.377,-17.578,28.320,25.391,10.742,28.320,0.000,0.000,0.000
489296.381,92.285,34.180,25.879,37.598,24.902,0.000,0.000,0.000
489296.385,110.352,42.480,26.367,40.527,29.297,0.000,0.000,0.000
489296.389,4.883,42.480,28.809,22.949,40.527,0.000,0.000,0.000
489296.393,-26.367,38.086,26.367,11.719,40.039,0.000,0.000,0.000
489296.397,73.730,39.551,24.414,35.645,27.344,0.000,0.000,0.000
489296.400,119.141,30.762,22.949,46.875,22.949,0.000,0.000,0.000
489296.404,33.203,28.320,25.391,30.273,29.785,0.000,0.000,0.000
489296.408,-33.203,30.273,28.809,19.043,21.484,0.000,0.000,0.000
489296.412,42.969,29.297,27.832,29.297,24.902,0.000,0.000,0.000
489296.416,122.559,32.715,28.320,48.828,36.621,0.000,0.000,0.000
489296.420,65.430,30.273,32.715,41.016,23.438,0.000,0.000,0.000
489296.424,-31.738,38.086,32.715,23.926,20.020,0.000,0.000,0.000
489296.428,16.602,46.875,28.809,26.367,30.273,0.000,0.000,0.000
489296.432,109.863,37.598,26.367,44.434,32.715,0.000,0.000,0.000
489296.436,84.961,28.809,26.855,39.551,34.180,0.000,0.000,0.000
489296.440,-18.066,28.809,30.273,16.602,32.715,0.000,0.000,0.000
489296.443,-23.438,29.297,29.785,17.578,27.832,0.000,0.000,0.000
489296.447,69.336,29.785,27.344,40.527,30.762,0.000,0.000,0.000
489296.451,91.309,30.762,29.785,40.527,31.250,0.000,0.000,0.000
489296.455,-16.113,28.320,32.227,20.996,17.578,0.000,0.000,0.000
489296.459,-55.664,28.320,32.227,17.090,12.207,0.000,0.000,0.000
489296.463,45.410,36.133,31.738,41.992,26.367,0.000,0.000,0.000
489296.467,103.516,29.297,29.785,52.734,30.273,0.000,0.000,0.000
489296.471,19.531,21.484,30.273,29.785,27.344,0.000,0.000,0.000
489296.475,-52.734,23.438,30.273,16.113,25.879,0.000,0.000,0.000
489296.479,23.926,24.902,27.344,33.691,26.855,0.000,0.000,0.000
489296.482,104.492,29.785,28.320,55.664,30.273,0.000,0.000,0.000
489296.486,54.688,32.227,30.762,43.457,31.250,0.000,0.000,0.000
489296.490,-43.457,35.645,28.809,19.043,36.621,0.000,0.000,0.000
489296.494,-7.324,35.156,32.227,28.809,41.016,0.000,0.000,0.000
489296.498,93.262,28.320,30.273,55.664,37.598,0.000,0.000,0.000
489296.502,87.402,26.855,20.508,40.039,19.043,0.000,0.000,0.000
489296.506,-19.043,28.320,24.902,7.324,12.695,0.000,0.000,0.000
489296.510,-25.391,32.227,25.391,10.254,21.973,0.000,0.000,0.000
489296.514,77.148,31.738,16.113,35.645,16.113,0.000,0.000,0.000
489296.518,107.910,33.203,17.090,45.898,10.254,0.000,0.000,0.000
489296.522,17.578,37.109,20.020,21.973,20.996,0.000,0.000,0.000
489296.525,-21.484,41.992,21.973,7.324,33.203,0.000,0.000,0.000
489296.529,65.918,42.480,20.996,27.832,26.855,0.000,0.000,0.000
489296.533,124.023,37.109,22.949,41.016,21.973,0.000,0.000,0.000
489296.537,45.898,29.297,24.414,28.320,23.926,0.000,0.000,0.000
489296.541,-41.992,28.809,20.020,15.137,28.809,0.000,0.000,0.000
489296.545,12.695,30.273,19.043,19.531,29.785,0.000,0.000,0.000
489296.549,95.703,28.320,17.090,33.691,17.090,0.000,0.000,0.000
489296.553,59.082,31.738,19.043,20.996,15.137,0.000,0.000,0.000
489296.557,-42.969,33.203,20.996,-0.977,8.789,0.000,0.000,0.000
489296.561,-16.113,29.297,20.996,7.812,9.766,0.000,0.000,0.000
489296.565,86.914,30.762,25.879,38.086,21.484,0.000,0.000,0.000
489296.568,85.938,35.156,26.367,43.457,18.555,0.000,0.000,0.000
489296.572,-16.602,35.156,28.320,23.926,24.902,0.000,0.000,0.000
489296.576,-35.645,30.273,27.344,17.090,27.832,0.000,0.000,0.000
489296.580,59.570,21.484,24.902,44.434,16.602,0.000,0.000,0.000
489296.584,96.191,22.949,30.762,58.105,12.695,0.000,0.000,0.000
489296.588,-5.859,24.902,30.273,20.020,14.160,0.000,0.000,0.000
489296.592,-66.406,19.531,28.809,-2.441,12.695,0.000,0.000,0.000
489296.596,18.066,18.066,27.832,21.484,14.160,0.000,0.000,0.000
489296.600,87.891,25.391,27.344,41.016,13.672,0.000,0.000,0.000
489296.604,23.926,30.273,27.344,20.508,12.207,0.000,0.000,0.000
489296.607,-66.406,28.809,24.414,1.465,24.414,0.000,0.000,0.000
489296.611,-6.836,28.809,24.414,22.461,31.250,0.000,0.000,0.000
489296.615,92.285,29.785,25.391,48.340,26.367,0.000,0.000,0.000
489296.619,57.617,28.320,28.320,34.668,22.949,0.000,0.000,0.000
489296.623,-49.316,37.598,34.180,19.531,27.832,0.000,0.000,0.000
489296.627,-30.273,38.086,34.180,29.297,33.203,0.000,0.000,0.000
489296.631,70.312,21.484,29.785,41.992,33.203,0.000,0.000,0.000
489296.635,78.613,20.996,30.762,42.969,32.227,0.000,0.000,0.000
489296.639,-30.762,29.297,29.785,26.855,23.926,0.000,0.000,0.000
489296.643,-55.664,27.344,26.855,21.484,27.344,0.000,0.000,0.000
489296.647,47.852,29.785,25.391,41.504,41.016,0.000,0.000,0.000
489296.650,96.680,33.203,24.902,49.316,34.180,0.000,0.000,0.000
489296.654,2.441,31.250,26.367,24.414,14.160,0.000,0.000,0.000
489296.658,-67.383,32.715,27.832,4.395,22.461,0.000,0.000,0.000
489296.662,13.672,32.227,24.414,14.648,25.391,0.000,0.000,0.000
489296.666,91.797,31.250,22.949,31.738,11.230,0.000,0.000,0.000
489296.670,32.227,34.180,27.344,26.855,12.207,0.000,0.000,0.000
489296.674,-63.965,33.691,29.297,10.742,20.020,0.000,0.000,0.000
489296.678,-14.160,38.086,26.367,17.090,27.344,0.000,0.000,0.000
489296.682,80.566,37.598,22.461,40.039,30.273,1.000,1.000,0.000
489296.686,56.641,29.297,20.508,31.250,19.531,0.000,0.000,0.000
489296.689,-45.410,32.715,27.832,14.160,19.531,0.000,0.000,0.000
489296.693,-37.598,35.645,29.785,20.508,29.297,0.000,0.000,0.000
489296.697,62.500,32.227,27.832,35.156,25.879,0.000,0.000,0.000
489296.701,79.102,33.203,29.785,33.691,19.531,0.000,0.000,0.000
489296.705,-22.949,34.668,31.250,13.672,20.020,0.000,0.000,0.000
489296.709,-63.477,28.320,27.832,0.977,10.742,0.000,0.000,0.000
489296.713,28.809,29.297,26.855,23.438,5.371,0.000,0.000,0.000
489296.717,91.309,34.668,30.762,41.504,14.160,0.000,0.000,0.000
489296.721,18.555,37.598,33.691,23.926,18.066,0.000,0.000,0.000
489296.725,-62.012,33.203,33.691,8.301,12.695,0.000,0.000,0.000
489296.729,4.395,28.320,30.762,21.973,19.043,0.000,0.000,0.000
489296.732,87.402,24.902,26.367,40.039,38.574,0.000,0.000,0.000
489296.736,38.574,21.973,23.926,24.902,28.320,0.000,0.000,0.000
489296.740,-60.059,23.926,27.344,8.789,11.719,0.000,0.000,0.000
489296.744,-22.949,27.832,29.297,18.066,20.996,0.000,0.000,0.000
489296.748,82.031,28.809,30.273,41.504,18.555,0.000,0.000,0.000
489296.752,74.219,37.109,31.738,39.551,14.648,0.000,0.000,0.000
489296.756,-33.691,45.410,31.250,13.184,22.949,0.000,0.000,0.000
489296.760,-42.969,35.645,29.297,12.207,22.949,0.000,0.000,0.000
489296.764,56.641,27.344,26.855,40.039,18.066,0.000,0.000,0.000
489296.768,86.426,30.762,26.855,42.480,16.113,0.000,0.000,0.000
489296.772,-10.254,33.691,26.855,17.578,11.719,0.000,0.000,0.000
489296.775,-49.805,32.227,26.367,8.789,18.066,0.000,0.000,0.000
489296.779,46.387,38.086,30.273,37.109,23.926,0.000,0.000,0.000
489296.783,106.934,41.992,29.785,56.641,32.715,0.000,0.000,0.000
489296.787,27.832,40.527,25.879,34.180,30.273,0.000,0.000,0.000
489296.791,-53.711,40.527,27.832,14.160,10.742,0.000,0.000,0.000
489296.795,4.883,36.621,24.902,20.996,10.742,0.000,0.000,0.000
489296.799,87.891,28.809,22.461,37.598,17.090,0.000,0.000,0.000
489296.803,46.875,27.344,26.855,27.344,18.555,0.000,0.000,0.000
489296.807,-52.246,30.762,26.855,-0.488,12.695,0.000,0.000,0.000
489296.811,-18.066,33.203,25.391,6.836,18.066,0.000,0.000,0.000
489296.814,73.242,38.574,27.344,31.738,28.809,0.000,0.000,0.000
489296.818,69.336,39.551,27.344,30.273,21.973,0.000,0.000,0.000
489296.822,-29.297,34.180,23.438,14.648,14.648,0.000,0.000,0.000
489296.826,-51.270,31.250,22.461,12.207,14.160,0.000,0.000,0.000
489296.830,53.223,33.203,23.926,39.551,20.996,0.000,0.000,0.000
489296.834,103.027,31.250,23.438,48.828,36.133,0.000,0.000,0.000
489296.838,4.883,22.949,20.996,22.461,42.969,0.000,0.000,0.000
489296.842,-55.176,24.902,21.484,11.719,39.062,0.000,0.000,0.000
489296.846,27.344,30.762,20.020,23.926,34.180,0.000,0.000,0.000
489296.850,100.098,36.133,23.438,39.062,37.598,0.000,0.000,0.000
489296.854,37.109,39.062,31.250,26.855,48.340,0.000,0.000,0.000
489296.857,-62.012,34.668,27.832,3.906,50.293,0.000,0.000,0.000
489296.861,-14.160,29.785,24.902,16.602,27.832,0.000,0.000,0.000
489296.865,83.496,29.297,27.832,49.316,20.508,0.000,0.000,0.000
489296.869,51.758,28.320,28.320,34.180,36.133,0.000,0.000,0.000
489296.873,-57.129,28.809,29.785,0.977,20.508,0.000,0.000,0.000
489296.877,-31.738,29.785,27.344,8.789,1.953,0.000,0.000,0.000
489296.881,70.801,25.391,22.949,40.039,14.160,0.000,0.000,0.000
489296.885,81.055,23.438,24.902,41.992,18.066,0.000,0.000,0.000
489296.889,-16.113,25.391,30.273,18.066,17.578,0.000,0.000,0.000
489296.893,-40.527,25.391,26.855,15.625,22.949,0.000,0.000,0.000
489296.896,66.406,30.273,24.414,43.945,36.621,0.000,0.000,0.000
489296.900,112.793,29.297,24.902,51.270,45.898,0.000,0.000,0.000
489296.904,21.973,28.809,23.438,27.344,28.320,0.000,0.000,0.000
489296.908,-35.645,38.086,23.438,15.625,16.602,0.000,0.000,0.000
489296.912,45.898,41.016,23.438,35.645,22.461,0.000,0.000,0.000
489296.916,121.582,37.598,25.391,54.199,25.879,0.000,0.000,0.000
489296.920,54.199,36.621,30.273,29.785,22.949,0.000,0.000,0.000
489296.924,-52.246,33.691,27.832,6.348,22.461,0.000,0.000,0.000
489296.928,-7.324,25.879,20.996,21.484,28.320,0.000,0.000,0.000
489296.932,89.844,24.414,14.648,37.109,21.484,0.000,0.000,0.000
489296.936,67.871,28.320,15.137,31.738,14.160,0.000,0.000,0.000
489296.939,-39.551,32.227,20.996,10.742,19.531,0.000,0.000,0.000
489296.943,-28.320,34.180,20.508,11.230,21.973,0.000,0.000,0.000
489296.947,81.055,35.645,19.531,42.480,15.625,0.000,0.000,0.000
489296.951,100.586,35.645,20.020,41.992,10.254,0.000,0.000,0.000
489296.955,-8.301,27.832,20.996,13.184,21.484,0.000,0.000,0.000
489296.959,-42.480,29.297,23.438,5.859,26.367,0.000,0.000,0.000
489296.963,57.617,32.227,20.508,26.367,14.648,0.000,0.000,0.000
489296.967,110.352,26.367,17.090,32.227,8.789,0.000,0.000,0.000
489296.971,28.320,27.832,16.113,10.254,8.789,0.000,0.000,0.000
489296.975,-41.504,30.273,17.090,4.883,16.602,0.000,0.000,0.000
489296.979,33.691,34.668,21.484,30.762,33.691,0.000,0.000,0.000
489296.982,108.887,35.645,20.996,43.457,39.062,0.000,0.000,0.000
489296.986,50.781,25.879,20.508,28.320,19.043,0.000,0.000,0.000
489296.990,-47.363,24.414,23.926,7.812,5.859,0.000,0.000,0.000
489296.994,-12.207,27.344,24.902,8.301,9.277,0.000,0.000,0.000
489296.998,80.566,26.855,22.461,27.344,7.812,0.000,0.000,0.000
489297.002,65.918,20.020,21.484,27.344,12.207,0.000,0.000,0.000
489297.006,-39.551,22.461,23.926,4.883,14.648,0.000,0.000,0.000
489297.010,-51.270,28.809,23.438,0.000,6.836,0.000,0.000,0.000
489297.014,44.434,29.297,19.531,24.414,-3.906,0.000,0.000,0.000
489297.018,76.172,29.297,19.531,30.273,-1.465,0.000,0.000,0.000
489297.021,-17.578,30.762,21.484,6.836,14.648,0.000,0.000,0.000
489297.025,-59.082,34.180,21.973,2.441,23.438,0.000,0.000,0.000
489297.029,32.715,31.738,23.926,29.297,28.320,0.000,0.000,0.000
489297.033,101.074,28.809,23.438,40.039,22.461,0.000,0.000,0.000
489297.037,26.367,25.879,27.344,18.066,3.906,0.000,0.000,0.000
489297.041,-60.059,27.344,30.762,1.953,10.254,0.000,0.000,0.000
489297.045,6.836,27.344,26.855,21.484,17.578,0.000,0.000,0.000
489297.049,97.168,26.367,25.879,45.410,18.066,0.000,0.000,0.000
489297.053,56.641,28.320,27.344,33.691,21.973,0.000,0.000,0.000
489297.057,-41.992,33.203,28.809,12.695,30.762,0.000,0.000,0.000
489297.061,-9.277,35.156,27.344,23.926,41.504,0.000,0.000,0.000
489297.064,89.844,32.715,27.832,51.758,27.344,0.000,0.000,0.000
489297.068,83.008,29.785,30.762,42.969,5.371,3.000,1.000,0.000
489297.072,-30.273,26.855,29.785,8.301,6.836,0.000,0.000,0.000
489297.076,-45.898,22.461,27.832,3.906,5.859,0.000,0.000,0.000
489297.080,57.129,27.344,25.391,29.785,6.348,0.000,0.000,0.000
489297.084,90.820,35.156,21.973,33.691,5.371,0.000,0.000,0.000
489297.088,-6.348,29.785,21.484,9.766,1.953,0.000,0.000,0.000
489297.092,-61.035,22.461,21.973,0.977,13.672,0.000,0.000,0.000
489297.096,33.691,28.320,21.484,23.926,27.344,0.000,0.000,0.000
489297.100,106.445,31.738,24.902,42.969,30.273,0.000,0.000,0.000
489297.103,34.668,30.273,27.344,31.250,30.273,0.000,0.000,0.000
489297.107,-51.270,31.738,28.320,14.648,33.691,0.000,0.000,0.000
489297.111,5.371,29.785,26.367,26.855,33.691,0.000,0.000,0.000
489297.115,97.168,25.391,24.414,47.363,37.109,0.000,0.000,0.000
489297.119,67.383,27.832,25.879,35.645,31.738,0.000,0.000,0.000
489297.123,-32.715,31.738,24.902,10.254,28.320,0.000,0.000,0.000
489297.127,-12.695,29.785,15.137,6.348,30.273,0.000,0.000,0.000
489297.131,87.891,33.203,9.766,21.973,21.973,0.000,0.000,0.000
489297.135,101.562,41.504,12.207,23.438,24.414,0.000,0.000,0.000
489297.139,-0.488,48.828,13.672,1.465,20.996,0.000,0.000,0.000
489297.143,-29.297,42.480,8.789,-3.906,21.484,0.000,0.000,0.000
489297.146,70.312,35.645,6.348,21.973,29.785,0.000,0.000,0.000
489297.150,117.188,35.645,6.348,34.668,31.250,0.000,0.000,0.000
489297.154,25.391,36.621,7.812,13.184,30.273,0.000,0.000,0.000
489297.158,-45.410,43.945,10.742,-2.930,40.039,0.000,0.000,0.000
489297.162,31.738,44.434,12.695,16.602,41.016,0.000,0.000,0.000
489297.166,107.422,39.551,14.160,37.598,13.672,0.000,0.000,0.000
489297.170,45.410,37.598,8.789,22.461,11.230,0.000,0.000,0.000
489297.174,-43.945,40.039,7.324,7.812,29.785,0.000,0.000,0.000
489297.178,2.441,42.480,11.719,19.531,30.273,0.000,0.000,0.000
489297.182,93.262,37.598,11.719,41.992,20.508,0.000,0.000,0.000
489297.186,81.055,45.898,18.066,40.039,28.320,0.000,0.000,0.000
489297.189,-20.020,51.270,24.902,16.113,33.691,0.000,0.000,0.000
489297.193,-21.484,37.109,18.555,16.113,32.227,0.000,0.000,0.000
489297.197,81.543,31.250,16.602,39.062,33.203,0.000,0.000,0.000
489297.201,97.656,33.691,19.531,35.645,20.508,0.000,0.000,0.000
489297.205,-12.207,31.738,25.391,13.184,20.508,0.000,0.000,0.000
489297.209,-44.434,31.738,26.367,2.441,31.738,0.000,0.000,0.000
489297.213,54.199,35.156,23.438,22.949,37.109,0.000,0.000,0.000
489297.217,102.539,30.762,22.949,28.320,19.531,0.000,0.000,0.000
489297.221,20.508,31.738,20.996,7.812,4.883,0.000,0.000,0.000
489297.225,-46.387,35.645,20.996,-1.465,15.137,0.000,0.000,0.000
489297.228,24.902,29.297,19.531,9.277,20.996,0.000,0.000,0.000
489297.232,105.469,26.855,19.531,28.809,23.438,0.000,0.000,0.000
489297.236,52.246,29.785,23.438,15.625,31.250,0.000,0.000,0.000
489297.240,-49.316,31.250,24.414,-4.395,21.973,0.000,0.000,0.000
489297.244,-12.695,31.250,20.996,10.742,11.230,0.000,0.000,0.000
489297.248,85.938,29.297,20.996,36.133,21.484,0.000,0.000,0.000
489297.252,73.730,23.926,20.020,22.461,18.555,0.000,0.000,0.000
489297.256,-25.879,25.391,20.996,1.953,20.508,0.000,0.000,0.000
489297.260,-19.531,28.320,21.484,9.766,28.320,0.000,0.000,0.000
489297.264,76.172,28.809,17.090,26.855,24.902,0.000,0.000,0.000
489297.268,100.098,37.109,16.602,33.203,18.066,0.000,0.000,0.000
489297.271,-3.418,37.598,20.996,17.578,11.230,0.000,0.000,0.000
489297.275,-51.758,26.367,18.555,4.883,10.742,0.000,0.000,0.000
489297.279,40.527,28.809,17.578,22.461,19.043,0.000,0.000,0.000
489297.283,103.516,31.738,22.949,36.133,18.555,0.000,0.000,0.000
489297.287,29.785,30.273,27.832,18.555,20.508,0.000,0.000,0.000
489297.291,-60.547,31.250,29.297,2.441,18.066,0.000,0.000,0.000
489297.295,-3.906,26.855,29.785,14.160,14.648,0.000,0.000,0.000
489297.299,83.984,29.785,32.227,37.109,13.184,0.000,0.000,0.000
489297.303,45.410,30.762,31.250,22.949,-2.930,0.000,0.000,0.000
489297.307,-57.129,26.367,30.273,-3.906,0.977,0.000,0.000,0.000
489297.310,-30.762,27.344,32.227,6.348,19.043,0.000,0.000,0.000
489297.314,70.312,35.645,33.203,35.156,24.902,0.000,0.000,0.000
489297.318,71.289,33.203,31.250,28.809,16.113,0.000,0.000,0.000
489297.322,-33.203,23.438,31.738,3.906,16.113,0.000,0.000,0.000
489297.326,-46.387,24.902,27.832,0.488,21.484,0.000,0.000,0.000
489297.330,52.734,28.320,23.438,22.949,10.742,0.000,0.000,0.000
489297.334,84.473,32.715,24.902,32.227,6.836,0.000,0.000,0.000
489297.338,-10.742,39.062,24.414,5.371,-2.441,0.000,0.000,0.000
489297.342,-62.012,38.086,21.484,-8.789,-6.836,0.000,0.000,0.000
489297.346,29.297,33.203,18.555,20.020,11.230,0.000,0.000,0.000
489297.350,101.562,32.227,20.996,36.133,11.719,0.000,0.000,0.000
489297.353,31.738,26.855,24.414,15.137,0.977,0.000,0.000,0.000
489297.357,-60.059,31.738,26.855,-2.930,2.930,0.000,0.000,0.000
489297.361,-10.254,30.273,27.344,3.906,8.301,0.000,0.000,0.000
489297.365,79.590,25.879,22.949,24.902,17.090,0.000,0.000,0.000
489297.369,49.805,32.227,24.902,17.578,18.555,0.000,0.000,0.000
489297.373,-53.711,31.250,32.227,0.977,25.391,0.000,0.000,0.000
489297.377,-26.855,32.227,34.180,15.625,34.180,0.000,0.000,0.000
489297.381,71.289,33.691,31.738,42.969,22.461,0.000,0.000,0.000
489297.385,71.289,27.832,29.785,41.504,19.531,0.000,0.000,0.000
489297.389,-32.715,26.855,31.738,14.160,21.973,0.000,0.000,0.000
489297.393,-57.129,28.809,34.668,9.277,24.902,0.000,0.000,0.000
489297.396,42.480,26.855,32.715,28.809,19.531,0.000,0.000,0.000
489297.400,93.262,33.691,34.668,39.551,10.742,0.000,0.000,0.000
489297.404,-0.488,34.668,35.156,19.531,8.789,0.000,0.000,0.000
489297.408,-72.266,26.855,30.762,5.859,9.277,2.000,1.000,45.000
489297.412,15.137,35.156,30.762,30.762,21.484,0.000,0.000,0.000
489297.416,91.797,35.156,32.227,47.363,20.508,0.000,0.000,0.000
489297.420,29.297,29.297,33.691,24.902,9.766,0.000,0.000,0.000
489297.424,-51.270,37.598,31.738,5.371,30.273,0.000,0.000,0.000
489297.428,3.906,39.062,28.320,17.090,37.109,0.000,0.000,0.000
489297.432,95.703,26.855,26.367,33.203,17.578,0.000,0.000,0.000
489297.435,67.871,23.926,26.855,21.484,9.277,0.000,0.000,0.000
489297.439,-38.086,27.832,27.832,2.441,16.113,0.000,0.000,0.000
489297.443,-22.949,30.273,30.762,9.766,26.367,0.000,0.000,0.000
489297.447,82.031,34.668,34.668,31.738,27.344,0.000,0.000,0.000
489297.451,92.285,31.250,33.203,31.250,26.367,0.000,0.000,0.000
489297.455,-9.277,32.715,32.715,16.113,28.809,0.000,0.000,0.000
489297.459,-41.016,33.691,34.180,10.254,28.809,0.000,0.000,0.000
489297.463,53.711,31.250,34.180,27.344,32.227,0.000,0.000,0.000
489297.467,102.539,30.762,31.250,41.504,19.531,0.000,0.000,0.000
489297.471,18.066,26.367,29.297,21.484,7.812,0.000,0.000,0.000
489297.475,-50.293,30.273,31.738,9.277,16.113,0.000,0.000,0.000
489297.478,23.926,31.250,36.133,30.762,18.555,0.000,0.000,0.000
489297.482,102.539,28.809,36.133,53.711,14.648,0.000,0.000,0.000
489297.486,50.781,34.668,35.156,46.875,20.020,0.000,0.000,0.000
489297.490,-52.734,34.668,32.227,18.066,8.789,0.000,0.000,0.000
489297.494,-17.090,30.273,30.273,12.695,0.488,0.000,0.000,0.000
489297.498,85.449,28.809,33.691,29.785,18.555,0.000,0.000,0.000
489297.502,66.895,30.762,32.715,22.949,15.137,0.000,0.000,0.000
489297.506,-45.898,26.367,30.762,-3.418,-1.465,0.000,0.000,0.000
489297.510,-43.457,20.508,30.273,-1.953,10.254,0.000,0.000,0.000
489297.514,68.359,26.855,30.762,32.227,18.555,0.000,0.000,0.000
489297.517,103.516,27.344,32.227,36.133,13.672,0.000,0.000,0.000
489297.521,2.930,29.785,29.785,11.230,16.602,0.000,0.000,0.000
489297.525,-45.898,35.645,28.320,6.348,22.461,0.000,0.000,0.000
489297.529,47.852,31.738,30.273,28.809,25.391,0.000,0.000,0.000
489297.533,114.746,30.273,28.809,37.109,26.855,0.000,0.000,0.000
489297.537,31.738,31.738,26.855,13.184,19.043,0.000,0.000,0.000
489297.541,-43.457,28.809,31.738,5.859,20.020,0.000,0.000,0.000
489297.545,34.180,34.180,31.250,28.320,27.832,0.000,0.000,0.000
489297.549,109.375,29.785,27.344,42.969,20.508,0.000,0.000,0.000
489297.553,62.500,25.391,29.297,29.297,0.000,0.000,0.000,0.000
489297.557,-35.156,25.879,28.809,10.742,-27.832,0.000,0.000,0.000
489297.560,1.465,29.297,30.762,21.484,-22.949,0.000,0.000,0.000
489297.564,103.516,34.668,29.785,50.781,-2.441,0.000,0.000,0.000
489297.568,94.727,31.250,29.297,50.781,0.000,0.000,0.000,0.000
489297.572,-12.695,34.180,29.297,21.484,1.953,0.000,0.000,0.000
489297.576,-25.391,32.715,29.785,14.160,15.137,0.000,0.000,0.000
489297.580,73.730,34.180,32.227,41.992,27.832,0.000,0.000,0.000
489297.584,107.422,36.621,27.344,50.293,27.832,0.000,0.000,0.000
489297.588,15.625,29.785,25.879,24.902,37.109,0.000,0.000,0.000
489297.592,-37.109,26.367,24.902,8.301,53.223,0.000,0.000,0.000
489297.596,54.199,40.039,23.926,29.785,36.621,0.000,0.000,0.000
489297.600,120.117,41.016,25.879,50.293,16.602,0.000,0.000,0.000
489297.603,41.016,21.484,26.855,34.180,17.578,0.000,0.000,0.000
489297.607,-44.434,20.508,27.832,9.766,21.973,0.000,0.000,0.000
489297.611,15.137,31.738,31.250,26.367,27.344,0.000,0.000,0.000
489297.615,103.027,32.715,35.156,56.641,33.203,0.000,0.000,0.000
489297.619,65.918,31.250,34.668,38.086,33.691,0.000,0.000,0.000
489297.623,-40.039,32.227,31.250,13.672,32.227,0.000,0.000,0.000
489297.627,-14.648,31.738,31.738,19.531,29.297,0.000,0.000,0.000
489297.631,85.449,30.762,29.785,40.039,33.691,0.000,0.000,0.000
489297.635,82.031,28.809,26.855,41.992,41.016,0.000,0.000,0.000
489297.639,-30.762,29.785,27.344,11.719,33.691,0.000,0.000,0.000
489297.642,-55.176,32.227,26.855,-0.977,24.902,0.000,0.000,0.000
489297.646,48.340,28.809,27.832,27.832,18.066,0.000,0.000,0.000
489297.650,94.238,25.879,28.320,37.598,19.043,0.000,0.000,0.000
489297.654,1.465,29.785,26.367,8.301,17.578,0.000,0.000,0.000
489297.658,-56.641,29.785,28.809,-0.977,12.695,0.000,0.000,0.000
489297.662,32.227,25.879,32.227,25.391,23.438,0.000,0.000,0.000
489297.666,109.375,31.738,28.320,41.016,33.203,0.000,0.000,0.000
489297.670,48.828,40.527,25.879,25.391,42.480,0.000,0.000,0.000
489297.674,-41.992,37.598,26.855,9.766,47.852,0.000,0.000,0.000
489297.678,6.348,37.598,26.367,27.344,57.129,0.000,0.000,0.000
489297.682,106.445,41.016,26.367,55.664,55.176,0.000,0.000,0.000
489297.685,83.008,39.062,30.273,49.805,34.668,0.000,0.000,0.000
489297.689,-32.715,38.086,29.297,20.996,26.367,0.000,0.000,0.000
489297.693,-23.438,35.156,28.320,21.484,29.785,0.000,0.000,0.000
489297.697,81.055,35.645,26.855,45.410,32.227,0.000,0.000,0.000
489297.701,92.285,41.016,26.367,48.828,28.809,0.000,0.000,0.000
489297.705,-17.090,33.691,26.367,23.438,20.508,0.000,0.000,0.000
489297.709,-47.852,30.762,23.926,16.113,18.066,0.000,0.000,0.000
489297.713,45.898,29.297,23.438,38.574,23.438,0.000,0.000,0.000
489297.717,92.773,33.203,23.926,41.992,28.320,0.000,0.000,0.000
489297.721,8.789,43.457,24.414,15.625,24.902,0.000,0.000,0.000
489297.724,-62.988,34.180,24.902,-0.977,22.949,0.000,0.000,0.000
489297.728,13.672,28.320,26.855,20.508,34.668,0.000,0.000,0.000
489297.732,89.844,33.691,25.391,38.574,23.438,0.000,0.000,0.000
489297.736,34.668,31.250,29.297,24.414,14.160,0.000,0.000,0.000
489297.740,-57.617,33.691,29.785,14.160,25.879,0.000,0.000,0.000
489297.744,-22.949,32.715,27.832,27.344,26.855,0.000,0.000,0.000
489297.748,74.219,26.367,27.832,46.387,24.414,0.000,0.000,0.000
489297.752,69.824,26.855,31.250,41.504,23.926,0.000,0.000,0.000
489297.756,-34.668,33.691,33.691,19.531,30.762,0.000,0.000,0.000
489297.760,-41.016,38.086,27.832,17.578,35.645,0.000,0.000,0.000
489297.764,60.059,33.691,27.832,41.504,27.832,0.000,0.000,0.000
489297.767,85.938,33.691,28.809,44.434,8.301,0.000,0.000,0.000
489297.771,-11.719,34.180,26.855,15.625,-3.906,0.000,0.000,0.000
489297.775,-52.246,34.668,26.855,5.371,2.441,0.000,0.000,0.000
489297.779,41.016,33.203,26.855,22.461,8.789,0.000,0.000,0.000
489297.783,106.445,33.691,29.297,36.133,20.020,0.000,0.000,0.000
489297.787,25.879,32.227,28.320,19.531,31.738,0.000,0.000,0.000
489297.791,-62.012,25.879,21.973,2.441,25.391,0.000,0.000,0.000
489297.795,9.277,24.414,21.973,20.020,25.391,0.000,0.000,0.000
489297.799,99.121,27.832,21.484,42.969,34.668,0.000,0.000,0.000
489297.803,58.105,35.156,24.902,35.645,43.457,0.000,0.000,0.000
489297.807,-40.039,41.016,28.320,13.184,44.922,0.000,0.000,0.000
489297.810,-12.695,37.598,22.949,10.742,38.086,4.000,1.000,45.000
489297.814,83.984,34.180,22.461,39.062,37.598,0.000,0.000,0.000
489297.818,82.520,36.621,24.902,44.922,47.852,0.000,0.000,0.000
489297.822,-32.227,29.297,23.926,15.137,43.457,0.000,0.000,0.000
489297.826,-48.828,30.273,26.855,18.066,29.785,0.000,0.000,0.000
489297.830,57.129,32.715,24.414,44.922,29.297,0.000,0.000,0.000
489297.834,95.215,24.902,23.926,44.922,35.156,0.000,0.000,0.000
489297.838,5.371,27.344,28.809,23.926,33.203,0.000,0.000,0.000
489297.842,-35.645,33.691,31.250,17.090,41.016,0.000,0.000,0.000
489297.846,47.852,32.227,28.320,36.133,53.711,0.000,0.000,0.000
489297.849,105.469,35.645,27.832,43.945,32.227,0.000,0.000,0.000
489297.853,37.109,35.645,30.273,22.461,8.301,0.000,0.000,0.000
489297.857,-55.176,28.320,29.297,4.395,9.277,0.000,0.000,0.000
489297.861,0.488,28.320,25.879,17.578,10.254,0.000,0.000,0.000
489297.865,90.820,31.738,28.320,46.387,12.207,0.000,0.000,0.000
489297.869,54.688,28.809,28.320,29.297,13.672,0.000,0.000,0.000
489297.873,-40.527,30.762,28.320,4.883,21.484,0.000,0.000,0.000
489297.877,-10.254,33.691,30.273,19.043,32.227,0.000,0.000,0.000
489297.881,91.797,35.156,29.785,39.551,24.414,0.000,0.000,0.000
489297.885,95.215,33.691,31.738,40.527,17.578,0.000,0.000,0.000
489297.889,-11.230,27.832,31.738,19.043,18.555,0.000,0.000,0.000
489297.892,-37.598,22.949,29.785,9.277,13.672,0.000,0.000,0.000
489297.896,59.082,24.902,30.273,29.297,20.020,0.000,0.000,0.000
489297.900,102.051,33.691,31.738,37.109,22.949,0.000,0.000,0.000
489297.904,6.348,35.645,31.738,18.066,9.766,0.000,0.000,0.000
489297.908,-51.270,40.527,33.691,8.789,17.090,0.000,0.000,0.000
489297.912,28.809,40.039,32.227,24.902,23.926,0.000,0.000,0.000
489297.916,92.773,32.227,27.832,44.922,15.137,0.000,0.000,0.000
489297.920,35.645,31.738,30.762,37.598,20.508,0.000,0.000,0.000
489297.924,-54.199,30.273,34.668,10.254,38.574,0.000,0.000,0.000
489297.928,-10.742,32.227,27.344,8.301,35.156,0.000,0.000,0.000
489297.931,86.426,31.250,23.926,33.203,8.789,0.000,0.000,0.000
489297.935,58.594,28.320,28.320,28.809,10.742,0.000,0.000,0.000
489297.939,-48.340,33.203,30.273,1.465,22.461,0.000,0.000,0.000
489297.943,-28.809,36.621,26.855,4.395,12.695,0.000,0.000,0.000
489297.947,76.172,32.227,25.391,35.156,6.836,0.000,0.000,0.000
489297.951,88.867,38.086,26.367,40.039,10.254,0.000,0.000,0.000
489297.955,-13.184,47.363,24.902,12.207,11.230,0.000,0.000,0.000
489297.959,-41.016,37.598,22.949,4.395,15.625,0.000,0.000,0.000
489297.963,62.012,27.344,22.461,36.621,19.531,0.000,0.000,0.000
489297.967,113.281,30.762,22.461,49.316,18.066,0.000,0.000,0.000
489297.971,25.391,40.039,23.438,25.879,16.602,0.000,0.000,0.000
489297.974,-45.898,40.039,24.414,12.695,18.066,0.000,0.000,0.000
489297.978,27.832,34.668,26.367,25.879,12.695,0.000,0.000,0.000
489297.982,101.074,33.691,27.344,38.574,7.812,0.000,0.000,0.000
489297.986,45.410,35.156,26.855,24.414,20.508,0.000,0.000,0.000
489297.990,-49.316,36.133,28.809,3.418,25.391,0.000,0.000,0.000
489297.994,-4.395,36.133,29.297,14.160,16.602,0.000,0.000,0.000
489297.998,90.332,41.504,25.391,36.133,13.672,0.000,0.000,0.000
489298.002,73.730,37.109,23.438,27.344,22.949,0.000,0.000,0.000
489298.006,-33.203,35.156,24.902,11.719,33.691,0.000,0.000,0.000
489298.010,-33.691,32.715,22.949,17.578,27.344,0.000,0.000,0.000
489298.014,73.242,29.297,21.973,40.039,20.508,0.000,0.000,0.000
489298.017,92.285,30.762,25.391,40.527,22.949,0.000,0.000,0.000
489298.021,-10.742,28.809,27.344,21.484,28.809,0.000,0.000,0.000
489298.025,-46.875,38.086,27.344,15.137,34.668,0.000,0.000,0.000
