timestamps,TP9,AF7,AF8,TP10,Right AUX,Frequency,Contrast,Orientation
502621.000,29.297,48.340,39.062,20.508,60.059,0.000,0.000,0.000
502621.004,15.137,44.434,35.156,11.719,42.969,0.000,0.000,0.000
502621.008,9.277,47.363,28.320,9.277,35.156,0.000,0.000,0.000
502621.012,16.602,48.340,17.090,20.020,41.992,0.000,0.000,0.000
502621.016,15.625,41.504,21.484,24.902,41.992,0.000,0.000,0.000
502621.019,10.742,38.086,36.621,15.625,29.785,0.000,0.000,0.000
502621.023,10.254,41.504,47.852,13.672,27.832,0.000,0.000,0.000
502621.027,6.348,45.898,48.828,11.719,31.250,0.000,0.000,0.000
502621.031,-0.977,46.875,41.016,1.953,26.367,0.000,0.000,0.000
502621.035,-6.348,47.852,36.621,-15.137,20.996,0.000,0.000,0.000
502621.039,-6.348,47.852,36.621,-17.090,16.602,0.000,0.000,0.000
502621.043,0.000,39.551,35.645,-8.301,19.531,0.000,0.000,0.000
502621.047,5.371,40.039,25.879,1.465,25.879,0.000,0.000,0.000
502621.051,5.371,44.434,21.484,1.465,22.461,0.000,0.000,0.000
502621.055,-3.418,40.527,21.973,-6.836,18.555,0.000,0.000,0.000
502621.059,-2.930,44.922,28.320,-1.465,20.996,0.000,0.000,0.000
502621.062,-5.859,42.480,38.086,4.395,23.926,0.000,0.000,0.000
502621.066,-10.254,36.133,41.992,9.766,22.461,0.000,0.000,0.000
502621.070,-7.812,37.598,46.387,16.602,25.879,0.000,0.000,0.000
502621.074,-2.930,42.969,44.922,11.230,36.621,0.000,0.000,0.000
502621.078,2.930,45.898,40.039,11.230,40.039,0.000,0.000,0.000
502621.082,0.977,45.898,39.551,25.391,39.551,0.000,0.000,0.000
502621.086,-1.953,46.387,40.039,22.949,37.109,0.000,0.000,0.000
502621.090,-5.371,43.945,39.551,10.254,29.785,0.000,0.000,0.000
502621.094,-3.906,40.527,34.668,13.672,29.785,0.000,0.000,0.000
502621.098,-0.977,37.598,20.996,17.090,36.621,0.000,0.000,0.000
502621.101,-2.441,40.527,19.531,19.043,37.598,0.000,0.000,0.000
502621.105,-0.977,42.969,33.691,22.949,38.086,0.000,0.000,0.000
502621.109,7.812,46.875,31.250,19.043,37.109,0.000,0.000,0.000
502621.113,7.812,44.922,23.926,28.320,37.109,0.000,0.000,0.000
502621.117,0.000,44.434,35.156,36.621,37.598,0.000,0.000,0.000
502621.121,-11.719,42.969,45.410,15.625,29.297,0.000,0.000,0.000
502621.125,-15.137,35.645,48.340,10.742,26.367,0.000,0.000,0.000
502621.129,-11.719,39.551,41.992,24.902,27.832,0.000,0.000,0.000
502621.133,-14.160,42.480,35.156,25.879,21.484,0.000,0.000,0.000
502621.137,-22.461,38.086,29.785,23.926,19.531,0.000,0.000,0.000
502621.141,-30.273,37.109,30.762,17.578,19.043,0.000,0.000,0.000
502621.144,-27.344,42.480,44.434,16.113,14.160,0.000,0.000,0.000
502621.148,-18.066,43.457,43.945,22.949,17.090,0.000,0.000,0.000
502621.152,-12.695,40.039,32.715,20.508,27.344,0.000,0.000,0.000
502621.156,-19.043,41.016,25.879,18.555,35.156,0.000,0.000,0.000
502621.160,-21.973,43.945,27.344,19.531,32.227,0.000,0.000,0.000
502621.164,-14.648,41.992,37.598,13.672,27.344,0.000,0.000,0.000
502621.168,-19.531,41.504,45.410,12.207,20.996,0.000,0.000,0.000
502621.172,-37.598,46.875,44.434,21.973,15.625,0.000,0.000,0.000
502621.176,-32.715,46.387,37.109,13.672,15.137,0.000,0.000,0.000
502621.180,-23.438,41.016,38.086,4.883,23.926,0.000,0.000,0.000
502621.184,-21.973,42.480,43.457,13.184,21.973,0.000,0.000,0.000
502621.187,-26.855,43.457,45.898,15.625,18.066,0.000,0.000,0.000
502621.191,-24.902,39.551,47.363,19.531,21.484,0.000,0.000,0.000
502621.195,-17.578,40.039,44.434,18.555,19.043,0.000,0.000,0.000
502621.199,-18.066,40.039,36.133,18.555,15.625,0.000,0.000,0.000
502621.203,-17.090,36.621,34.180,22.949,21.484,0.000,0.000,0.000
502621.207,-16.113,36.621,36.621,21.973,26.855,0.000,0.000,0.000
502621.211,-11.230,39.551,35.156,23.438,27.832,0.000,0.000,0.000
502621.215,-5.859,41.992,38.086,23.438,34.180,0.000,0.000,0.000
502621.219,-3.906,41.992,41.016,20.508,39.551,0.000,0.000,0.000
502621.223,-11.230,45.410,39.551,16.602,26.367,0.000,0.000,0.000
502621.226,-15.625,50.293,34.180,14.648,25.391,0.000,0.000,0.000
502621.230,-13.184,53.223,19.043,34.180,32.227,0.000,0.000,0.000
502621.234,-14.160,53.223,19.043,38.574,29.785,0.000,0.000,0.000
502621.238,-22.461,48.828,39.551,9.766,28.320,0.000,0.000,0.000
502621.242,-21.484,45.898,51.270,2.930,33.691,0.000,0.000,0.000
502621.246,-16.602,46.387,51.758,18.066,34.180,0.000,0.000,0.000
502621.250,-10.742,47.363,52.246,29.785,33.203,0.000,0.000,0.000
502621.254,-6.836,45.410,48.828,15.625,38.086,0.000,0.000,0.000
502621.258,-0.977,40.527,43.457,9.277,40.039,0.000,0.000,0.000
502621.262,4.883,37.598,41.504,19.531,38.574,0.000,0.000,0.000
502621.266,-5.371,41.504,41.504,29.785,43.457,0.000,0.000,0.000
502621.269,-17.090,46.387,32.227,30.762,43.457,0.000,0.000,0.000
502621.273,-23.438,46.875,24.902,18.066,35.156,0.000,0.000,0.000
502621.277,-20.508,46.387,29.785,15.137,37.109,0.000,0.000,0.000
502621.281,-18.555,42.480,38.574,20.996,31.738,0.000,0.000,0.000
502621.285,-22.461,34.668,48.340,24.414,15.625,0.000,0.000,0.000
502621.289,-25.391,37.598,50.781,27.344,18.555,0.000,0.000,0.000
502621.293,-19.531,44.922,42.480,30.273,28.320,0.000,0.000,0.000
502621.297,-11.230,46.875,31.738,28.320,29.297,0.000,0.000,0.000
502621.301,-6.836,45.898,33.691,17.578,29.297,0.000,0.000,0.000
502621.305,-11.719,44.922,39.062,15.137,32.227,0.000,0.000,0.000
502621.309,-15.137,44.922,44.434,21.484,38.086,0.000,0.000,0.000
502621.312,-12.695,41.016,47.363,24.414,35.645,0.000,0.000,0.000
502621.316,-13.184,41.504,41.504,19.531,27.832,0.000,0.000,0.000
502621.320,-14.648,41.016,40.039,5.859,20.996,0.000,0.000,0.000
502621.324,-13.184,41.992,42.969,-3.906,18.066,0.000,0.000,0.000
502621.328,-7.812,47.363,40.527,3.418,22.461,0.000,0.000,0.000
502621.332,-11.230,49.805,36.621,17.578,27.344,0.000,0.000,0.000
502621.336,-16.602,48.340,34.180,19.531,28.809,0.000,0.000,0.000
502621.340,-15.625,43.457,32.227,19.043,26.367,0.000,0.000,0.000
502621.344,-11.719,36.621,34.180,17.578,27.832,0.000,0.000,0.000
502621.348,-10.254,29.785,31.738,16.602,26.855,0.000,0.000,0.000
502621.351,-19.043,39.551,29.785,10.254,18.555,0.000,0.000,0.000
502621.355,-23.926,52.734,34.180,9.766,22.461,0.000,0.000,0.000
502621.359,-15.625,52.246,31.738,18.555,30.273,0.000,0.000,0.000
502621.363,-5.859,48.340,24.414,24.902,25.879,0.000,0.000,0.000
502621.367,-6.348,43.945,20.020,25.879,23.438,0.000,0.000,0.000
502621.371,-15.137,39.551,34.668,16.113,25.391,0.000,0.000,0.000
502621.375,-16.602,38.574,47.852,5.371,20.508,0.000,0.000,0.000
502621.379,-13.184,41.992,51.270,15.625,17.090,0.000,0.000,0.000
502621.383,-19.043,41.016,52.734,24.902,16.602,0.000,0.000,0.000
502621.387,-26.855,34.180,49.805,11.719,19.531,0.000,0.000,0.000
502621.391,-26.367,33.203,41.992,6.348,20.508,0.000,0.000,0.000
502621.394,-27.832,34.668,35.645,10.254,19.531,0.000,0.000,0.000
502621.398,-24.414,34.668,37.598,18.066,19.043,0.000,0.000,0.000
502621.402,-20.020,39.551,38.574,14.160,17.090,0.000,0.000,0.000
502621.406,-24.414,47.363,26.367,10.742,13.672,0.000,0.000,0.000
502621.410,-20.020,41.016,19.531,8.301,17.090,0.000,0.000,0.000
502621.414,-3.906,37.598,34.668,10.254,21.973,0.000,0.000,0.000
502621.418,6.348,46.387,41.504,22.461,25.879,0.000,0.000,0.000
502621.422,4.883,54.199,41.504,20.996,30.762,0.000,0.000,0.000
502621.426,9.766,53.223,46.875,18.066,18.066,0.000,0.000,0.000
502621.430,12.207,50.293,44.434,20.508,17.090,0.000,0.000,0.000
502621.434,5.859,45.898,45.410,25.879,30.762,0.000,0.000,0.000
502621.437,-0.488,45.410,45.410,25.391,29.785,0.000,0.000,0.000
502621.441,3.906,49.805,36.133,19.531,32.227,0.000,0.000,0.000
502621.445,7.324,47.363,39.062,21.484,42.969,0.000,0.000,0.000
502621.449,3.418,33.691,41.016,24.414,39.062,0.000,0.000,0.000
502621.453,5.371,41.016,35.156,25.879,31.250,0.000,0.000,0.000
502621.457,2.930,50.781,37.598,23.438,36.133,0.000,0.000,0.000
502621.461,0.488,46.387,51.758,23.438,39.551,0.000,0.000,0.000
502621.465,2.930,40.039,54.199,30.762,30.762,0.000,0.000,0.000
502621.469,5.371,33.203,40.527,21.973,29.297,0.000,0.000,0.000
502621.473,9.766,32.715,40.039,17.090,37.109,0.000,0.000,0.000
502621.476,15.137,33.203,41.992,16.113,33.691,0.000,0.000,0.000
502621.480,17.090,37.109,39.062,6.836,26.367,0.000,0.000,0.000
502621.484,11.230,38.574,39.551,12.207,23.926,0.000,0.000,0.000
502621.488,11.719,40.527,38.086,6.836,27.832,0.000,0.000,0.000
502621.492,15.137,39.551,37.598,-2.930,29.785,0.000,0.000,0.000
502621.496,17.578,36.621,42.969,0.977,29.785,0.000,0.000,0.000
502621.500,24.902,39.062,44.922,5.859,32.227,0.000,0.000,0.000
502621.504,28.809,41.504,42.969,11.719,30.762,0.000,0.000,0.000
502621.508,32.227,42.480,35.156,12.695,38.574,0.000,0.000,0.000
502621.512,39.551,45.410,31.250,17.090,37.598,0.000,0.000,0.000
502621.516,37.109,45.898,38.086,23.438,31.250,0.000,0.000,0.000
502621.519,27.832,47.363,43.457,10.742,34.668,0.000,0.000,0.000
502621.523,24.902,49.316,45.898,-4.395,30.273,0.000,0.000,0.000
502621.527,29.785,47.852,45.898,2.930,39.551,0.000,0.000,0.000
502621.531,26.367,47.852,46.875,31.738,36.133,0.000,0.000,0.000
502621.535,20.996,43.945,38.574,35.156,26.367,0.000,0.000,0.000
502621.539,19.531,41.992,32.227,11.719,31.250,0.000,0.000,0.000
502621.543,13.184,46.875,38.574,24.902,28.809,0.000,0.000,0.000
502621.547,8.789,49.316,42.969,44.922,34.668,0.000,0.000,0.000
502621.551,4.395,46.875,43.945,21.973,41.504,0.000,0.000,0.000
502621.555,-7.812,42.480,39.551,0.488,36.133,0.000,0.000,0.000
502621.559,-13.184,38.086,32.715,10.742,35.156,0.000,0.000,0.000
502621.562,-7.324,42.480,31.250,-2.441,36.133,0.000,0.000,0.000
502621.566,-5.371,43.457,36.621,-2.930,30.762,0.000,0.000,0.000
502621.570,-6.836,37.598,26.855,3.418,32.227,0.000,0.000,0.000
502621.574,-9.766,41.016,20.020,-0.977,34.180,0.000,0.000,0.000
502621.578,8.789,47.363,37.598,17.090,37.109,0.000,0.000,0.000
502621.582,20.508,47.363,46.875,24.414,36.133,0.000,0.000,0.000
502621.586,10.254,46.875,48.828,27.344,29.297,0.000,0.000,0.000
502621.590,9.766,48.340,45.410,30.273,38.086,0.000,0.000,0.000
502621.594,7.324,47.363,37.109,17.090,42.969,0.000,0.000,0.000
502621.598,3.418,46.875,37.598,6.836,33.203,0.000,0.000,0.000
502621.601,1.465,48.828,40.527,1.465,28.320,0.000,0.000,0.000
502621.605,-0.488,49.805,38.086,12.207,25.391,0.000,0.000,0.000
502621.609,5.371,47.363,32.715,17.578,26.855,0.000,0.000,0.000
502621.613,9.766,45.410,30.273,10.742,26.367,0.000,0.000,0.000
502621.617,4.395,45.410,29.785,16.113,28.320,0.000,0.000,0.000
502621.621,0.977,49.805,21.973,2.441,35.645,0.000,0.000,0.000
502621.625,11.230,52.734,23.438,-4.395,37.598,0.000,0.000,0.000
502621.629,15.625,52.734,34.180,11.230,41.992,0.000,0.000,0.000
502621.633,20.996,50.293,36.133,18.066,52.246,0.000,0.000,0.000
502621.637,18.066,50.293,37.109,14.648,48.828,0.000,0.000,0.000
502621.641,9.277,53.711,36.621,3.906,40.039,0.000,0.000,0.000
502621.644,20.996,56.152,36.621,1.953,41.504,0.000,0.000,0.000
502621.648,29.297,57.617,35.645,18.066,39.062,0.000,0.000,0.000
502621.652,30.273,49.316,36.133,18.555,30.762,0.000,0.000,0.000
502621.656,31.738,46.387,38.086,15.137,43.945,0.000,0.000,0.000
502621.660,23.926,50.781,29.297,5.859,49.805,0.000,0.000,0.000
502621.664,19.531,50.781,24.902,3.906,37.598,0.000,0.000,0.000
502621.668,25.391,52.734,39.062,11.719,38.574,0.000,0.000,0.000
502621.672,27.344,52.734,44.434,11.719,40.039,0.000,0.000,0.000
502621.676,18.066,49.805,40.039,6.348,46.875,0.000,0.000,0.000
502621.680,8.301,47.852,40.039,6.348,44.922,0.000,0.000,0.000
502621.684,2.930,47.363,39.551,18.066,39.551,0.000,0.000,0.000
502621.687,1.465,41.992,40.039,15.625,35.645,0.000,0.000,0.000
502621.691,7.812,41.504,42.480,-1.465,37.109,0.000,0.000,0.000
502621.695,10.742,48.340,43.457,1.953,36.621,0.000,0.000,0.000
502621.699,22.461,54.688,37.598,18.066,40.039,0.000,0.000,0.000
502621.703,14.160,47.363,39.062,18.066,48.340,0.000,0.000,0.000
502621.707,-1.465,40.039,44.922,2.441,43.457,0.000,0.000,0.000
502621.711,12.207,46.875,35.156,0.000,36.621,0.000,0.000,0.000
502621.715,17.090,50.293,29.785,15.137,39.551,0.000,0.000,0.000
502621.719,11.719,52.246,37.109,13.184,45.410,0.000,0.000,0.000
502621.723,9.277,54.199,47.363,1.953,47.363,0.000,0.000,0.000
502621.726,12.695,53.711,49.805,0.977,38.574,0.000,0.000,0.000
502621.730,10.254,52.246,44.434,11.230,25.879,0.000,0.000,0.000
502621.734,10.254,47.852,36.133,12.207,20.020,0.000,0.000,0.000
502621.738,-1.465,41.504,40.527,7.324,25.391,0.000,0.000,0.000
502621.742,-14.160,42.480,50.781,5.859,29.297,0.000,0.000,0.000
502621.746,-16.602,47.363,48.340,5.859,32.715,0.000,0.000,0.000
502621.750,-20.020,43.945,44.434,6.836,32.227,0.000,0.000,0.000
502621.754,-11.230,35.645,44.922,16.113,27.344,0.000,0.000,0.000
502621.758,-10.254,40.527,37.598,6.348,31.250,0.000,0.000,0.000
502621.762,-13.184,45.410,35.645,2.930,41.016,0.000,0.000,0.000
502621.766,-3.418,43.457,43.945,24.902,44.434,0.000,0.000,0.000
502621.769,-15.137,44.434,41.504,18.066,31.738,0.000,0.000,0.000
502621.773,-29.785,39.062,37.109,0.000,24.414,0.000,0.000,0.000
502621.777,-18.066,36.621,41.992,-0.977,32.227,0.000,0.000,0.000
502621.781,-10.742,42.969,49.316,12.207,29.785,0.000,0.000,0.000
502621.785,-14.160,45.410,51.270,12.207,16.602,0.000,0.000,0.000
502621.789,-10.254,47.852,51.758,-5.371,20.020,0.000,0.000,0.000
502621.793,-1.953,47.852,41.992,-13.184,20.508,0.000,0.000,0.000
502621.797,14.160,44.434,34.180,0.000,16.113,0.000,0.000,0.000
502621.801,18.555,46.875,31.250,-1.465,9.277,0.000,0.000,0.000
502621.805,-8.789,49.805,29.297,-3.906,10.742,0.000,0.000,0.000
502621.808,-14.160,52.734,33.691,-2.441,18.066,0.000,0.000,0.000
502621.812,-1.465,54.688,39.062,-8.789,21.973,0.000,0.000,0.000
502621.816,-0.977,48.340,46.387,-2.441,25.391,0.000,0.000,0.000
502621.820,-4.395,43.457,42.480,-2.441,29.297,0.000,0.000,0.000
502621.824,-10.742,41.016,32.715,-11.719,29.297,0.000,0.000,0.000
502621.828,-1.953,45.410,35.156,-10.254,32.227,0.000,0.000,0.000
502621.832,7.812,46.875,43.945,1.953,34.668,0.000,0.000,0.000
502621.836,-2.930,38.574,44.922,2.930,24.414,0.000,0.000,0.000
502621.840,-6.836,35.645,41.992,-4.883,16.602,0.000,0.000,0.000
502621.844,-1.465,37.109,38.574,-1.953,20.508,0.000,0.000,0.000
502621.848,-13.184,38.574,28.320,6.836,26.855,0.000,0.000,0.000
502621.851,-14.648,36.133,34.668,7.812,24.414,0.000,0.000,0.000
502621.855,-7.324,41.504,50.293,0.000,30.273,0.000,0.000,0.000
502621.859,-1.465,44.434,48.828,-5.371,40.527,0.000,0.000,0.000
502621.863,1.465,42.969,42.969,2.441,32.227,0.000,0.000,0.000
502621.867,-1.465,40.527,31.738,5.859,16.113,0.000,0.000,0.000
502621.871,-4.883,38.574,29.785,-5.859,16.602,0.000,0.000,0.000
502621.875,-3.906,38.086,44.922,-14.648,21.973,0.000,0.000,0.000
502621.879,-6.348,29.785,53.711,-10.742,14.648,0.000,0.000,0.000
502621.883,-14.160,30.762,51.270,-5.371,16.602,0.000,0.000,0.000
502621.887,-12.207,43.457,46.875,-13.184,17.090,0.000,0.000,0.000
502621.891,-14.648,41.992,45.898,-12.207,19.043,0.000,0.000,0.000
502621.894,-10.254,36.621,42.969,-14.160,27.344,0.000,0.000,0.000
502621.898,-2.441,38.086,38.574,-12.695,20.020,0.000,0.000,0.000
502621.902,-16.602,38.086,41.504,-5.859,12.695,0.000,0.000,0.000
502621.906,-22.949,39.062,47.363,-10.254,15.625,0.000,0.000,0.000
502621.910,-11.230,38.574,33.203,-9.766,19.043,0.000,0.000,0.000
502621.914,-16.602,36.133,28.809,0.000,22.461,0.000,0.000,0.000
502621.918,-23.438,33.691,43.457,5.859,21.973,0.000,0.000,0.000
502621.922,-16.602,31.250,43.945,-3.418,20.508,0.000,0.000,0.000
502621.926,-16.602,28.320,32.715,-2.441,20.508,0.000,0.000,0.000
502621.930,-12.207,30.273,27.344,5.371,23.438,0.000,0.000,0.000
502621.933,-1.953,34.180,28.809,-6.348,31.738,0.000,0.000,0.000
502621.937,-2.441,38.086,31.738,-9.766,30.762,0.000,0.000,0.000
502621.941,-4.395,37.598,33.203,-4.883,26.855,0.000,0.000,0.000
502621.945,2.930,35.645,29.785,-1.465,31.738,0.000,0.000,0.000
502621.949,10.254,38.574,31.738,-7.812,30.273,0.000,0.000,0.000
502621.953,2.441,39.062,32.715,-21.484,27.832,0.000,0.000,0.000
502621.957,-14.160,37.109,26.367,-21.484,28.320,0.000,0.000,0.000
502621.961,-15.625,38.086,20.996,-16.602,23.926,0.000,0.000,0.000
502621.965,-4.395,41.016,19.531,-17.578,25.879,0.000,0.000,0.000
502621.969,-10.742,37.109,25.391,-21.973,29.785,0.000,0.000,0.000
502621.973,-13.184,37.109,22.949,-23.438,31.738,0.000,0.000,0.000
502621.976,-8.789,44.434,19.531,-16.113,25.391,0.000,0.000,0.000
502621.980,-5.859,44.434,23.438,-6.836,20.996,0.000,0.000,0.000
502621.984,1.465,38.086,21.973,4.883,26.855,0.000,0.000,0.000
502621.988,4.395,39.062,19.531,3.906,33.691,0.000,0.000,0.000
502621.992,6.836,48.340,21.973,-0.488,24.902,0.000,0.000,0.000
502621.996,10.254,48.828,31.738,2.930,16.602,0.000,0.000,0.000
502622.000,9.766,44.434,31.738,7.324,22.949,0.000,0.000,0.000
502622.004,13.672,44.922,27.832,2.930,27.344,0.000,0.000,0.000
502622.008,9.766,47.363,27.832,-1.953,26.367,0.000,0.000,0.000
502622.012,9.277,47.852,30.762,7.324,23.926,0.000,0.000,0.000
502622.016,18.066,47.852,33.691,8.789,20.020,0.000,0.000,0.000
502622.019,18.066,46.387,29.785,-4.395,18.555,0.000,0.000,0.000
502622.023,15.625,41.016,27.344,-8.789,18.066,0.000,0.000,0.000
502622.027,21.973,40.527,30.762,-7.812,20.508,0.000,0.000,0.000
502622.031,21.484,42.969,32.715,0.000,21.973,0.000,0.000,0.000
502622.035,25.391,42.969,33.691,7.812,26.367,0.000,0.000,0.000
502622.039,34.668,42.969,30.762,4.883,22.949,0.000,0.000,0.000
502622.043,41.992,42.480,30.762,4.883,28.809,0.000,0.000,0.000
502622.047,42.480,44.434,30.273,13.184,34.668,0.000,0.000,0.000
502622.051,33.691,46.387,28.809,15.625,28.809,0.000,0.000,0.000
502622.055,26.367,47.363,24.414,4.395,34.180,0.000,0.000,0.000
502622.058,28.320,42.480,25.391,10.742,38.086,0.000,0.000,0.000
502622.062,30.273,30.273,28.809,15.625,35.156,0.000,0.000,0.000
502622.066,28.320,30.273,28.809,0.488,29.297,0.000,0.000,0.000
502622.070,24.414,40.039,28.320,4.395,24.902,0.000,0.000,0.000
502622.074,28.809,33.691,27.832,11.719,36.621,0.000,0.000,0.000
502622.078,34.668,31.738,32.227,8.789,39.062,0.000,0.000,0.000
502622.082,33.691,42.969,33.203,13.184,36.133,0.000,0.000,0.000
502622.086,31.250,43.945,31.250,1.953,30.762,0.000,0.000,0.000
502622.090,23.926,42.480,31.738,-6.348,29.785,0.000,0.000,0.000
502622.094,24.902,45.898,38.574,3.418,33.691,0.000,0.000,0.000
502622.098,30.273,43.457,37.598,11.230,26.855,0.000,0.000,0.000
502622.101,30.273,41.992,35.156,8.301,27.832,0.000,0.000,0.000
502622.105,23.438,43.457,38.574,3.418,26.855,0.000,0.000,0.000
502622.109,22.461,42.480,40.039,13.672,37.109,0.000,0.000,0.000
502622.113,19.531,39.551,32.227,20.020,39.062,0.000,0.000,0.000
502622.117,18.555,39.551,29.297,8.789,22.949,0.000,0.000,0.000
502622.121,26.855,38.574,31.250,0.488,26.367,0.000,0.000,0.000
502622.125,21.484,32.715,28.809,5.859,32.715,0.000,0.000,0.000
502622.129,14.160,34.668,30.273,16.113,29.297,0.000,0.000,0.000
502622.133,21.973,40.527,32.227,12.207,25.879,0.000,0.000,0.000
502622.137,10.742,41.504,31.738,1.465,23.926,0.000,0.000,0.000
502622.141,-1.465,44.434,27.344,-6.836,24.902,0.000,0.000,0.000
502622.144,6.836,50.781,23.438,2.441,37.598,0.000,0.000,0.000
502622.148,6.348,45.410,28.320,9.766,30.273,0.000,0.000,0.000
502622.152,-13.184,37.598,33.691,5.371,21.973,0.000,0.000,0.000
502622.156,-15.625,35.156,32.715,-4.883,26.367,0.000,0.000,0.000
502622.160,-6.348,34.668,30.273,-8.789,26.855,0.000,0.000,0.000
502622.164,-10.254,39.551,32.227,1.953,23.926,0.000,0.000,0.000
502622.168,-10.742,41.504,31.738,8.301,20.020,0.000,0.000,0.000
502622.172,4.395,44.434,31.738,11.230,30.762,0.000,0.000,0.000
502622.176,17.090,44.434,32.227,14.160,33.691,0.000,0.000,0.000
502622.180,12.695,41.504,26.855,16.602,28.320,0.000,0.000,0.000
502622.183,4.395,41.992,27.344,4.883,23.438,0.000,0.000,0.000
502622.187,-11.230,38.574,29.297,0.977,22.949,0.000,0.000,0.000
502622.191,-14.160,41.504,27.344,8.301,27.344,0.000,0.000,0.000
502622.195,-19.531,45.898,28.320,7.812,20.508,0.000,0.000,0.000
502622.199,-23.926,44.922,31.738,5.859,19.043,0.000,0.000,0.000
502622.203,-29.785,42.969,32.227,3.906,22.461,0.000,0.000,0.000
502622.207,-33.203,41.504,34.668,-0.977,21.973,0.000,0.000,0.000
502622.211,-27.344,37.598,34.180,-3.418,18.066,0.000,0.000,0.000
502622.215,-30.273,37.109,32.227,8.301,20.996,0.000,0.000,0.000
502622.219,-31.250,38.574,38.086,13.672,24.414,0.000,0.000,0.000
502622.223,-27.344,39.062,35.645,0.488,20.996,0.000,0.000,0.000
502622.226,-18.066,41.992,24.902,-0.488,29.785,0.000,0.000,0.000
502622.230,-20.020,41.992,28.320,14.648,28.320,0.000,0.000,0.000
502622.234,-24.902,39.062,35.156,21.973,24.414,0.000,0.000,0.000
502622.238,-24.902,42.969,37.109,9.277,32.227,0.000,0.000,0.000
502622.242,-14.648,41.992,38.574,-2.930,38.574,0.000,0.000,0.000
502622.246,-10.254,34.180,38.086,1.953,30.762,0.000,0.000,0.000
502622.250,-17.090,33.691,39.551,5.371,21.973,0.000,0.000,0.000
502622.254,-22.461,36.621,39.551,5.371,24.414,0.000,0.000,0.000
502622.258,-16.602,38.086,35.645,-6.348,27.832,0.000,0.000,0.000
502622.262,-17.090,42.480,33.203,-14.648,29.785,0.000,0.000,0.000
502622.266,-18.066,45.898,40.039,-1.953,31.738,0.000,0.000,0.000
502622.269,-17.578,44.434,41.016,-0.977,28.809,0.000,0.000,0.000
502622.273,-25.879,38.574,30.762,-14.648,25.391,0.000,0.000,0.000
502622.277,-20.020,37.598,21.973,-7.812,26.855,0.000,0.000,0.000
502622.281,-18.066,40.039,21.484,0.977,28.320,0.000,0.000,0.000
502622.285,-22.461,37.109,23.926,-3.418,33.203,0.000,0.000,0.000
502622.289,-17.578,36.133,26.855,-1.953,42.969,0.000,0.000,0.000
502622.293,-19.531,37.598,39.062,-2.930,35.645,0.000,0.000,0.000
502622.297,-22.461,38.574,43.457,5.859,31.738,0.000,0.000,0.000
502622.301,-14.160,41.504,39.062,5.859,39.062,0.000,0.000,0.000
502622.305,-13.184,43.457,40.039,-5.371,36.621,0.000,0.000,0.000
502622.308,-12.695,44.922,43.945,-5.859,41.992,0.000,0.000,0.000
502622.312,-1.953,48.340,41.016,-8.301,42.480,0.000,0.000,0.000
502622.316,-7.324,47.852,36.133,-4.395,33.203,0.000,0.000,0.000
502622.320,-23.926,41.016,26.855,-2.441,26.367,0.000,0.000,0.000
502622.324,-18.066,38.086,23.926,-4.883,25.391,0.000,0.000,0.000
502622.328,-13.184,39.551,28.320,1.953,25.879,0.000,0.000,0.000
502622.332,-16.602,40.039,37.598,5.371,27.832,0.000,0.000,0.000
502622.336,-21.973,41.992,41.504,3.418,22.949,0.000,0.000,0.000
502622.340,-26.367,39.062,41.992,9.277,19.531,0.000,0.000,0.000
502622.344,-16.602,36.133,46.875,12.695,22.461,0.000,0.000,0.000
502622.348,-10.254,40.527,41.992,12.207,21.973,0.000,0.000,0.000
502622.351,-13.184,45.898,39.062,4.883,24.414,0.000,0.000,0.000
502622.355,-13.184,52.246,37.109,4.395,33.691,0.000,0.000,0.000
502622.359,-15.625,51.270,33.691,9.766,35.645,0.000,0.000,0.000
502622.363,-18.066,45.898,34.668,3.418,23.438,0.000,0.000,0.000
502622.367,-7.324,46.387,31.250,1.465,20.508,0.000,0.000,0.000
502622.371,-18.555,44.922,29.297,-7.324,28.320,0.000,0.000,0.000
502622.375,-25.391,45.898,36.621,0.977,24.902,0.000,0.000,0.000
502622.379,-11.719,44.922,41.016,16.602,21.484,0.000,0.000,0.000
502622.383,-7.812,38.574,36.621,5.859,17.578,0.000,0.000,0.000
502622.387,-12.695,37.109,32.227,4.883,14.648,0.000,0.000,0.000
502622.390,-11.230,41.504,31.738,3.906,14.648,0.000,0.000,0.000
502622.394,-9.277,41.016,38.574,2.930,15.625,0.000,0.000,0.000
502622.398,-8.301,42.969,43.945,11.719,25.879,0.000,0.000,0.000
502622.402,-5.859,45.898,41.992,5.859,28.320,0.000,0.000,0.000
502622.406,-4.883,46.387,36.621,10.742,19.531,0.000,0.000,0.000
502622.410,-2.441,43.457,34.180,11.719,24.414,0.000,0.000,0.000
502622.414,-1.953,39.062,38.574,15.625,29.785,0.000,0.000,0.000
502622.418,-1.953,39.551,39.062,11.719,24.902,0.000,0.000,0.000
502622.422,-11.230,39.551,30.762,0.977,22.461,0.000,0.000,0.000
502622.426,-9.766,37.598,30.273,5.859,34.180,0.000,0.000,0.000
502622.430,-3.418,38.086,35.156,13.672,39.062,0.000,0.000,0.000
502622.433,-15.625,40.527,31.250,12.207,26.855,0.000,0.000,0.000
502622.437,-32.715,45.410,38.086,0.000,18.066,0.000,0.000,0.000
502622.441,-26.855,45.410,45.410,0.000,23.438,0.000,0.000,0.000
502622.445,-18.555,39.062,39.551,5.859,32.227,0.000,0.000,0.000
502622.449,-15.137,37.109,38.574,18.066,33.203,0.000,0.000,0.000
502622.453,-22.461,39.062,40.039,6.836,30.762,0.000,0.000,0.000
502622.457,-32.227,36.621,32.715,-12.207,43.457,0.000,0.000,0.000
502622.461,-29.785,36.133,32.227,4.883,41.504,0.000,0.000,0.000
502622.465,-34.668,38.086,41.016,10.254,26.367,0.000,0.000,0.000
502622.469,-29.297,34.668,39.062,-1.465,25.879,0.000,0.000,0.000
502622.473,-33.691,30.273,35.645,14.160,21.484,0.000,0.000,0.000
502622.476,-45.410,26.855,41.504,13.184,20.996,0.000,0.000,0.000
502622.480,-41.992,33.203,36.621,-14.160,17.578,0.000,0.000,0.000
502622.484,-42.969,40.527,31.738,-6.836,12.695,0.000,0.000,0.000
502622.488,-41.992,41.016,35.645,-3.418,17.090,0.000,0.000,0.000
502622.492,-33.691,44.434,32.227,-8.789,14.160,0.000,0.000,0.000
502622.496,-18.066,45.898,36.621,3.906,16.113,0.000,0.000,0.000
502622.500,-6.348,43.457,47.363,10.742,20.996,0.000,0.000,0.000
502622.504,-5.859,38.086,48.340,2.441,26.367,0.000,0.000,0.000
502622.508,-3.906,36.621,46.875,2.930,41.992,0.000,0.000,0.000
502622.512,8.301,38.086,46.387,15.137,40.527,0.000,0.000,0.000
502622.515,10.254,40.039,44.434,26.855,24.902,0.000,0.000,0.000
502622.519,10.742,42.480,36.621,37.598,33.691,0.000,0.000,0.000
502622.523,16.113,41.992,31.738,33.203,53.223,0.000,0.000,0.000
502622.527,13.184,41.016,34.668,16.602,49.805,0.000,0.000,0.000
502622.531,5.859,41.504,40.039,12.695,43.945,2.000,1.000,45.000
502622.535,11.230,39.062,47.363,17.578,55.176,0.000,0.000,0.000
502622.539,8.789,39.551,49.316,15.625,56.152,0.000,0.000,0.000
502622.543,4.883,40.527,46.875,11.230,47.363,0.000,0.000,0.000
502622.547,4.395,41.016,44.922,16.602,52.246,0.000,0.000,0.000
502622.551,3.418,41.504,44.434,24.414,52.734,0.000,0.000,0.000
502622.555,3.906,44.922,41.992,19.531,44.922,0.000,0.000,0.000
502622.558,0.977,47.852,41.504,11.230,52.734,0.000,0.000,0.000
502622.562,1.953,44.922,41.504,30.273,45.410,0.000,0.000,0.000
502622.566,-4.883,47.852,32.227,36.621,27.344,0.000,0.000,0.000
502622.570,-11.230,47.363,32.227,16.113,23.926,0.000,0.000,0.000
502622.574,-2.441,41.016,37.598,11.719,26.855,0.000,0.000,0.000
502622.578,7.812,39.062,33.203,24.902,29.785,0.000,0.000,0.000
502622.582,6.348,40.039,32.227,24.414,27.344,0.000,0.000,0.000
502622.586,0.488,40.527,41.992,12.695,28.809,0.000,0.000,0.000
502622.590,3.906,40.527,50.781,12.207,34.668,0.000,0.000,0.000
502622.594,-1.465,39.551,50.781,16.113,40.039,0.000,0.000,0.000
502622.598,-6.348,39.551,49.805,19.043,38.574,0.000,0.000,0.000
502622.601,-8.301,37.598,45.410,23.926,28.320,0.000,0.000,0.000
502622.605,-17.578,35.645,42.480,10.254,28.809,0.000,0.000,0.000
502622.609,-12.695,34.668,41.016,3.418,37.109,0.000,0.000,0.000
502622.613,-11.230,36.621,37.109,13.184,40.527,0.000,0.000,0.000
502622.617,-16.113,35.645,35.645,19.531,38.574,0.000,0.000,0.000
502622.621,-21.484,32.227,37.109,10.254,34.668,0.000,0.000,0.000
502622.625,-20.508,33.203,35.156,9.277,39.551,0.000,0.000,0.000
502622.629,-9.277,32.715,31.738,21.484,40.039,0.000,0.000,0.000
502622.633,-8.301,39.062,29.785,28.809,30.273,0.000,0.000,0.000
502622.637,-17.578,38.086,35.156,14.648,21.484,0.000,0.000,0.000
502622.640,-13.672,34.668,44.434,24.902,21.973,0.000,0.000,0.000
502622.644,-9.766,39.062,41.504,20.508,20.508,0.000,0.000,0.000
502622.648,-10.254,41.992,37.109,-6.348,8.789,0.000,0.000,0.000
502622.652,-1.953,43.945,41.504,-7.324,9.766,0.000,0.000,0.000
502622.656,-0.488,43.457,29.297,3.906,16.113,0.000,0.000,0.000
502622.660,-8.301,40.527,18.066,14.160,18.066,0.000,0.000,0.000
502622.664,-6.836,40.039,33.691,17.090,14.648,0.000,0.000,0.000
502622.668,5.371,41.992,44.922,27.344,20.996,0.000,0.000,0.000
502622.672,-3.418,39.551,46.875,20.020,9.277,0.000,0.000,0.000
502622.676,-14.648,40.039,43.945,14.160,-12.695,0.000,0.000,0.000
502622.680,-10.742,38.574,41.504,20.508,-22.949,0.000,0.000,0.000
502622.683,-11.719,35.645,41.504,24.902,-7.812,0.000,0.000,0.000
502622.687,-15.137,30.762,41.016,18.066,11.230,0.000,0.000,0.000
502622.691,-11.719,30.762,44.922,11.230,15.625,0.000,0.000,0.000
502622.695,1.465,36.133,46.387,13.672,36.621,0.000,0.000,0.000
502622.699,7.812,37.109,43.457,19.531,51.270,0.000,0.000,0.000
502622.703,3.418,39.062,37.598,20.996,51.270,0.000,0.000,0.000
502622.707,0.488,40.527,35.645,20.508,59.570,0.000,0.000,0.000
502622.711,5.859,39.062,39.062,20.020,62.012,0.000,0.000,0.000
502622.715,12.207,41.504,34.668,24.902,60.059,0.000,0.000,0.000
502622.719,-1.465,43.457,36.133,26.367,61.523,0.000,0.000,0.000
502622.723,-4.395,41.504,40.527,11.719,59.570,0.000,0.000,0.000
502622.726,2.930,42.480,39.551,1.953,58.105,0.000,0.000,0.000
502622.730,0.488,45.410,37.109,11.230,63.477,0.000,0.000,0.000
502622.734,8.789,43.945,32.227,13.672,60.059,0.000,0.000,0.000
502622.738,6.348,43.945,32.227,6.836,53.223,0.000,0.000,0.000
502622.742,-5.859,46.875,37.598,0.488,48.340,0.000,0.000,0.000
502622.746,-2.930,44.434,36.621,9.766,40.527,0.000,0.000,0.000
502622.750,0.977,43.457,37.109,17.090,42.480,0.000,0.000,0.000
502622.754,-4.883,48.340,42.969,8.301,43.945,0.000,0.000,0.000
502622.758,-3.418,47.363,45.410,-1.953,40.039,0.000,0.000,0.000
502622.762,3.906,43.945,42.480,7.812,39.062,0.000,0.000,0.000
502622.765,7.812,42.969,35.156,19.531,39.062,0.000,0.000,0.000
502622.769,-3.418,38.574,32.715,5.371,31.250,0.000,0.000,0.000
502622.773,-11.719,40.039,40.527,-8.301,25.391,0.000,0.000,0.000
502622.777,-4.883,43.945,42.969,-5.859,21.973,0.000,0.000,0.000
502622.781,-2.441,43.457,41.016,7.812,19.043,0.000,0.000,0.000
502622.785,-3.418,45.410,40.039,8.789,20.508,0.000,0.000,0.000
502622.789,-7.812,46.387,37.109,-0.977,17.090,0.000,0.000,0.000
502622.793,-6.348,41.016,34.668,-2.441,20.508,0.000,0.000,0.000
502622.797,-4.883,37.598,26.855,8.301,23.926,0.000,0.000,0.000
502622.801,-1.953,37.598,21.484,19.043,28.320,0.000,0.000,0.000
502622.805,-0.488,37.598,29.297,13.184,22.949,0.000,0.000,0.000
502622.808,1.465,39.062,40.039,6.348,10.742,0.000,0.000,0.000
502622.812,6.348,33.203,46.875,6.348,20.508,0.000,0.000,0.000
502622.816,11.230,37.109,46.387,9.766,28.809,0.000,0.000,0.000
502622.820,4.395,45.410,40.039,8.301,27.344,0.000,0.000,0.000
502622.824,3.906,42.969,37.598,10.742,40.039,0.000,0.000,0.000
502622.828,21.973,41.504,43.457,20.996,48.340,0.000,0.000,0.000
502622.832,12.695,45.410,42.480,20.020,29.785,0.000,0.000,0.000
502622.836,2.930,48.340,38.574,15.625,28.809,0.000,0.000,0.000
502622.840,13.184,44.434,38.086,7.812,25.879,0.000,0.000,0.000
502622.844,17.090,43.457,36.621,7.324,20.508,0.000,0.000,0.000
502622.848,12.207,45.898,38.574,11.719,34.668,0.000,0.000,0.000
502622.851,16.602,47.852,35.645,15.137,40.527,0.000,0.000,0.000
502622.855,17.090,49.316,33.691,22.461,46.875,0.000,0.000,0.000
502622.859,14.648,49.805,33.203,21.484,43.945,0.000,0.000,0.000
502622.863,14.160,47.363,29.785,17.090,32.715,0.000,0.000,0.000
502622.867,15.625,44.434,36.621,14.648,34.180,0.000,0.000,0.000
502622.871,16.602,43.457,38.574,14.160,32.227,0.000,0.000,0.000
502622.875,17.090,42.969,37.109,13.184,32.227,0.000,0.000,0.000
502622.879,15.625,40.527,42.969,14.648,26.367,0.000,0.000,0.000
502622.883,14.160,34.180,43.457,12.207,25.391,0.000,0.000,0.000
502622.887,-0.488,30.762,41.992,10.742,27.344,0.000,0.000,0.000
502622.890,-4.883,34.668,43.457,8.301,21.973,0.000,0.000,0.000
502622.894,13.672,36.133,41.992,3.906,27.344,0.000,0.000,0.000
502622.898,17.578,37.109,41.504,12.207,34.668,0.000,0.000,0.000
502622.902,1.465,41.504,41.992,10.742,27.344,0.000,0.000,0.000
502622.906,1.953,40.039,39.062,-3.418,21.484,0.000,0.000,0.000
502622.910,19.531,37.109,39.062,10.742,19.531,0.000,0.000,0.000
502622.914,22.461,37.109,39.062,23.438,14.160,0.000,0.000,0.000
502622.918,17.578,38.574,32.715,4.395,9.766,0.000,0.000,0.000
502622.922,16.602,40.039,31.738,-8.789,9.766,0.000,0.000,0.000
502622.926,18.066,40.039,30.273,-2.441,19.043,0.000,0.000,0.000
502622.930,28.320,42.480,30.273,14.160,34.668,0.000,0.000,0.000
502622.933,32.715,43.457,33.691,14.648,35.156,0.000,0.000,0.000
502622.937,23.926,42.969,37.109,-3.418,29.785,0.000,0.000,0.000
502622.941,20.508,44.922,42.480,-0.488,34.668,0.000,0.000,0.000
502622.945,23.438,45.410,40.527,10.742,41.504,0.000,0.000,0.000
502622.949,23.438,40.527,36.133,10.742,34.180,0.000,0.000,0.000
502622.953,19.043,34.668,35.156,7.812,23.926,0.000,0.000,0.000
502622.957,13.672,36.133,35.645,-4.883,26.367,0.000,0.000,0.000
502622.961,14.160,43.457,37.598,-6.348,24.902,0.000,0.000,0.000
502622.965,18.555,49.316,33.691,4.395,26.367,0.000,0.000,0.000
502622.969,15.137,45.410,29.297,-0.488,26.855,0.000,0.000,0.000
502622.973,8.789,39.551,31.738,-2.930,20.020,0.000,0.000,0.000
502622.976,12.207,38.574,32.227,2.930,20.508,0.000,0.000,0.000
502622.980,16.113,45.410,28.320,1.465,22.461,0.000,0.000,0.000
502622.984,11.719,47.363,27.832,-4.883,7.812,0.000,0.000,0.000
502622.988,9.766,44.922,35.156,-2.930,-2.441,0.000,0.000,0.000
502622.992,3.906,45.898,40.039,-7.324,1.465,0.000,0.000,0.000
502622.996,-2.930,47.852,38.086,-12.207,10.742,0.000,0.000,0.000
502623.000,0.977,45.898,36.621,-2.930,13.672,0.000,0.000,0.000
502623.004,-0.977,41.504,38.086,-6.836,11.719,0.000,0.000,0.000
502623.008,-4.883,38.574,35.156,-21.484,14.160,0.000,0.000,0.000
502623.012,-0.488,36.133,36.133,-22.949,7.812,0.000,0.000,0.000
502623.015,3.418,38.086,37.598,-10.742,4.395,0.000,0.000,0.000
502623.019,-3.906,41.504,30.273,-0.977,4.395,0.000,0.000,0.000
502623.023,-10.254,40.039,30.273,0.000,11.719,0.000,0.000,0.000
502623.027,-7.812,39.551,34.180,8.301,15.625,0.000,0.000,0.000
502623.031,-0.488,41.504,30.273,9.766,14.648,0.000,0.000,0.000
502623.035,-2.441,41.016,31.250,6.836,20.996,0.000,0.000,0.000
502623.039,-13.184,40.527,35.156,7.324,25.879,0.000,0.000,0.000
502623.043,-14.160,41.504,38.086,-3.906,26.855,0.000,0.000,0.000
502623.047,-10.254,39.062,43.457,2.930,27.832,0.000,0.000,0.000
502623.051,-7.812,37.109,42.969,13.672,22.461,0.000,0.000,0.000
502623.055,-11.719,36.133,40.527,-0.977,9.277,0.000,0.000,0.000
502623.058,-15.137,38.086,42.969,-4.395,15.625,0.000,0.000,0.000
502623.062,-16.113,41.016,44.434,8.301,26.367,0.000,0.000,0.000
502623.066,0.488,42.480,42.480,18.555,31.250,0.000,0.000,0.000
502623.070,4.883,41.992,38.086,19.531,37.598,0.000,0.000,0.000
502623.074,-6.836,41.504,38.574,12.207,43.457,0.000,0.000,0.000
502623.078,-10.742,39.551,41.016,16.113,51.758,0.000,0.000,0.000
502623.082,-8.301,36.133,40.527,21.484,57.617,0.000,0.000,0.000
502623.086,-10.742,37.598,41.504,17.090,42.480,0.000,0.000,0.000
502623.090,-21.973,40.527,41.016,4.883,33.203,0.000,0.000,0.000
502623.094,-20.508,41.016,32.715,9.766,40.527,0.000,0.000,0.000
502623.097,-13.672,40.527,33.203,14.160,32.227,0.000,0.000,0.000
502623.101,-21.973,40.039,39.551,7.812,24.902,0.000,0.000,0.000
502623.105,-27.344,44.434,38.086,-1.953,27.832,0.000,0.000,0.000
502623.109,-20.508,49.805,39.551,-8.301,20.508,0.000,0.000,0.000
502623.113,-18.555,46.387,43.457,-1.953,18.555,0.000,0.000,0.000
502623.117,-19.043,41.504,36.133,-3.906,19.531,0.000,0.000,0.000
502623.121,-24.414,42.969,30.762,-6.348,10.254,0.000,0.000,0.000
502623.125,-22.949,40.039,37.598,-3.906,9.766,0.000,0.000,0.000
502623.129,-11.719,36.133,43.457,9.277,20.996,0.000,0.000,0.000
502623.133,-10.254,37.598,43.457,20.508,22.949,0.000,0.000,0.000
502623.137,-17.090,38.574,37.109,5.371,14.648,0.000,0.000,0.000
502623.140,-18.066,37.598,32.227,-15.137,10.742,0.000,0.000,0.000
502623.144,-13.184,38.574,34.668,-3.906,12.695,0.000,0.000,0.000
502623.148,-5.859,41.992,39.062,4.883,6.348,0.000,0.000,0.000
502623.152,-13.672,38.086,38.086,-7.812,8.789,0.000,0.000,0.000
502623.156,-15.625,37.598,35.156,-8.301,17.578,0.000,0.000,0.000
502623.160,-5.859,43.945,37.598,-4.395,8.789,0.000,0.000,0.000
502623.164,-2.930,47.363,37.598,2.441,10.742,0.000,0.000,0.000
502623.168,3.418,45.898,35.156,8.301,18.066,0.000,0.000,0.000
502623.172,-7.812,42.969,35.645,3.418,14.648,0.000,0.000,0.000
502623.176,-21.484,41.992,36.133,0.000,12.207,0.000,0.000,0.000
502623.180,-20.996,45.898,37.598,7.812,18.066,0.000,0.000,0.000
502623.183,-23.438,43.457,40.527,11.230,22.461,0.000,0.000,0.000
502623.187,-31.250,33.203,39.551,-2.930,22.949,0.000,0.000,0.000
502623.191,-34.668,33.203,33.203,-3.418,24.902,0.000,0.000,0.000
502623.195,-35.645,38.086,28.320,-2.930,26.855,0.000,0.000,0.000
502623.199,-33.691,43.945,25.879,5.859,32.227,0.000,0.000,0.000
502623.203,-32.227,44.434,29.785,11.230,38.574,0.000,0.000,0.000
502623.207,-25.879,39.551,40.039,-7.812,41.016,0.000,0.000,0.000
502623.211,-6.836,38.574,46.875,1.953,41.016,0.000,0.000,0.000
502623.215,-4.395,35.645,48.340,18.555,39.062,0.000,0.000,0.000
502623.219,-10.254,36.621,43.457,14.160,35.645,0.000,0.000,0.000
502623.222,-11.719,41.992,39.062,-1.953,31.738,0.000,0.000,0.000
502623.226,-6.836,42.480,35.156,0.000,31.250,0.000,0.000,0.000
502623.230,-0.977,42.480,36.133,16.602,30.273,0.000,0.000,0.000
502623.234,-6.348,41.992,36.133,13.672,21.973,0.000,0.000,0.000
502623.238,-12.695,39.551,25.879,9.766,17.090,0.000,0.000,0.000
502623.242,-2.441,39.551,20.020,11.719,22.461,0.000,0.000,0.000
502623.246,9.277,42.480,22.461,6.836,35.156,0.000,0.000,0.000
502623.250,1.465,41.504,30.273,6.836,32.715,0.000,0.000,0.000
502623.254,-9.766,40.039,34.668,5.859,20.996,0.000,0.000,0.000
502623.258,-9.277,41.016,34.180,9.766,15.625,0.000,0.000,0.000
502623.262,-8.301,41.016,38.574,1.465,8.789,0.000,0.000,0.000
502623.265,-2.930,41.504,42.969,-1.953,10.254,0.000,0.000,0.000
502623.269,-3.906,42.969,40.527,4.883,15.625,0.000,0.000,0.000
502623.273,-5.859,48.828,34.668,2.930,20.508,0.000,0.000,0.000
502623.277,-0.977,48.828,34.668,7.812,18.555,0.000,0.000,0.000
502623.281,-0.977,41.992,36.621,16.113,14.648,0.000,0.000,0.000
502623.285,10.742,42.969,37.109,-1.465,26.367,0.000,0.000,0.000
502623.289,2.930,48.340,36.133,-9.277,31.250,0.000,0.000,0.000
502623.293,-4.395,46.387,36.621,-2.930,27.832,0.000,0.000,0.000
502623.297,7.324,41.016,39.062,-3.418,25.391,0.000,0.000,0.000
502623.301,0.488,40.527,35.645,-3.906,26.855,0.000,0.000,0.000
502623.305,-8.789,41.504,27.832,2.441,32.227,0.000,0.000,0.000
502623.308,-2.930,41.504,24.414,11.230,32.227,0.000,0.000,0.000
502623.312,3.906,42.969,24.902,3.906,30.762,0.000,0.000,0.000
502623.316,4.883,43.457,30.762,11.230,25.879,0.000,0.000,0.000
502623.320,3.418,42.969,29.785,16.602,26.367,0.000,0.000,0.000
502623.324,1.953,43.945,29.297,6.836,31.250,0.000,0.000,0.000
502623.328,9.766,44.434,36.133,7.324,38.574,0.000,0.000,0.000
502623.332,16.602,40.039,41.016,0.000,44.434,0.000,0.000,0.000
502623.336,14.160,40.039,39.062,-3.418,32.715,0.000,0.000,0.000
502623.340,12.695,43.457,32.715,-7.812,38.086,0.000,0.000,0.000
502623.344,16.113,42.969,30.762,-8.789,41.504,0.000,0.000,0.000
502623.347,14.648,43.457,28.809,7.812,30.273,0.000,0.000,0.000
502623.351,10.254,38.574,35.156,18.555,33.203,0.000,0.000,0.000
502623.355,4.883,33.691,45.410,2.441,31.738,0.000,0.000,0.000
502623.359,-1.465,37.598,48.828,-5.371,21.484,0.000,0.000,0.000
502623.363,-3.418,37.109,46.875,2.441,12.695,0.000,0.000,0.000
502623.367,2.441,32.715,41.016,6.836,16.113,0.000,0.000,0.000
502623.371,7.812,28.320,38.086,9.766,25.879,0.000,0.000,0.000
502623.375,2.930,27.832,39.062,19.531,24.414,0.000,0.000,0.000
502623.379,1.953,32.715,36.621,30.762,20.020,0.000,0.000,0.000
502623.383,5.859,37.598,35.156,19.043,21.484,0.000,0.000,0.000
502623.387,1.953,40.039,35.156,-0.977,18.066,0.000,0.000,0.000
502623.390,-1.465,37.598,33.691,-3.418,22.461,0.000,0.000,0.000
502623.394,4.883,39.551,33.691,7.324,24.902,0.000,0.000,0.000
502623.398,6.348,39.062,33.691,14.160,17.578,0.000,0.000,0.000
502623.402,-0.488,33.691,35.645,1.953,20.020,0.000,0.000,0.000
502623.406,-6.348,34.668,38.574,-4.883,29.297,0.000,0.000,0.000
502623.410,-1.953,36.133,33.691,3.418,35.645,0.000,0.000,0.000
502623.414,4.395,33.203,23.438,6.348,27.832,0.000,0.000,0.000
502623.418,-0.488,31.250,25.879,3.418,20.996,0.000,0.000,0.000
502623.422,-20.996,29.297,31.738,-1.953,22.949,0.000,0.000,0.000
502623.426,-28.320,31.738,30.273,-3.906,29.297,0.000,0.000,0.000
502623.430,-23.438,38.574,33.203,4.883,27.832,0.000,0.000,0.000
502623.433,-28.320,37.598,37.109,9.766,22.461,0.000,0.000,0.000
502623.437,-35.156,36.621,39.551,-5.859,23.438,0.000,0.000,0.000
502623.441,-32.227,39.062,42.969,-5.859,27.344,0.000,0.000,0.000
502623.445,-31.250,38.574,42.969,-0.488,26.367,0.000,0.000,0.000
502623.449,-35.645,36.133,33.203,0.000,20.996,0.000,0.000,0.000
502623.453,-39.062,38.574,27.344,0.488,20.996,0.000,0.000,0.000
502623.457,-36.621,44.434,33.203,-7.812,20.020,0.000,0.000,0.000
502623.461,-28.809,46.387,33.691,-13.672,20.508,0.000,0.000,0.000
502623.465,-23.926,41.504,34.668,-3.906,25.879,0.000,0.000,0.000
502623.469,-22.461,35.645,32.715,1.953,21.973,0.000,0.000,0.000
502623.472,-25.879,37.109,30.273,-13.184,14.648,0.000,0.000,0.000
502623.476,-18.066,41.016,30.762,-9.277,19.043,0.000,0.000,0.000
502623.480,-11.719,41.016,24.414,8.789,21.484,0.000,0.000,0.000
502623.484,-15.137,43.457,21.484,12.695,19.043,0.000,0.000,0.000
502623.488,-17.090,42.969,28.809,0.488,25.391,0.000,0.000,0.000
502623.492,-13.672,40.527,34.668,-8.301,30.273,0.000,0.000,0.000
502623.496,-11.719,38.086,42.969,-5.371,30.273,0.000,0.000,0.000
502623.500,-8.301,36.621,44.434,-2.441,29.785,0.000,0.000,0.000
502623.504,-6.348,39.062,39.551,-1.465,29.785,0.000,0.000,0.000
502623.508,-13.672,41.504,37.109,-3.418,33.691,0.000,0.000,0.000
502623.512,-10.254,42.969,38.574,-3.418,38.086,0.000,0.000,0.000
502623.515,-3.906,44.922,36.621,13.184,39.062,0.000,0.000,0.000
502623.519,-2.441,43.457,39.062,11.230,34.180,0.000,0.000,0.000
502623.523,2.441,40.527,44.922,-6.836,26.367,0.000,0.000,0.000
502623.527,10.254,37.598,44.434,-2.441,32.227,0.000,0.000,0.000
502623.531,19.531,32.715,41.016,8.301,39.551,0.000,0.000,0.000
502623.535,25.391,34.180,41.016,6.836,36.133,0.000,0.000,0.000
502623.539,18.555,39.062,40.039,-8.301,25.391,0.000,0.000,0.000
502623.543,19.043,39.551,33.203,-3.418,23.438,0.000,0.000,0.000
502623.547,30.762,40.527,34.668,17.090,33.203,0.000,0.000,0.000
502623.551,35.645,43.457,41.016,7.812,32.227,0.000,0.000,0.000
502623.555,24.414,41.992,29.297,-3.906,31.738,0.000,0.000,0.000
502623.558,18.555,41.992,22.949,2.930,32.227,0.000,0.000,0.000
502623.562,19.043,43.945,37.109,2.930,23.926,0.000,0.000,0.000
502623.566,16.602,42.969,44.434,-1.953,23.438,0.000,0.000,0.000
502623.570,12.207,41.504,40.527,1.465,21.484,0.000,0.000,0.000
502623.574,5.859,38.574,39.551,6.836,22.949,0.000,0.000,0.000
502623.578,10.742,40.527,41.016,-2.930,27.832,0.000,0.000,0.000
502623.582,17.578,40.039,42.480,3.418,31.738,0.000,0.000,0.000
502623.586,13.184,34.180,42.480,15.137,27.832,0.000,0.000,0.000
502623.590,6.836,37.109,40.527,5.371,26.367,0.000,0.000,0.000
502623.594,12.207,41.992,42.480,0.488,34.180,0.000,0.000,0.000
502623.597,24.414,42.969,46.387,4.883,40.039,0.000,0.000,0.000
502623.601,11.230,40.527,43.945,12.207,41.504,0.000,0.000,0.000
502623.605,-19.531,41.504,43.457,15.625,45.898,0.000,0.000,0.000
502623.609,-25.391,43.945,44.922,-0.977,57.129,0.000,0.000,0.000
502623.613,-26.367,41.016,47.852,-13.672,51.270,0.000,0.000,0.000
502623.617,-30.273,41.504,53.711,-7.812,52.246,0.000,0.000,0.000
502623.621,-36.133,43.945,55.176,-3.418,52.246,0.000,0.000,0.000
502623.625,-41.504,42.480,52.734,4.883,40.527,0.000,0.000,0.000
502623.629,-37.109,43.945,49.316,17.090,45.898,0.000,0.000,0.000
502623.633,-38.574,46.875,46.387,17.090,51.758,0.000,0.000,0.000
502623.637,-41.992,45.410,46.387,16.113,48.828,0.000,0.000,0.000
502623.640,-37.598,41.992,46.387,17.578,49.805,0.000,0.000,0.000
502623.644,-30.273,42.480,50.293,15.137,54.199,0.000,0.000,0.000
502623.648,-29.297,41.504,48.340,16.113,44.434,0.000,0.000,0.000
502623.652,-37.109,37.598,39.062,11.719,34.668,0.000,0.000,0.000
502623.656,-37.109,37.109,44.434,1.953,35.645,0.000,0.000,0.000
502623.660,-30.273,36.133,54.199,12.207,31.738,0.000,0.000,0.000
502623.664,-28.320,38.574,51.758,22.949,37.109,0.000,0.000,0.000
502623.668,-26.855,45.410,42.969,17.578,41.504,0.000,0.000,0.000
502623.672,-33.203,45.410,40.039,18.066,29.297,0.000,0.000,0.000
502623.676,-28.809,45.898,42.969,21.973,31.738,0.000,0.000,0.000
502623.679,-16.602,47.363,43.945,12.207,40.039,0.000,0.000,0.000
502623.683,-15.137,43.945,39.062,24.902,41.992,0.000,0.000,0.000
502623.687,-17.578,41.016,40.039,24.414,44.434,0.000,0.000,0.000
502623.691,-12.207,38.574,41.992,7.324,51.270,0.000,0.000,0.000
502623.695,8.789,41.504,41.504,19.531,53.711,0.000,0.000,0.000
502623.699,17.090,42.969,40.527,17.578,45.898,0.000,0.000,0.000
502623.703,15.137,41.016,38.574,14.648,39.062,0.000,0.000,0.000
502623.707,22.461,38.086,39.551,10.742,30.273,0.000,0.000,0.000
502623.711,28.320,36.133,42.480,15.625,29.297,0.000,0.000,0.000
502623.715,32.715,39.551,46.875,27.344,41.992,0.000,0.000,0.000
502623.719,37.598,40.039,41.504,19.043,41.504,0.000,0.000,0.000
502623.722,30.273,40.527,35.645,11.230,38.086,0.000,0.000,0.000
502623.726,34.180,41.992,30.273,14.160,48.340,0.000,0.000,0.000
502623.730,42.969,41.016,25.391,18.066,48.828,0.000,0.000,0.000
502623.734,39.062,40.527,40.039,19.043,43.945,0.000,0.000,0.000
502623.738,33.203,40.527,52.246,19.531,46.875,0.000,0.000,0.000
502623.742,32.227,38.086,49.316,16.113,47.363,0.000,0.000,0.000
502623.746,27.832,29.785,43.457,16.602,43.457,0.000,0.000,0.000
502623.750,21.484,25.879,43.457,12.695,39.062,0.000,0.000,0.000
502623.754,18.555,30.273,42.969,20.020,38.574,0.000,0.000,0.000
502623.758,6.836,34.180,41.992,9.277,42.480,0.000,0.000,0.000
502623.762,1.953,35.645,38.086,-10.254,40.527,0.000,0.000,0.000
502623.765,7.812,33.691,30.762,-0.488,42.969,0.000,0.000,0.000
502623.769,7.324,35.645,25.391,1.465,44.434,0.000,0.000,0.000
502623.773,2.930,37.598,28.809,9.766,45.410,0.000,0.000,0.000
502623.777,9.766,35.645,33.691,1.953,41.016,0.000,0.000,0.000
502623.781,13.672,29.785,28.809,3.906,24.902,0.000,0.000,0.000
502623.785,12.695,27.832,29.785,13.672,19.043,0.000,0.000,0.000
502623.789,18.555,35.156,33.203,-3.906,20.508,0.000,0.000,0.000
502623.793,20.996,39.551,35.645,-3.418,20.020,0.000,0.000,0.000
502623.797,13.672,36.621,39.062,9.277,26.367,0.000,0.000,0.000
502623.801,16.602,35.156,38.574,2.930,24.902,0.000,0.000,0.000
502623.804,20.020,37.109,37.109,-2.930,23.926,0.000,0.000,0.000
502623.808,22.461,41.016,35.156,-3.418,35.156,0.000,0.000,0.000
502623.812,31.738,41.992,26.855,2.930,40.039,0.000,0.000,0.000
502623.816,35.156,38.574,22.461,9.277,37.109,0.000,0.000,0.000
502623.820,29.297,42.969,32.715,8.789,36.133,0.000,0.000,0.000
502623.824,21.484,46.875,35.156,11.719,30.762,0.000,0.000,0.000
502623.828,29.297,42.480,37.109,13.672,22.461,0.000,0.000,0.000
502623.832,40.527,39.062,41.992,7.324,22.461,0.000,0.000,0.000
502623.836,39.062,38.086,40.527,0.488,27.344,0.000,0.000,0.000
502623.840,35.645,39.062,39.062,-4.883,33.691,0.000,0.000,0.000
502623.844,34.668,40.527,42.969,-0.488,38.574,0.000,0.000,0.000
502623.847,40.527,42.480,46.875,14.648,37.598,0.000,0.000,0.000
502623.851,38.574,46.875,41.504,20.020,38.086,0.000,0.000,0.000
502623.855,26.855,49.805,37.109,6.836,41.016,0.000,0.000,0.000
502623.859,27.344,45.898,33.691,-2.441,30.273,0.000,0.000,0.000
502623.863,35.645,47.852,33.691,11.230,28.809,0.000,0.000,0.000
502623.867,39.551,52.734,37.109,14.648,31.738,0.000,0.000,0.000
502623.871,37.598,48.828,37.598,8.301,30.762,0.000,0.000,0.000
502623.875,36.621,46.387,32.715,2.930,33.203,0.000,0.000,0.000
502623.879,30.273,47.363,31.738,3.418,31.250,0.000,0.000,0.000
502623.883,26.855,47.363,42.480,18.555,33.691,0.000,0.000,0.000
502623.887,26.855,49.805,47.852,15.625,37.598,0.000,0.000,0.000
502623.890,26.367,52.246,40.527,8.789,37.598,0.000,0.000,0.000
502623.894,28.809,48.828,36.621,14.160,39.551,0.000,0.000,0.000
502623.898,24.414,47.363,40.039,14.160,28.809,0.000,0.000,0.000
502623.902,13.672,50.781,42.969,10.742,19.531,0.000,0.000,0.000
502623.906,8.789,49.805,44.434,15.625,26.367,0.000,0.000,0.000
502623.910,8.301,43.945,42.480,12.207,23.926,0.000,0.000,0.000
502623.914,5.371,41.504,41.504,12.207,24.902,0.000,0.000,0.000
502623.918,1.465,40.039,35.645,11.719,24.902,0.000,0.000,0.000
502623.922,-4.395,41.016,21.973,-1.953,15.625,0.000,0.000,0.000
502623.926,-3.906,44.434,21.973,-8.789,14.160,0.000,0.000,0.000
502623.929,3.418,46.387,35.645,-3.906,17.578,0.000,0.000,0.000
502623.933,6.348,45.898,47.852,3.418,23.926,0.000,0.000,0.000
502623.937,0.488,47.852,46.875,0.488,24.902,0.000,0.000,0.000
502623.941,1.953,51.758,40.527,-2.930,25.879,0.000,0.000,0.000
502623.945,5.859,53.711,41.992,1.465,29.785,0.000,0.000,0.000
502623.949,-0.488,52.734,45.898,7.812,25.879,0.000,0.000,0.000
502623.953,-11.230,55.176,44.434,5.859,28.809,0.000,0.000,0.000
502623.957,-19.043,52.734,41.016,2.930,31.250,0.000,0.000,0.000
502623.961,-24.902,46.875,38.086,3.906,21.484,0.000,0.000,0.000
502623.965,-31.250,42.969,34.180,10.254,20.020,0.000,0.000,0.000
502623.969,-37.598,43.457,32.715,6.348,22.461,0.000,0.000,0.000
502623.972,-45.410,41.016,36.133,-10.742,21.973,0.000,0.000,0.000
502623.976,-43.945,38.086,37.598,-9.766,30.273,0.000,0.000,0.000
502623.980,-37.109,43.945,32.227,4.883,41.016,0.000,0.000,0.000
502623.984,-33.691,43.945,31.738,12.207,38.574,0.000,0.000,0.000
502623.988,-40.527,42.969,35.156,8.789,31.738,0.000,0.000,0.000
502623.992,-40.039,47.363,36.133,4.395,33.691,0.000,0.000,0.000
502623.996,-35.645,47.852,38.086,3.906,30.273,0.000,0.000,0.000
502624.000,-42.480,49.316,36.133,4.883,21.484,0.000,0.000,0.000
502624.004,-49.316,46.387,35.156,4.395,16.113,0.000,0.000,0.000
502624.008,-51.270,42.480,35.645,-0.488,21.484,0.000,0.000,0.000
502624.012,-50.293,42.969,34.668,7.324,21.484,0.000,0.000,0.000
502624.015,-46.387,41.016,36.621,19.531,17.578,0.000,0.000,0.000
502624.019,-51.270,39.062,32.715,11.719,16.113,0.000,0.000,0.000
502624.023,-59.082,36.621,23.926,0.488,13.672,0.000,0.000,0.000
502624.027,-50.781,29.785,25.391,2.930,22.461,0.000,0.000,0.000
502624.031,-47.852,29.297,35.645,1.953,19.043,0.000,0.000,0.000
502624.035,-58.105,33.203,36.133,0.000,19.043,0.000,0.000,0.000
502624.039,-68.848,33.691,33.203,4.883,25.879,0.000,0.000,0.000
502624.043,-71.289,33.203,37.109,-3.418,21.484,0.000,0.000,0.000
502624.047,-65.918,32.715,39.551,-5.371,19.043,0.000,0.000,0.000
502624.051,-59.082,32.715,35.156,-3.418,25.391,0.000,0.000,0.000
502624.054,-63.477,37.598,32.715,-6.348,28.320,0.000,0.000,0.000
502624.058,-66.406,41.504,35.156,-4.395,32.227,4.000,1.000,45.000
502624.062,-57.129,41.016,35.156,-1.953,37.109,0.000,0.000,0.000
502624.066,-49.805,35.645,28.809,2.441,34.180,0.000,0.000,0.000
502624.070,-48.828,35.645,20.996,2.930,28.320,0.000,0.000,0.000
502624.074,-49.805,40.527,23.438,-6.348,27.344,0.000,0.000,0.000
502624.078,-42.969,41.504,31.738,-9.277,39.062,0.000,0.000,0.000
502624.082,-34.180,43.457,36.621,2.441,42.480,0.000,0.000,0.000
502624.086,-30.762,48.828,39.062,-1.953,40.527,0.000,0.000,0.000
502624.090,-31.738,48.340,41.504,-6.836,42.480,0.000,0.000,0.000
502624.094,-24.902,45.898,37.598,2.930,40.039,0.000,0.000,0.000
502624.097,-29.785,47.852,33.691,12.207,37.109,0.000,0.000,0.000
502624.101,-40.527,46.387,38.086,20.020,47.852,0.000,0.000,0.000
502624.105,-41.504,44.922,40.527,13.672,55.176,0.000,0.000,0.000
502624.109,-34.180,43.945,40.527,7.324,50.293,0.000,0.000,0.000
502624.113,-34.180,39.551,41.992,19.043,51.270,0.000,0.000,0.000
502624.117,-45.898,30.762,36.621,25.391,52.246,0.000,0.000,0.000
502624.121,-53.711,30.273,32.227,24.414,48.828,0.000,0.000,0.000
502624.125,-56.152,33.691,36.621,18.555,41.992,0.000,0.000,0.000
502624.129,-47.363,31.250,35.645,26.367,31.738,0.000,0.000,0.000
502624.133,-30.273,31.250,33.203,37.109,31.738,0.000,0.000,0.000
502624.137,-34.668,30.273,36.621,20.508,37.109,0.000,0.000,0.000
502624.140,-40.527,34.668,39.062,15.137,42.480,0.000,0.000,0.000
502624.144,-33.203,38.574,42.969,26.855,43.457,0.000,0.000,0.000
502624.148,-35.156,36.621,39.551,38.574,46.387,0.000,0.000,0.000
502624.152,-34.668,34.668,34.180,29.785,43.945,0.000,0.000,0.000
502624.156,-31.738,34.668,39.062,16.602,41.992,0.000,0.000,0.000
502624.160,-27.832,36.133,41.504,22.949,41.992,0.000,0.000,0.000
502624.164,-21.973,38.574,38.086,27.344,41.016,0.000,0.000,0.000
502624.168,-23.438,40.527,36.133,24.414,49.316,0.000,0.000,0.000
502624.172,-23.926,42.969,33.691,24.902,50.781,0.000,0.000,0.000
502624.176,-22.949,40.527,33.203,24.902,43.945,0.000,0.000,0.000
502624.179,-21.484,36.621,36.133,30.273,39.062,0.000,0.000,0.000
502624.183,-22.949,38.086,37.598,32.227,35.645,0.000,0.000,0.000
502624.187,-30.273,40.039,39.062,24.902,29.297,0.000,0.000,0.000
502624.191,-26.855,42.969,38.574,21.973,16.602,0.000,0.000,0.000
502624.195,-26.855,44.434,33.203,26.855,6.836,0.000,0.000,0.000
502624.199,-32.227,41.016,28.809,24.414,1.953,0.000,0.000,0.000
502624.203,-30.762,39.062,35.645,19.043,8.789,0.000,0.000,0.000
502624.207,-30.273,37.598,46.875,19.531,19.531,0.000,0.000,0.000
502624.211,-25.391,39.551,47.852,20.508,19.531,0.000,0.000,0.000
502624.215,-20.508,41.992,40.039,28.320,21.973,0.000,0.000,0.000
502624.219,-24.414,43.945,38.574,28.320,30.762,0.000,0.000,0.000
502624.222,-29.297,46.387,38.574,19.043,38.086,0.000,0.000,0.000
502624.226,-23.438,46.387,34.180,20.508,34.180,0.000,0.000,0.000
502624.230,-20.020,45.898,24.414,22.949,30.273,0.000,0.000,0.000
502624.234,-20.996,45.898,30.762,22.461,39.062,0.000,0.000,0.000
502624.238,-24.902,43.945,41.992,21.973,37.598,0.000,0.000,0.000
502624.242,-25.879,46.875,41.504,20.508,30.762,0.000,0.000,0.000
502624.246,-21.484,46.875,39.062,19.531,34.668,0.000,0.000,0.000
502624.250,-26.367,42.480,33.691,12.695,25.879,0.000,0.000,0.000
502624.254,-38.574,42.969,31.738,5.371,12.207,0.000,0.000,0.000
502624.258,-41.504,40.527,32.715,9.766,17.090,0.000,0.000,0.000
502624.262,-33.691,37.109,31.738,12.695,19.043,0.000,0.000,0.000
502624.265,-27.344,41.016,29.297,14.160,19.043,0.000,0.000,0.000
502624.269,-31.738,46.387,28.320,7.812,23.926,0.000,0.000,0.000
502624.273,-41.504,46.387,30.273,9.277,17.090,0.000,0.000,0.000
502624.277,-35.156,45.898,33.691,15.137,13.672,0.000,0.000,0.000
502624.281,-27.832,46.387,30.762,8.789,18.066,0.000,0.000,0.000
502624.285,-28.809,46.387,21.484,3.906,19.531,0.000,0.000,0.000
502624.289,-30.762,43.457,20.020,-0.977,18.066,0.000,0.000,0.000
502624.293,-32.715,39.062,28.320,0.977,10.742,0.000,0.000,0.000
502624.297,-31.250,34.668,37.598,12.207,12.207,0.000,0.000,0.000
502624.301,-23.438,37.109,38.574,17.090,19.043,0.000,0.000,0.000
502624.304,-25.391,37.598,33.203,12.695,24.902,0.000,0.000,0.000
502624.308,-27.832,35.645,31.250,5.371,26.855,0.000,0.000,0.000
502624.312,-23.926,38.086,31.250,12.207,28.809,0.000,0.000,0.000
502624.316,-16.602,36.621,29.785,17.578,25.879,0.000,0.000,0.000
502624.320,-20.020,40.527,29.785,8.301,20.508,0.000,0.000,0.000
502624.324,-23.926,42.969,31.250,4.883,25.391,0.000,0.000,0.000
502624.328,-21.484,37.109,31.250,3.906,29.785,0.000,0.000,0.000
502624.332,-21.973,36.621,29.297,7.812,30.762,0.000,0.000,0.000
502624.336,-19.531,37.598,32.227,14.648,34.180,0.000,0.000,0.000
502624.340,-23.438,36.133,28.809,6.836,36.133,0.000,0.000,0.000
502624.344,-24.414,38.574,22.461,-0.488,39.062,0.000,0.000,0.000
502624.347,-25.879,35.156,23.438,12.695,47.852,0.000,0.000,0.000
502624.351,-32.715,33.691,28.320,20.508,50.293,0.000,0.000,0.000
502624.355,-36.621,36.621,33.203,15.137,35.645,0.000,0.000,0.000
502624.359,-36.621,34.180,31.738,19.531,23.926,0.000,0.000,0.000
502624.363,-35.156,32.715,24.902,7.324,26.367,0.000,0.000,0.000
502624.367,-33.203,33.203,23.926,-5.859,21.973,0.000,0.000,0.000
502624.371,-32.227,34.668,30.762,-1.953,16.602,0.000,0.000,0.000
502624.375,-27.344,37.109,35.645,-1.465,19.043,0.000,0.000,0.000
502624.379,-22.949,39.062,38.574,12.207,23.438,0.000,0.000,0.000
502624.383,-20.996,39.551,31.250,16.602,22.461,0.000,0.000,0.000
502624.386,-19.531,37.598,21.973,12.207,27.832,0.000,0.000,0.000
502624.390,-21.973,35.645,25.391,10.742,28.809,0.000,0.000,0.000
502624.394,-18.066,38.086,31.250,10.254,25.879,0.000,0.000,0.000
502624.398,-11.719,37.598,37.598,13.672,30.273,0.000,0.000,0.000
502624.402,-17.090,35.156,40.039,11.230,26.367,0.000,0.000,0.000
502624.406,-27.344,34.180,36.621,0.488,20.020,0.000,0.000,0.000
502624.410,-24.902,30.273,36.133,3.418,19.531,0.000,0.000,0.000
502624.414,-27.344,33.203,34.668,16.602,18.066,0.000,0.000,0.000
502624.418,-25.391,38.574,27.832,8.301,18.555,0.000,0.000,0.000
502624.422,-29.297,33.203,25.879,-0.488,20.020,0.000,0.000,0.000
502624.426,-34.668,30.273,27.344,2.441,20.996,0.000,0.000,0.000
502624.429,-29.785,34.180,25.879,6.348,21.973,0.000,0.000,0.000
502624.433,-27.344,33.691,26.367,0.977,20.508,0.000,0.000,0.000
502624.437,-30.762,33.203,26.367,-13.672,20.020,0.000,0.000,0.000
502624.441,-29.785,34.180,27.832,-19.043,21.973,0.000,0.000,0.000
502624.445,-21.484,33.203,33.691,-7.324,23.926,0.000,0.000,0.000
502624.449,-20.996,36.621,32.715,2.441,18.555,0.000,0.000,0.000
502624.453,-20.996,41.504,27.832,2.441,15.137,0.000,0.000,0.000
502624.457,-17.578,36.133,25.879,2.930,10.254,0.000,0.000,0.000
502624.461,-10.254,32.715,21.973,0.488,22.949,0.000,0.000,0.000
502624.465,-6.836,35.156,24.414,5.859,25.879,0.000,0.000,0.000
502624.469,-8.301,38.086,32.227,21.484,13.672,0.000,0.000,0.000
502624.472,-5.859,35.645,36.133,17.578,27.832,0.000,0.000,0.000
502624.476,-4.395,33.691,38.086,4.395,28.809,0.000,0.000,0.000
502624.480,-6.348,35.645,36.621,12.695,18.555,0.000,0.000,0.000
502624.484,-3.906,40.039,34.668,22.949,27.344,0.000,0.000,0.000
502624.488,-9.277,41.016,35.156,17.090,26.855,0.000,0.000,0.000
502624.492,-13.672,39.551,30.762,5.371,20.020,0.000,0.000,0.000
502624.496,-3.906,43.945,26.367,11.230,31.738,0.000,0.000,0.000
502624.500,0.000,48.340,31.250,20.020,38.086,0.000,0.000,0.000
502624.504,-8.301,50.293,31.738,23.926,32.227,0.000,0.000,0.000
502624.508,-9.766,43.457,27.832,20.508,33.691,0.000,0.000,0.000
502624.511,-0.488,40.039,34.180,20.996,36.133,0.000,0.000,0.000
502624.515,0.488,41.016,43.945,44.922,40.039,0.000,0.000,0.000
502624.519,3.418,44.434,47.852,42.969,42.969,0.000,0.000,0.000
502624.523,10.742,47.852,46.387,25.879,40.527,0.000,0.000,0.000
502624.527,5.371,45.410,35.156,21.484,38.574,0.000,0.000,0.000
502624.531,4.395,45.898,25.391,18.555,52.734,0.000,0.000,0.000
502624.535,3.418,46.875,38.086,33.691,59.570,0.000,0.000,0.000
502624.539,0.488,49.316,41.992,23.438,50.781,0.000,0.000,0.000
502624.543,7.812,54.199,36.133,13.184,45.898,0.000,0.000,0.000
502624.547,9.277,46.387,41.504,19.531,41.504,0.000,0.000,0.000
502624.551,13.184,35.645,47.852,23.926,42.969,0.000,0.000,0.000
502624.554,11.719,35.156,50.781,16.602,42.480,0.000,0.000,0.000
502624.558,3.906,42.480,49.805,12.207,39.062,0.000,0.000,0.000
502624.562,5.859,48.340,49.805,19.043,37.598,0.000,0.000,0.000
502624.566,14.648,45.898,49.805,29.297,42.480,0.000,0.000,0.000
502624.570,14.648,45.410,47.852,35.645,51.758,0.000,0.000,0.000
502624.574,5.859,51.270,40.039,23.926,38.086,0.000,0.000,0.000
502624.578,7.812,46.387,38.574,16.602,33.203,0.000,0.000,0.000
502624.582,7.324,36.133,46.387,34.668,44.434,0.000,0.000,0.000
502624.586,-1.953,36.621,45.410,31.738,38.574,0.000,0.000,0.000
502624.590,-6.836,38.574,38.574,14.160,36.621,0.000,0.000,0.000
502624.594,-2.441,39.551,38.574,14.160,44.922,0.000,0.000,0.000
502624.597,-6.348,39.551,42.480,17.578,43.457,0.000,0.000,0.000
502624.601,-9.277,41.504,46.387,21.484,39.551,0.000,0.000,0.000
502624.605,-9.277,36.133,44.434,7.812,37.109,0.000,0.000,0.000
502624.609,-14.648,33.691,37.598,0.488,39.551,0.000,0.000,0.000
502624.613,-9.766,39.551,30.762,18.066,30.273,0.000,0.000,0.000
502624.617,-3.418,40.039,37.109,18.555,27.832,0.000,0.000,0.000
502624.621,-12.695,44.922,41.504,8.789,35.156,0.000,0.000,0.000
502624.625,-12.207,46.387,35.645,14.648,30.762,0.000,0.000,0.000
502624.629,-10.254,41.016,38.574,18.555,26.855,0.000,0.000,0.000
502624.633,-17.090,39.551,45.898,16.602,22.949,0.000,0.000,0.000
502624.636,-21.484,37.598,46.875,15.137,21.973,0.000,0.000,0.000
502624.640,-24.902,33.203,44.434,13.184,25.879,0.000,0.000,0.000
502624.644,-22.461,31.250,41.992,8.301,26.367,0.000,0.000,0.000
502624.648,-23.926,33.203,43.457,9.766,15.625,0.000,0.000,0.000
502624.652,-27.832,34.180,39.551,12.695,17.090,0.000,0.000,0.000
502624.656,-29.785,33.203,32.715,7.812,20.508,0.000,0.000,0.000
502624.660,-23.926,31.738,34.668,13.672,22.461,0.000,0.000,0.000
502624.664,-26.855,32.227,32.227,22.949,26.855,0.000,0.000,0.000
502624.668,-36.133,28.320,22.461,11.230,20.996,0.000,0.000,0.000
502624.672,-37.109,25.879,24.414,5.859,22.461,0.000,0.000,0.000
502624.676,-30.273,29.785,32.227,5.859,25.391,0.000,0.000,0.000
502624.679,-30.273,34.180,34.668,4.395,21.484,0.000,0.000,0.000
502624.683,-25.391,32.715,34.180,12.207,30.762,0.000,0.000,0.000
502624.687,-16.113,35.645,28.320,13.672,37.109,0.000,0.000,0.000
502624.691,-12.207,41.016,30.762,14.160,45.410,0.000,0.000,0.000
502624.695,-9.766,39.551,41.504,9.766,38.574,0.000,0.000,0.000
502624.699,-15.625,38.086,47.852,12.695,18.555,0.000,0.000,0.000
502624.703,-23.438,40.527,43.457,17.090,22.461,0.000,0.000,0.000
502624.707,-18.555,40.039,35.645,7.812,24.902,0.000,0.000,0.000
502624.711,-4.883,36.133,30.273,12.207,20.996,0.000,0.000,0.000
502624.715,-3.906,37.598,25.391,26.367,29.297,0.000,0.000,0.000
502624.719,-9.766,38.574,30.762,25.391,28.320,0.000,0.000,0.000
502624.722,-9.766,37.109,39.551,19.531,29.297,0.000,0.000,0.000
502624.726,-2.930,31.738,42.969,20.996,49.805,0.000,0.000,0.000
502624.730,3.906,37.598,45.898,25.391,46.875,0.000,0.000,0.000
502624.734,6.348,44.434,45.898,25.391,35.645,0.000,0.000,0.000
502624.738,1.953,46.875,35.156,20.020,40.039,0.000,0.000,0.000
502624.742,7.324,43.945,31.738,20.020,43.945,0.000,0.000,0.000
502624.746,9.277,33.691,33.691,23.438,50.781,0.000,0.000,0.000
502624.750,11.230,36.133,30.273,28.809,47.852,0.000,0.000,0.000
502624.754,10.254,43.457,30.762,26.855,41.992,0.000,0.000,0.000
502624.758,2.930,42.969,33.203,15.625,46.875,0.000,0.000,0.000
502624.761,7.812,41.992,34.668,19.531,49.316,0.000,0.000,0.000
502624.765,11.230,38.574,31.250,25.391,40.039,0.000,0.000,0.000
502624.769,7.812,38.574,27.832,24.902,32.715,0.000,0.000,0.000
502624.773,5.371,43.945,30.762,12.207,33.203,0.000,0.000,0.000
502624.777,5.371,41.992,26.367,1.465,27.832,0.000,0.000,0.000
502624.781,5.371,40.039,20.508,5.371,25.879,0.000,0.000,0.000
502624.785,6.348,41.016,24.902,4.883,32.227,0.000,0.000,0.000
502624.789,4.395,41.504,27.344,2.441,40.039,0.000,0.000,0.000
502624.793,2.441,40.039,29.297,1.465,31.250,0.000,0.000,0.000
502624.797,-0.488,38.086,29.297,8.789,21.973,0.000,0.000,0.000
502624.801,2.930,43.945,31.250,18.555,33.203,0.000,0.000,0.000
502624.804,1.953,50.293,33.203,12.695,31.250,0.000,0.000,0.000
502624.808,5.859,49.316,31.250,2.441,30.273,0.000,0.000,0.000
502624.812,16.113,48.828,33.203,11.230,39.062,0.000,0.000,0.000
502624.816,13.672,52.734,29.297,16.602,45.410,0.000,0.000,0.000
502624.820,13.184,48.828,25.879,9.766,42.480,0.000,0.000,0.000
502624.824,14.648,47.852,30.762,11.230,37.598,0.000,0.000,0.000
502624.828,7.812,47.363,34.180,9.766,43.945,0.000,0.000,0.000
502624.832,3.418,42.969,30.762,18.555,51.270,0.000,0.000,0.000
502624.836,2.930,45.410,25.879,22.949,43.457,0.000,0.000,0.000
502624.840,0.000,50.293,27.832,14.648,28.809,0.000,0.000,0.000
502624.844,2.930,54.199,28.809,4.395,33.203,0.000,0.000,0.000
502624.847,1.465,48.828,24.902,20.508,25.879,0.000,0.000,0.000
502624.851,0.977,46.387,22.461,21.484,24.414,0.000,0.000,0.000
502624.855,3.418,51.758,24.414,0.488,33.691,0.000,0.000,0.000
502624.859,2.930,48.828,32.227,-1.953,33.203,0.000,0.000,0.000
502624.863,1.465,43.945,38.086,4.883,40.039,0.000,0.000,0.000
502624.867,8.301,44.922,39.551,7.812,43.457,0.000,0.000,0.000
502624.871,4.395,49.805,40.039,7.812,40.527,0.000,0.000,0.000
502624.875,0.000,47.363,41.016,7.812,42.969,0.000,0.000,0.000
502624.879,6.348,44.434,38.574,8.789,42.969,0.000,0.000,0.000
502624.883,7.324,44.922,34.180,6.348,38.574,0.000,0.000,0.000
502624.886,7.812,40.527,35.156,0.488,37.109,0.000,0.000,0.000
502624.890,3.418,36.621,41.016,-2.930,35.645,0.000,0.000,0.000
502624.894,1.953,37.598,41.504,4.883,31.738,0.000,0.000,0.000
502624.898,5.371,40.527,38.574,18.066,32.715,0.000,0.000,0.000
502624.902,6.348,42.480,35.645,14.160,40.039,0.000,0.000,0.000
502624.906,3.906,46.387,32.227,8.301,48.340,0.000,0.000,0.000
502624.910,11.230,45.410,31.738,17.090,48.340,0.000,0.000,0.000
502624.914,18.555,42.969,35.156,28.809,46.387,0.000,0.000,0.000
502624.918,14.648,41.504,38.574,29.785,48.340,0.000,0.000,0.000
502624.922,5.371,43.457,37.109,14.648,41.992,0.000,0.000,0.000
502624.926,5.371,41.992,35.156,11.230,41.016,0.000,0.000,0.000
502624.929,10.742,40.039,35.645,16.602,34.180,0.000,0.000,0.000
502624.933,17.578,40.527,36.133,18.066,33.203,0.000,0.000,0.000
502624.937,11.230,38.574,41.504,12.695,43.457,0.000,0.000,0.000
502624.941,4.883,42.969,31.738,3.418,43.457,0.000,0.000,0.000
502624.945,3.418,48.828,19.043,3.418,39.062,0.000,0.000,0.000
502624.949,1.953,44.922,25.879,8.301,30.762,0.000,0.000,0.000
502624.953,4.883,41.016,37.598,12.695,29.297,0.000,0.000,0.000
502624.957,-1.953,42.480,37.598,10.742,37.598,0.000,0.000,0.000
502624.961,-3.906,45.410,36.133,-0.488,35.645,0.000,0.000,0.000
502624.965,3.906,40.527,42.969,3.906,37.109,0.000,0.000,0.000
502624.968,1.953,36.621,47.852,16.602,34.180,0.000,0.000,0.000
502624.972,-0.977,43.945,47.363,10.254,33.203,0.000,0.000,0.000
502624.976,9.277,48.340,46.387,1.953,39.551,0.000,0.000,0.000
502624.980,15.137,47.852,44.434,8.301,33.203,0.000,0.000,0.000
502624.984,13.184,46.387,42.480,17.090,34.668,0.000,0.000,0.000
502624.988,2.930,42.480,45.410,18.555,44.922,0.000,0.000,0.000
502624.992,-2.930,42.969,47.852,9.766,42.969,0.000,0.000,0.000
502624.996,-2.441,41.504,46.387,10.742,34.180,0.000,0.000,0.000
502625.000,-1.465,37.598,41.992,20.508,50.293,0.000,0.000,0.000
502625.004,-7.812,43.457,39.551,16.113,49.316,0.000,0.000,0.000
502625.008,-15.625,46.387,39.062,11.719,34.180,0.000,0.000,0.000
502625.011,-9.766,48.340,37.598,9.277,34.180,0.000,0.000,0.000
502625.015,-3.906,45.410,29.785,8.789,35.156,0.000,0.000,0.000
502625.019,-7.812,42.969,34.180,8.789,39.062,0.000,0.000,0.000
502625.023,-16.602,40.039,46.875,9.766,41.992,0.000,0.000,0.000
502625.027,-15.625,33.691,49.316,14.160,35.156,0.000,0.000,0.000
502625.031,-8.789,36.133,50.781,20.020,32.715,0.000,0.000,0.000
502625.035,-9.766,38.086,52.246,22.461,33.203,0.000,0.000,0.000
502625.039,-10.254,40.527,48.828,12.695,34.668,0.000,0.000,0.000
502625.043,-5.859,43.945,44.434,9.766,39.551,0.000,0.000,0.000
502625.047,0.977,45.410,37.598,16.113,32.715,0.000,0.000,0.000
502625.051,2.930,44.922,34.668,15.625,23.438,0.000,0.000,0.000
502625.054,-13.672,43.945,41.992,14.648,22.949,0.000,0.000,0.000
502625.058,-20.996,44.434,42.969,15.137,28.320,0.000,0.000,0.000
502625.062,-10.742,47.363,42.969,10.742,36.133,0.000,0.000,0.000
502625.066,-9.766,42.480,44.434,9.766,36.133,0.000,0.000,0.000
502625.070,-15.625,37.598,39.551,7.812,29.785,0.000,0.000,0.000
502625.074,-17.578,37.109,39.062,5.859,36.621,0.000,0.000,0.000
502625.078,-15.137,35.156,43.457,12.207,37.598,0.000,0.000,0.000
502625.082,-8.789,33.203,42.480,19.043,34.180,0.000,0.000,0.000
502625.086,-4.395,40.039,43.457,19.043,34.668,0.000,0.000,0.000
502625.090,-8.789,43.945,44.922,6.348,39.551,0.000,0.000,0.000
502625.093,-12.207,39.062,36.621,2.930,38.086,0.000,0.000,0.000
502625.097,-9.277,45.410,27.344,17.578,32.227,0.000,0.000,0.000
502625.101,-8.301,49.805,30.273,22.949,31.250,0.000,0.000,0.000
502625.105,-13.672,45.898,32.715,2.441,30.273,0.000,0.000,0.000
502625.109,-14.160,45.898,32.715,-4.883,29.785,0.000,0.000,0.000
502625.113,-10.742,43.457,36.621,11.719,27.832,0.000,0.000,0.000
502625.117,-12.695,41.992,37.598,15.625,26.855,0.000,0.000,0.000
502625.121,-19.043,43.457,40.527,10.742,29.785,0.000,0.000,0.000
502625.125,-21.484,38.086,41.016,6.348,27.344,0.000,0.000,0.000
502625.129,-22.461,33.691,40.527,5.371,21.973,0.000,0.000,0.000
502625.133,-18.066,33.691,38.086,22.461,29.297,0.000,0.000,0.000
502625.136,-16.113,35.645,34.668,18.066,30.762,0.000,0.000,0.000
502625.140,-18.555,38.574,35.645,1.953,26.855,0.000,0.000,0.000
502625.144,-11.719,37.598,32.227,6.836,26.367,0.000,0.000,0.000
502625.148,-1.953,40.527,24.414,21.973,29.297,0.000,0.000,0.000
502625.152,-3.418,45.898,30.273,29.785,36.133,0.000,0.000,0.000
502625.156,-12.207,45.898,37.598,12.207,33.691,0.000,0.000,0.000
502625.160,-11.719,40.039,37.598,-2.441,29.785,0.000,0.000,0.000
502625.164,-6.836,35.645,37.598,5.371,29.297,0.000,0.000,0.000
502625.168,1.953,38.086,34.180,11.230,24.902,0.000,0.000,0.000
502625.172,-0.488,42.969,32.227,6.836,22.461,0.000,0.000,0.000
502625.176,-1.953,44.922,36.621,6.836,28.809,0.000,0.000,0.000
502625.179,0.488,45.410,37.598,12.207,27.832,0.000,0.000,0.000
502625.183,1.465,43.945,33.203,17.090,26.367,0.000,0.000,0.000
502625.187,2.930,40.527,32.227,12.207,28.320,0.000,0.000,0.000
502625.191,5.859,39.062,32.227,6.348,25.391,0.000,0.000,0.000
502625.195,8.789,38.086,32.227,18.066,32.227,0.000,0.000,0.000
502625.199,4.883,39.062,25.879,25.879,30.762,0.000,0.000,0.000
502625.203,1.465,42.969,24.902,24.902,25.879,0.000,0.000,0.000
502625.207,-0.977,37.598,37.598,20.508,26.855,0.000,0.000,0.000
502625.211,0.488,35.645,46.387,9.277,23.438,0.000,0.000,0.000
502625.215,-2.441,43.945,48.340,8.301,28.809,0.000,0.000,0.000
502625.218,-6.836,49.805,44.922,15.625,34.180,0.000,0.000,0.000
502625.222,-7.812,53.223,35.645,19.043,34.668,0.000,0.000,0.000
502625.226,0.977,52.734,32.227,12.207,41.504,0.000,0.000,0.000
502625.230,2.441,51.758,37.598,7.324,42.480,0.000,0.000,0.000
502625.234,-1.953,51.758,41.992,10.254,36.133,0.000,0.000,0.000
502625.238,-7.812,47.363,42.969,14.648,33.203,0.000,0.000,0.000
502625.242,-3.418,50.293,42.480,23.438,37.598,0.000,0.000,0.000
502625.246,3.418,50.293,42.969,25.391,41.016,0.000,0.000,0.000
502625.250,-3.418,42.969,45.898,17.578,32.227,0.000,0.000,0.000
502625.254,-15.625,40.527,47.363,3.906,25.879,0.000,0.000,0.000
502625.258,-22.461,41.504,49.805,2.930,28.809,0.000,0.000,0.000
502625.261,-15.625,46.875,52.246,13.184,37.109,0.000,0.000,0.000
502625.265,-11.719,52.734,41.992,21.484,35.156,0.000,0.000,0.000
502625.269,-10.254,48.340,31.738,20.508,35.645,0.000,0.000,0.000
502625.273,-5.859,46.875,40.039,3.418,41.992,0.000,0.000,0.000
502625.277,-2.930,46.875,47.852,-0.977,41.016,0.000,0.000,0.000
502625.281,-2.930,44.434,42.969,11.719,42.480,0.000,0.000,0.000
502625.285,-5.859,38.086,38.086,18.066,39.551,0.000,0.000,0.000
502625.289,-5.859,38.086,41.016,12.695,34.180,0.000,0.000,0.000
502625.293,0.977,46.387,43.457,13.184,38.574,0.000,0.000,0.000
502625.297,-1.465,44.434,41.992,17.578,36.133,0.000,0.000,0.000
502625.301,0.977,42.480,41.016,25.879,35.156,0.000,0.000,0.000
502625.304,4.883,49.316,44.434,38.574,34.668,0.000,0.000,0.000
502625.308,2.441,49.805,46.875,23.438,40.527,0.000,0.000,0.000
502625.312,4.883,53.711,42.480,11.230,49.805,0.000,0.000,0.000
502625.316,-0.488,52.734,36.133,17.578,35.645,0.000,0.000,0.000
502625.320,-9.277,44.434,33.691,4.395,27.344,0.000,0.000,0.000
502625.324,-11.719,47.852,34.180,-8.301,31.250,0.000,0.000,0.000
502625.328,-7.812,51.270,39.551,-3.418,38.574,0.000,0.000,0.000
502625.332,-4.883,52.246,38.086,5.859,46.875,0.000,0.000,0.000
502625.336,-7.324,48.828,28.320,6.836,47.363,0.000,0.000,0.000
502625.340,-5.371,43.945,28.809,3.418,48.828,0.000,0.000,0.000
502625.343,-0.977,45.898,40.527,4.395,54.688,0.000,0.000,0.000
502625.347,0.488,51.270,49.316,14.648,52.734,0.000,0.000,0.000
502625.351,-1.465,48.828,50.293,24.414,43.945,0.000,0.000,0.000
502625.355,-9.766,44.922,46.387,14.648,40.039,0.000,0.000,0.000
502625.359,-15.625,41.992,43.457,11.230,38.574,0.000,0.000,0.000
502625.363,-17.578,42.480,41.504,14.648,31.738,0.000,0.000,0.000
502625.367,-22.461,43.945,31.738,18.555,28.809,0.000,0.000,0.000
502625.371,-23.438,42.480,30.273,25.879,35.156,0.000,0.000,0.000
502625.375,-22.949,40.527,38.086,20.020,35.645,0.000,0.000,0.000
502625.379,-18.555,38.574,41.992,13.184,33.203,0.000,0.000,0.000
502625.383,-16.113,43.457,41.016,13.184,35.156,0.000,0.000,0.000
502625.386,-18.066,44.434,41.992,13.184,37.598,0.000,0.000,0.000
502625.390,-17.578,45.898,42.480,12.207,35.645,0.000,0.000,0.000
502625.394,-15.137,49.316,39.551,16.113,33.691,0.000,0.000,0.000
502625.398,-14.648,44.434,39.062,15.625,40.527,0.000,0.000,0.000
502625.402,-11.719,42.480,40.527,12.207,41.016,2.000,1.000,0.000
502625.406,-9.766,43.457,39.062,18.555,42.480,0.000,0.000,0.000
502625.410,-8.301,43.945,33.691,20.508,47.363,0.000,0.000,0.000
502625.414,-8.789,43.457,27.344,10.254,36.621,0.000,0.000,0.000
502625.418,-10.254,41.016,24.902,4.395,22.461,0.000,0.000,0.000
502625.422,-7.324,38.574,33.203,16.602,16.113,0.000,0.000,0.000
502625.426,-14.160,36.621,32.715,7.324,20.508,0.000,0.000,0.000
502625.429,-24.414,41.504,30.273,-4.395,21.973,0.000,0.000,0.000
502625.433,-22.461,46.387,37.109,1.465,9.277,0.000,0.000,0.000
502625.437,-23.926,49.805,40.039,1.953,7.324,0.000,0.000,0.000
502625.441,-26.367,44.434,41.992,0.488,15.137,0.000,0.000,0.000
502625.445,-20.996,35.156,42.480,2.441,17.090,0.000,0.000,0.000
502625.449,-18.066,33.691,38.574,11.719,24.414,0.000,0.000,0.000
502625.453,-20.020,38.086,35.645,21.484,29.297,0.000,0.000,0.000
502625.457,-22.461,38.574,31.250,13.184,27.344,0.000,0.000,0.000
502625.461,-15.137,38.574,25.391,3.418,36.133,0.000,0.000,0.000
502625.465,-7.324,41.992,33.203,4.883,37.598,0.000,0.000,0.000
502625.468,-6.348,41.016,41.504,11.230,35.645,0.000,0.000,0.000
502625.472,-8.789,42.969,40.039,7.812,43.457,0.000,0.000,0.000
502625.476,-9.766,47.363,37.109,-1.953,41.504,0.000,0.000,0.000
502625.480,-5.859,51.270,35.156,10.254,40.527,0.000,0.000,0.000
502625.484,-0.488,46.875,38.086,19.043,36.133,0.000,0.000,0.000
502625.488,-6.348,41.992,43.457,15.625,32.227,0.000,0.000,0.000
502625.492,-7.812,42.969,37.598,17.090,40.527,0.000,0.000,0.000
502625.496,-9.766,41.504,22.949,23.438,40.527,0.000,0.000,0.000
502625.500,-16.602,33.691,24.902,18.555,37.109,0.000,0.000,0.000
502625.504,-19.043,32.715,35.645,16.113,33.203,0.000,0.000,0.000
502625.508,-20.996,38.086,37.109,15.137,19.531,0.000,0.000,0.000
502625.511,-13.184,39.062,36.621,0.488,16.602,0.000,0.000,0.000
502625.515,-7.812,38.574,41.504,-0.488,26.367,0.000,0.000,0.000
502625.519,-17.578,36.133,41.016,11.719,34.180,0.000,0.000,0.000
502625.523,-22.461,37.598,38.574,4.395,43.457,0.000,0.000,0.000
502625.527,-22.461,45.898,37.109,4.395,44.434,0.000,0.000,0.000
502625.531,-24.414,45.898,36.621,18.066,39.551,0.000,0.000,0.000
502625.535,-23.438,38.574,37.598,7.812,38.086,0.000,0.000,0.000
502625.539,-21.973,37.598,30.762,1.465,20.508,0.000,0.000,0.000
502625.543,-19.043,37.598,28.320,5.859,-3.418,0.000,0.000,0.000
502625.547,-19.043,34.668,25.879,6.836,-17.578,0.000,0.000,0.000
502625.551,-21.973,32.227,25.391,1.953,-19.043,0.000,0.000,0.000
502625.554,-24.414,34.668,32.227,-1.953,0.000,0.000,0.000,0.000
502625.558,-13.672,35.645,35.645,-2.930,23.438,0.000,0.000,0.000
502625.562,-7.812,35.645,35.645,6.836,35.156,0.000,0.000,0.000
502625.566,-9.766,37.598,35.156,5.371,37.598,0.000,0.000,0.000
502625.570,-7.812,36.621,33.203,-0.488,48.340,0.000,0.000,0.000
502625.574,-9.277,38.086,30.273,0.977,58.105,0.000,0.000,0.000
502625.578,-6.348,39.062,30.273,3.418,61.523,0.000,0.000,0.000
502625.582,-3.418,37.598,36.133,15.137,70.801,0.000,0.000,0.000
502625.586,-14.160,36.133,39.551,14.160,83.008,0.000,0.000,0.000
502625.590,-32.715,38.574,40.527,2.441,78.613,0.000,0.000,0.000
502625.593,-37.109,37.109,41.504,2.441,69.336,0.000,0.000,0.000
502625.597,-32.715,30.762,40.039,11.230,70.312,0.000,0.000,0.000
502625.601,-34.180,31.738,37.598,10.742,62.012,0.000,0.000,0.000
502625.605,-41.504,34.180,34.668,-2.441,46.875,0.000,0.000,0.000
502625.609,-42.480,36.133,35.156,-5.371,44.434,0.000,0.000,0.000
502625.613,-38.574,36.133,33.691,4.883,52.246,0.000,0.000,0.000
502625.617,-39.551,33.691,34.180,14.160,45.410,0.000,0.000,0.000
502625.621,-49.316,37.598,34.180,5.371,29.785,0.000,0.000,0.000
502625.625,-58.105,34.180,32.227,-12.207,27.344,0.000,0.000,0.000
502625.629,-55.664,24.902,34.668,-10.254,29.297,0.000,0.000,0.000
502625.633,-49.316,30.762,27.344,2.930,26.367,0.000,0.000,0.000
502625.636,-49.805,38.574,18.066,-0.488,23.926,0.000,0.000,0.000
502625.640,-59.570,41.504,24.414,-10.742,23.926,0.000,0.000,0.000
502625.644,-54.199,38.574,36.133,-0.977,29.297,0.000,0.000,0.000
502625.648,-52.246,35.645,42.969,17.090,29.297,0.000,0.000,0.000
502625.652,-56.152,37.109,42.969,17.578,20.508,0.000,0.000,0.000
502625.656,-55.176,39.062,41.016,3.418,27.832,0.000,0.000,0.000
502625.660,-43.945,37.109,38.574,0.488,32.715,0.000,0.000,0.000
502625.664,-35.645,36.133,39.062,13.184,27.344,0.000,0.000,0.000
502625.668,-41.504,41.504,38.086,9.766,26.367,0.000,0.000,0.000
502625.672,-42.969,41.504,36.133,7.812,32.227,0.000,0.000,0.000
502625.675,-41.992,38.574,32.715,2.930,25.879,0.000,0.000,0.000
502625.679,-39.551,36.621,29.297,-1.465,20.996,0.000,0.000,0.000
502625.683,-31.738,37.598,35.156,7.324,25.879,0.000,0.000,0.000
502625.687,-30.762,41.016,37.598,5.371,27.832,0.000,0.000,0.000
502625.691,-37.109,40.039,33.691,0.000,34.668,0.000,0.000,0.000
502625.695,-33.691,40.527,32.715,5.371,34.180,0.000,0.000,0.000
502625.699,-28.809,40.039,33.691,31.250,17.090,0.000,0.000,0.000
502625.703,-31.738,40.527,35.645,31.738,22.461,0.000,0.000,0.000
502625.707,-36.133,42.480,36.621,0.977,33.691,0.000,0.000,0.000
502625.711,-38.086,40.039,38.086,-8.301,26.855,0.000,0.000,0.000
502625.715,-32.715,39.062,36.133,7.324,21.973,0.000,0.000,0.000
502625.718,-31.738,42.480,27.832,13.672,23.438,0.000,0.000,0.000
502625.722,-33.203,43.945,28.809,-4.395,19.531,0.000,0.000,0.000
502625.726,-29.297,46.387,38.574,-11.230,15.625,0.000,0.000,0.000
502625.730,-33.203,45.410,38.086,-9.277,20.508,0.000,0.000,0.000
502625.734,-33.691,42.969,38.086,-2.930,22.461,0.000,0.000,0.000
502625.738,-36.133,44.434,41.016,-5.371,13.672,0.000,0.000,0.000
502625.742,-44.434,44.922,41.016,-4.883,17.578,0.000,0.000,0.000
502625.746,-37.598,43.945,43.457,18.066,23.926,0.000,0.000,0.000
502625.750,-30.273,38.574,45.898,14.648,20.996,0.000,0.000,0.000
502625.754,-38.086,35.156,48.828,-6.836,18.555,0.000,0.000,0.000
502625.758,-42.480,39.062,50.293,-4.395,17.090,0.000,0.000,0.000
502625.761,-35.156,41.504,51.270,3.906,10.254,0.000,0.000,0.000
502625.765,-29.297,42.969,51.758,6.836,8.301,0.000,0.000,0.000
502625.769,-28.809,44.922,47.852,11.719,14.648,0.000,0.000,0.000
502625.773,-32.715,43.945,44.922,5.371,22.949,0.000,0.000,0.000
502625.777,-24.902,42.480,45.410,9.766,32.715,0.000,0.000,0.000
502625.781,-17.090,45.410,45.898,24.902,30.273,0.000,0.000,0.000
502625.785,-20.508,43.457,44.434,7.812,32.715,0.000,0.000,0.000
502625.789,-26.855,41.504,45.410,0.488,45.410,0.000,0.000,0.000
502625.793,-23.438,43.457,46.387,5.859,43.457,0.000,0.000,0.000
502625.797,-21.973,42.969,47.852,9.277,35.156,0.000,0.000,0.000
502625.800,-29.297,42.969,51.758,21.973,38.086,0.000,0.000,0.000
502625.804,-29.785,42.480,53.711,26.367,43.457,0.000,0.000,0.000
502625.808,-22.949,44.434,55.664,16.113,33.691,0.000,0.000,0.000
502625.812,-11.230,43.945,58.105,16.113,31.250,0.000,0.000,0.000
502625.816,-13.184,43.457,57.617,19.531,42.480,0.000,0.000,0.000
502625.820,-28.809,43.457,56.152,9.766,43.945,0.000,0.000,0.000
502625.824,-25.879,45.410,50.781,15.137,41.016,0.000,0.000,0.000
502625.828,-13.184,47.363,49.316,20.508,35.645,0.000,0.000,0.000
502625.832,-8.789,40.527,58.594,11.230,26.367,0.000,0.000,0.000
502625.836,-8.301,37.598,62.988,19.043,24.414,0.000,0.000,0.000
502625.840,-9.277,41.016,58.105,20.996,32.227,0.000,0.000,0.000
502625.843,-3.418,42.480,53.223,23.438,38.574,0.000,0.000,0.000
502625.847,3.418,43.457,52.734,27.832,37.598,0.000,0.000,0.000
502625.851,-0.977,42.969,56.641,36.133,33.691,0.000,0.000,0.000
502625.855,-4.883,40.527,63.965,34.668,37.109,0.000,0.000,0.000
502625.859,-3.906,43.457,65.918,14.160,39.551,0.000,0.000,0.000
502625.863,2.930,44.922,58.594,18.555,41.504,0.000,0.000,0.000
502625.867,2.441,42.480,56.641,30.762,43.945,0.000,0.000,0.000
502625.871,-11.230,41.016,61.035,22.461,34.668,0.000,0.000,0.000
502625.875,-15.137,41.504,63.477,18.066,34.668,0.000,0.000,0.000
502625.879,-7.812,41.992,62.500,20.996,41.992,0.000,0.000,0.000
502625.883,-1.953,42.969,58.594,31.250,40.039,0.000,0.000,0.000
502625.886,-1.953,41.504,57.129,25.391,44.434,0.000,0.000,0.000
502625.890,-5.371,38.574,53.711,14.160,42.480,0.000,0.000,0.000
502625.894,-5.371,36.621,56.641,25.879,32.715,0.000,0.000,0.000
502625.898,2.441,37.598,62.012,32.715,37.109,0.000,0.000,0.000
502625.902,10.254,41.992,59.570,29.785,37.109,0.000,0.000,0.000
502625.906,-0.488,40.039,62.500,28.320,34.668,0.000,0.000,0.000
502625.910,-6.836,40.527,62.988,21.484,37.598,0.000,0.000,0.000
502625.914,0.000,39.551,60.547,23.926,38.086,0.000,0.000,0.000
502625.918,-0.488,36.133,62.500,30.762,38.574,0.000,0.000,0.000
502625.922,-5.371,40.039,62.012,16.113,40.039,0.000,0.000,0.000
502625.925,-4.395,35.156,61.035,14.160,43.457,0.000,0.000,0.000
502625.929,-3.418,34.180,55.176,16.113,45.898,0.000,0.000,0.000
502625.933,-0.488,41.992,57.129,19.043,46.387,0.000,0.000,0.000
502625.937,-4.883,43.457,63.477,22.949,45.410,0.000,0.000,0.000
502625.941,-8.789,41.992,58.105,20.996,37.598,0.000,0.000,0.000
502625.945,-1.465,41.992,47.852,18.555,36.133,0.000,0.000,0.000
502625.949,-2.441,41.016,48.340,19.043,46.875,0.000,0.000,0.000
502625.953,-5.859,41.504,60.059,26.367,47.852,0.000,0.000,0.000
502625.957,-5.371,42.480,67.871,22.949,43.457,0.000,0.000,0.000
502625.961,-1.465,37.598,64.453,18.555,55.176,0.000,0.000,0.000
502625.965,4.883,36.133,60.059,23.438,52.246,0.000,0.000,0.000
502625.968,0.977,39.551,58.105,18.066,38.086,0.000,0.000,0.000
502625.972,-9.277,38.574,52.734,6.836,36.133,0.000,0.000,0.000
502625.976,-3.906,37.598,56.152,3.906,43.457,0.000,0.000,0.000
502625.980,-2.930,36.621,60.059,6.836,42.969,0.000,0.000,0.000
502625.984,-9.766,34.668,60.059,16.602,41.016,0.000,0.000,0.000
502625.988,-11.230,35.156,54.199,13.672,45.898,0.000,0.000,0.000
502625.992,-7.812,33.691,47.852,2.441,49.805,0.000,0.000,0.000
502625.996,-0.977,32.715,54.688,7.812,48.828,0.000,0.000,0.000
502626.000,1.465,33.203,62.988,18.555,40.527,0.000,0.000,0.000
502626.004,0.977,30.273,62.988,14.648,40.527,0.000,0.000,0.000
502626.008,0.000,26.855,60.059,0.977,38.574,0.000,0.000,0.000
502626.011,0.488,25.879,61.035,1.465,25.879,0.000,0.000,0.000
502626.015,0.000,25.879,58.105,10.742,29.785,0.000,0.000,0.000
502626.019,0.488,29.297,56.641,7.324,47.363,0.000,0.000,0.000
502626.023,-2.930,31.250,59.082,-0.488,37.598,0.000,0.000,0.000
502626.027,-2.441,29.297,61.035,3.418,31.738,0.000,0.000,0.000
502626.031,3.906,29.297,57.617,8.301,36.133,0.000,0.000,0.000
502626.035,0.977,28.320,56.641,2.441,24.414,0.000,0.000,0.000
502626.039,-5.859,28.809,62.012,1.465,25.879,0.000,0.000,0.000
502626.043,-3.906,29.297,64.453,7.324,45.410,0.000,0.000,0.000
502626.047,-0.977,26.367,53.223,12.695,34.668,0.000,0.000,0.000
502626.050,3.418,22.461,39.062,16.113,15.137,0.000,0.000,0.000
502626.054,3.906,23.926,36.133,17.090,22.461,0.000,0.000,0.000
502626.058,4.395,31.738,42.480,8.789,26.367,0.000,0.000,0.000
502626.062,5.859,31.738,59.570,8.301,30.273,0.000,0.000,0.000
502626.066,2.441,31.738,81.543,15.137,27.832,0.000,0.000,0.000
502626.070,-0.488,33.203,92.773,17.090,21.973,0.000,0.000,0.000
502626.074,-0.488,31.738,84.961,17.090,32.227,0.000,0.000,0.000
502626.078,1.465,34.668,78.613,17.578,37.598,0.000,0.000,0.000
502626.082,7.324,37.109,80.566,26.367,46.387,0.000,0.000,0.000
502626.086,13.672,39.551,71.289,28.809,51.270,0.000,0.000,0.000
502626.090,10.254,40.039,69.824,24.414,42.480,0.000,0.000,0.000
502626.093,8.789,38.574,79.590,15.625,46.387,0.000,0.000,0.000
502626.097,19.043,35.645,78.125,25.391,57.617,0.000,0.000,0.000
502626.101,20.508,38.086,75.195,31.250,54.688,0.000,0.000,0.000
502626.105,9.766,40.527,76.172,15.625,53.223,0.000,0.000,0.000
502626.109,7.812,34.668,73.242,13.184,43.945,0.000,0.000,0.000
502626.113,9.766,31.250,68.848,20.020,40.039,0.000,0.000,0.000
502626.117,7.812,30.273,67.871,25.391,52.734,0.000,0.000,0.000
502626.121,3.418,29.785,64.453,20.996,62.988,0.000,0.000,0.000
502626.125,4.395,30.762,58.105,19.043,57.129,0.000,0.000,0.000
502626.129,7.812,33.691,52.734,27.832,34.668,0.000,0.000,0.000
502626.133,10.254,34.668,56.152,32.715,27.344,0.000,0.000,0.000
502626.136,10.254,30.273,65.430,35.156,34.180,0.000,0.000,0.000
502626.140,-1.953,23.926,66.895,20.508,36.133,0.000,0.000,0.000
502626.144,-3.906,23.438,63.477,8.301,32.715,0.000,0.000,0.000
502626.148,-0.488,23.926,64.453,15.625,29.297,0.000,0.000,0.000
502626.152,-3.418,23.438,65.430,15.137,35.156,0.000,0.000,0.000
502626.156,-6.836,26.855,63.477,16.113,35.645,0.000,0.000,0.000
502626.160,-4.883,27.832,60.547,17.090,30.273,0.000,0.000,0.000
502626.164,1.465,28.320,57.129,12.207,31.738,0.000,0.000,0.000
502626.168,2.441,24.414,62.500,16.113,37.109,0.000,0.000,0.000
502626.172,-2.930,25.879,66.406,12.695,43.457,0.000,0.000,0.000
502626.175,-1.465,25.391,57.129,6.348,58.105,0.000,0.000,0.000
502626.179,1.465,20.996,50.293,14.648,50.293,0.000,0.000,0.000
502626.183,0.977,23.438,54.199,20.996,35.645,0.000,0.000,0.000
502626.187,2.930,27.344,64.941,24.414,41.016,0.000,0.000,0.000
502626.191,0.000,28.809,70.801,21.973,41.504,0.000,0.000,0.000
502626.195,4.395,27.832,68.359,21.484,51.758,0.000,0.000,0.000
502626.199,11.230,25.879,63.477,26.367,59.570,0.000,0.000,0.000
502626.203,6.836,24.414,58.594,25.879,59.082,0.000,0.000,0.000
502626.207,6.348,24.902,50.781,19.531,63.965,0.000,0.000,0.000
502626.211,8.789,28.809,56.152,34.180,60.059,0.000,0.000,0.000
502626.215,4.395,31.738,70.801,39.062,55.664,0.000,0.000,0.000
502626.218,2.441,26.855,74.707,24.902,59.570,0.000,0.000,0.000
502626.222,0.488,24.902,74.219,23.926,50.293,0.000,0.000,0.000
502626.226,3.906,26.367,71.289,22.461,46.875,0.000,0.000,0.000
502626.230,6.348,26.367,61.523,30.273,49.805,0.000,0.000,0.000
502626.234,8.301,25.391,56.641,36.133,48.340,0.000,0.000,0.000
502626.238,6.836,21.973,51.758,28.809,46.387,0.000,0.000,0.000
502626.242,4.883,20.508,54.199,20.508,49.805,0.000,0.000,0.000
502626.246,12.695,19.043,59.082,16.113,44.434,0.000,0.000,0.000
502626.250,17.578,19.043,55.664,22.949,32.715,0.000,0.000,0.000
502626.254,5.859,15.625,58.105,22.461,35.156,0.000,0.000,0.000
502626.257,-4.883,16.113,59.570,18.555,36.133,0.000,0.000,0.000
502626.261,4.395,20.996,57.129,24.902,38.574,0.000,0.000,0.000
502626.265,11.230,20.020,64.453,32.715,46.875,0.000,0.000,0.000
502626.269,9.766,20.020,72.754,31.738,57.129,0.000,0.000,0.000
502626.273,8.789,23.438,64.941,27.344,61.035,0.000,0.000,0.000
502626.277,16.113,23.926,56.641,30.273,62.988,0.000,0.000,0.000
502626.281,17.090,20.508,62.500,31.738,60.059,0.000,0.000,0.000
502626.285,8.301,22.949,69.336,25.391,53.711,0.000,0.000,0.000
502626.289,4.395,21.973,71.289,24.414,43.945,0.000,0.000,0.000
502626.293,7.812,18.066,69.824,28.320,44.434,0.000,0.000,0.000
502626.297,11.230,20.996,66.895,19.043,58.105,0.000,0.000,0.000
502626.300,10.254,27.832,66.895,17.090,52.246,0.000,0.000,0.000
502626.304,9.277,31.738,63.965,26.855,41.016,0.000,0.000,0.000
502626.308,6.348,29.785,46.875,28.320,51.758,0.000,0.000,0.000
502626.312,11.230,26.855,45.898,36.133,64.941,0.000,0.000,0.000
502626.316,15.625,29.297,60.547,40.039,67.383,0.000,0.000,0.000
502626.320,10.254,35.645,69.824,29.297,66.406,0.000,0.000,0.000
502626.324,2.441,32.715,76.660,23.438,66.895,0.000,0.000,0.000
502626.328,7.812,31.250,59.570,30.273,65.918,0.000,0.000,0.000
502626.332,8.789,32.715,29.297,38.574,53.711,0.000,0.000,0.000
502626.336,-5.859,28.809,38.574,35.156,49.316,0.000,0.000,0.000
502626.340,-14.160,28.320,71.289,28.320,56.641,0.000,0.000,0.000
502626.343,-11.230,25.879,88.379,25.391,62.988,0.000,0.000,0.000
502626.347,-9.277,22.461,87.891,27.344,56.641,0.000,0.000,0.000
502626.351,-5.371,28.320,83.984,30.762,54.688,0.000,0.000,0.000
502626.355,5.371,33.691,80.078,28.809,60.547,0.000,0.000,0.000
502626.359,14.160,36.133,70.312,30.762,63.477,0.000,0.000,0.000
502626.363,11.719,37.598,67.871,35.156,63.965,0.000,0.000,0.000
502626.367,14.648,37.109,67.871,35.645,64.453,0.000,0.000,0.000
502626.371,12.207,40.527,58.594,26.855,59.082,0.000,0.000,0.000
502626.375,9.766,42.969,53.223,14.648,44.922,0.000,0.000,0.000
502626.379,14.648,38.086,57.617,20.996,46.387,0.000,0.000,0.000
502626.382,20.020,38.086,58.594,26.367,59.570,0.000,0.000,0.000
502626.386,24.902,36.133,58.105,15.137,64.941,0.000,0.000,0.000
502626.390,13.184,34.180,62.012,4.395,56.152,0.000,0.000,0.000
502626.394,3.906,38.086,63.965,6.836,53.223,0.000,0.000,0.000
502626.398,3.418,37.109,59.082,11.230,62.500,0.000,0.000,0.000
502626.402,-0.977,37.598,46.387,17.090,59.570,0.000,0.000,0.000
502626.406,-7.324,37.598,42.969,12.695,49.805,0.000,0.000,0.000
502626.410,-8.301,33.691,50.293,4.395,47.852,0.000,0.000,0.000
502626.414,-7.324,33.203,54.688,14.648,47.363,0.000,0.000,0.000
502626.418,-9.766,39.062,57.617,12.695,44.922,0.000,0.000,0.000
502626.422,-10.742,40.039,62.012,8.301,33.691,0.000,0.000,0.000
502626.425,-2.930,38.574,65.430,13.672,37.109,0.000,0.000,0.000
502626.429,-0.488,41.992,58.594,10.742,43.945,0.000,0.000,0.000
502626.433,-0.977,40.527,52.734,14.160,35.156,0.000,0.000,0.000
502626.437,1.465,42.969,50.781,16.602,34.180,0.000,0.000,0.000
502626.441,-0.488,44.922,51.758,7.812,34.180,0.000,0.000,0.000
502626.445,-3.418,41.992,55.664,4.395,32.715,0.000,0.000,0.000
502626.449,0.977,40.527,51.758,5.371,26.367,0.000,0.000,0.000
502626.453,-0.977,40.039,49.805,4.883,20.508,0.000,0.000,0.000
502626.457,-7.812,40.527,49.316,-1.465,26.855,0.000,0.000,0.000
502626.461,-3.418,43.457,50.781,-0.488,33.203,0.000,0.000,0.000
502626.465,-0.488,42.969,50.293,16.113,38.574,0.000,0.000,0.000
502626.468,-1.953,42.480,50.293,16.113,42.969,0.000,0.000,0.000
502626.472,-6.348,43.457,50.781,6.836,43.945,0.000,0.000,0.000
502626.476,0.488,44.434,46.875,9.277,49.316,0.000,0.000,0.000
502626.480,2.441,48.340,47.363,16.602,44.922,0.000,0.000,0.000
502626.484,-0.977,46.875,53.223,22.949,41.016,0.000,0.000,0.000
502626.488,0.488,44.922,56.152,20.508,47.852,0.000,0.000,0.000
502626.492,-1.953,45.898,49.316,18.066,46.387,0.000,0.000,0.000
502626.496,-1.465,45.898,37.598,19.531,50.781,0.000,0.000,0.000
502626.500,4.395,48.340,41.016,21.484,61.035,0.000,0.000,0.000
502626.504,8.301,50.781,48.340,20.020,47.363,0.000,0.000,0.000
502626.507,5.371,49.316,46.875,15.625,34.180,0.000,0.000,0.000
502626.511,2.930,45.410,29.297,18.555,30.762,0.000,0.000,0.000
502626.515,5.859,44.922,15.137,24.414,33.691,0.000,0.000,0.000
502626.519,7.324,46.387,26.855,25.391,39.062,0.000,0.000,0.000
502626.523,4.395,44.922,40.527,21.484,34.180,0.000,0.000,0.000
502626.527,8.789,44.434,45.898,19.531,27.832,0.000,0.000,0.000
502626.531,10.254,45.898,53.711,26.855,36.621,0.000,0.000,0.000
502626.535,6.836,45.898,55.664,30.762,42.969,0.000,0.000,0.000
502626.539,7.812,46.875,51.270,24.414,53.223,0.000,0.000,0.000
502626.543,8.789,48.340,41.016,21.484,50.781,0.000,0.000,0.000
502626.547,8.789,47.363,32.715,37.598,33.691,0.000,0.000,0.000
502626.550,4.395,44.922,30.273,42.480,41.504,0.000,0.000,0.000
502626.554,-8.301,43.457,26.367,25.879,44.922,0.000,0.000,0.000
502626.558,-5.859,45.410,20.996,24.902,48.828,0.000,0.000,0.000
502626.562,-1.465,46.875,29.297,31.738,49.805,0.000,0.000,0.000
502626.566,-2.930,46.387,33.203,41.016,41.016,0.000,0.000,0.000
502626.570,-2.930,46.875,18.066,35.645,41.016,0.000,0.000,0.000
502626.574,-4.395,47.852,16.113,24.414,43.945,0.000,0.000,0.000
502626.578,2.441,46.387,23.438,25.391,49.316,0.000,0.000,0.000
502626.582,3.906,45.410,24.902,31.250,54.688,0.000,0.000,0.000
502626.586,1.465,43.945,20.996,35.156,59.570,0.000,0.000,0.000
502626.590,-1.953,40.039,23.438,30.762,54.199,0.000,0.000,0.000
502626.593,-7.324,38.086,29.297,27.832,35.156,0.000,0.000,0.000
502626.597,-5.371,38.086,32.227,29.297,28.809,0.000,0.000,0.000
502626.601,-3.906,40.039,27.832,27.832,29.785,0.000,0.000,0.000
502626.605,-9.766,40.039,22.461,23.438,25.391,0.000,0.000,0.000
502626.609,-10.254,41.016,19.043,18.555,19.531,0.000,0.000,0.000
502626.613,-8.301,41.504,20.020,20.508,23.926,0.000,0.000,0.000
502626.617,-4.395,41.016,22.949,25.879,32.715,0.000,0.000,0.000
502626.621,0.000,41.504,20.020,22.461,31.250,0.000,0.000,0.000
502626.625,-0.488,41.504,13.184,19.531,28.809,0.000,0.000,0.000
502626.629,0.000,40.527,8.789,23.926,35.156,0.000,0.000,0.000
502626.632,-5.859,42.480,8.789,24.902,25.879,0.000,0.000,0.000
502626.636,-7.812,44.434,9.277,17.090,19.043,0.000,0.000,0.000
502626.640,-6.348,41.992,12.207,9.277,31.250,0.000,0.000,0.000
502626.644,-8.301,43.945,15.137,14.648,38.086,0.000,0.000,0.000
502626.648,-8.789,49.316,17.090,27.832,38.574,0.000,0.000,0.000
502626.652,-9.277,49.805,23.438,28.809,30.762,0.000,0.000,0.000
502626.656,-10.742,48.340,20.996,22.949,33.203,0.000,0.000,0.000
502626.660,-10.742,47.852,17.090,20.508,45.410,0.000,0.000,0.000
502626.664,-10.254,49.316,18.066,22.949,35.156,0.000,0.000,0.000
502626.668,-9.766,47.363,18.555,30.273,19.531,0.000,0.000,0.000
502626.672,-5.859,46.875,22.949,26.855,22.461,0.000,0.000,0.000
502626.675,-5.859,49.805,27.344,20.020,26.367,0.000,0.000,0.000
502626.679,-6.348,47.363,31.250,21.484,33.691,0.000,0.000,0.000
502626.683,1.465,47.363,31.738,24.414,40.527,0.000,0.000,0.000
502626.687,-1.465,50.781,28.809,22.949,29.785,0.000,0.000,0.000
502626.691,-8.789,52.734,31.250,14.160,30.273,0.000,0.000,0.000
502626.695,-5.859,50.293,32.227,12.207,39.551,0.000,0.000,0.000
502626.699,-7.324,47.363,26.367,23.926,46.387,0.000,0.000,0.000
502626.703,-10.742,47.363,25.391,29.785,50.293,0.000,0.000,0.000
502626.707,-13.672,44.434,34.668,20.508,41.016,0.000,0.000,0.000
502626.711,-10.254,45.410,43.945,16.602,29.297,0.000,0.000,0.000
502626.715,-3.418,47.363,46.875,21.973,30.762,0.000,0.000,0.000
502626.718,-3.906,46.875,47.852,23.438,28.320,0.000,0.000,0.000
502626.722,-6.348,48.340,41.504,20.996,26.367,0.000,0.000,0.000
502626.726,-3.906,51.270,38.574,16.602,36.621,0.000,0.000,0.000
502626.730,-0.488,56.152,41.504,20.996,34.668,0.000,0.000,0.000
502626.734,2.441,54.199,40.527,23.926,30.273,0.000,0.000,0.000
502626.738,1.465,49.805,39.062,19.531,34.668,0.000,0.000,0.000
502626.742,2.930,49.316,37.598,22.949,37.109,0.000,0.000,0.000
502626.746,1.953,50.293,22.461,21.973,34.668,0.000,0.000,0.000
502626.750,-2.441,50.781,16.113,19.531,34.180,0.000,0.000,0.000
502626.754,-6.348,50.781,31.738,18.066,38.086,0.000,0.000,0.000
502626.757,-9.766,49.316,42.480,7.812,33.203,0.000,0.000,0.000
502626.761,-6.348,49.805,44.922,10.254,30.762,0.000,0.000,0.000
502626.765,-4.395,50.293,42.969,24.902,36.133,0.000,0.000,0.000
502626.769,-6.836,47.852,34.180,29.785,40.527,0.000,0.000,0.000
502626.773,-8.789,47.852,14.160,24.414,43.457,0.000,0.000,0.000
502626.777,-4.395,50.781,-6.836,22.949,49.316,0.000,0.000,0.000
502626.781,0.977,56.641,1.465,27.832,41.504,0.000,0.000,0.000
502626.785,1.465,56.641,21.484,30.273,30.762,0.000,0.000,0.000
502626.789,-3.418,53.223,22.949,26.367,34.668,0.000,0.000,0.000
502626.793,-4.883,50.781,13.184,20.020,41.504,0.000,0.000,0.000
502626.797,-1.465,50.781,-3.906,25.391,48.828,0.000,0.000,0.000
502626.800,0.488,51.758,-14.160,35.156,48.828,0.000,0.000,0.000
502626.804,0.000,54.688,-2.441,26.367,35.645,0.000,0.000,0.000
502626.808,-3.906,53.223,19.531,11.719,34.180,0.000,0.000,0.000
502626.812,-1.953,48.828,36.621,16.602,36.133,0.000,0.000,0.000
502626.816,4.395,51.758,41.992,24.414,30.762,0.000,0.000,0.000
502626.820,-0.977,49.805,33.691,11.719,30.762,0.000,0.000,0.000
502626.824,-4.883,50.781,18.066,2.441,36.621,0.000,0.000,0.000
502626.828,3.418,54.688,14.648,10.254,39.551,0.000,0.000,0.000
502626.832,2.441,47.852,19.531,17.090,39.062,0.000,0.000,0.000
502626.836,-3.418,46.387,20.508,9.766,41.016,0.000,0.000,0.000
502626.840,-5.859,47.852,16.602,7.812,41.016,0.000,0.000,0.000
502626.843,-3.906,45.410,16.602,10.742,35.156,0.000,0.000,0.000
502626.847,1.953,43.945,16.602,15.625,36.133,0.000,0.000,0.000
502626.851,4.395,48.828,7.324,18.555,41.992,0.000,0.000,0.000
502626.855,0.488,54.688,-7.324,18.066,40.039,0.000,0.000,0.000
502626.859,0.488,55.176,6.836,18.555,41.016,0.000,0.000,0.000
502626.863,3.418,54.199,37.109,23.926,49.805,0.000,0.000,0.000
502626.867,5.859,46.875,47.852,38.574,50.781,0.000,0.000,0.000
502626.871,0.488,43.945,49.316,24.902,43.945,0.000,0.000,0.000
502626.875,-1.953,46.387,51.758,13.672,43.457,0.000,0.000,0.000
502626.879,12.207,52.734,37.109,21.484,50.781,0.000,0.000,0.000
502626.882,18.555,58.594,13.184,24.902,54.199,0.000,0.000,0.000
502626.886,8.301,54.199,21.973,22.949,37.109,0.000,0.000,0.000
502626.890,-0.488,52.734,41.504,16.602,33.203,0.000,0.000,0.000
502626.894,5.371,52.734,44.922,13.672,36.621,0.000,0.000,0.000
502626.898,13.672,50.781,36.621,24.414,36.133,0.000,0.000,0.000
502626.902,14.160,54.688,7.812,36.621,44.922,0.000,0.000,0.000
502626.906,6.836,57.129,-12.207,35.156,49.316,0.000,0.000,0.000
502626.910,7.812,53.223,15.137,30.273,41.992,0.000,0.000,0.000
502626.914,10.254,48.340,49.316,37.598,37.109,0.000,0.000,0.000
502626.918,7.812,48.340,63.477,41.992,41.992,0.000,0.000,0.000
502626.922,-4.883,48.828,55.176,23.926,36.621,0.000,0.000,0.000
502626.925,-4.883,46.875,34.668,13.184,30.273,0.000,0.000,0.000
502626.929,5.371,47.363,23.438,20.508,32.227,4.000,1.000,0.000
502626.933,-2.441,51.758,26.855,29.297,42.480,0.000,0.000,0.000
502626.937,-10.254,51.758,31.738,26.855,47.363,0.000,0.000,0.000
502626.941,-12.207,47.852,34.668,15.625,41.992,0.000,0.000,0.000
502626.945,-8.301,47.363,29.785,11.719,31.250,0.000,0.000,0.000
502626.949,-4.395,46.875,21.484,16.113,23.926,0.000,0.000,0.000
502626.953,-7.812,48.340,21.484,23.438,33.691,0.000,0.000,0.000
502626.957,-9.766,47.363,23.926,20.020,37.109,0.000,0.000,0.000
502626.961,-4.883,43.945,19.531,7.324,37.109,0.000,0.000,0.000
502626.964,0.488,43.457,12.695,13.184,34.180,0.000,0.000,0.000
502626.968,1.465,43.945,8.789,23.926,27.344,0.000,0.000,0.000
502626.972,0.000,43.457,8.301,17.578,27.344,0.000,0.000,0.000
502626.976,5.371,40.527,15.625,11.230,32.715,0.000,0.000,0.000
502626.980,12.207,45.410,16.602,13.672,37.109,0.000,0.000,0.000
502626.984,14.160,52.734,10.742,19.043,37.109,0.000,0.000,0.000
502626.988,15.137,53.223,9.277,23.438,40.527,0.000,0.000,0.000
502626.992,16.113,53.223,10.254,13.672,38.574,0.000,0.000,0.000
502626.996,20.996,50.293,9.766,13.184,44.922,0.000,0.000,0.000
502627.000,14.648,48.340,10.742,20.996,54.199,0.000,0.000,0.000
502627.004,9.277,51.758,3.906,23.926,32.227,0.000,0.000,0.000
502627.007,9.766,50.781,-8.301,17.578,17.578,0.000,0.000,0.000
502627.011,10.254,43.457,-3.418,18.555,22.949,0.000,0.000,0.000
502627.015,17.090,45.410,10.254,27.344,29.785,0.000,0.000,0.000
502627.019,20.508,49.805,19.043,23.926,31.250,0.000,0.000,0.000
502627.023,14.648,48.828,17.578,23.926,30.273,0.000,0.000,0.000
502627.027,13.672,49.805,12.695,11.719,35.156,0.000,0.000,0.000
502627.031,22.461,47.852,13.672,12.695,28.809,0.000,0.000,0.000
502627.035,24.414,45.898,13.184,20.996,32.227,0.000,0.000,0.000
502627.039,3.418,41.504,11.230,1.465,30.273,0.000,0.000,0.000
502627.043,-2.441,42.480,7.812,-1.465,19.531,0.000,0.000,0.000
502627.047,6.836,45.410,4.395,9.766,27.344,0.000,0.000,0.000
502627.050,6.836,37.109,2.930,13.672,39.551,0.000,0.000,0.000
502627.054,2.441,38.086,2.441,13.184,39.551,0.000,0.000,0.000
502627.058,1.465,49.316,6.348,10.254,44.434,0.000,0.000,0.000
502627.062,4.395,47.363,17.578,12.695,52.246,0.000,0.000,0.000
502627.066,9.766,41.504,22.461,16.602,43.457,0.000,0.000,0.000
502627.070,8.789,44.922,19.531,14.160,37.109,0.000,0.000,0.000
502627.074,2.930,49.805,14.648,3.418,35.645,0.000,0.000,0.000
502627.078,5.371,49.805,15.625,0.000,26.855,0.000,0.000,0.000
502627.082,11.230,49.316,22.461,8.301,24.414,0.000,0.000,0.000
502627.086,8.789,45.410,22.949,16.602,24.414,0.000,0.000,0.000
502627.089,4.883,40.527,18.555,20.508,28.320,0.000,0.000,0.000
502627.093,8.301,41.504,11.719,9.766,34.668,0.000,0.000,0.000
502627.097,15.137,41.504,13.184,10.742,41.016,0.000,0.000,0.000
502627.101,16.602,39.551,20.020,13.672,39.551,0.000,0.000,0.000
502627.105,8.301,39.062,22.949,5.371,39.551,0.000,0.000,0.000
502627.109,5.371,41.016,23.438,5.371,44.434,0.000,0.000,0.000
502627.113,7.812,40.527,18.555,12.695,45.410,0.000,0.000,0.000
502627.117,9.766,35.645,8.301,16.602,43.945,0.000,0.000,0.000
502627.121,2.930,35.645,6.836,10.742,32.227,0.000,0.000,0.000
502627.125,1.465,37.598,10.742,2.930,25.879,0.000,0.000,0.000
502627.129,10.254,41.016,15.137,5.371,23.926,0.000,0.000,0.000
502627.132,10.254,42.480,25.391,11.719,26.367,0.000,0.000,0.000
502627.136,6.348,41.016,27.832,10.742,35.156,0.000,0.000,0.000
502627.140,7.324,43.945,22.461,8.789,41.504,0.000,0.000,0.000
502627.144,12.695,43.457,18.066,11.719,38.574,0.000,0.000,0.000
502627.148,9.766,31.738,21.484,20.508,40.527,0.000,0.000,0.000
502627.152,7.324,28.320,14.648,29.785,47.363,0.000,0.000,0.000
502627.156,0.977,32.715,1.953,14.160,33.203,0.000,0.000,0.000
502627.160,-0.977,31.738,0.977,0.488,32.227,0.000,0.000,0.000
502627.164,3.418,27.344,16.113,7.324,32.227,0.000,0.000,0.000
502627.168,4.883,30.762,31.250,10.254,29.297,0.000,0.000,0.000
502627.172,5.859,39.062,32.715,4.395,32.715,0.000,0.000,0.000
502627.175,14.160,43.457,27.344,1.465,29.785,0.000,0.000,0.000
502627.179,26.367,41.504,23.438,9.766,33.203,0.000,0.000,0.000
502627.183,34.668,35.645,21.973,13.184,26.367,0.000,0.000,0.000
502627.187,41.504,36.621,19.043,7.324,20.020,0.000,0.000,0.000
502627.191,55.664,39.551,19.531,1.465,31.738,0.000,0.000,0.000
502627.195,68.848,40.527,18.066,-0.977,34.180,0.000,0.000,0.000
502627.199,92.285,43.457,17.090,2.930,23.926,0.000,0.000,0.000
502627.203,125.977,41.504,16.113,1.953,24.902,0.000,0.000,0.000
502627.207,142.090,37.598,18.066,-0.977,28.320,0.000,0.000,0.000
502627.211,148.926,40.039,28.809,2.441,23.926,0.000,0.000,0.000
502627.214,146.484,38.574,27.832,3.418,24.902,0.000,0.000,0.000
502627.218,149.902,35.645,21.973,-4.395,22.461,0.000,0.000,0.000
502627.222,155.273,38.574,21.484,-3.906,13.184,0.000,0.000,0.000
502627.226,162.109,40.527,18.066,-1.465,18.066,0.000,0.000,0.000
502627.230,167.480,34.668,19.043,-7.324,17.090,0.000,0.000,0.000
502627.234,168.457,32.227,15.625,-1.465,18.555,0.000,0.000,0.000
502627.238,166.016,36.621,8.789,-5.859,26.855,0.000,0.000,0.000
502627.242,165.039,40.527,14.160,-9.277,28.320,0.000,0.000,0.000
502627.246,166.992,38.574,17.578,-3.906,26.367,0.000,0.000,0.000
502627.250,164.551,28.320,12.695,1.465,24.902,0.000,0.000,0.000
502627.254,162.109,29.785,14.648,1.953,27.344,0.000,0.000,0.000
502627.257,159.180,35.156,15.625,-9.277,17.090,0.000,0.000,0.000
502627.261,163.086,35.156,12.207,-5.371,20.996,0.000,0.000,0.000
502627.265,168.945,37.109,3.418,12.695,40.527,0.000,0.000,0.000
502627.269,167.969,40.039,1.465,20.996,38.086,0.000,0.000,0.000
502627.273,159.180,39.551,14.160,4.883,20.996,0.000,0.000,0.000
502627.277,151.855,40.039,15.625,5.859,16.602,0.000,0.000,0.000
502627.281,141.602,42.969,5.371,15.625,19.043,0.000,0.000,0.000
502627.285,134.766,41.504,6.348,12.695,19.043,0.000,0.000,0.000
502627.289,127.441,41.504,11.719,4.395,22.461,0.000,0.000,0.000
502627.293,118.164,34.180,10.254,-6.348,24.902,0.000,0.000,0.000
502627.297,96.191,30.762,8.301,-1.953,23.438,0.000,0.000,0.000
502627.300,60.059,35.645,6.348,2.441,19.531,0.000,0.000,0.000
502627.304,34.668,37.598,5.859,-0.488,20.020,0.000,0.000,0.000
502627.308,30.273,36.133,9.277,0.000,28.320,0.000,0.000,0.000
502627.312,29.785,30.762,5.371,3.418,22.949,0.000,0.000,0.000
502627.316,18.555,29.785,2.930,8.301,11.230,0.000,0.000,0.000
502627.320,2.930,32.227,12.207,8.301,15.625,0.000,0.000,0.000
502627.324,-16.113,30.273,8.301,3.418,16.602,0.000,0.000,0.000
502627.328,-25.879,28.320,-5.371,1.465,13.672,0.000,0.000,0.000
502627.332,-13.672,28.809,-5.859,1.953,11.230,0.000,0.000,0.000
502627.336,3.906,30.762,0.977,0.977,20.020,0.000,0.000,0.000
502627.339,5.371,30.273,6.836,-2.441,29.297,0.000,0.000,0.000
502627.343,9.277,29.297,8.789,-2.930,15.625,0.000,0.000,0.000
502627.347,19.043,35.645,2.441,0.488,14.648,0.000,0.000,0.000
502627.351,27.344,38.086,-3.418,14.160,24.414,0.000,0.000,0.000
502627.355,35.645,35.645,7.812,26.855,29.785,0.000,0.000,0.000
502627.359,40.527,34.180,14.648,20.508,28.809,0.000,0.000,0.000
502627.363,41.504,35.645,11.230,16.113,28.809,0.000,0.000,0.000
502627.367,34.668,36.133,12.695,26.855,36.621,0.000,0.000,0.000
502627.371,24.902,36.133,16.113,32.227,29.297,0.000,0.000,0.000
502627.375,17.578,36.621,15.625,21.973,28.809,0.000,0.000,0.000
502627.379,5.371,34.180,20.020,20.996,35.645,0.000,0.000,0.000
502627.382,-4.395,33.691,24.414,22.949,29.297,0.000,0.000,0.000
502627.386,-12.207,35.156,19.043,13.672,22.949,0.000,0.000,0.000
502627.390,-17.578,35.645,11.230,4.395,26.855,0.000,0.000,0.000
502627.394,-12.207,35.645,10.742,-2.441,33.203,0.000,0.000,0.000
502627.398,-10.742,39.551,2.441,0.977,31.738,0.000,0.000,0.000
502627.402,-10.742,41.992,-1.465,0.977,29.297,0.000,0.000,0.000
502627.406,-15.625,38.086,9.277,-7.812,25.879,0.000,0.000,0.000
502627.410,-17.090,38.574,12.695,-8.301,20.508,0.000,0.000,0.000
502627.414,-12.695,40.527,8.301,4.883,25.879,0.000,0.000,0.000
502627.418,-16.113,30.762,7.812,13.672,27.344,0.000,0.000,0.000
502627.422,-22.461,24.902,8.789,6.836,23.926,0.000,0.000,0.000
502627.425,-23.438,30.273,-2.930,7.324,32.227,0.000,0.000,0.000
502627.429,-20.996,30.762,-3.418,19.531,31.738,0.000,0.000,0.000
502627.433,-22.461,30.273,7.812,14.648,28.809,0.000,0.000,0.000
502627.437,-26.855,32.227,11.230,12.695,39.062,0.000,0.000,0.000
502627.441,-28.320,38.574,16.602,6.348,35.156,0.000,0.000,0.000
502627.445,-14.648,39.062,12.695,-0.977,23.926,0.000,0.000,0.000
502627.449,19.043,38.086,6.836,14.648,32.227,0.000,0.000,0.000
502627.453,33.691,38.086,10.254,12.207,33.203,0.000,0.000,0.000
502627.457,31.250,34.180,13.184,3.418,34.668,0.000,0.000,0.000
502627.461,40.039,35.645,-0.977,4.883,34.668,0.000,0.000,0.000
502627.464,47.363,37.598,-15.137,10.254,23.926,0.000,0.000,0.000
502627.468,48.828,36.621,-15.137,4.883,22.461,0.000,0.000,0.000
502627.472,51.758,33.203,-8.301,-1.953,27.344,0.000,0.000,0.000
502627.476,57.129,30.273,-0.977,6.348,26.855,0.000,0.000,0.000
502627.480,64.941,31.738,-3.906,12.207,22.949,0.000,0.000,0.000
502627.484,72.754,29.297,-4.883,20.020,31.738,0.000,0.000,0.000
502627.488,64.941,24.414,-7.324,15.625,35.156,0.000,0.000,0.000
502627.492,53.223,21.484,-8.789,-6.348,24.414,0.000,0.000,0.000
502627.496,53.223,21.484,-1.953,-0.977,16.113,0.000,0.000,0.000
502627.500,56.641,21.484,-0.488,10.742,25.879,0.000,0.000,0.000
502627.504,54.688,20.996,-13.672,3.906,32.227,0.000,0.000,0.000
502627.507,49.805,17.090,-25.391,-0.977,21.973,0.000,0.000,0.000
502627.511,49.316,6.836,-14.648,-4.395,15.625,0.000,0.000,0.000
502627.515,47.363,12.695,2.441,5.859,10.742,0.000,0.000,0.000
502627.519,28.809,23.926,7.812,13.672,14.160,0.000,0.000,0.000
502627.523,12.695,28.320,8.789,-2.441,18.555,0.000,0.000,0.000
502627.527,4.395,30.273,10.254,-0.488,22.461,0.000,0.000,0.000
502627.531,-6.348,25.391,7.812,1.953,26.855,0.000,0.000,0.000
502627.535,-2.930,24.902,3.906,14.648,28.809,0.000,0.000,0.000
502627.539,-0.977,25.391,1.465,18.555,26.855,0.000,0.000,0.000
502627.543,-3.418,26.855,-1.465,8.789,37.109,0.000,0.000,0.000
502627.546,0.977,27.832,-1.953,16.113,40.527,0.000,0.000,0.000
502627.550,7.812,25.879,1.465,23.926,28.809,0.000,0.000,0.000
502627.554,10.742,25.391,2.930,29.297,24.414,0.000,0.000,0.000
502627.558,8.789,23.926,-2.441,19.531,21.973,0.000,0.000,0.000
502627.562,6.836,23.926,-6.836,11.719,39.551,0.000,0.000,0.000
502627.566,4.883,30.273,-1.953,12.695,38.574,0.000,0.000,0.000
502627.570,-3.418,32.227,2.441,3.906,16.602,0.000,0.000,0.000
502627.574,-11.719,34.180,11.230,-1.465,11.230,0.000,0.000,0.000
502627.578,-9.766,33.203,10.254,1.953,7.324,0.000,0.000,0.000
502627.582,-5.859,24.414,7.324,5.859,7.324,0.000,0.000,0.000
502627.586,-0.488,27.832,14.160,5.859,7.812,0.000,0.000,0.000
502627.589,-5.859,32.715,20.508,-2.930,14.160,0.000,0.000,0.000
502627.593,-11.719,28.809,21.484,-8.301,20.020,0.000,0.000,0.000
502627.597,-5.859,32.227,18.555,-1.953,20.020,0.000,0.000,0.000
502627.601,-5.371,36.621,15.137,4.883,13.184,0.000,0.000,0.000
502627.605,-6.348,35.156,12.207,3.418,7.812,0.000,0.000,0.000
502627.609,2.441,36.621,6.836,-0.977,26.855,0.000,0.000,0.000
502627.613,10.742,34.668,9.277,2.441,31.738,0.000,0.000,0.000
502627.617,15.137,36.621,14.648,11.230,28.809,0.000,0.000,0.000
502627.621,12.695,41.992,14.648,9.766,33.203,0.000,0.000,0.000
502627.625,3.906,40.039,14.648,14.160,32.715,0.000,0.000,0.000
502627.629,4.883,39.062,16.602,14.648,28.320,0.000,0.000,0.000
502627.632,6.836,39.551,17.578,14.160,25.391,0.000,0.000,0.000
502627.636,3.906,34.668,15.625,7.812,19.531,0.000,0.000,0.000
502627.640,-3.418,32.715,20.020,-1.465,18.066,0.000,0.000,0.000
502627.644,5.371,38.086,26.367,-1.953,21.973,0.000,0.000,0.000
502627.648,16.113,35.645,20.508,9.277,22.949,0.000,0.000,0.000
502627.652,14.648,30.762,9.766,3.418,28.320,0.000,0.000,0.000
502627.656,16.113,32.227,10.254,-9.277,32.227,0.000,0.000,0.000
502627.660,21.484,30.762,11.719,-2.930,36.621,0.000,0.000,0.000
502627.664,23.926,26.367,15.625,2.930,23.438,0.000,0.000,0.000
502627.668,22.461,26.367,22.949,5.371,13.184,0.000,0.000,0.000
502627.671,18.555,26.855,20.508,-7.324,16.113,0.000,0.000,0.000
502627.675,20.996,29.297,15.137,-13.184,20.508,0.000,0.000,0.000
502627.679,27.832,26.367,14.160,-2.441,27.832,0.000,0.000,0.000
502627.683,27.344,22.949,4.883,6.348,23.926,0.000,0.000,0.000
502627.687,17.578,28.809,-9.277,5.859,27.832,0.000,0.000,0.000
502627.691,2.441,29.297,-4.883,-3.418,39.062,0.000,0.000,0.000
502627.695,1.953,27.832,16.113,-6.348,35.645,0.000,0.000,0.000
502627.699,-5.371,33.691,34.180,0.488,32.715,0.000,0.000,0.000
502627.703,-20.508,32.715,34.668,-5.859,37.598,0.000,0.000,0.000
502627.707,-22.949,29.785,25.391,-12.207,40.039,0.000,0.000,0.000
502627.711,-20.508,27.344,21.973,-5.859,40.039,0.000,0.000,0.000
502627.714,-16.113,24.414,21.484,8.301,38.574,0.000,0.000,0.000
502627.718,-12.695,28.320,19.043,7.324,34.668,0.000,0.000,0.000
502627.722,-15.137,35.156,12.207,-3.906,30.762,0.000,0.000,0.000
502627.726,-12.695,36.621,11.230,-9.766,34.180,0.000,0.000,0.000
502627.730,-9.766,36.621,15.137,-2.930,33.203,0.000,0.000,0.000
502627.734,-7.324,38.086,12.695,6.348,27.832,0.000,0.000,0.000
502627.738,-11.230,40.527,12.695,4.395,27.832,0.000,0.000,0.000
502627.742,-19.531,40.039,18.066,0.000,28.809,0.000,0.000,0.000
502627.746,-18.066,41.504,16.602,6.836,30.273,0.000,0.000,0.000
502627.750,-18.555,40.039,16.113,-2.441,40.527,0.000,0.000,0.000
502627.754,-22.461,35.156,20.996,-3.906,39.551,0.000,0.000,0.000
502627.757,-30.273,34.180,23.926,6.348,34.668,0.000,0.000,0.000
502627.761,-45.898,32.715,23.438,0.488,31.250,0.000,0.000,0.000
502627.765,-50.781,33.203,20.020,0.000,32.715,0.000,0.000,0.000
502627.769,-46.875,35.645,16.602,-2.441,34.668,0.000,0.000,0.000
502627.773,-43.457,35.645,-0.977,4.883,33.691,0.000,0.000,0.000
502627.777,-37.109,32.715,-13.672,6.348,33.203,0.000,0.000,0.000
502627.781,-32.715,31.738,5.371,1.953,32.227,0.000,0.000,0.000
502627.785,-32.227,31.738,23.926,4.395,25.391,0.000,0.000,0.000
502627.789,-36.621,29.785,23.438,2.441,22.461,0.000,0.000,0.000
502627.793,-32.715,31.250,20.020,0.000,31.250,0.000,0.000,0.000
502627.796,-26.855,34.180,19.531,-0.977,15.625,0.000,0.000,0.000
502627.800,-24.414,36.133,22.949,0.488,9.766,0.000,0.000,0.000
502627.804,-26.367,36.133,25.391,-1.953,18.066,0.000,0.000,0.000
502627.808,-31.738,35.156,24.414,-8.301,18.066,0.000,0.000,0.000
502627.812,-31.250,31.738,20.020,-6.348,23.926,0.000,0.000,0.000
502627.816,-28.320,28.320,16.113,-0.488,20.020,0.000,0.000,0.000
502627.820,-26.855,30.273,17.090,-3.418,17.090,0.000,0.000,0.000
502627.824,-30.762,36.133,18.555,-8.301,12.207,0.000,0.000,0.000
502627.828,-36.621,38.574,17.090,-2.441,15.625,0.000,0.000,0.000
502627.832,-36.133,33.203,9.766,6.348,30.273,0.000,0.000,0.000
502627.836,-30.273,29.785,15.625,2.441,29.785,0.000,0.000,0.000
502627.839,-32.227,35.645,25.391,1.465,30.762,0.000,0.000,0.000
502627.843,-28.809,34.668,11.230,11.230,36.621,0.000,0.000,0.000
502627.847,-14.648,32.227,1.953,13.184,43.457,0.000,0.000,0.000
502627.851,-7.324,33.203,20.020,11.719,32.227,0.000,0.000,0.000
502627.855,-14.648,31.250,36.133,0.977,19.043,0.000,0.000,0.000
502627.859,-18.555,27.832,40.039,-7.812,31.250,0.000,0.000,0.000
502627.863,-11.230,29.785,36.621,2.441,41.992,0.000,0.000,0.000
502627.867,-11.230,32.227,31.250,2.930,36.133,0.000,0.000,0.000
502627.871,-13.184,31.250,29.297,1.465,29.297,0.000,0.000,0.000
502627.875,-6.836,32.227,28.809,5.859,30.762,0.000,0.000,0.000
502627.879,-1.465,33.203,24.414,-0.977,27.344,0.000,0.000,0.000
502627.882,0.000,29.297,19.043,0.488,23.438,0.000,0.000,0.000
502627.886,3.906,28.809,12.695,-2.930,24.902,0.000,0.000,0.000
502627.890,4.883,32.227,11.719,-13.672,27.832,0.000,0.000,0.000
502627.894,9.277,35.156,13.184,-12.695,29.785,0.000,0.000,0.000
502627.898,12.207,35.156,16.113,-0.488,29.297,0.000,0.000,0.000
502627.902,13.672,34.180,18.555,0.000,29.785,0.000,0.000,0.000
502627.906,12.207,33.203,11.230,-8.789,33.203,0.000,0.000,0.000
502627.910,17.090,36.133,13.184,-4.883,40.527,0.000,0.000,0.000
502627.914,16.113,37.109,24.414,1.953,43.457,0.000,0.000,0.000
502627.918,12.695,33.691,27.344,5.371,40.039,0.000,0.000,0.000
502627.921,10.254,34.180,25.879,3.418,39.551,0.000,0.000,0.000
502627.925,9.277,36.621,24.414,-5.371,41.504,0.000,0.000,0.000
502627.929,8.301,34.180,17.578,-0.488,25.879,0.000,0.000,0.000
502627.933,9.766,32.227,18.555,3.906,19.531,0.000,0.000,0.000
502627.937,17.090,28.809,26.367,4.883,25.391,0.000,0.000,0.000
502627.941,14.648,27.344,22.949,12.695,18.555,0.000,0.000,0.000
502627.945,20.020,30.273,20.996,9.277,29.297,0.000,0.000,0.000
502627.949,24.902,30.762,21.484,-0.488,33.691,0.000,0.000,0.000
502627.953,17.090,29.297,21.973,-3.906,17.090,0.000,0.000,0.000
502627.957,12.207,29.297,21.973,-3.418,28.320,0.000,0.000,0.000
502627.961,9.766,26.855,20.020,-6.348,39.551,0.000,0.000,0.000
502627.964,9.277,32.227,14.160,-5.371,27.344,0.000,0.000,0.000
502627.968,8.301,40.039,11.719,0.000,28.809,0.000,0.000,0.000
502627.972,-0.488,41.992,11.719,-12.207,25.879,0.000,0.000,0.000
502627.976,-7.812,41.504,10.254,-20.020,16.113,0.000,0.000,0.000
502627.980,-3.906,37.109,9.277,-10.254,18.066,0.000,0.000,0.000
502627.984,-4.883,30.273,10.742,-7.324,20.020,0.000,0.000,0.000
502627.988,-11.719,28.809,8.789,-7.812,12.207,0.000,0.000,0.000
502627.992,-2.441,29.297,6.836,-4.395,15.137,0.000,0.000,0.000
502627.996,15.625,31.250,9.277,-0.977,21.484,0.000,0.000,0.000
502628.000,41.016,29.785,20.020,8.789,28.809,0.000,0.000,0.000
502628.004,58.594,34.668,19.531,12.207,34.180,0.000,0.000,0.000
502628.007,60.547,36.133,6.348,6.348,33.203,0.000,0.000,0.000
502628.011,52.734,33.691,8.789,4.883,32.227,0.000,0.000,0.000
502628.015,33.691,36.621,20.996,9.277,31.738,0.000,0.000,0.000
502628.019,29.297,31.738,29.785,2.441,37.109,0.000,0.000,0.000
502628.023,21.973,26.367,28.320,-1.953,27.344,0.000,0.000,0.000
502628.027,14.160,26.367,23.438,3.906,18.066,0.000,0.000,0.000
502628.031,14.160,31.250,20.508,12.695,20.508,0.000,0.000,0.000
502628.035,9.277,35.645,20.020,16.113,34.668,0.000,0.000,0.000
502628.039,11.719,35.156,11.230,9.277,41.016,0.000,0.000,0.000
502628.043,13.184,38.086,3.418,9.766,29.785,0.000,0.000,0.000
502628.046,12.207,41.504,12.695,16.113,33.203,0.000,0.000,0.000
502628.050,15.625,41.016,20.508,22.461,42.480,0.000,0.000,0.000
502628.054,15.137,38.574,29.297,20.996,30.762,0.000,0.000,0.000
502628.058,13.184,33.203,40.039,10.254,36.133,0.000,0.000,0.000
502628.062,19.043,32.227,46.387,0.000,40.039,0.000,0.000,0.000
502628.066,15.137,34.180,52.734,5.859,25.391,0.000,0.000,0.000
502628.070,13.184,38.574,58.105,8.789,28.809,0.000,0.000,0.000
502628.074,10.742,36.133,60.059,0.977,23.926,0.000,0.000,0.000
502628.078,10.254,31.250,57.617,-3.418,21.973,0.000,0.000,0.000
502628.082,9.277,32.715,54.199,9.277,29.297,0.000,0.000,0.000
502628.086,10.254,28.320,46.387,13.672,34.180,0.000,0.000,0.000
502628.089,17.578,29.297,33.203,3.906,32.227,0.000,0.000,0.000
502628.093,15.625,35.156,29.785,-1.465,29.785,0.000,0.000,0.000
502628.097,3.418,31.250,38.574,5.371,41.016,0.000,0.000,0.000
502628.101,-0.977,27.344,42.480,13.672,36.133,0.000,0.000,0.000
502628.105,8.301,26.855,41.504,6.348,33.203,0.000,0.000,0.000
502628.109,21.973,32.227,33.203,0.000,47.363,0.000,0.000,0.000
502628.113,22.949,31.250,21.484,5.371,36.621,0.000,0.000,0.000
502628.117,23.926,27.832,22.949,10.742,23.438,0.000,0.000,0.000
502628.121,23.926,34.180,26.855,7.812,25.879,0.000,0.000,0.000
502628.125,13.672,33.691,22.949,4.395,20.020,0.000,0.000,0.000
502628.129,9.277,31.250,25.879,4.883,17.578,0.000,0.000,0.000
502628.132,8.301,33.691,35.156,7.812,21.484,0.000,0.000,0.000
502628.136,2.441,37.598,24.902,5.371,23.926,0.000,0.000,0.000
502628.140,-8.301,34.668,17.090,-2.441,23.438,0.000,0.000,0.000
502628.144,-8.789,30.273,25.391,-6.348,31.738,0.000,0.000,0.000
502628.148,-9.277,32.715,27.344,-4.395,32.715,0.000,0.000,0.000
502628.152,-13.672,33.203,22.949,6.836,29.297,0.000,0.000,0.000
502628.156,-20.020,33.203,20.020,6.836,26.367,0.000,0.000,0.000
502628.160,-24.902,32.227,24.902,-9.277,22.461,0.000,0.000,0.000
502628.164,-18.555,31.250,30.762,-1.465,20.020,0.000,0.000,0.000
502628.168,-7.812,25.391,34.180,7.812,23.926,0.000,0.000,0.000
502628.171,-11.719,23.438,32.715,0.977,26.367,0.000,0.000,0.000
502628.175,-17.090,29.785,27.344,-6.348,28.320,0.000,0.000,0.000
502628.179,-6.836,31.250,20.996,-10.742,43.457,0.000,0.000,0.000
502628.183,-0.488,32.227,11.719,-8.301,35.645,0.000,0.000,0.000
502628.187,3.418,33.691,14.160,-9.766,18.066,0.000,0.000,0.000
502628.191,0.000,28.809,26.855,-10.742,24.414,0.000,0.000,0.000
502628.195,-5.371,29.785,26.855,-2.441,31.250,0.000,0.000,0.000
502628.199,1.953,35.645,18.555,8.301,35.645,0.000,0.000,0.000
502628.203,0.000,33.691,23.438,8.301,33.691,0.000,0.000,0.000
502628.207,-2.930,33.203,33.691,8.789,30.273,0.000,0.000,0.000
502628.211,0.488,34.180,31.250,10.742,37.109,0.000,0.000,0.000
502628.214,-0.488,33.203,25.879,7.324,42.480,0.000,0.000,0.000
502628.218,1.465,35.156,26.367,6.836,45.898,0.000,0.000,0.000
502628.222,2.930,35.156,27.832,10.742,45.410,0.000,0.000,0.000
502628.226,6.348,36.133,20.996,10.254,36.133,0.000,0.000,0.000
502628.230,9.277,36.621,14.160,6.836,27.344,0.000,0.000,0.000
502628.234,9.766,40.527,18.066,8.789,34.180,0.000,0.000,0.000
502628.238,1.465,40.527,25.391,4.395,33.691,0.000,0.000,0.000
502628.242,-3.906,37.598,27.344,0.977,27.832,0.000,0.000,0.000
502628.246,3.906,34.668,23.438,4.395,33.203,0.000,0.000,0.000
502628.250,10.254,33.203,21.973,0.977,29.297,0.000,0.000,0.000
502628.253,9.766,34.668,28.809,1.953,24.902,0.000,0.000,0.000
502628.257,7.324,35.156,31.738,-0.977,28.320,0.000,0.000,0.000
502628.261,12.207,36.133,25.879,-8.301,32.227,0.000,0.000,0.000
502628.265,15.625,35.645,20.508,-0.977,32.227,0.000,0.000,0.000
502628.269,11.230,36.621,17.578,4.883,20.996,0.000,0.000,0.000
502628.273,4.883,33.203,15.625,0.000,28.320,0.000,0.000,0.000
502628.277,5.859,33.203,6.348,-7.812,36.133,0.000,0.000,0.000
502628.281,12.207,37.109,3.418,-1.953,32.227,0.000,0.000,0.000
502628.285,14.160,42.480,14.160,2.930,33.203,0.000,0.000,0.000
502628.289,3.906,42.480,22.949,-9.277,25.879,0.000,0.000,0.000
502628.293,2.441,36.133,26.367,-8.789,37.598,0.000,0.000,0.000
502628.296,7.324,34.668,25.879,10.254,35.156,2.000,1.000,90.000
502628.300,4.395,35.645,26.367,13.672,25.391,0.000,0.000,0.000
502628.304,-1.953,34.668,27.344,9.766,39.551,0.000,0.000,0.000
502628.308,-7.812,33.203,25.879,9.766,43.457,0.000,0.000,0.000
502628.312,-3.906,32.715,21.973,6.836,37.109,0.000,0.000,0.000
502628.316,1.465,35.156,21.484,13.184,40.039,0.000,0.000,0.000
502628.320,2.441,35.645,18.555,16.602,43.457,0.000,0.000,0.000
502628.324,1.953,38.086,15.137,12.207,41.504,0.000,0.000,0.000
502628.328,6.836,40.527,20.020,6.348,50.293,0.000,0.000,0.000
502628.332,12.207,37.598,13.184,11.719,41.504,0.000,0.000,0.000
502628.336,11.230,33.203,18.066,26.367,30.273,0.000,0.000,0.000
