timestamps,TP9,AF7,AF8,TP10,Right AUX,Frequency,Contrast,Orientation
489017.440,116.211,33.203,25.879,45.410,7.812,0.000,0.000,0.000
489017.444,58.594,37.109,33.203,11.719,10.254,0.000,0.000,0.000
489017.448,-57.617,35.156,28.809,-14.160,-6.348,0.000,0.000,0.000
489017.452,-18.555,25.391,25.879,0.977,-11.719,0.000,0.000,0.000
489017.456,92.285,26.367,25.879,34.668,1.465,0.000,0.000,0.000
489017.460,78.613,31.738,25.391,27.344,4.883,0.000,0.000,0.000
489017.464,-44.922,34.180,27.832,-2.441,0.000,0.000,0.000,0.000
489017.468,-47.852,39.062,27.344,0.000,-3.418,0.000,0.000,0.000
489017.472,67.871,38.574,24.902,30.273,0.000,0.000,0.000,0.000
489017.476,107.910,33.691,24.414,36.621,15.137,0.000,0.000,0.000
489017.480,-10.254,34.668,26.367,5.371,17.090,0.000,0.000,0.000
489017.483,-63.477,38.086,33.203,-0.977,8.301,0.000,0.000,0.000
489017.487,38.086,35.645,27.832,27.344,2.930,0.000,0.000,0.000
489017.491,113.770,29.297,23.926,43.945,4.395,0.000,0.000,0.000
489017.495,27.832,32.227,30.762,20.020,16.602,0.000,0.000,0.000
489017.499,-66.406,36.621,31.250,2.441,23.926,0.000,0.000,0.000
489017.503,1.953,35.645,25.391,22.461,7.812,0.000,0.000,0.000
489017.507,104.492,35.645,24.902,40.527,-1.465,0.000,0.000,0.000
489017.511,54.688,40.527,31.250,20.508,5.859,0.000,0.000,0.000
489017.515,-61.035,36.133,28.809,-3.906,4.395,0.000,0.000,0.000
489017.519,-24.414,27.832,22.949,11.230,4.883,0.000,0.000,0.000
489017.522,84.473,27.344,25.391,33.203,1.953,0.000,0.000,0.000
489017.526,82.520,33.691,27.344,27.832,-0.977,0.000,0.000,0.000
489017.530,-28.320,33.691,26.855,12.207,7.812,0.000,0.000,0.000
489017.534,-39.062,29.297,26.855,26.855,9.766,0.000,0.000,0.000
489017.538,67.383,33.691,27.344,42.969,3.906,0.000,0.000,0.000
489017.542,114.746,39.062,25.879,36.133,6.836,0.000,0.000,0.000
489017.546,6.836,37.598,25.879,13.184,6.836,0.000,0.000,0.000
489017.550,-62.012,35.645,25.879,2.930,-3.906,0.000,0.000,0.000
489017.554,23.438,35.645,20.996,22.949,-9.277,0.000,0.000,0.000
489017.558,103.516,32.715,17.090,30.762,-8.301,0.000,0.000,0.000
489017.562,34.668,36.133,20.020,11.230,-1.465,0.000,0.000,0.000
489017.565,-61.035,34.180,23.438,-6.836,0.000,0.000,0.000,0.000
489017.569,0.000,30.762,22.949,7.812,-2.441,0.000,0.000,0.000
489017.573,104.492,32.227,22.461,30.762,-2.930,0.000,0.000,0.000
489017.577,67.871,28.320,26.367,15.625,-4.395,0.000,0.000,0.000
489017.581,-48.828,29.785,27.344,-9.277,0.488,0.000,0.000,0.000
489017.585,-31.250,27.832,23.926,3.418,1.465,0.000,0.000,0.000
489017.589,82.031,25.879,23.438,40.527,5.371,0.000,0.000,0.000
489017.593,97.656,36.133,22.461,41.992,18.066,0.000,0.000,0.000
489017.597,-24.902,37.109,20.508,5.371,14.648,0.000,0.000,0.000
489017.601,-46.875,41.504,22.461,6.836,7.812,0.000,0.000,0.000
489017.604,62.988,37.109,22.949,35.156,20.996,0.000,0.000,0.000
489017.608,106.445,29.297,18.555,42.480,24.414,0.000,0.000,0.000
489017.612,5.371,37.109,20.020,15.625,8.301,0.000,0.000,0.000
489017.616,-69.336,44.434,25.391,-10.742,-2.441,0.000,0.000,0.000
489017.620,10.742,36.621,22.949,6.348,-2.441,0.000,0.000,0.000
489017.624,108.887,33.691,21.484,33.691,-2.441,0.000,0.000,0.000
489017.628,38.086,34.668,25.391,16.113,-3.906,0.000,0.000,0.000
489017.632,-78.613,29.785,24.414,-10.254,-0.488,0.000,0.000,0.000
489017.636,-23.926,31.250,22.949,5.859,12.207,0.000,0.000,0.000
489017.640,92.285,38.574,28.320,35.645,4.883,0.000,0.000,0.000
489017.644,67.871,36.133,27.344,26.367,-15.137,0.000,0.000,0.000
489017.647,-56.641,29.297,21.484,-5.859,-21.484,0.000,0.000,0.000
489017.651,-44.922,28.809,21.484,5.859,-18.555,0.000,0.000,0.000
489017.655,83.008,34.668,26.855,44.434,-12.207,0.000,0.000,0.000
489017.659,107.910,41.016,27.832,42.480,-11.230,0.000,0.000,0.000
489017.663,-21.973,32.227,23.926,1.953,-7.812,0.000,0.000,0.000
489017.667,-56.641,30.762,27.344,3.418,3.906,0.000,0.000,0.000
489017.671,46.875,36.133,25.879,31.250,4.395,0.000,0.000,0.000
489017.675,107.422,31.250,23.926,36.621,0.488,0.000,0.000,0.000
489017.679,16.602,28.320,22.949,14.160,15.625,0.000,0.000,0.000
489017.683,-61.523,32.227,20.020,0.488,25.879,0.000,0.000,0.000
489017.687,20.020,33.691,29.297,30.273,22.461,0.000,0.000,0.000
489017.690,125.977,32.227,30.762,62.012,22.949,0.000,0.000,0.000
489017.694,73.730,40.039,30.273,42.480,23.926,0.000,0.000,0.000
489017.698,-39.551,42.480,33.203,9.277,24.902,0.000,0.000,0.000
489017.702,-1.953,37.109,31.250,17.578,25.391,0.000,0.000,0.000
489017.706,105.957,36.133,31.250,40.039,13.672,0.000,0.000,0.000
489017.710,101.074,34.180,28.320,34.180,2.441,0.000,0.000,0.000
489017.714,-22.949,34.180,26.367,7.324,0.000,0.000,0.000,0.000
489017.718,-30.762,33.203,27.832,9.766,0.977,0.000,0.000,0.000
489017.722,82.520,35.645,27.344,35.645,2.930,0.000,0.000,0.000
489017.726,118.164,37.109,28.809,41.504,-0.488,0.000,0.000,0.000
489017.729,9.277,38.086,31.250,15.625,4.395,0.000,0.000,0.000
489017.733,-44.434,39.551,32.227,5.859,9.766,0.000,0.000,0.000
489017.737,48.828,40.527,30.762,31.250,11.719,0.000,0.000,0.000
489017.741,118.652,42.969,33.203,45.898,13.672,0.000,0.000,0.000
489017.745,32.227,34.180,29.297,17.090,6.348,0.000,0.000,0.000
489017.749,-63.965,29.297,22.461,-3.906,0.000,0.000,0.000,0.000
489017.753,-0.977,29.297,27.832,19.043,-5.371,0.000,0.000,0.000
489017.757,96.680,27.832,29.785,46.875,-6.348,0.000,0.000,0.000
489017.761,51.758,30.273,28.809,36.133,4.883,0.000,0.000,0.000
489017.765,-64.453,26.855,34.180,12.695,8.301,0.000,0.000,0.000
489017.769,-40.039,24.902,34.668,20.996,8.789,0.000,0.000,0.000
489017.772,75.684,26.367,29.297,40.527,12.207,0.000,0.000,0.000
489017.776,91.797,32.227,32.227,43.945,16.602,0.000,0.000,0.000
489017.780,-22.461,36.621,34.180,19.043,15.137,0.000,0.000,0.000
489017.784,-41.992,34.180,26.367,8.301,16.113,0.000,0.000,0.000
489017.788,76.660,30.273,23.926,38.574,18.555,0.000,0.000,0.000
489017.792,133.301,30.273,26.855,49.805,11.230,0.000,0.000,0.000
489017.796,27.344,36.621,25.391,19.531,17.090,0.000,0.000,0.000
489017.800,-36.133,43.945,26.367,8.301,19.531,0.000,0.000,0.000
489017.804,50.293,43.945,26.855,33.203,6.348,0.000,0.000,0.000
489017.808,127.441,37.598,23.926,44.434,2.441,0.000,0.000,0.000
489017.811,53.223,35.645,25.879,19.043,7.324,0.000,0.000,0.000
489017.815,-47.363,34.668,24.902,-0.977,20.020,0.000,0.000,0.000
489017.819,10.742,40.527,24.414,14.160,8.301,0.000,0.000,0.000
489017.823,116.211,38.574,25.391,30.273,-11.719,0.000,0.000,0.000
489017.827,79.590,25.879,25.391,22.461,-10.254,0.000,0.000,0.000
489017.831,-42.969,26.367,26.855,3.906,-10.254,0.000,0.000,0.000
489017.835,-39.062,30.762,25.391,4.395,-12.207,0.000,0.000,0.000
489017.839,68.848,30.762,25.879,23.926,-10.742,0.000,0.000,0.000
489017.843,87.402,33.203,23.926,25.879,-10.254,0.000,0.000,0.000
489017.847,-34.180,31.250,25.391,1.465,0.488,0.000,0.000,0.000
489017.851,-67.383,26.367,27.344,0.488,3.906,0.000,0.000,0.000
489017.854,34.668,34.180,25.879,33.691,-0.977,0.000,0.000,0.000
489017.858,95.215,40.527,25.391,50.293,6.348,0.000,0.000,0.000
489017.862,2.441,34.668,27.832,32.715,16.113,0.000,0.000,0.000
489017.866,-72.266,30.762,29.297,12.695,15.137,0.000,0.000,0.000
489017.870,13.184,32.227,29.785,27.344,13.184,0.000,0.000,0.000
489017.874,104.980,30.762,30.273,51.758,23.438,0.000,0.000,0.000
489017.878,46.387,34.180,32.227,31.250,21.484,0.000,0.000,0.000
489017.882,-60.059,35.645,31.738,6.348,18.555,0.000,0.000,0.000
489017.886,-14.648,34.180,30.762,21.484,23.926,0.000,0.000,0.000
489017.890,95.703,37.598,25.391,41.016,12.207,0.000,0.000,0.000
489017.894,75.684,32.715,21.973,29.297,11.719,0.000,0.000,0.000
489017.897,-45.410,32.227,26.367,-5.859,15.137,0.000,0.000,0.000
489017.901,-43.457,37.109,21.973,-8.789,6.836,0.000,0.000,0.000
489017.905,76.172,39.062,17.578,23.926,6.836,0.000,0.000,0.000
489017.909,111.328,37.598,19.531,33.203,2.930,0.000,0.000,0.000
489017.913,-2.930,41.016,22.949,5.859,-0.488,0.000,0.000,0.000
489017.917,-49.316,38.086,23.438,1.953,20.996,0.000,0.000,0.000
489017.921,47.852,32.715,22.949,35.645,33.203,0.000,0.000,0.000
489017.925,113.281,38.086,22.949,49.316,-6.348,0.000,0.000,0.000
489017.929,19.531,27.344,17.578,16.602,-28.320,0.000,0.000,0.000
489017.933,-68.848,21.484,20.508,-0.977,-23.438,0.000,0.000,0.000
489017.936,10.254,28.809,25.391,24.414,-17.578,0.000,0.000,0.000
489017.940,107.422,26.855,21.973,33.691,-14.648,0.000,0.000,0.000
489017.944,48.828,25.879,20.020,1.465,-24.414,0.000,0.000,0.000
489017.948,-62.500,25.879,27.344,-20.508,-18.066,0.000,0.000,0.000
489017.952,-27.344,24.414,31.250,-5.859,-13.184,0.000,0.000,0.000
489017.956,85.938,29.785,27.344,20.508,-13.184,0.000,0.000,0.000
489017.960,77.637,27.832,25.391,18.066,-8.789,0.000,0.000,0.000
489017.964,-45.898,23.438,22.949,-7.324,-7.324,0.000,0.000,0.000
489017.968,-56.152,27.344,21.973,-4.883,-3.906,0.000,0.000,0.000
489017.972,54.199,21.484,23.438,20.020,-1.953,0.000,0.000,0.000
489017.976,102.051,20.996,28.320,34.668,4.883,0.000,0.000,0.000
489017.979,-4.395,27.344,27.344,7.324,9.766,0.000,0.000,0.000
489017.983,-65.918,26.367,21.973,-6.348,11.719,0.000,0.000,0.000
489017.987,32.715,31.250,22.949,26.367,9.277,0.000,0.000,0.000
489017.991,116.699,35.645,25.879,41.992,4.883,0.000,0.000,0.000
489017.995,35.645,32.715,22.949,20.020,14.160,0.000,0.000,0.000
489017.999,-58.594,33.203,21.484,7.812,24.414,0.000,0.000,0.000
489018.003,4.883,36.133,22.949,29.297,22.949,0.000,0.000,0.000
489018.007,119.629,41.016,27.832,59.570,26.855,0.000,0.000,0.000
489018.011,89.844,42.969,30.273,56.641,24.414,0.000,0.000,0.000
489018.015,-31.250,36.621,22.949,16.113,18.066,0.000,0.000,0.000
489018.018,-11.719,29.785,24.414,16.113,27.832,0.000,0.000,0.000
489018.022,98.633,29.297,34.180,50.781,32.715,0.000,0.000,0.000
489018.026,96.191,30.273,32.227,41.504,14.160,0.000,0.000,0.000
489018.030,-29.785,30.273,25.879,3.418,-3.418,0.000,0.000,0.000
489018.034,-60.547,31.250,29.785,-4.883,-15.137,0.000,0.000,0.000
489018.038,41.504,34.668,30.762,19.531,-17.578,0.000,0.000,0.000
489018.042,96.191,32.227,25.879,26.367,-11.719,0.000,0.000,0.000
489018.046,-2.930,35.645,30.273,-4.883,-25.879,0.000,0.000,0.000
489018.050,-73.730,42.480,27.344,-20.508,-35.645,0.000,0.000,0.000
489018.054,3.418,31.250,21.484,-2.930,-37.598,0.000,0.000,0.000
489018.058,91.797,31.250,20.508,21.973,-35.156,0.000,0.000,0.000
489018.061,31.738,39.551,18.555,8.301,-28.320,0.000,0.000,0.000
489018.065,-71.289,34.668,19.043,-18.555,-22.461,0.000,0.000,0.000
489018.069,-21.973,27.832,17.578,-4.395,-15.137,0.000,0.000,0.000
489018.073,84.473,27.832,18.555,21.973,-6.348,0.000,0.000,0.000
489018.077,57.617,26.367,20.996,15.137,3.418,0.000,0.000,0.000
489018.081,-64.453,26.855,24.902,-13.184,-2.441,0.000,0.000,0.000
489018.085,-53.223,30.273,26.367,-4.883,-2.441,0.000,0.000,0.000
489018.089,64.453,30.762,19.531,26.855,5.859,0.000,0.000,0.000
489018.093,93.750,32.227,19.043,32.715,7.324,0.000,0.000,0.000
489018.097,-23.438,25.879,19.531,10.254,8.301,0.000,0.000,0.000
489018.100,-64.453,23.438,21.973,-1.953,5.371,0.000,0.000,0.000
489018.104,34.668,23.438,25.391,18.555,6.836,0.000,0.000,0.000
489018.108,95.703,20.996,29.785,40.039,8.301,0.000,0.000,0.000
489018.112,3.906,22.949,34.180,14.160,4.883,0.000,0.000,0.000
489018.116,-73.242,19.531,37.598,4.395,12.695,0.000,0.000,0.000
489018.120,9.766,19.531,40.039,31.738,24.414,0.000,0.000,0.000
489018.124,105.469,23.926,36.621,44.434,2.930,0.000,0.000,0.000
489018.128,51.270,29.297,36.621,34.180,-16.113,0.000,0.000,0.000
489018.132,-50.293,27.832,35.156,11.230,-7.812,0.000,0.000,0.000
489018.136,-13.184,18.555,28.809,15.625,-6.348,0.000,0.000,0.000
489018.140,93.750,20.996,28.320,43.945,-6.348,0.000,0.000,0.000
489018.143,83.008,21.973,31.738,37.109,0.977,0.000,0.000,0.000
489018.147,-37.598,24.414,35.156,7.324,12.695,0.000,0.000,0.000
489018.151,-31.250,32.715,34.668,13.184,14.160,0.000,0.000,0.000
489018.155,85.449,31.250,30.273,43.457,15.137,0.000,0.000,0.000
489018.159,117.188,24.414,25.879,43.945,14.160,0.000,0.000,0.000
489018.163,8.301,31.738,23.926,11.230,18.066,0.000,0.000,0.000
489018.167,-36.133,35.156,20.508,5.371,21.973,0.000,0.000,0.000
489018.171,60.059,32.227,16.602,31.738,18.555,0.000,0.000,0.000
489018.175,125.000,36.133,16.113,42.969,18.555,0.000,0.000,0.000
489018.179,29.297,32.715,19.531,14.648,14.160,0.000,0.000,0.000
489018.183,-62.988,30.762,16.602,-18.555,1.465,0.000,0.000,0.000
489018.186,5.859,35.156,15.137,-0.977,-3.418,0.000,0.000,0.000
489018.190,108.398,32.715,20.020,25.879,-0.977,0.000,0.000,0.000
489018.194,60.547,36.621,23.438,5.859,-3.906,0.000,0.000,0.000
489018.198,-63.965,39.551,21.973,-22.461,-7.812,0.000,0.000,0.000
489018.202,-32.227,38.574,21.484,-13.672,-8.789,0.000,0.000,0.000
489018.206,83.496,36.133,18.066,13.184,-13.672,0.000,0.000,0.000
489018.210,83.984,35.156,17.090,18.555,-9.766,0.000,0.000,0.000
489018.214,-36.133,37.598,21.484,-7.324,-3.418,0.000,0.000,0.000
489018.218,-53.223,42.480,21.484,-13.672,6.348,0.000,0.000,0.000
489018.222,58.594,39.062,20.996,22.949,-3.418,0.000,0.000,0.000
489018.225,102.539,37.109,22.461,33.691,-33.203,0.000,0.000,0.000
489018.229,-14.648,37.109,23.438,-5.859,-37.109,0.000,0.000,0.000
489018.233,-70.801,38.086,27.344,-20.020,-28.320,0.000,0.000,0.000
489018.237,23.438,35.645,29.785,6.836,-26.855,0.000,0.000,0.000
489018.241,93.262,32.227,21.973,24.902,-25.391,0.000,0.000,0.000
489018.245,17.090,35.156,21.484,4.883,-9.277,0.000,0.000,0.000
489018.249,-82.031,34.668,27.832,-15.625,-6.348,0.000,0.000,0.000
489018.253,-18.555,42.480,31.738,7.812,-14.648,0.000,0.000,0.000
489018.257,96.680,41.992,27.832,39.551,-16.113,0.000,0.000,0.000
489018.261,56.641,34.180,25.879,29.785,-17.090,0.000,0.000,0.000
489018.265,-61.035,40.527,29.297,-3.418,-11.719,0.000,0.000,0.000
489018.268,-37.598,36.133,25.391,-4.883,-6.836,0.000,0.000,0.000
489018.272,70.801,29.785,23.926,22.949,-13.672,0.000,0.000,0.000
489018.276,84.961,33.691,20.020,21.973,-19.531,0.000,0.000,0.000
489018.280,-32.715,30.762,19.043,-4.883,-13.184,0.000,0.000,0.000
489018.284,-56.152,35.645,22.461,-6.348,-11.719,0.000,0.000,0.000
489018.288,54.688,36.133,22.461,19.043,-12.695,0.000,0.000,0.000
489018.292,111.816,30.273,21.973,38.574,-3.906,0.000,0.000,0.000
489018.296,14.648,32.227,26.855,15.137,2.441,0.000,0.000,0.000
489018.300,-54.199,35.645,27.832,-4.883,-7.324,0.000,0.000,0.000
489018.304,31.250,37.109,23.438,24.902,-7.812,0.000,0.000,0.000
489018.307,120.117,39.062,23.926,43.945,0.000,0.000,0.000,0.000
489018.311,55.664,39.062,24.902,16.602,-0.488,0.000,0.000,0.000
489018.315,-51.270,32.715,26.367,-9.766,-4.883,0.000,0.000,0.000
489018.319,-9.766,33.691,22.949,0.000,-4.883,0.000,0.000,0.000
489018.323,103.027,40.527,20.508,26.367,1.465,0.000,0.000,0.000
489018.327,81.055,32.227,20.020,13.184,-8.789,0.000,0.000,0.000
489018.331,-41.016,29.785,21.973,-15.137,0.977,0.000,0.000,0.000
489018.335,-33.691,36.621,21.973,-3.418,15.625,0.000,0.000,0.000
489018.339,79.102,34.180,19.531,31.738,-7.812,0.000,0.000,0.000
489018.343,110.352,37.109,20.508,31.738,-7.324,0.000,0.000,0.000
489018.347,-3.906,42.480,20.996,-5.371,10.254,0.000,0.000,0.000
489018.350,-47.363,41.504,21.973,-9.766,9.766,0.000,0.000,0.000
489018.354,55.664,34.668,22.461,18.066,4.395,0.000,0.000,0.000
489018.358,116.699,27.832,23.438,36.621,1.465,0.000,0.000,0.000
489018.362,16.113,31.738,24.414,10.742,-5.371,0.000,0.000,0.000
489018.366,-65.430,33.691,26.367,-6.836,-1.953,0.000,0.000,0.000
489018.370,9.766,29.785,23.926,18.555,3.906,0.000,0.000,0.000
489018.374,98.633,26.855,19.531,33.691,-0.977,0.000,0.000,0.000
489018.378,43.945,31.738,19.531,10.742,-7.324,0.000,0.000,0.000
489018.382,-66.895,37.598,21.484,-11.719,-7.324,0.000,0.000,0.000
489018.386,-26.367,36.621,20.508,10.254,0.977,0.000,0.000,0.000
489018.390,92.773,37.598,20.020,41.992,15.625,0.000,0.000,0.000
489018.393,82.031,28.809,22.461,31.250,27.832,0.000,0.000,0.000
489018.397,-36.621,25.391,28.809,5.371,18.555,0.000,0.000,0.000
489018.401,-42.480,29.297,30.762,10.254,-1.465,0.000,0.000,0.000
489018.405,63.477,29.297,26.367,24.414,-2.441,0.000,0.000,0.000
489018.409,99.609,32.715,27.344,27.832,1.465,0.000,0.000,0.000
489018.413,-12.695,35.156,30.762,3.418,6.348,0.000,0.000,0.000
489018.417,-64.453,27.344,27.832,-6.836,12.207,0.000,0.000,0.000
489018.421,36.133,26.855,25.879,20.508,8.789,0.000,0.000,0.000
489018.425,111.328,33.203,25.879,43.945,9.277,0.000,0.000,0.000
489018.429,26.367,30.762,24.414,26.367,18.066,0.000,0.000,0.000
489018.432,-72.266,22.461,26.367,-0.488,7.324,0.000,0.000,0.000
489018.436,-2.930,22.461,29.785,8.789,2.441,0.000,0.000,0.000
489018.440,103.516,29.785,26.855,32.227,8.301,0.000,0.000,0.000
489018.444,59.570,31.738,28.320,22.461,5.859,0.000,0.000,0.000
489018.448,-54.199,31.250,28.320,-1.953,15.137,0.000,0.000,0.000
489018.452,-30.762,34.180,26.855,8.789,15.137,0.000,0.000,0.000
489018.456,83.984,34.668,25.879,37.109,3.418,0.000,0.000,0.000
489018.460,94.727,31.738,26.367,41.016,13.672,0.000,0.000,0.000
489018.464,-23.438,38.574,29.297,14.160,25.391,0.000,0.000,0.000
489018.468,-41.992,38.574,28.809,11.230,21.973,0.000,0.000,0.000
489018.472,66.895,26.855,28.320,36.133,17.578,0.000,0.000,0.000
489018.475,114.746,31.250,27.832,46.875,20.508,0.000,0.000,0.000
489018.479,8.789,40.039,28.320,18.555,25.391,0.000,0.000,0.000
489018.483,-60.059,36.621,27.344,-1.465,2.930,0.000,0.000,0.000
489018.487,27.832,27.832,25.879,19.043,-10.254,0.000,0.000,0.000
489018.491,118.652,25.879,26.855,42.480,2.930,0.000,0.000,0.000
489018.495,48.828,26.855,26.855,28.809,5.371,0.000,0.000,0.000
489018.499,-48.340,29.785,27.344,9.277,4.395,0.000,0.000,0.000
489018.503,9.766,32.227,26.367,16.602,9.277,0.000,0.000,0.000
489018.507,111.816,35.645,27.344,37.109,13.672,0.000,0.000,0.000
489018.511,74.219,35.156,26.367,24.414,6.836,0.000,0.000,0.000
489018.514,-53.711,32.227,19.531,-9.766,0.977,0.000,0.000,0.000
489018.518,-35.156,45.898,21.973,2.441,9.766,0.000,0.000,0.000
489018.522,80.078,41.992,18.066,29.785,13.184,0.000,0.000,0.000
489018.526,89.844,26.855,13.184,18.555,4.395,0.000,0.000,0.000
489018.530,-26.855,29.785,17.090,-10.254,-6.836,0.000,0.000,0.000
489018.534,-58.105,29.785,19.043,-6.348,1.953,0.000,0.000,0.000
489018.538,41.016,30.273,20.508,23.926,9.766,0.000,0.000,0.000
489018.542,98.633,34.668,21.973,30.762,1.953,0.000,0.000,0.000
489018.546,-1.953,35.156,20.020,2.441,-4.883,0.000,0.000,0.000
489018.550,-76.660,34.668,17.090,-8.789,-0.977,0.000,0.000,0.000
489018.554,5.859,36.621,19.043,11.230,-0.977,0.000,0.000,0.000
489018.557,95.215,31.250,22.461,24.902,-8.789,0.000,0.000,0.000
489018.561,36.621,37.598,21.973,8.301,-10.254,0.000,0.000,0.000
489018.565,-68.359,37.598,17.090,-6.836,0.488,0.000,0.000,0.000
489018.569,-25.879,24.902,16.602,5.859,4.883,0.000,0.000,0.000
489018.573,88.867,27.832,17.578,28.809,0.977,0.000,0.000,0.000
489018.577,74.219,35.645,18.555,34.180,2.441,0.000,0.000,0.000
489018.581,-41.016,39.551,20.996,12.207,0.488,0.000,0.000,0.000
489018.585,-29.297,37.109,23.438,6.348,1.953,0.000,0.000,0.000
489018.589,80.078,35.645,19.531,29.785,3.906,0.000,0.000,0.000
489018.593,104.492,37.109,16.602,32.715,1.465,0.000,0.000,0.000
489018.596,-4.883,40.039,23.438,9.277,8.789,0.000,0.000,0.000
489018.600,-49.316,39.551,21.484,4.395,12.207,0.000,0.000,0.000
489018.604,45.898,31.738,14.648,23.438,10.742,0.000,0.000,0.000
489018.608,107.910,27.344,16.113,34.668,8.301,0.000,0.000,0.000
489018.612,14.648,30.273,20.020,15.137,4.395,0.000,0.000,0.000
489018.616,-67.383,26.855,23.438,0.000,3.906,0.000,0.000,0.000
489018.620,7.324,20.996,25.879,17.090,-2.441,0.000,0.000,0.000
489018.624,102.051,19.043,23.926,37.109,-3.418,0.000,0.000,0.000
489018.628,48.340,22.949,23.438,20.020,-4.883,0.000,0.000,0.000
489018.632,-64.941,25.391,20.996,-2.930,-11.230,0.000,0.000,0.000
489018.636,-32.715,22.461,18.555,8.301,-18.555,0.000,0.000,0.000
489018.639,83.496,29.785,19.531,35.156,-15.625,0.000,0.000,0.000
489018.643,80.078,26.367,19.043,33.691,-9.766,0.000,0.000,0.000
489018.647,-43.457,18.066,19.043,1.953,-4.883,0.000,0.000,0.000
489018.651,-52.734,23.926,20.020,-5.371,-2.441,0.000,0.000,0.000
489018.655,60.059,26.367,18.555,21.973,5.371,0.000,0.000,0.000
489018.659,91.309,24.414,16.113,29.297,8.301,0.000,0.000,0.000
489018.663,-21.484,28.809,18.555,0.000,15.137,0.000,0.000,0.000
489018.667,-69.824,34.668,20.020,-6.836,13.672,0.000,0.000,0.000
489018.671,30.273,33.691,13.672,22.461,1.465,0.000,0.000,0.000
489018.675,111.328,32.715,15.625,38.086,3.418,0.000,0.000,0.000
489018.679,29.785,37.598,21.484,12.695,6.348,0.000,0.000,0.000
489018.682,-57.617,35.156,19.531,-3.418,5.859,0.000,0.000,0.000
489018.686,11.230,30.762,20.020,24.414,8.789,0.000,0.000,0.000
489018.690,112.793,32.715,20.508,45.898,14.160,0.000,0.000,0.000
489018.694,74.219,36.133,20.996,28.320,19.531,0.000,0.000,0.000
489018.698,-43.457,34.180,22.949,2.930,3.418,0.000,0.000,0.000
489018.702,-20.508,32.227,20.996,15.625,-11.230,0.000,0.000,0.000
489018.706,98.633,36.133,20.996,46.387,7.324,0.000,0.000,0.000
489018.710,99.609,33.203,21.973,37.598,0.488,0.000,0.000,0.000
489018.714,-25.391,30.762,21.484,1.465,-9.277,0.000,0.000,0.000
489018.718,-42.969,39.551,25.391,-1.953,-1.953,0.000,0.000,0.000
489018.721,65.430,39.062,26.855,27.344,3.906,0.000,0.000,0.000
489018.725,113.770,30.273,23.926,33.691,6.348,0.000,0.000,0.000
489018.729,-0.488,29.785,20.020,10.254,5.859,0.000,0.000,0.000
489018.733,-69.336,30.762,18.555,-0.488,12.207,0.000,0.000,0.000
489018.737,23.926,34.180,23.438,16.602,6.836,0.000,0.000,0.000
489018.741,104.004,33.203,21.973,28.809,-9.277,0.000,0.000,0.000
489018.745,30.762,27.832,19.531,11.230,-12.695,0.000,0.000,0.000
489018.749,-68.359,25.391,20.508,-9.277,-9.766,0.000,0.000,0.000
489018.753,-8.301,31.738,19.043,0.977,-2.930,0.000,0.000,0.000
489018.757,102.051,39.062,24.414,32.227,13.184,0.000,0.000,0.000
489018.761,67.383,43.945,27.344,25.391,14.160,0.000,0.000,0.000
489018.764,-53.223,41.016,21.484,-6.348,-4.395,0.000,0.000,0.000
489018.768,-34.180,34.668,20.508,1.465,-3.906,0.000,0.000,0.000
489018.772,86.426,40.527,22.949,34.668,7.324,0.000,0.000,0.000
489018.776,107.910,38.574,22.949,36.621,4.883,0.000,0.000,0.000
489018.780,-5.859,37.109,23.926,6.836,3.906,0.000,0.000,0.000
489018.784,-46.875,36.621,23.926,-2.930,0.977,0.000,0.000,0.000
489018.788,59.570,32.715,23.438,25.391,-1.465,0.000,0.000,0.000
489018.792,127.441,34.180,25.879,41.504,16.113,0.000,0.000,0.000
489018.796,19.531,38.086,31.738,18.066,17.090,0.000,0.000,0.000
489018.800,-60.547,34.180,26.367,1.953,-3.418,0.000,0.000,0.000
489018.803,21.484,32.227,21.973,21.484,2.441,0.000,0.000,0.000
489018.807,108.398,36.621,21.973,40.039,3.906,0.000,0.000,0.000
489018.811,45.410,33.691,22.461,20.020,-4.395,0.000,0.000,0.000
489018.815,-61.035,35.156,24.414,-3.906,2.930,0.000,0.000,0.000
489018.819,-22.949,37.109,24.902,13.184,9.277,0.000,0.000,0.000
489018.823,81.055,29.785,21.973,38.574,7.812,0.000,0.000,0.000
489018.827,61.035,29.297,20.508,26.367,8.301,0.000,0.000,0.000
489018.831,-58.105,33.203,21.973,0.488,7.324,0.000,0.000,0.000
489018.835,-46.387,31.738,25.391,9.766,3.906,0.000,0.000,0.000
489018.839,69.824,29.297,22.461,34.668,-2.441,0.000,0.000,0.000
489018.843,101.074,26.367,20.996,30.762,0.000,0.000,0.000,0.000
489018.846,-2.441,32.715,23.438,4.395,13.672,0.000,0.000,0.000
489018.850,-51.758,34.668,23.438,7.812,11.230,0.000,0.000,0.000
489018.854,45.410,31.738,23.438,30.762,1.953,0.000,0.000,0.000
489018.858,113.770,32.715,25.879,32.227,0.488,0.000,0.000,0.000
489018.862,18.066,31.250,27.344,14.160,-1.953,0.000,0.000,0.000
489018.866,-63.965,29.785,21.973,1.465,2.930,0.000,0.000,0.000
489018.870,2.441,27.344,23.438,15.625,-1.465,0.000,0.000,0.000
489018.874,98.145,24.902,23.926,29.785,-7.812,0.000,0.000,0.000
489018.878,55.664,26.367,24.902,19.043,-4.395,0.000,0.000,0.000
489018.882,-57.129,32.715,33.203,3.418,-0.977,0.000,0.000,0.000
489018.886,-26.855,30.762,28.809,15.625,3.418,0.000,0.000,0.000
489018.889,80.566,28.809,21.973,32.715,0.000,0.000,0.000,0.000
489018.893,79.102,30.762,20.996,19.043,-10.254,0.000,0.000,0.000
489018.897,-39.062,31.250,19.043,-3.906,-1.953,0.000,0.000,0.000
489018.901,-48.828,33.203,21.973,4.395,0.000,0.000,0.000,0.000
489018.905,65.918,32.715,24.414,26.855,-9.766,0.000,0.000,0.000
489018.909,102.051,27.832,21.484,30.273,-7.324,0.000,0.000,0.000
489018.913,-10.742,33.691,22.461,8.789,2.441,0.000,0.000,0.000
489018.917,-67.383,34.180,23.438,-0.977,9.766,0.000,0.000,0.000
489018.921,31.250,24.902,23.438,22.461,14.160,0.000,0.000,0.000
489018.925,114.258,24.414,23.926,43.457,17.090,0.000,0.000,0.000
489018.928,41.504,27.832,22.461,24.414,22.949,0.000,0.000,0.000
489018.932,-50.293,36.133,21.484,0.000,21.484,0.000,0.000,0.000
489018.936,4.395,36.621,14.160,19.531,20.996,0.000,0.000,0.000
489018.940,110.840,36.133,19.043,48.340,21.973,0.000,0.000,0.000
489018.944,70.801,38.574,29.785,26.367,20.508,0.000,0.000,0.000
489018.948,-46.875,36.133,23.438,-3.906,26.855,0.000,0.000,0.000
489018.952,-18.555,35.645,22.461,15.625,22.949,0.000,0.000,0.000
489018.956,95.703,39.551,28.320,44.434,8.301,0.000,0.000,0.000
489018.960,94.727,32.715,23.926,33.203,-7.812,0.000,0.000,0.000
489018.964,-23.926,28.809,27.344,6.348,-12.695,0.000,0.000,0.000
489018.968,-41.992,30.273,29.785,5.371,-13.672,0.000,0.000,0.000
489018.971,64.453,24.414,28.809,32.227,-14.160,0.000,0.000,0.000
489018.975,118.164,25.879,30.762,46.387,-12.695,0.000,0.000,0.000
489018.979,12.207,35.645,33.203,18.555,-12.695,0.000,0.000,0.000
489018.983,-59.082,41.992,35.645,9.277,-3.418,0.000,0.000,0.000
489018.987,27.344,39.062,32.715,27.344,-1.465,0.000,0.000,0.000
489018.991,114.258,36.621,29.297,41.992,3.418,0.000,0.000,0.000
489018.995,47.363,40.039,31.250,25.391,14.160,0.000,0.000,0.000
489018.999,-54.199,38.574,34.668,-2.930,5.859,0.000,0.000,0.000
489019.003,-3.906,37.598,29.297,5.859,0.977,0.000,0.000,0.000
489019.007,99.121,35.645,20.020,29.297,4.883,0.000,0.000,0.000
489019.010,68.848,29.297,25.391,19.531,4.395,0.000,0.000,0.000
489019.014,-49.316,27.832,30.762,-0.488,6.836,0.000,0.000,0.000
489019.018,-33.691,29.297,27.832,9.277,9.766,0.000,0.000,0.000
489019.022,80.078,31.250,25.879,28.809,8.301,0.000,0.000,0.000
489019.026,95.703,33.691,27.344,28.320,6.836,0.000,0.000,0.000
489019.030,-20.020,34.180,27.344,2.441,9.277,0.000,0.000,0.000
489019.034,-55.664,29.785,23.926,-7.812,8.301,0.000,0.000,0.000
489019.038,46.875,30.762,24.414,15.137,11.719,0.000,0.000,0.000
489019.042,113.770,36.133,25.879,34.180,25.879,0.000,0.000,0.000
489019.046,18.555,38.574,26.367,11.230,20.996,0.000,0.000,0.000
489019.050,-70.801,31.738,26.855,-9.766,-10.254,0.000,0.000,0.000
489019.053,-0.488,26.855,27.344,11.230,-22.949,0.000,0.000,0.000
489019.057,100.098,31.250,29.785,37.109,-21.484,0.000,0.000,0.000
489019.061,45.410,29.785,32.227,22.949,-19.043,0.000,0.000,0.000
489019.065,-66.406,30.273,31.738,-4.395,-16.113,0.000,0.000,0.000
489019.069,-26.367,33.203,23.926,4.883,-18.066,0.000,0.000,0.000
489019.073,82.031,27.832,25.879,37.109,-9.766,0.000,0.000,0.000
489019.077,76.172,27.832,34.180,35.156,0.000,0.000,0.000,0.000
489019.081,-37.598,32.715,30.762,8.301,7.812,0.000,0.000,0.000
489019.085,-44.922,28.320,24.902,1.953,9.766,0.000,0.000,0.000
489019.089,65.918,24.414,23.926,28.809,16.113,0.000,0.000,0.000
489019.092,104.980,29.297,27.344,41.992,24.414,0.000,0.000,0.000
489019.096,-7.324,33.203,29.297,11.230,11.230,0.000,0.000,0.000
489019.100,-57.129,32.715,27.344,1.465,8.301,0.000,0.000,0.000
489019.104,40.527,32.715,24.902,25.391,9.277,0.000,0.000,0.000
489019.108,106.934,35.156,23.438,43.457,2.441,0.000,0.000,0.000
489019.112,16.602,37.598,23.438,8.789,5.859,0.000,0.000,0.000
489019.116,-70.312,34.180,19.043,-21.484,4.395,0.000,0.000,0.000
489019.120,9.277,34.668,20.020,7.812,1.465,0.000,0.000,0.000
489019.124,105.469,41.016,19.531,33.691,-1.953,0.000,0.000,0.000
489019.128,48.340,37.598,15.625,14.648,-8.789,2.000,1.000,45.000
489019.132,-57.617,38.086,19.531,-5.371,-4.395,0.000,0.000,0.000
489019.135,-20.020,42.480,17.578,5.371,-0.977,0.000,0.000,0.000
489019.139,93.262,37.109,18.066,32.227,-0.488,0.000,0.000,0.000
489019.143,90.332,40.039,20.508,29.785,2.441,0.000,0.000,0.000
489019.147,-33.691,44.434,23.438,4.395,13.672,0.000,0.000,0.000
489019.151,-44.434,36.133,24.902,12.207,23.926,0.000,0.000,0.000
489019.155,72.266,35.645,24.414,35.645,17.090,0.000,0.000,0.000
489019.159,118.652,36.621,23.438,39.062,11.230,0.000,0.000,0.000
489019.163,12.207,31.738,27.344,13.184,12.207,0.000,0.000,0.000
489019.167,-48.340,31.250,30.762,3.418,16.113,0.000,0.000,0.000
489019.171,36.133,28.809,28.809,26.367,16.113,0.000,0.000,0.000
489019.175,107.910,23.438,29.297,39.062,11.230,0.000,0.000,0.000
489019.178,25.391,24.414,30.762,20.996,7.812,0.000,0.000,0.000
489019.182,-66.895,29.297,30.762,8.789,9.277,0.000,0.000,0.000
489019.186,-3.906,28.809,31.738,18.555,11.719,0.000,0.000,0.000
489019.190,96.191,23.926,29.297,28.809,9.277,0.000,0.000,0.000
489019.194,63.477,24.902,26.855,20.996,4.395,0.000,0.000,0.000
489019.198,-50.293,33.691,29.785,-0.977,7.812,0.000,0.000,0.000
489019.202,-32.715,33.203,24.414,-4.883,8.789,0.000,0.000,0.000
489019.206,83.496,27.344,21.484,19.043,3.906,0.000,0.000,0.000
489019.210,103.027,28.320,20.508,24.902,1.953,0.000,0.000,0.000
489019.214,-16.602,34.180,21.973,-3.906,5.371,0.000,0.000,0.000
489019.217,-43.945,40.527,22.461,-13.184,5.371,0.000,0.000,0.000
489019.221,62.988,35.156,19.043,12.207,7.324,0.000,0.000,0.000
489019.225,113.281,37.109,21.973,24.902,9.766,0.000,0.000,0.000
489019.229,13.184,43.945,21.973,-4.395,2.441,0.000,0.000,0.000
489019.233,-56.152,39.551,19.531,-18.066,7.812,0.000,0.000,0.000
489019.237,23.926,41.016,22.949,5.859,12.207,0.000,0.000,0.000
489019.241,111.328,39.062,23.438,27.344,2.441,0.000,0.000,0.000
489019.245,38.086,27.344,18.066,3.906,-1.465,0.000,0.000,0.000
489019.249,-64.941,25.391,16.602,-21.973,-1.465,0.000,0.000,0.000
489019.253,-9.766,26.367,14.160,1.465,15.137,0.000,0.000,0.000
489019.257,93.750,24.902,14.648,21.973,25.391,0.000,0.000,0.000
489019.260,70.801,29.785,17.090,7.324,16.602,0.000,0.000,0.000
489019.264,-50.781,34.180,18.555,-10.254,15.137,0.000,0.000,0.000
489019.268,-39.551,33.203,20.508,6.836,16.602,0.000,0.000,0.000
489019.272,83.008,31.250,22.461,33.203,21.973,0.000,0.000,0.000
489019.276,110.352,35.645,24.902,33.691,26.367,0.000,0.000,0.000
489019.280,-12.207,38.086,23.438,4.395,22.461,0.000,0.000,0.000
489019.284,-52.246,33.203,22.461,-4.395,20.508,0.000,0.000,0.000
489019.288,52.734,32.227,23.438,26.367,13.184,0.000,0.000,0.000
489019.292,109.375,28.809,20.508,33.691,-9.277,0.000,0.000,0.000
489019.296,8.301,24.902,22.461,6.836,-32.227,0.000,0.000,0.000
489019.299,-63.965,29.297,24.414,-3.906,-30.762,0.000,0.000,0.000
489019.303,27.344,33.203,21.973,23.438,-19.531,0.000,0.000,0.000
489019.307,117.188,33.203,22.461,45.410,-14.160,0.000,0.000,0.000
489019.311,54.688,31.250,20.508,28.320,-0.977,0.000,0.000,0.000
489019.315,-52.246,30.762,19.043,6.836,4.883,0.000,0.000,0.000
489019.319,-9.277,37.598,23.438,18.066,5.371,0.000,0.000,0.000
489019.323,101.074,39.551,23.438,37.109,2.441,0.000,0.000,0.000
489019.327,79.590,26.367,22.949,23.926,-4.883,0.000,0.000,0.000
489019.331,-47.852,22.949,23.438,0.488,-2.930,0.000,0.000,0.000
489019.335,-45.898,30.273,20.996,9.766,6.836,0.000,0.000,0.000
489019.339,76.172,31.738,21.484,29.297,20.020,0.000,0.000,0.000
489019.342,111.328,32.715,20.508,25.879,21.484,0.000,0.000,0.000
489019.346,-5.859,33.691,20.996,5.371,24.414,0.000,0.000,0.000
489019.350,-51.270,30.762,19.043,0.000,26.367,0.000,0.000,0.000
489019.354,47.363,30.762,17.578,21.484,13.672,0.000,0.000,0.000
489019.358,118.164,36.133,22.949,33.203,20.020,0.000,0.000,0.000
489019.362,28.320,38.086,26.855,7.324,26.855,0.000,0.000,0.000
489019.366,-62.988,37.598,26.367,-7.812,1.465,0.000,0.000,0.000
489019.370,3.906,36.133,27.344,10.254,-7.812,0.000,0.000,0.000
489019.374,101.562,32.715,22.461,23.438,-1.465,0.000,0.000,0.000
489019.378,56.641,33.691,23.926,7.324,-3.906,0.000,0.000,0.000
489019.382,-54.199,39.062,32.715,-11.230,-2.930,0.000,0.000,0.000
489019.385,-19.531,34.668,26.855,1.953,-0.977,0.000,0.000,0.000
489019.389,91.309,30.273,22.461,27.344,3.906,0.000,0.000,0.000
489019.393,85.449,34.180,22.949,20.508,7.324,0.000,0.000,0.000
489019.397,-37.598,37.598,20.508,-15.625,5.859,0.000,0.000,0.000
489019.401,-52.246,33.691,20.996,-14.160,5.859,0.000,0.000,0.000
489019.405,58.594,24.414,21.484,20.508,-1.953,0.000,0.000,0.000
489019.409,105.957,23.926,23.438,27.344,-5.371,0.000,0.000,0.000
489019.413,0.488,28.320,26.367,7.324,4.883,0.000,0.000,0.000
489019.417,-61.523,27.832,27.344,-2.930,8.789,0.000,0.000,0.000
489019.421,27.832,26.367,29.297,16.602,13.672,0.000,0.000,0.000
489019.424,104.980,25.879,27.344,34.668,21.973,0.000,0.000,0.000
489019.428,26.855,28.320,29.785,14.648,22.949,0.000,0.000,0.000
489019.432,-66.895,32.715,32.715,0.000,16.113,0.000,0.000,0.000
489019.436,-0.977,32.715,27.344,18.555,14.160,0.000,0.000,0.000
489019.440,104.004,37.598,27.832,37.109,23.926,0.000,0.000,0.000
489019.444,62.012,32.227,29.785,18.066,22.461,0.000,0.000,0.000
489019.448,-54.199,22.949,26.855,-7.812,10.254,0.000,0.000,0.000
489019.452,-29.297,20.020,26.367,3.906,-10.254,0.000,0.000,0.000
489019.456,83.008,20.508,26.855,27.832,-8.789,0.000,0.000,0.000
489019.460,95.215,23.926,27.344,28.320,-0.488,0.000,0.000,0.000
489019.464,-24.414,26.855,33.691,2.441,-3.418,0.000,0.000,0.000
489019.467,-48.828,25.391,31.250,0.000,-2.441,0.000,0.000,0.000
489019.471,63.965,26.855,26.367,30.273,2.441,0.000,0.000,0.000
489019.475,108.398,32.715,26.367,35.645,1.953,0.000,0.000,0.000
489019.479,-1.953,30.273,28.320,4.395,-3.906,0.000,0.000,0.000
489019.483,-67.871,21.484,27.832,0.977,-3.418,0.000,0.000,0.000
489019.487,19.043,19.531,21.484,20.996,-5.371,0.000,0.000,0.000
489019.491,107.422,21.973,26.367,30.762,-2.930,0.000,0.000,0.000
489019.495,44.434,27.832,31.738,17.090,-5.859,0.000,0.000,0.000
489019.499,-57.129,30.762,32.227,-1.465,-11.719,0.000,0.000,0.000
489019.503,-9.277,29.297,34.180,9.766,-11.719,0.000,0.000,0.000
489019.506,97.656,31.738,34.668,37.598,-8.301,0.000,0.000,0.000
489019.510,80.566,35.156,33.203,33.691,-1.953,0.000,0.000,0.000
489019.514,-37.109,41.504,31.738,4.395,-2.930,0.000,0.000,0.000
489019.518,-37.109,32.227,26.855,0.000,-10.254,0.000,0.000,0.000
489019.522,73.730,26.855,25.879,25.391,-5.371,4.000,1.000,45.000
489019.526,94.727,34.180,25.879,21.484,-10.742,0.000,0.000,0.000
489019.530,-25.879,30.762,23.438,-12.207,-27.344,0.000,0.000,0.000
489019.534,-63.477,35.156,24.902,-18.555,-23.926,0.000,0.000,0.000
489019.538,44.434,46.387,21.973,11.719,-13.672,0.000,0.000,0.000
489019.542,117.188,35.156,23.438,33.691,9.766,0.000,0.000,0.000
489019.546,25.391,23.926,26.367,9.277,20.020,0.000,0.000,0.000
489019.549,-55.176,30.762,20.996,-13.184,-0.488,0.000,0.000,0.000
489019.553,21.973,36.621,22.949,16.602,-5.371,0.000,0.000,0.000
489019.557,115.234,36.621,23.438,47.852,3.906,0.000,0.000,0.000
489019.561,56.152,36.133,21.484,21.973,-2.930,0.000,0.000,0.000
489019.565,-56.641,36.133,23.438,-12.695,-0.977,0.000,0.000,0.000
489019.569,-16.113,35.156,19.531,1.465,10.254,0.000,0.000,0.000
489019.573,97.656,35.645,17.578,33.691,16.602,0.000,0.000,0.000
489019.577,83.008,37.109,21.973,22.949,14.648,0.000,0.000,0.000
489019.581,-38.086,32.715,22.949,-2.930,14.160,0.000,0.000,0.000
489019.585,-38.086,32.227,20.996,6.348,17.578,0.000,0.000,0.000
489019.588,76.172,32.227,22.461,39.062,20.996,0.000,0.000,0.000
489019.592,112.793,30.273,23.438,43.457,20.996,0.000,0.000,0.000
489019.596,0.488,34.180,21.973,9.277,18.555,0.000,0.000,0.000
489019.600,-55.176,35.645,22.949,1.953,17.578,0.000,0.000,0.000
489019.604,34.180,36.133,21.484,22.949,13.672,0.000,0.000,0.000
489019.608,108.398,42.480,20.996,38.086,10.742,0.000,0.000,0.000
489019.612,22.461,35.645,16.602,13.184,11.230,0.000,0.000,0.000
489019.616,-67.383,28.320,16.113,-6.836,19.531,0.000,0.000,0.000
489019.620,4.395,31.738,18.555,20.508,21.973,0.000,0.000,0.000
489019.624,106.934,31.250,17.090,46.875,9.277,0.000,0.000,0.000
489019.628,65.430,30.762,19.043,27.344,0.000,0.000,0.000,0.000
489019.631,-48.340,30.762,21.484,-1.953,20.020,0.000,0.000,0.000
489019.635,-19.043,27.832,22.461,11.230,21.484,0.000,0.000,0.000
489019.639,97.656,34.180,28.320,47.363,2.441,0.000,0.000,0.000
489019.643,97.168,38.086,31.250,49.316,14.160,0.000,0.000,0.000
489019.647,-32.715,29.297,29.785,15.625,11.230,0.000,0.000,0.000
489019.651,-51.758,24.902,27.344,15.137,-0.977,0.000,0.000,0.000
489019.655,56.152,33.691,28.809,37.598,8.301,0.000,0.000,0.000
489019.659,100.586,35.156,26.855,35.645,0.977,0.000,0.000,0.000
489019.663,3.418,31.250,24.902,10.742,-5.371,0.000,0.000,0.000
489019.667,-54.199,31.250,23.926,-4.883,-1.465,0.000,0.000,0.000
489019.671,36.133,30.762,21.973,14.648,0.488,0.000,0.000,0.000
489019.674,124.023,37.598,26.855,44.922,7.812,0.000,0.000,0.000
489019.678,50.781,37.598,22.461,24.902,5.371,0.000,0.000,0.000
489019.682,-49.805,32.227,19.043,-8.789,-1.953,0.000,0.000,0.000
489019.686,7.324,38.086,24.414,5.859,-8.789,0.000,0.000,0.000
489019.690,110.352,36.621,22.461,27.832,0.000,0.000,0.000,0.000
489019.694,71.777,28.809,21.484,17.090,5.859,0.000,0.000,0.000
489019.698,-52.246,34.668,22.461,-9.277,-0.977,0.000,0.000,0.000
489019.702,-35.156,39.551,21.973,-5.371,-1.465,0.000,0.000,0.000
489019.706,78.613,33.691,19.531,18.066,-12.695,0.000,0.000,0.000
489019.710,93.262,38.574,14.648,18.555,-19.043,0.000,0.000,0.000
489019.713,-28.320,40.527,15.137,-12.695,-30.762,0.000,0.000,0.000
489019.717,-66.406,35.156,18.066,-23.926,-43.945,0.000,0.000,0.000
489019.721,44.434,37.109,19.043,9.766,-28.809,0.000,0.000,0.000
489019.725,107.910,37.598,18.555,22.949,-15.625,0.000,0.000,0.000
489019.729,10.254,36.621,19.043,-0.977,-7.812,0.000,0.000,0.000
489019.733,-63.965,34.668,21.484,-7.324,4.395,0.000,0.000,0.000
489019.737,22.461,40.039,23.438,21.973,14.160,0.000,0.000,0.000
489019.741,116.211,41.504,21.484,47.363,14.648,0.000,0.000,0.000
489019.745,51.270,42.480,19.531,28.320,19.043,0.000,0.000,0.000
489019.749,-47.852,41.992,22.949,-1.953,31.738,0.000,0.000,0.000
489019.753,-0.488,34.668,21.973,8.301,28.320,0.000,0.000,0.000
489019.756,106.934,32.715,22.949,40.039,33.691,0.000,0.000,0.000
489019.760,85.938,35.156,27.344,36.621,40.527,0.000,0.000,0.000
489019.764,-41.016,35.156,26.855,6.348,33.203,0.000,0.000,0.000
489019.768,-32.227,32.227,25.391,9.277,21.484,0.000,0.000,0.000
489019.772,82.520,32.715,23.926,32.715,7.324,0.000,0.000,0.000
489019.776,103.027,33.203,23.438,35.645,20.020,0.000,0.000,0.000
489019.780,-10.254,33.691,28.320,16.113,37.598,0.000,0.000,0.000
489019.784,-52.246,32.715,24.414,9.277,17.578,0.000,0.000,0.000
489019.788,47.852,33.203,20.508,29.785,6.836,0.000,0.000,0.000
489019.792,109.863,27.832,27.832,43.457,15.137,0.000,0.000,0.000
489019.795,21.484,27.344,31.250,20.508,19.531,0.000,0.000,0.000
489019.799,-58.105,31.738,31.738,-0.488,12.695,0.000,0.000,0.000
489019.803,13.184,32.227,30.762,19.043,3.906,0.000,0.000,0.000
489019.807,105.957,29.297,27.344,37.598,-1.953,0.000,0.000,0.000
489019.811,54.199,27.832,28.809,20.020,1.465,0.000,0.000,0.000
489019.815,-47.363,34.180,31.738,-1.465,17.578,0.000,0.000,0.000
489019.819,-6.836,39.062,32.715,8.301,18.555,0.000,0.000,0.000
489019.823,109.375,36.621,32.715,34.668,11.719,0.000,0.000,0.000
489019.827,101.074,32.227,32.227,32.227,9.277,0.000,0.000,0.000
489019.831,-22.949,33.203,33.203,9.277,15.137,0.000,0.000,0.000
489019.835,-29.297,34.180,34.180,16.113,12.207,0.000,0.000,0.000
489019.838,80.566,33.203,35.156,39.062,9.277,0.000,0.000,0.000
489019.842,112.793,34.180,33.691,31.250,8.301,0.000,0.000,0.000
489019.846,-2.930,38.574,36.133,3.418,7.812,0.000,0.000,0.000
489019.850,-58.105,35.156,36.621,-1.953,5.859,0.000,0.000,0.000
489019.854,37.109,27.832,32.227,20.508,0.000,0.000,0.000,0.000
489019.858,114.746,35.156,30.762,41.016,0.977,0.000,0.000,0.000
489019.862,25.879,25.879,27.832,13.672,-3.906,0.000,0.000,0.000
489019.866,-65.430,20.020,29.785,-11.719,-0.488,0.000,0.000,0.000
489019.870,6.348,23.438,32.227,16.113,16.602,0.000,0.000,0.000
489019.874,104.004,24.414,26.367,41.016,12.695,2.000,1.000,0.000
489019.877,52.734,26.855,24.414,21.484,-9.277,0.000,0.000,0.000
489019.881,-64.453,26.855,25.879,-1.465,-13.184,0.000,0.000,0.000
489019.885,-32.715,26.367,25.391,10.254,-6.348,0.000,0.000,0.000
489019.889,80.566,27.344,21.973,29.297,-4.395,0.000,0.000,0.000
489019.893,89.355,34.180,22.461,30.273,2.930,0.000,0.000,0.000
489019.897,-28.809,41.016,25.879,8.789,8.789,0.000,0.000,0.000
489019.901,-45.410,41.504,20.508,2.441,10.742,0.000,0.000,0.000
489019.905,67.383,32.227,17.090,28.809,11.719,0.000,0.000,0.000
489019.909,107.910,31.738,17.578,38.086,5.859,0.000,0.000,0.000
489019.913,4.395,41.016,22.461,11.719,5.371,0.000,0.000,0.000
489019.917,-54.688,35.645,24.414,-0.488,11.719,0.000,0.000,0.000
489019.920,31.250,28.809,25.879,21.973,22.949,0.000,0.000,0.000
489019.924,111.328,36.133,26.367,45.410,29.785,0.000,0.000,0.000
489019.928,39.551,41.992,21.973,40.039,30.762,0.000,0.000,0.000
489019.932,-60.547,41.504,24.414,14.160,24.414,0.000,0.000,0.000
489019.936,-7.324,38.574,23.438,15.137,5.859,0.000,0.000,0.000
489019.940,103.027,36.621,20.996,38.574,0.000,0.000,0.000,0.000
489019.944,75.684,36.133,21.484,28.809,6.348,0.000,0.000,0.000
489019.948,-42.480,33.203,21.484,0.000,11.719,0.000,0.000,0.000
489019.952,-31.250,32.227,24.414,2.441,14.648,0.000,0.000,0.000
489019.956,74.707,27.344,18.066,27.832,10.742,0.000,0.000,0.000
489019.960,94.727,21.973,15.625,28.320,8.789,0.000,0.000,0.000
489019.963,-22.461,26.855,20.996,4.395,9.766,0.000,0.000,0.000
489019.967,-56.152,29.785,20.020,3.906,13.184,0.000,0.000,0.000
489019.971,54.688,28.320,18.066,31.738,17.090,0.000,0.000,0.000
489019.975,120.605,34.668,19.043,51.270,23.438,0.000,0.000,0.000
489019.979,23.438,35.156,14.648,21.973,24.414,0.000,0.000,0.000
489019.983,-55.176,33.203,13.184,-1.465,24.902,0.000,0.000,0.000
489019.987,28.320,37.109,14.648,17.090,27.832,0.000,0.000,0.000
489019.991,122.070,37.598,17.090,31.250,10.742,0.000,0.000,0.000
489019.995,53.711,39.062,16.602,9.277,-6.836,0.000,0.000,0.000
489019.999,-56.641,40.039,18.066,-14.648,-6.836,0.000,0.000,0.000
489020.002,-11.719,36.621,16.602,-2.441,1.465,0.000,0.000,0.000
489020.006,99.609,36.133,10.742,29.785,2.441,0.000,0.000,0.000
489020.010,83.984,40.039,14.648,25.879,-11.230,0.000,0.000,0.000
489020.014,-39.551,41.992,19.043,-4.883,-2.930,0.000,0.000,0.000
489020.018,-35.156,37.598,15.137,2.441,8.789,0.000,0.000,0.000
489020.022,87.402,42.969,11.719,34.180,5.859,0.000,0.000,0.000
489020.026,113.281,40.039,11.719,36.133,-3.906,0.000,0.000,0.000
489020.030,-1.953,37.598,15.625,10.742,-16.602,0.000,0.000,0.000
489020.034,-43.457,42.480,16.602,10.254,-26.367,0.000,0.000,0.000
489020.038,49.805,38.574,15.137,33.691,-30.273,0.000,0.000,0.000
489020.042,112.793,39.551,16.113,39.551,-28.320,0.000,0.000,0.000
489020.045,23.926,42.480,20.020,5.859,-21.484,0.000,0.000,0.000
489020.049,-64.941,42.480,20.020,-12.207,-9.766,0.000,0.000,0.000
489020.053,5.859,43.945,18.555,12.695,2.930,0.000,0.000,0.000
489020.057,101.562,42.969,21.973,28.809,3.418,0.000,0.000,0.000
489020.061,42.969,43.457,20.508,7.812,6.348,0.000,0.000,0.000
489020.065,-72.266,39.551,14.648,-20.020,14.648,0.000,0.000,0.000
489020.069,-28.320,38.574,17.090,-11.230,18.555,0.000,0.000,0.000
489020.073,83.496,35.156,19.043,15.625,18.066,0.000,0.000,0.000
489020.077,74.707,32.227,15.625,10.254,-0.488,0.000,0.000,0.000
489020.081,-43.945,35.156,16.602,-16.113,-1.953,0.000,0.000,0.000
489020.084,-57.129,33.203,15.137,-10.742,14.648,0.000,0.000,0.000
489020.088,51.758,34.668,16.602,19.043,15.137,0.000,0.000,0.000
489020.092,89.355,34.180,21.484,22.461,-7.324,0.000,0.000,0.000
489020.096,-15.625,36.621,26.855,3.418,-15.137,0.000,0.000,0.000
489020.100,-64.941,39.551,23.926,-3.418,-8.301,0.000,0.000,0.000
489020.104,23.926,37.109,20.508,11.230,-20.020,0.000,0.000,0.000
489020.108,103.516,33.691,20.508,26.855,-20.996,0.000,0.000,0.000
489020.112,28.809,34.668,18.555,11.230,-13.672,0.000,0.000,0.000
489020.116,-70.801,37.598,18.066,-9.277,-11.230,0.000,0.000,0.000
489020.120,-4.395,41.016,22.461,8.789,-0.488,0.000,0.000,0.000
489020.124,103.516,42.969,25.879,38.086,0.977,0.000,0.000,0.000
489020.127,61.035,39.062,20.508,21.484,-14.160,0.000,0.000,0.000
489020.131,-50.293,34.668,18.555,-8.301,-5.859,0.000,0.000,0.000
489020.135,-24.414,31.738,24.414,5.859,2.441,0.000,0.000,0.000
489020.139,86.914,33.691,25.879,39.551,1.465,0.000,0.000,0.000
489020.143,94.727,34.668,22.949,41.016,5.371,0.000,0.000,0.000
489020.147,-28.809,36.133,23.438,2.441,-3.418,0.000,0.000,0.000
489020.151,-47.852,43.945,26.367,-5.371,-6.836,0.000,0.000,0.000
489020.155,64.941,40.039,23.438,29.785,-2.441,0.000,0.000,0.000
489020.159,117.676,33.691,21.973,38.574,-0.488,0.000,0.000,0.000
489020.163,13.672,42.480,26.367,10.254,9.277,0.000,0.000,0.000
489020.167,-57.129,36.621,28.809,-0.977,17.578,0.000,0.000,0.000
489020.170,32.227,26.367,28.320,25.391,16.113,0.000,0.000,0.000
489020.174,115.723,28.809,29.297,49.805,11.230,0.000,0.000,0.000
489020.178,44.434,33.691,26.367,23.438,8.301,0.000,0.000,0.000
489020.182,-52.246,34.180,27.344,-3.418,10.254,0.000,0.000,0.000
489020.186,-1.465,30.273,32.227,17.090,11.719,0.000,0.000,0.000
489020.190,101.562,29.785,31.738,41.504,13.672,0.000,0.000,0.000
489020.194,69.336,33.691,31.250,21.973,2.441,0.000,0.000,0.000
489020.198,-49.805,36.133,35.156,-8.301,-9.277,0.000,0.000,0.000
489020.202,-38.086,32.715,32.227,-1.953,-6.836,0.000,0.000,0.000
489020.206,74.219,35.645,31.250,26.855,-2.441,0.000,0.000,0.000
489020.209,89.355,33.203,31.250,25.879,-5.859,0.000,0.000,0.000
489020.213,-35.645,25.391,29.785,-2.930,-9.766,0.000,0.000,0.000
489020.217,-61.523,24.414,27.344,-5.859,-3.906,0.000,0.000,0.000
489020.221,49.316,28.809,21.484,19.531,-2.441,0.000,0.000,0.000
489020.225,104.980,29.297,21.484,36.621,-3.906,0.000,0.000,0.000
489020.229,7.324,32.715,21.973,12.695,-1.953,0.000,0.000,0.000
489020.233,-65.430,33.691,22.949,-12.207,-5.859,0.000,0.000,0.000
489020.237,17.578,35.645,25.391,8.789,-12.695,0.000,0.000,0.000
489020.241,110.840,40.527,22.461,31.250,-8.789,0.000,0.000,0.000
489020.245,45.898,29.297,20.020,18.066,0.000,0.000,0.000,0.000
489020.249,-61.035,27.832,22.949,-2.441,-5.371,0.000,0.000,0.000
489020.252,-17.578,32.227,23.926,5.371,-12.207,0.000,0.000,0.000
489020.256,92.285,27.344,24.414,34.668,-14.160,0.000,0.000,0.000
489020.260,83.496,30.273,25.391,31.250,-16.113,0.000,0.000,0.000
489020.264,-40.527,33.691,23.438,2.930,-13.672,0.000,0.000,0.000
489020.268,-40.039,31.250,21.973,5.371,-12.207,4.000,1.000,0.000
489020.272,73.242,32.715,22.461,31.250,-8.789,0.000,0.000,0.000
489020.276,103.516,36.133,24.414,38.086,-5.859,0.000,0.000,0.000
489020.280,-7.324,39.551,24.414,10.742,-4.883,0.000,0.000,0.000
489020.284,-64.453,31.738,21.484,-1.465,-10.742,0.000,0.000,0.000
489020.288,31.738,26.855,24.414,24.902,-4.883,0.000,0.000,0.000
489020.291,108.398,29.297,28.320,41.016,2.441,0.000,0.000,0.000
489020.295,20.508,27.832,27.832,19.043,3.418,0.000,0.000,0.000
489020.299,-67.383,29.297,29.785,3.418,2.441,0.000,0.000,0.000
489020.303,4.883,29.297,29.297,23.438,-17.578,0.000,0.000,0.000
489020.307,104.004,28.809,26.367,41.992,-29.785,0.000,0.000,0.000
489020.311,53.223,31.738,27.344,23.438,-24.414,0.000,0.000,0.000
489020.315,-54.688,40.039,31.738,4.883,-16.113,0.000,0.000,0.000
489020.319,-15.625,39.551,31.250,22.949,-4.395,0.000,0.000,0.000
489020.323,89.844,27.832,26.367,47.363,0.000,0.000,0.000,0.000
489020.327,85.938,28.809,28.320,40.039,5.371,0.000,0.000,0.000
489020.331,-31.250,32.227,28.809,-0.977,15.625,0.000,0.000,0.000
489020.334,-40.527,31.738,25.879,-4.395,24.414,0.000,0.000,0.000
489020.338,69.336,33.203,24.902,29.785,19.531,0.000,0.000,0.000
489020.342,107.422,32.715,25.391,32.715,2.930,0.000,0.000,0.000
489020.346,0.977,32.715,25.391,6.836,0.488,0.000,0.000,0.000
489020.350,-54.688,33.203,25.879,0.488,12.695,0.000,0.000,0.000
489020.354,33.203,32.715,25.879,21.484,16.113,0.000,0.000,0.000
489020.358,110.840,37.109,25.391,37.109,8.789,0.000,0.000,0.000
489020.362,34.180,38.086,27.344,20.996,10.742,0.000,0.000,0.000
489020.366,-53.711,26.855,29.297,7.812,20.996,0.000,0.000,0.000
489020.370,16.602,24.414,23.926,27.832,22.461,0.000,0.000,0.000
489020.373,113.281,31.250,23.926,49.316,20.996,0.000,0.000,0.000
489020.377,73.730,33.691,29.297,37.109,36.621,0.000,0.000,0.000
489020.381,-38.086,31.738,28.809,8.301,33.203,0.000,0.000,0.000
489020.385,-20.508,34.668,29.785,12.695,19.531,0.000,0.000,0.000
489020.389,82.520,33.691,29.297,31.250,-1.465,0.000,0.000,0.000
489020.393,83.008,33.691,24.902,23.438,-30.273,0.000,0.000,0.000
489020.397,-41.016,34.668,25.391,-3.906,-34.180,0.000,0.000,0.000
489020.401,-67.383,34.668,25.391,-1.953,-28.320,0.000,0.000,0.000
489020.405,41.992,33.691,24.902,18.555,-25.879,0.000,0.000,0.000
489020.409,101.562,32.715,27.832,18.555,-18.555,0.000,0.000,0.000
489020.413,0.977,32.715,27.344,0.488,-11.230,0.000,0.000,0.000
489020.416,-57.129,33.691,28.320,-5.859,-6.348,0.000,0.000,0.000
489020.420,31.738,33.203,28.320,13.672,-0.977,0.000,0.000,0.000
489020.424,107.910,26.855,23.438,32.227,3.906,0.000,0.000,0.000
489020.428,40.039,30.273,22.949,16.602,7.324,0.000,0.000,0.000
489020.432,-60.547,35.156,20.508,-9.766,5.859,0.000,0.000,0.000
489020.436,-13.672,29.785,17.578,0.488,5.859,0.000,0.000,0.000
489020.440,92.285,29.297,16.602,29.785,9.766,0.000,0.000,0.000
489020.444,67.383,33.691,14.648,19.043,6.836,0.000,0.000,0.000
489020.448,-52.246,40.039,19.043,-12.695,-3.906,0.000,0.000,0.000
489020.452,-43.945,41.016,20.020,-10.742,-17.090,0.000,0.000,0.000
489020.456,66.895,35.156,15.625,15.137,-24.414,0.000,0.000,0.000
489020.459,93.262,34.668,19.531,25.879,-30.273,0.000,0.000,0.000
489020.463,-15.137,38.574,23.438,8.301,-26.367,0.000,0.000,0.000
489020.467,-49.316,36.621,24.414,4.395,-8.301,0.000,0.000,0.000
489020.471,49.805,31.738,22.461,33.691,-1.953,0.000,0.000,0.000
489020.475,109.863,35.156,22.461,47.852,-5.371,0.000,0.000,0.000
489020.479,10.742,30.273,25.879,16.602,-8.789,0.000,0.000,0.000
489020.483,-65.918,28.809,28.809,7.324,3.418,0.000,0.000,0.000
489020.487,19.043,38.086,32.227,33.203,17.090,0.000,0.000,0.000
489020.491,110.840,36.133,26.367,59.082,20.020,0.000,0.000,0.000
489020.495,47.852,31.738,23.438,39.062,11.230,0.000,0.000,0.000
489020.498,-54.688,35.156,25.879,4.883,7.812,0.000,0.000,0.000
489020.502,-9.766,34.668,27.344,19.531,9.277,0.000,0.000,0.000
489020.506,95.215,31.738,27.344,41.992,10.254,0.000,0.000,0.000
489020.510,77.637,29.785,26.367,28.320,12.695,0.000,0.000,0.000
489020.514,-38.574,30.273,34.180,7.324,10.742,0.000,0.000,0.000
489020.518,-39.062,35.645,36.133,15.137,2.930,0.000,0.000,0.000
489020.522,64.941,35.156,27.344,33.203,-12.207,0.000,0.000,0.000
489020.526,99.121,31.250,24.902,29.785,-12.207,0.000,0.000,0.000
489020.530,-5.859,35.156,31.250,1.953,0.000,0.000,0.000,0.000
489020.534,-57.617,37.598,27.344,-3.906,-0.488,0.000,0.000,0.000
489020.538,39.551,35.645,22.461,25.391,-4.395,0.000,0.000,0.000
489020.541,102.539,38.086,27.344,33.691,-6.836,0.000,0.000,0.000
489020.545,12.207,37.598,29.785,6.836,-2.441,0.000,0.000,0.000
489020.549,-61.035,35.645,28.809,0.000,12.695,0.000,0.000,0.000
489020.553,14.648,33.691,28.320,24.414,17.578,0.000,0.000,0.000
489020.557,108.887,32.227,30.762,41.992,-2.441,0.000,0.000,0.000
489020.561,56.641,34.180,31.738,24.414,-16.602,0.000,0.000,0.000
489020.565,-56.641,30.762,32.715,-0.977,-1.953,0.000,0.000,0.000
489020.569,-31.250,26.367,29.297,4.395,7.812,0.000,0.000,0.000
489020.573,73.730,24.902,23.438,27.344,-11.230,0.000,0.000,0.000
489020.577,73.242,25.879,20.508,18.555,-19.531,0.000,0.000,0.000
489020.580,-45.410,31.738,20.996,-6.348,-3.906,0.000,0.000,0.000
489020.584,-56.152,34.180,20.996,0.000,-4.395,0.000,0.000,0.000
489020.588,51.758,33.203,20.996,19.531,-0.488,0.000,0.000,0.000
489020.592,91.797,34.180,21.484,18.066,6.348,0.000,0.000,0.000
489020.596,-21.484,27.832,20.020,-9.277,-0.977,0.000,0.000,0.000
489020.600,-79.590,18.066,20.996,-16.602,-2.930,0.000,0.000,0.000
489020.604,18.066,27.832,26.855,13.184,4.395,0.000,0.000,0.000
489020.608,97.656,33.203,30.762,33.203,8.789,0.000,0.000,0.000
489020.612,20.508,23.438,26.855,10.742,6.836,0.000,0.000,0.000
489020.616,-78.125,23.438,24.414,-13.184,-4.395,0.000,0.000,0.000
489020.620,-12.695,28.809,25.879,8.301,-1.465,0.000,0.000,0.000
489020.623,97.656,35.156,24.902,30.762,4.395,2.000,1.000,90.000
489020.627,61.035,34.180,22.949,16.602,5.859,0.000,0.000,0.000
489020.631,-57.617,32.227,23.438,-3.906,3.906,0.000,0.000,0.000
489020.635,-35.156,34.668,23.926,-1.465,-6.348,0.000,0.000,0.000
489020.639,79.590,35.156,24.902,19.043,-11.230,0.000,0.000,0.000
489020.643,92.285,36.133,25.391,20.996,-12.207,0.000,0.000,0.000
489020.647,-27.344,37.598,27.832,-3.418,-10.254,0.000,0.000,0.000
489020.651,-53.223,33.203,25.879,-1.465,-5.859,0.000,0.000,0.000
489020.655,50.781,26.855,21.973,25.391,-6.836,0.000,0.000,0.000
489020.659,104.004,32.227,20.996,30.762,-5.371,0.000,0.000,0.000
489020.663,-1.465,34.180,20.996,6.836,9.277,0.000,0.000,0.000
489020.666,-73.242,29.785,21.973,-2.930,11.719,0.000,0.000,0.000
489020.670,15.625,28.809,22.949,22.949,22.949,0.000,0.000,0.000
489020.674,92.773,30.273,21.484,32.715,29.297,0.000,0.000,0.000
489020.678,22.461,35.156,23.438,7.324,9.277,0.000,0.000,0.000
489020.682,-81.055,35.156,23.438,-17.090,-14.160,0.000,0.000,0.000
489020.686,-33.691,33.203,20.020,-5.859,-29.785,0.000,0.000,0.000
489020.690,83.496,34.668,20.020,25.391,-20.508,0.000,0.000,0.000
489020.694,68.848,35.645,22.949,21.484,-9.766,0.000,0.000,0.000
489020.698,-51.758,31.738,26.367,-6.836,-5.371,0.000,0.000,0.000
489020.702,-36.133,34.180,27.344,-1.465,0.488,0.000,0.000,0.000
489020.705,86.426,38.574,24.902,29.785,3.906,0.000,0.000,0.000
489020.709,113.770,36.133,26.367,33.691,13.184,0.000,0.000,0.000
489020.713,3.418,36.621,26.855,3.418,20.020,0.000,0.000,0.000
489020.717,-35.156,38.574,23.926,-0.488,14.160,0.000,0.000,0.000
489020.721,64.941,38.086,27.832,27.832,11.230,0.000,0.000,0.000
489020.725,120.117,31.250,27.832,36.133,11.719,0.000,0.000,0.000
489020.729,22.949,26.855,25.879,9.766,6.836,0.000,0.000,0.000
489020.733,-48.828,25.391,26.367,-4.395,0.488,0.000,0.000,0.000
489020.737,25.391,22.461,26.855,16.602,-5.859,0.000,0.000,0.000
489020.741,111.328,25.391,29.297,39.551,-1.465,0.000,0.000,0.000
489020.745,52.734,24.414,34.668,29.297,4.883,0.000,0.000,0.000
489020.748,-58.105,24.902,38.086,5.371,-1.953,0.000,0.000,0.000
489020.752,-14.648,31.250,35.156,20.020,-1.953,0.000,0.000,0.000
489020.756,98.145,28.809,33.691,62.500,22.949,0.000,0.000,0.000
489020.760,83.496,23.438,33.691,53.711,33.203,0.000,0.000,0.000
489020.764,-43.457,25.879,30.273,0.488,9.277,0.000,0.000,0.000
489020.768,-44.434,32.715,32.227,0.977,-2.441,0.000,0.000,0.000
489020.772,75.684,27.344,33.203,35.156,5.859,0.000,0.000,0.000
489020.776,104.492,26.367,28.809,34.668,5.371,0.000,0.000,0.000
489020.780,-16.602,32.227,28.320,3.906,4.395,0.000,0.000,0.000
489020.784,-61.523,26.855,26.367,-2.441,9.277,0.000,0.000,0.000
489020.787,40.527,25.391,20.508,24.414,0.000,0.000,0.000,0.000
489020.791,110.352,28.809,22.461,35.645,-14.648,0.000,0.000,0.000
489020.795,22.461,28.809,25.879,5.859,-26.855,0.000,0.000,0.000
489020.799,-67.383,28.320,24.414,-21.484,-34.180,0.000,0.000,0.000
489020.803,4.395,30.762,22.461,1.953,-23.926,0.000,0.000,0.000
489020.807,104.980,34.668,22.461,29.297,-21.973,0.000,0.000,0.000
489020.811,56.152,38.086,24.414,14.160,-19.043,0.000,0.000,0.000
489020.815,-57.617,34.668,28.809,-5.859,-0.977,0.000,0.000,0.000
489020.819,-25.391,35.156,29.297,7.324,3.418,0.000,0.000,0.000
489020.823,80.078,32.227,20.508,28.809,2.930,0.000,0.000,0.000
489020.827,74.707,23.438,18.066,26.367,4.883,0.000,0.000,0.000
489020.830,-43.945,25.391,25.391,8.301,4.395,0.000,0.000,0.000
489020.834,-58.105,24.902,25.391,6.836,3.418,0.000,0.000,0.000
489020.838,61.523,26.855,21.973,25.879,11.230,0.000,0.000,0.000
489020.842,112.793,28.320,23.926,32.715,16.113,0.000,0.000,0.000
489020.846,-0.977,27.344,24.414,7.324,19.043,0.000,0.000,0.000
489020.850,-66.406,33.691,23.926,-3.418,18.066,0.000,0.000,0.000
489020.854,25.391,39.062,26.855,20.508,11.719,0.000,0.000,0.000
489020.858,104.980,41.504,28.320,32.227,22.461,0.000,0.000,0.000
489020.862,33.203,40.039,28.320,6.348,11.719,0.000,0.000,0.000
489020.866,-65.430,36.133,25.391,-13.184,-3.418,0.000,0.000,0.000
489020.869,-12.695,36.133,19.531,2.930,-4.395,0.000,0.000,0.000
489020.873,96.680,31.738,20.020,28.320,-13.672,0.000,0.000,0.000
489020.877,66.895,31.738,26.367,21.484,-11.719,0.000,0.000,0.000
489020.881,-52.246,34.668,27.832,-2.930,-8.789,0.000,0.000,0.000
489020.885,-31.738,34.180,26.855,7.324,1.953,0.000,0.000,0.000
489020.889,88.379,40.527,30.762,42.969,21.484,0.000,0.000,0.000
489020.893,106.445,42.969,33.203,46.875,16.113,0.000,0.000,0.000
489020.897,-9.766,35.645,33.203,11.230,7.324,0.000,0.000,0.000
489020.901,-34.180,36.133,35.645,7.324,10.254,0.000,0.000,0.000
489020.905,72.754,34.668,34.180,37.109,13.184,0.000,0.000,0.000
489020.909,133.301,34.180,32.227,48.340,26.855,0.000,0.000,0.000
489020.912,27.832,39.062,32.715,17.090,23.438,0.000,0.000,0.000
489020.916,-50.293,36.621,31.250,4.395,7.324,0.000,0.000,0.000
489020.920,35.645,34.668,30.762,35.156,14.160,0.000,0.000,0.000
489020.924,119.141,35.645,29.785,48.828,19.043,0.000,0.000,0.000
489020.928,49.805,40.039,29.785,19.531,17.578,0.000,0.000,0.000
489020.932,-58.594,40.527,28.809,-4.395,16.113,0.000,0.000,0.000
489020.936,-9.277,32.227,28.320,15.625,18.555,0.000,0.000,0.000
489020.940,101.074,28.809,28.809,42.969,19.043,0.000,0.000,0.000
489020.944,66.406,29.297,30.762,26.367,8.301,0.000,0.000,0.000
489020.948,-57.617,35.156,33.203,0.488,12.695,0.000,0.000,0.000
489020.952,-41.992,37.598,30.762,5.859,25.879,0.000,0.000,0.000
489020.955,69.336,29.785,23.438,20.996,12.695,0.000,0.000,0.000
489020.959,89.355,31.738,25.879,25.879,-0.488,0.000,0.000,0.000
489020.963,-23.926,40.527,30.273,7.324,3.906,0.000,0.000,0.000
489020.967,-59.082,39.062,21.484,-2.930,3.906,0.000,0.000,0.000
489020.971,49.316,34.668,20.508,20.020,-0.977,0.000,0.000,0.000
489020.975,118.164,38.574,27.344,35.156,-1.465,0.000,0.000,0.000
489020.979,23.926,36.621,25.879,17.090,2.441,0.000,0.000,0.000
489020.983,-55.176,36.621,25.391,5.859,11.719,0.000,0.000,0.000
489020.987,25.879,43.945,24.414,20.508,6.836,0.000,0.000,0.000
489020.991,117.676,43.457,22.949,34.180,3.418,0.000,0.000,0.000
489020.994,58.105,37.598,27.344,20.020,10.254,0.000,0.000,0.000
489020.998,-53.711,39.551,26.855,-0.977,3.906,0.000,0.000,0.000
489021.002,-9.766,41.504,26.367,19.043,5.371,0.000,0.000,0.000
489021.006,102.051,40.527,28.809,54.199,21.484,0.000,0.000,0.000
489021.010,85.449,40.039,24.414,38.086,20.508,0.000,0.000,0.000
489021.014,-38.086,37.109,20.020,-1.953,7.324,0.000,0.000,0.000
489021.018,-41.016,31.738,20.996,4.395,2.441,0.000,0.000,0.000
489021.022,75.195,35.156,22.949,37.109,0.000,0.000,0.000,0.000
489021.026,111.328,45.410,27.344,52.246,14.160,4.000,1.000,90.000
489021.030,-8.789,41.992,26.855,22.949,13.184,0.000,0.000,0.000
489021.034,-67.383,30.273,22.949,-8.301,3.418,0.000,0.000,0.000
489021.037,31.250,31.250,22.461,19.043,16.113,0.000,0.000,0.000
489021.041,108.887,36.133,20.996,42.969,11.230,0.000,0.000,0.000
489021.045,21.973,35.645,21.973,11.230,-4.883,0.000,0.000,0.000
489021.049,-69.336,36.621,21.973,-11.719,0.977,0.000,0.000,0.000
489021.053,2.930,37.109,22.461,7.812,4.883,0.000,0.000,0.000
489021.057,102.051,34.668,21.973,31.250,3.906,0.000,0.000,0.000
489021.061,59.570,40.527,22.949,23.438,10.742,0.000,0.000,0.000
489021.065,-56.641,40.039,24.902,0.000,7.812,0.000,0.000,0.000
489021.069,-35.645,25.391,24.414,10.254,-1.465,0.000,0.000,0.000
489021.073,80.566,28.320,22.949,38.086,1.465,0.000,0.000,0.000
489021.076,85.938,34.180,21.973,34.180,3.906,0.000,0.000,0.000
489021.080,-30.273,36.133,29.297,6.348,9.766,0.000,0.000,0.000
489021.084,-41.016,38.574,30.273,6.348,9.766,0.000,0.000,0.000
489021.088,68.848,34.180,27.344,31.738,8.301,0.000,0.000,0.000
489021.092,115.234,38.086,30.762,42.480,6.836,0.000,0.000,0.000
489021.096,6.836,38.574,30.273,14.160,4.395,0.000,0.000,0.000
489021.100,-56.641,34.180,27.344,-6.836,2.930,0.000,0.000,0.000
489021.104,35.645,35.645,24.902,17.578,3.418,0.000,0.000,0.000
489021.108,115.723,36.133,26.855,36.621,4.395,0.000,0.000,0.000
489021.112,37.598,35.645,30.273,16.113,10.742,0.000,0.000,0.000
489021.116,-58.594,34.180,30.762,10.742,16.113,0.000,0.000,0.000
489021.119,3.418,31.738,27.344,20.996,6.348,0.000,0.000,0.000
489021.123,103.516,31.250,25.879,25.879,-1.465,0.000,0.000,0.000
489021.127,62.988,32.227,26.855,11.719,-0.488,0.000,0.000,0.000
489021.131,-61.523,34.668,27.832,-12.207,0.488,0.000,0.000,0.000
489021.135,-35.156,30.273,24.902,5.371,4.395,0.000,0.000,0.000
489021.139,82.520,23.926,21.973,33.691,16.602,0.000,0.000,0.000
489021.143,94.238,33.691,25.879,36.133,34.668,0.000,0.000,0.000
489021.147,-22.949,35.156,25.391,8.789,22.949,0.000,0.000,0.000
489021.151,-54.688,29.785,26.367,0.488,2.930,0.000,0.000,0.000
489021.155,53.711,35.156,24.414,29.785,2.930,0.000,0.000,0.000
489021.159,113.770,36.133,21.973,42.480,5.371,0.000,0.000,0.000
489021.162,7.324,34.668,29.297,20.020,7.324,0.000,0.000,0.000
489021.166,-75.684,30.762,31.738,11.230,4.883,0.000,0.000,0.000
489021.170,6.348,28.320,34.180,25.391,6.348,0.000,0.000,0.000
489021.174,100.098,30.762,33.203,43.945,18.066,0.000,0.000,0.000
489021.178,36.621,32.715,31.250,27.832,17.090,0.000,0.000,0.000
489021.182,-64.941,39.062,36.133,-2.930,0.488,0.000,0.000,0.000
489021.186,-16.602,36.133,31.738,6.836,-6.348,0.000,0.000,0.000
489021.190,85.449,25.879,27.344,33.691,-3.906,0.000,0.000,0.000
489021.194,66.895,30.273,28.320,28.320,1.953,0.000,0.000,0.000
489021.198,-46.387,35.156,26.367,1.953,8.789,0.000,0.000,0.000
489021.201,-37.598,35.645,24.414,4.883,3.906,0.000,0.000,0.000
489021.205,78.125,34.180,23.926,30.762,-3.418,0.000,0.000,0.000
489021.209,108.887,33.203,23.926,31.250,0.488,0.000,0.000,0.000
489021.213,-7.324,33.691,26.855,4.883,3.418,0.000,0.000,0.000
489021.217,-49.805,33.691,24.902,0.000,-2.441,0.000,0.000,0.000
489021.221,48.828,28.320,21.973,28.320,1.953,0.000,0.000,0.000
489021.225,124.512,31.738,23.926,45.898,12.207,0.000,0.000,0.000
489021.229,32.227,38.086,21.973,16.602,6.348,0.000,0.000,0.000
489021.233,-58.594,33.203,23.438,4.395,12.207,0.000,0.000,0.000
489021.237,24.414,33.203,25.879,30.273,29.297,0.000,0.000,0.000
489021.241,112.793,38.086,25.391,39.062,29.297,0.000,0.000,0.000
489021.244,46.387,41.016,26.855,15.137,16.602,0.000,0.000,0.000
489021.248,-63.965,41.992,29.297,-2.930,13.672,0.000,0.000,0.000
489021.252,-29.785,39.062,29.297,11.719,3.418,0.000,0.000,0.000
489021.256,80.078,36.621,24.902,40.527,2.930,0.000,0.000,0.000
489021.260,75.195,39.062,24.902,32.227,6.836,0.000,0.000,0.000
489021.264,-48.340,33.691,28.320,-2.930,5.859,0.000,0.000,0.000
489021.268,-61.523,28.809,25.879,-3.906,17.578,0.000,0.000,0.000
489021.272,51.758,33.203,25.391,22.461,10.742,0.000,0.000,0.000
489021.276,91.309,33.203,27.832,31.738,-3.906,0.000,0.000,0.000
489021.280,-21.484,35.156,27.832,11.719,8.789,0.000,0.000,0.000
489021.283,-71.289,38.086,28.320,0.977,23.926,0.000,0.000,0.000
489021.287,31.250,32.227,31.738,21.973,5.859,0.000,0.000,0.000
489021.291,110.840,37.109,36.133,47.852,-0.977,0.000,0.000,0.000
489021.295,23.438,33.203,31.250,25.391,5.859,0.000,0.000,0.000
489021.299,-67.871,28.320,25.879,-1.953,6.348,0.000,0.000,0.000
489021.303,2.930,35.156,29.297,18.555,9.766,0.000,0.000,0.000
489021.307,101.562,35.156,25.391,36.621,2.930,0.000,0.000,0.000
489021.311,56.152,34.180,21.973,23.926,-0.488,0.000,0.000,0.000
489021.315,-59.570,35.645,21.973,-6.348,3.418,2.000,1.000,135.000
489021.319,-30.273,40.527,18.555,-13.184,8.789,0.000,0.000,0.000
489021.323,84.473,41.992,20.996,20.020,18.555,0.000,0.000,0.000
489021.326,90.332,41.016,25.391,28.320,17.090,0.000,0.000,0.000
489021.330,-32.715,35.645,22.461,-2.930,7.324,0.000,0.000,0.000
489021.334,-52.734,31.250,20.996,-8.789,0.000,0.000,0.000,0.000
489021.338,60.059,38.086,23.438,20.996,2.441,0.000,0.000,0.000
489021.342,109.375,36.133,22.949,31.250,2.930,0.000,0.000,0.000
489021.346,2.441,34.180,23.438,4.395,12.695,0.000,0.000,0.000
489021.350,-64.941,39.062,28.809,-3.418,19.043,0.000,0.000,0.000
489021.354,25.391,34.180,28.320,23.438,11.719,0.000,0.000,0.000
489021.358,109.863,35.645,30.762,49.316,20.996,0.000,0.000,0.000
489021.362,28.320,36.133,34.668,27.832,13.672,0.000,0.000,0.000
489021.365,-76.172,25.879,34.180,0.977,-2.441,0.000,0.000,0.000
489021.369,-16.602,28.320,33.691,21.973,6.836,0.000,0.000,0.000
489021.373,88.867,34.180,29.297,42.969,8.301,0.000,0.000,0.000
489021.377,57.129,32.227,29.297,26.855,0.488,0.000,0.000,0.000
489021.381,-63.477,30.273,27.344,-2.930,-0.977,0.000,0.000,0.000
489021.385,-44.922,34.668,22.461,7.324,1.953,0.000,0.000,0.000
489021.389,75.195,36.133,24.414,41.504,7.812,0.000,0.000,0.000
489021.393,97.656,38.086,30.273,48.828,14.160,0.000,0.000,0.000
489021.397,-27.832,34.180,30.762,8.789,15.137,0.000,0.000,0.000
489021.401,-60.059,25.879,24.414,-6.836,8.789,0.000,0.000,0.000
489021.405,50.293,27.832,21.484,21.484,9.277,0.000,0.000,0.000
489021.408,111.328,27.344,21.973,31.738,7.324,0.000,0.000,0.000
489021.412,13.672,32.227,23.926,8.301,5.371,0.000,0.000,0.000
489021.416,-64.941,38.574,22.949,-5.371,15.625,0.000,0.000,0.000
489021.420,20.996,37.598,25.391,17.090,19.043,0.000,0.000,0.000
489021.424,109.863,37.109,24.414,34.668,0.977,0.000,0.000,0.000
489021.428,45.898,32.227,21.973,13.184,-3.418,0.000,0.000,0.000
489021.432,-62.500,28.809,20.020,-9.766,-2.930,0.000,0.000,0.000
489021.436,-23.438,30.273,19.043,4.395,-6.348,0.000,0.000,0.000
489021.440,88.379,29.297,21.484,30.273,3.418,0.000,0.000,0.000
489021.444,70.801,25.391,20.508,25.879,8.789,0.000,0.000,0.000
489021.448,-50.293,26.367,27.344,3.418,13.672,0.000,0.000,0.000
489021.451,-47.363,27.832,27.344,6.348,0.977,0.000,0.000,0.000
489021.455,64.453,28.320,20.020,25.879,-17.090,0.000,0.000,0.000
489021.459,93.750,31.250,22.461,32.227,-7.812,0.000,0.000,0.000
489021.463,-15.625,33.691,26.855,8.301,2.441,0.000,0.000,0.000
489021.467,-54.199,34.668,23.438,4.883,6.836,0.000,0.000,0.000
489021.471,46.387,35.645,20.508,32.715,3.418,0.000,0.000,0.000
489021.475,103.027,31.250,20.508,39.062,-7.324,0.000,0.000,0.000
489021.479,12.695,30.762,21.973,9.766,-5.371,0.000,0.000,0.000
489021.483,-61.035,34.668,25.879,-14.160,-4.883,0.000,0.000,0.000
489021.487,17.090,31.738,23.438,6.836,-16.113,0.000,0.000,0.000
489021.490,114.258,28.809,22.949,36.133,-27.832,0.000,0.000,0.000
489021.494,55.176,32.227,23.926,12.207,-35.156,0.000,0.000,0.000
489021.498,-61.523,33.691,24.902,-16.113,-26.367,0.000,0.000,0.000
489021.502,-17.578,33.203,24.902,6.836,-0.977,0.000,0.000,0.000
489021.506,93.750,33.691,22.461,33.691,8.301,0.000,0.000,0.000
489021.510,81.543,30.762,25.879,26.855,9.766,0.000,0.000,0.000
489021.514,-35.156,35.645,30.762,1.953,15.137,0.000,0.000,0.000
489021.518,-33.691,37.109,25.391,6.348,8.301,0.000,0.000,0.000
489021.522,76.172,28.320,20.020,32.715,15.137,0.000,0.000,0.000
489021.526,104.980,30.762,21.973,37.109,25.391,0.000,0.000,0.000
489021.530,-9.766,35.645,23.926,7.812,26.855,0.000,0.000,0.000
489021.533,-62.012,28.809,21.973,-5.859,29.297,0.000,0.000,0.000
489021.537,37.109,30.273,24.414,20.020,24.902,0.000,0.000,0.000
489021.541,109.375,32.715,25.391,38.086,15.137,0.000,0.000,0.000
489021.545,24.902,33.691,21.484,13.672,15.137,0.000,0.000,0.000
489021.549,-63.965,34.180,21.973,-9.277,14.648,0.000,0.000,0.000
489021.553,2.930,34.668,24.902,17.578,13.672,0.000,0.000,0.000
489021.557,93.262,30.273,18.555,43.945,10.254,0.000,0.000,0.000
489021.561,45.410,23.926,20.020,20.508,2.441,0.000,0.000,0.000
489021.565,-67.383,27.832,27.344,-12.695,-8.301,0.000,0.000,0.000
489021.569,-36.621,36.621,27.344,0.000,-6.836,0.000,0.000,0.000
489021.572,79.102,39.551,21.973,28.809,-5.859,0.000,0.000,0.000
489021.576,83.008,39.062,23.438,27.344,-6.348,0.000,0.000,0.000
489021.580,-36.621,39.062,25.879,0.000,-7.324,0.000,0.000,0.000
489021.584,-50.293,31.250,22.949,-1.465,0.488,0.000,0.000,0.000
489021.588,61.035,28.320,21.484,24.902,3.906,0.000,0.000,0.000
489021.592,105.469,36.133,24.414,34.180,-5.371,0.000,0.000,0.000
489021.596,10.742,37.109,24.902,8.789,0.488,0.000,0.000,0.000
489021.600,-50.781,27.344,20.996,-5.371,4.395,0.000,0.000,0.000
489021.604,25.391,25.879,20.020,14.160,5.371,0.000,0.000,0.000
489021.608,108.887,33.203,19.043,36.133,13.672,0.000,0.000,0.000
489021.612,42.969,33.203,21.484,20.508,16.602,0.000,0.000,0.000
489021.615,-50.293,34.668,20.020,-1.465,12.207,0.000,0.000,0.000
489021.619,2.930,33.691,17.090,16.113,18.555,0.000,0.000,0.000
489021.623,104.980,31.738,20.020,41.016,18.555,0.000,0.000,0.000
489021.627,77.637,33.691,25.391,30.273,-0.977,0.000,0.000,0.000
489021.631,-41.016,33.203,28.320,7.812,-1.465,0.000,0.000,0.000
489021.635,-34.180,33.203,27.344,13.672,6.836,0.000,0.000,0.000
489021.639,79.102,32.227,28.809,39.062,12.695,0.000,0.000,0.000
489021.643,101.562,28.320,28.809,47.852,17.090,0.000,0.000,0.000
489021.647,-13.184,31.738,25.391,20.996,13.184,0.000,0.000,0.000
489021.651,-37.598,34.668,26.855,10.742,15.137,0.000,0.000,0.000
489021.655,67.383,30.273,26.367,34.180,18.066,0.000,0.000,0.000
489021.658,115.723,26.855,25.391,45.898,18.066,0.000,0.000,0.000
489021.662,13.672,28.809,27.344,16.113,12.207,0.000,0.000,0.000
489021.666,-62.500,25.879,23.926,-2.930,10.254,0.000,0.000,0.000
489021.670,18.555,27.832,22.949,23.926,26.855,0.000,0.000,0.000
489021.674,107.422,29.785,22.461,46.387,41.504,0.000,0.000,0.000
489021.678,51.270,32.715,22.461,27.344,27.344,0.000,0.000,0.000
489021.682,-50.293,37.598,22.949,7.324,10.254,0.000,0.000,0.000
489021.686,-11.719,35.156,21.484,18.555,17.090,0.000,0.000,0.000
489021.690,94.727,32.715,22.461,40.527,16.602,0.000,0.000,0.000
489021.694,72.754,25.391,24.414,23.926,1.465,0.000,0.000,0.000
489021.697,-43.945,24.414,23.438,0.000,-0.977,0.000,0.000,0.000
489021.701,-38.086,27.832,20.996,5.371,-2.930,0.000,0.000,0.000
489021.705,69.824,26.855,21.484,25.879,-9.277,0.000,0.000,0.000
489021.709,88.379,28.809,21.973,24.414,-13.184,0.000,0.000,0.000
489021.713,-28.809,30.762,25.879,0.000,-12.207,0.000,0.000,0.000
489021.717,-66.406,25.879,24.902,-1.465,9.277,4.000,1.000,135.000
489021.721,37.598,25.391,22.461,25.391,6.348,0.000,0.000,0.000
489021.725,104.980,31.250,22.461,40.527,-20.996,0.000,0.000,0.000
489021.729,18.555,27.344,21.973,6.836,-17.578,0.000,0.000,0.000
489021.733,-68.359,22.461,21.484,-20.020,-8.301,0.000,0.000,0.000
489021.737,4.395,30.273,22.949,2.930,-2.930,0.000,0.000,0.000
489021.740,101.562,35.156,22.949,24.414,-5.859,0.000,0.000,0.000
489021.744,47.852,34.668,21.973,11.719,-2.930,0.000,0.000,0.000
489021.748,-60.547,33.691,23.438,-10.742,10.742,0.000,0.000,0.000
489021.752,-29.785,32.227,20.996,-4.395,6.348,0.000,0.000,0.000
489021.756,82.520,37.598,20.020,24.902,-9.766,0.000,0.000,0.000
489021.760,84.961,40.039,26.855,29.785,-9.277,0.000,0.000,0.000
489021.764,-38.574,41.016,28.320,-0.488,-7.812,0.000,0.000,0.000
489021.768,-49.805,38.574,24.902,-7.324,-5.859,0.000,0.000,0.000
489021.772,63.477,32.715,23.926,21.973,2.441,0.000,0.000,0.000
489021.776,99.609,29.297,20.996,31.250,3.906,0.000,0.000,0.000
489021.779,-8.789,34.180,23.438,6.348,7.812,0.000,0.000,0.000
489021.783,-65.430,41.016,24.902,-9.277,7.324,0.000,0.000,0.000
489021.787,28.320,37.598,20.508,16.602,4.883,0.000,0.000,0.000
489021.791,112.793,36.621,23.438,40.527,11.230,0.000,0.000,0.000
489021.795,28.809,37.109,28.320,16.113,14.160,0.000,0.000,0.000
489021.799,-71.289,28.809,27.344,-8.789,6.836,0.000,0.000,0.000
489021.803,-2.930,31.738,25.879,15.625,5.859,0.000,0.000,0.000
489021.807,97.168,33.203,26.855,40.527,7.812,0.000,0.000,0.000
489021.811,55.664,25.879,28.320,18.066,17.090,0.000,0.000,0.000
489021.815,-60.059,30.762,30.762,-4.883,35.156,0.000,0.000,0.000
489021.819,-31.250,36.621,28.809,15.137,32.715,0.000,0.000,0.000
489021.822,81.055,28.809,21.484,44.434,23.926,0.000,0.000,0.000
489021.826,82.031,25.391,22.461,38.574,20.996,0.000,0.000,0.000
489021.830,-40.527,30.762,26.367,3.906,0.977,0.000,0.000,0.000
489021.834,-63.965,32.227,26.855,5.859,-2.441,0.000,0.000,0.000
489021.838,45.898,32.715,23.438,35.156,3.418,0.000,0.000,0.000
489021.842,93.750,39.062,23.438,40.527,5.371,0.000,0.000,0.000
489021.846,-6.348,42.969,25.879,12.207,5.859,0.000,0.000,0.000
489021.850,-59.082,33.691,24.414,-5.371,3.418,0.000,0.000,0.000
489021.854,33.203,27.832,22.949,15.625,1.465,0.000,0.000,0.000
489021.858,111.816,31.738,23.438,41.504,-1.465,0.000,0.000,0.000
489021.861,39.062,35.645,25.391,26.855,5.859,0.000,0.000,0.000
489021.865,-59.082,34.668,24.902,0.488,12.207,0.000,0.000,0.000
489021.869,-3.418,37.109,28.320,16.113,25.879,0.000,0.000,0.000
489021.873,98.633,40.039,25.879,33.203,22.461,0.000,0.000,0.000
489021.877,64.453,40.527,20.508,13.184,-1.953,0.000,0.000,0.000
489021.881,-52.734,43.457,25.879,-13.672,0.000,0.000,0.000,0.000
489021.885,-32.227,46.387,28.320,1.465,12.695,0.000,0.000,0.000
489021.889,82.520,40.039,24.414,29.297,15.625,0.000,0.000,0.000
489021.893,100.098,31.738,20.508,27.344,15.625,0.000,0.000,0.000
489021.897,-17.578,33.691,21.484,9.277,16.602,0.000,0.000,0.000
489021.901,-51.758,40.039,23.438,16.602,17.090,0.000,0.000,0.000
489021.904,51.270,46.387,25.879,42.480,2.441,0.000,0.000,0.000
489021.908,108.398,42.480,26.367,41.504,-5.859,0.000,0.000,0.000
489021.912,14.160,40.039,31.250,19.531,14.160,0.000,0.000,0.000
489021.916,-62.988,42.969,31.250,6.836,16.113,0.000,0.000,0.000
489021.920,8.789,41.016,24.902,19.531,3.906,0.000,0.000,0.000
489021.924,102.539,39.062,27.344,39.062,14.160,0.000,0.000,0.000
489021.928,41.504,39.551,28.320,17.578,18.555,0.000,0.000,0.000
489021.932,-71.289,36.621,26.855,-8.301,13.184,0.000,0.000,0.000
489021.936,-22.461,35.156,29.297,9.277,14.648,0.000,0.000,0.000
489021.940,88.379,34.180,31.738,32.227,14.648,0.000,0.000,0.000
489021.944,74.707,38.086,35.645,27.344,16.113,0.000,0.000,0.000
489021.947,-45.898,41.504,33.691,-0.977,23.926,0.000,0.000,0.000
489021.951,-44.922,34.180,28.809,-1.465,19.531,0.000,0.000,0.000
489021.955,71.289,36.133,26.855,22.461,5.859,0.000,0.000,0.000
489021.959,98.633,37.109,25.879,23.438,-0.488,0.000,0.000,0.000
489021.963,-18.066,37.109,24.414,-3.418,0.488,0.000,0.000,0.000
489021.967,-55.176,46.875,26.367,-7.324,11.230,0.000,0.000,0.000
489021.971,44.434,41.016,25.879,19.043,15.137,0.000,0.000,0.000
489021.975,107.422,29.785,23.926,47.852,20.020,0.000,0.000,0.000
489021.979,22.949,34.668,26.855,31.250,25.879,0.000,0.000,0.000
489021.983,-57.129,33.691,28.320,2.441,17.578,0.000,0.000,0.000
489021.986,18.555,27.832,26.855,21.973,14.160,0.000,0.000,0.000
489021.990,116.699,28.809,30.762,43.457,19.043,0.000,0.000,0.000
489021.994,54.199,30.273,30.273,17.578,16.602,0.000,0.000,0.000
489021.998,-66.406,28.320,28.320,-9.766,-0.488,0.000,0.000,0.000
489022.002,-23.926,33.203,32.227,12.207,-10.742,0.000,0.000,0.000
489022.006,87.891,39.551,32.715,38.086,1.953,0.000,0.000,0.000
489022.010,71.289,30.273,25.879,19.531,2.930,0.000,0.000,0.000
489022.014,-40.527,26.367,27.832,-3.418,4.395,0.000,0.000,0.000
489022.018,-41.016,31.738,31.250,8.301,7.324,0.000,0.000,0.000
489022.022,67.871,32.715,28.809,33.203,0.488,0.000,0.000,0.000
489022.026,106.934,33.203,26.855,31.250,8.789,0.000,0.000,0.000
489022.029,2.930,33.203,29.785,3.906,10.254,0.000,0.000,0.000
489022.033,-48.828,30.273,29.785,0.000,-2.930,0.000,0.000,0.000
489022.037,39.551,29.785,25.879,20.020,-12.207,0.000,0.000,0.000
489022.041,114.258,33.203,30.762,32.715,-14.160,0.000,0.000,0.000
489022.045,34.180,40.039,32.715,15.625,-6.348,0.000,0.000,0.000
489022.049,-66.406,36.133,28.320,-8.789,-5.371,0.000,0.000,0.000
489022.053,0.977,29.785,27.832,13.184,-4.883,0.000,0.000,0.000
489022.057,107.910,31.738,25.391,37.109,-5.371,0.000,0.000,0.000
489022.061,64.453,27.344,21.973,13.184,4.395,0.000,0.000,0.000
489022.065,-55.176,29.297,22.949,-20.508,0.000,0.000,0.000,0.000
489022.068,-34.180,33.203,19.043,-10.254,-14.160,0.000,0.000,0.000
489022.072,81.055,37.598,20.996,25.879,-4.883,0.000,0.000,0.000
489022.076,86.426,38.086,27.832,24.902,-3.906,0.000,0.000,0.000
489022.080,-36.133,40.039,25.879,-9.277,-7.812,0.000,0.000,0.000
489022.084,-53.223,34.668,22.461,-16.602,-13.184,0.000,0.000,0.000
489022.088,54.688,19.043,20.508,12.207,-6.348,0.000,0.000,0.000
489022.092,96.191,22.461,19.531,23.438,5.371,0.000,0.000,0.000
489022.096,-7.812,34.180,24.414,-3.418,-3.418,0.000,0.000,0.000
489022.100,-70.312,38.086,28.809,-13.184,-1.465,0.000,0.000,0.000
489022.104,22.461,37.598,32.715,13.672,6.348,0.000,0.000,0.000
489022.108,115.723,40.039,35.645,38.086,12.695,1.000,1.000,45.000
489022.111,50.293,41.504,34.180,21.973,13.184,0.000,0.000,0.000
489022.115,-52.246,40.527,35.156,-2.930,5.371,0.000,0.000,0.000
489022.119,-2.441,34.180,34.180,10.742,9.277,0.000,0.000,0.000
489022.123,98.145,30.273,27.832,28.320,10.742,0.000,0.000,0.000
489022.127,76.172,32.227,26.367,17.578,4.883,0.000,0.000,0.000
489022.131,-33.691,38.086,28.320,-2.930,2.930,0.000,0.000,0.000
489022.135,-30.762,32.715,27.344,3.906,10.254,0.000,0.000,0.000
489022.139,75.684,28.320,26.855,42.480,13.672,0.000,0.000,0.000
489022.143,91.309,34.180,28.320,39.551,3.906,0.000,0.000,0.000
489022.147,-20.996,35.645,31.250,1.953,-2.441,0.000,0.000,0.000
489022.151,-49.805,28.809,27.832,-6.348,-4.395,0.000,0.000,0.000
489022.154,46.387,28.809,23.438,17.090,0.488,0.000,0.000,0.000
489022.158,104.492,30.762,23.438,24.414,0.977,0.000,0.000,0.000
489022.162,6.836,33.203,25.879,-8.789,-12.207,0.000,0.000,0.000
489022.166,-81.055,31.738,26.855,-24.414,-18.555,0.000,0.000,0.000
489022.170,-2.930,28.320,23.926,3.906,-16.602,0.000,0.000,0.000
489022.174,94.238,35.645,20.020,24.414,-15.137,0.000,0.000,0.000
489022.178,33.691,36.621,22.461,8.789,-7.812,0.000,0.000,0.000
489022.182,-64.941,36.621,25.879,-12.695,5.371,0.000,0.000,0.000
489022.186,-17.578,37.598,23.438,2.930,17.578,0.000,0.000,0.000
489022.190,93.262,38.574,24.902,36.133,24.902,0.000,0.000,0.000
489022.193,82.520,33.691,26.855,34.668,22.949,0.000,0.000,0.000
489022.197,-41.504,28.320,27.344,6.348,9.277,0.000,0.000,0.000
489022.201,-45.898,28.809,26.367,-0.977,-8.301,0.000,0.000,0.000
489022.205,66.406,31.250,21.973,23.438,-13.672,0.000,0.000,0.000
489022.209,100.098,35.645,19.531,29.785,-4.883,0.000,0.000,0.000
489022.213,-9.277,36.133,24.414,4.883,-0.488,0.000,0.000,0.000
489022.217,-44.922,36.133,25.391,0.977,-4.883,0.000,0.000,0.000
489022.221,51.758,32.227,19.043,24.902,-6.836,0.000,0.000,0.000
489022.225,109.863,30.762,19.043,41.504,-3.418,0.000,0.000,0.000
489022.229,20.508,36.621,23.926,15.137,0.977,0.000,0.000,0.000
489022.233,-63.477,36.133,27.832,-11.719,5.859,0.000,0.000,0.000
489022.236,6.348,30.762,21.973,7.812,1.953,0.000,0.000,0.000
489022.240,100.586,31.250,17.090,28.809,0.488,0.000,0.000,0.000
489022.244,62.012,33.203,20.020,13.184,12.695,0.000,0.000,0.000
489022.248,-47.852,36.621,20.020,-12.695,20.020,0.000,0.000,0.000
489022.252,-24.414,41.992,21.484,1.953,27.832,0.000,0.000,0.000
489022.256,82.520,34.180,20.508,32.715,15.625,0.000,0.000,0.000
489022.260,80.566,27.832,20.508,26.367,-5.859,0.000,0.000,0.000
489022.264,-35.156,32.715,24.414,-4.883,-1.465,0.000,0.000,0.000
489022.268,-52.734,30.762,26.367,-4.883,3.906,0.000,0.000,0.000
489022.272,57.129,28.320,29.785,23.926,15.625,0.000,0.000,0.000
489022.275,96.680,31.738,28.809,39.551,31.250,0.000,0.000,0.000
489022.279,-14.160,33.203,27.832,12.695,20.508,0.000,0.000,0.000
489022.283,-52.246,35.156,28.809,1.953,11.230,0.000,0.000,0.000
489022.287,46.387,41.016,22.949,28.320,18.555,0.000,0.000,0.000
489022.291,104.492,37.598,20.508,36.621,20.020,0.000,0.000,0.000
489022.295,25.879,32.227,21.973,17.090,17.578,0.000,0.000,0.000
489022.299,-57.129,31.738,22.949,-3.906,17.090,0.000,0.000,0.000
489022.303,2.441,35.645,24.414,16.113,16.602,0.000,0.000,0.000
489022.307,104.980,36.621,24.414,42.969,14.160,0.000,0.000,0.000
489022.311,73.730,33.691,24.902,26.855,14.160,0.000,0.000,0.000
489022.315,-42.969,37.598,23.926,5.371,18.555,0.000,0.000,0.000
489022.318,-26.367,38.574,22.949,14.648,8.789,0.000,0.000,0.000
489022.322,84.473,36.133,21.973,31.250,-6.348,0.000,0.000,0.000
489022.326,95.215,36.621,17.578,18.066,-9.277,0.000,0.000,0.000
489022.330,-33.203,34.180,17.090,-10.254,-14.160,0.000,0.000,0.000
489022.334,-64.941,33.691,16.602,-10.254,-23.926,0.000,0.000,0.000
489022.338,44.922,36.621,13.672,15.625,-19.531,0.000,0.000,0.000
489022.342,95.215,36.621,19.043,26.855,-7.812,0.000,0.000,0.000
489022.346,-5.859,38.574,20.508,3.418,-4.395,0.000,0.000,0.000
489022.350,-62.500,41.504,21.484,-7.324,-3.418,0.000,0.000,0.000
489022.354,27.344,39.062,24.902,11.719,-2.930,0.000,0.000,0.000
489022.357,109.863,38.574,25.391,30.273,11.719,0.000,0.000,0.000
489022.361,40.039,34.668,25.391,14.648,2.441,0.000,0.000,0.000
489022.365,-63.477,29.785,23.926,-11.230,-20.996,0.000,0.000,0.000
489022.369,-14.648,35.156,26.855,2.441,-12.207,0.000,0.000,0.000
489022.373,96.680,33.691,25.879,31.738,-7.324,0.000,0.000,0.000
489022.377,79.102,29.297,25.391,26.367,-2.930,0.000,0.000,0.000
489022.381,-40.527,33.691,28.809,0.000,7.324,0.000,0.000,0.000
489022.385,-29.785,36.621,27.344,9.277,17.090,0.000,0.000,0.000
489022.389,89.355,41.992,28.320,41.016,17.578,0.000,0.000,0.000
489022.393,108.887,39.062,28.809,43.457,12.695,0.000,0.000,0.000
489022.397,-16.113,26.855,25.879,8.789,10.254,0.000,0.000,0.000
489022.400,-60.059,25.879,26.855,6.348,8.789,0.000,0.000,0.000
489022.404,43.945,34.668,28.809,46.387,10.742,0.000,0.000,0.000
489022.408,106.934,37.109,29.785,55.176,7.324,0.000,0.000,0.000
489022.412,4.395,28.809,28.320,10.742,-4.395,0.000,0.000,0.000
489022.416,-74.219,27.832,25.879,-12.695,-5.371,0.000,0.000,0.000
489022.420,10.254,33.691,27.344,15.137,4.395,0.000,0.000,0.000
489022.424,104.492,35.156,26.367,36.133,0.977,0.000,0.000,0.000
489022.428,46.387,31.738,26.855,19.531,1.465,0.000,0.000,0.000
489022.432,-66.895,26.367,28.809,-0.977,7.324,0.000,0.000,0.000
489022.436,-24.902,27.344,25.879,13.184,19.043,0.000,0.000,0.000
489022.440,91.309,31.250,22.461,46.387,27.832,0.000,0.000,0.000
489022.443,79.590,29.297,26.367,37.109,26.367,0.000,0.000,0.000
489022.447,-36.133,29.785,34.180,12.207,20.508,0.000,0.000,0.000
489022.451,-37.598,34.180,26.855,10.742,3.418,0.000,0.000,0.000
489022.455,71.777,35.645,21.973,31.738,-0.977,0.000,0.000,0.000
489022.459,103.516,33.691,26.367,37.598,1.953,0.000,0.000,0.000
489022.463,-7.812,30.762,24.414,6.836,17.090,0.000,0.000,0.000
489022.467,-56.152,34.180,24.414,-1.953,18.066,0.000,0.000,0.000
489022.471,42.480,37.109,23.438,27.832,13.184,0.000,0.000,0.000
489022.475,118.164,30.273,24.902,44.922,13.672,0.000,0.000,0.000
489022.479,29.297,33.203,26.855,21.973,8.301,0.000,0.000,0.000
489022.482,-65.918,32.715,23.438,9.766,11.719,0.000,0.000,0.000
489022.486,3.418,30.762,21.484,17.090,11.230,0.000,0.000,0.000
489022.490,103.027,36.133,22.461,27.344,9.766,0.000,0.000,0.000
489022.494,60.059,38.574,22.949,18.555,15.137,3.000,1.000,45.000
489022.498,-55.176,35.156,19.531,-5.859,15.137,0.000,0.000,0.000
489022.502,-27.344,35.645,19.531,-0.488,15.137,0.000,0.000,0.000
489022.506,85.938,40.039,20.996,25.879,19.043,0.000,0.000,0.000
489022.510,85.938,37.598,20.508,26.367,21.484,0.000,0.000,0.000
489022.514,-36.133,34.668,19.531,-1.465,16.602,0.000,0.000,0.000
489022.518,-50.293,37.109,18.555,-6.836,14.648,0.000,0.000,0.000
489022.522,60.547,35.156,20.020,21.484,20.996,0.000,0.000,0.000
489022.525,107.422,36.621,28.320,32.715,24.414,0.000,0.000,0.000
489022.529,-3.418,34.180,26.855,3.418,14.648,0.000,0.000,0.000
489022.533,-65.430,26.855,21.484,-10.742,9.277,0.000,0.000,0.000
489022.537,32.715,34.180,22.461,15.137,20.996,0.000,0.000,0.000
489022.541,111.328,35.645,24.414,30.273,23.438,0.000,0.000,0.000
489022.545,38.086,33.203,26.855,13.672,32.227,0.000,0.000,0.000
489022.549,-58.594,34.180,22.461,-0.488,49.316,0.000,0.000,0.000
489022.553,-2.441,32.715,16.113,7.812,27.344,0.000,0.000,0.000
489022.557,109.375,37.109,22.461,33.203,14.648,0.000,0.000,0.000
489022.561,83.008,39.551,26.367,31.738,24.414,0.000,0.000,0.000
489022.564,-37.598,32.715,25.391,4.883,18.555,0.000,0.000,0.000
489022.568,-19.531,36.621,25.879,16.113,23.438,0.000,0.000,0.000
489022.572,98.145,34.668,23.438,54.688,25.391,0.000,0.000,0.000
489022.576,104.492,26.855,24.902,42.969,16.113,0.000,0.000,0.000
489022.580,-20.020,33.203,25.391,2.441,3.906,0.000,0.000,0.000
489022.584,-51.758,29.785,22.461,3.418,3.906,0.000,0.000,0.000
489022.588,54.199,20.020,20.996,25.391,5.859,0.000,0.000,0.000
489022.592,111.328,25.879,22.949,34.668,1.953,0.000,0.000,0.000
489022.596,12.207,33.691,27.344,16.113,4.883,0.000,0.000,0.000
489022.600,-54.688,34.180,31.738,5.859,13.672,0.000,0.000,0.000
489022.604,26.367,33.691,29.785,27.344,12.695,0.000,0.000,0.000
489022.607,112.793,29.785,23.926,42.969,5.859,0.000,0.000,0.000
489022.611,45.898,27.832,26.855,28.320,14.160,0.000,0.000,0.000
489022.615,-54.688,37.598,30.273,15.625,23.438,0.000,0.000,0.000
489022.619,-4.883,45.898,20.996,28.320,21.484,0.000,0.000,0.000
489022.623,101.562,41.016,21.484,43.945,16.602,0.000,0.000,0.000
489022.627,77.148,36.621,29.785,30.762,10.254,0.000,0.000,0.000
489022.631,-48.340,38.574,27.344,2.930,6.348,0.000,0.000,0.000
489022.635,-38.086,39.551,25.391,5.371,12.695,0.000,0.000,0.000
489022.639,72.754,36.621,23.438,27.832,12.207,0.000,0.000,0.000
489022.643,90.332,27.344,22.949,30.762,2.930,0.000,0.000,0.000
489022.647,-25.879,24.902,24.414,9.277,9.277,0.000,0.000,0.000
489022.650,-57.617,26.855,28.320,6.348,18.066,0.000,0.000,0.000
489022.654,51.758,31.738,34.668,35.645,24.414,0.000,0.000,0.000
489022.658,114.746,31.738,31.738,51.758,20.508,0.000,0.000,0.000
489022.662,21.484,31.250,27.344,27.344,8.301,0.000,0.000,0.000
489022.666,-60.059,39.062,28.809,11.719,8.301,0.000,0.000,0.000
489022.670,15.625,41.016,24.902,24.414,8.301,0.000,0.000,0.000
489022.674,109.375,33.691,21.484,36.133,7.324,0.000,0.000,0.000
489022.678,49.805,28.809,26.855,20.508,4.395,0.000,0.000,0.000
489022.682,-67.383,30.762,23.438,-9.277,4.883,0.000,0.000,0.000
489022.686,-33.203,29.785,19.531,-2.441,2.930,0.000,0.000,0.000
489022.689,81.055,27.344,23.926,25.879,-3.418,0.000,0.000,0.000
489022.693,82.031,34.180,26.855,28.809,-1.465,0.000,0.000,0.000
489022.697,-38.086,32.227,20.996,-5.859,6.348,0.000,0.000,0.000
489022.701,-45.898,22.949,16.113,-7.812,11.230,0.000,0.000,0.000
489022.705,66.895,22.461,20.508,31.250,1.465,0.000,0.000,0.000
489022.709,104.980,23.438,25.879,41.504,0.977,0.000,0.000,0.000
489022.713,-1.465,28.320,26.855,9.277,7.812,0.000,0.000,0.000
489022.717,-59.082,30.762,21.973,-4.883,1.465,0.000,0.000,0.000
489022.721,36.621,24.902,21.484,20.508,-2.930,0.000,0.000,0.000
489022.725,112.793,27.832,24.902,39.551,5.859,0.000,0.000,0.000
489022.729,26.855,33.691,27.832,17.090,12.207,0.000,0.000,0.000
489022.732,-58.594,35.156,31.738,-0.488,-2.441,0.000,0.000,0.000
489022.736,13.184,30.762,29.297,20.508,-6.836,0.000,0.000,0.000
489022.740,111.328,27.832,25.391,43.457,1.465,0.000,0.000,0.000
489022.744,65.430,27.832,27.832,32.715,0.000,0.000,0.000,0.000
489022.748,-53.711,27.832,24.414,9.277,9.766,0.000,0.000,0.000
489022.752,-21.973,28.320,23.438,20.020,11.230,0.000,0.000,0.000
489022.756,98.145,29.297,28.320,39.551,3.906,0.000,0.000,0.000
489022.760,97.168,36.621,31.250,38.574,9.277,0.000,0.000,0.000
489022.764,-28.320,38.086,31.250,11.719,9.277,0.000,0.000,0.000
489022.768,-44.434,33.691,28.809,4.395,11.719,0.000,0.000,0.000
489022.771,66.406,29.785,26.855,30.762,13.184,0.000,0.000,0.000
489022.775,112.305,40.527,27.344,38.086,7.324,0.000,0.000,0.000
489022.779,7.324,43.945,26.367,6.348,3.906,0.000,0.000,0.000
489022.783,-57.129,33.691,23.926,-7.812,3.418,0.000,0.000,0.000
489022.787,33.203,34.668,21.484,12.695,-1.953,0.000,0.000,0.000
489022.791,111.328,36.133,22.461,33.691,-4.395,0.000,0.000,0.000
489022.795,38.574,38.574,24.902,19.043,4.395,0.000,0.000,0.000
489022.799,-52.734,40.039,27.832,0.488,6.348,0.000,0.000,0.000
489022.803,7.812,36.133,30.273,21.973,2.930,0.000,0.000,0.000
489022.807,112.793,34.180,29.297,47.363,9.766,0.000,0.000,0.000
489022.811,75.195,39.062,27.832,31.250,14.160,1.000,1.000,45.000
489022.814,-48.340,39.062,28.320,-1.953,15.625,0.000,0.000,0.000
489022.818,-30.273,30.762,24.902,7.324,35.645,0.000,0.000,0.000
489022.822,85.938,28.809,22.949,39.551,31.738,0.000,0.000,0.000
489022.826,98.145,32.227,27.832,37.598,-1.465,0.000,0.000,0.000
489022.830,-16.602,38.574,33.691,9.766,3.906,0.000,0.000,0.000
489022.834,-42.480,35.645,29.785,1.465,1.953,0.000,0.000,0.000
489022.838,62.988,30.762,27.344,29.785,-3.906,0.000,0.000,0.000
489022.842,109.375,32.227,34.180,42.969,2.441,0.000,0.000,0.000
489022.846,0.488,30.762,31.738,6.836,0.977,0.000,0.000,0.000
489022.850,-67.383,29.785,22.949,-0.977,0.488,0.000,0.000,0.000
489022.853,18.066,28.320,21.973,28.809,-3.418,0.000,0.000,0.000
489022.857,105.469,29.785,24.902,41.016,5.371,0.000,0.000,0.000
489022.861,33.203,31.250,18.555,13.184,7.324,0.000,0.000,0.000
489022.865,-78.125,26.855,16.602,-14.648,-6.348,0.000,0.000,0.000
489022.869,-27.832,28.320,24.902,-2.930,-6.836,0.000,0.000,0.000
489022.873,81.543,27.832,24.902,23.926,-9.277,0.000,0.000,0.000
489022.877,61.035,28.320,23.926,19.531,-12.695,0.000,0.000,0.000
489022.881,-53.711,33.203,28.320,-6.348,-8.301,0.000,0.000,0.000
489022.885,-43.945,32.715,30.273,2.441,-3.906,0.000,0.000,0.000
489022.889,73.730,33.691,29.297,34.668,3.418,0.000,0.000,0.000
489022.893,104.004,38.574,29.297,38.086,5.859,0.000,0.000,0.000
489022.896,-17.090,35.645,29.785,9.277,2.441,0.000,0.000,0.000
489022.900,-59.570,31.250,25.391,0.977,-1.953,0.000,0.000,0.000
489022.904,40.527,28.809,23.926,15.625,-11.719,0.000,0.000,0.000
489022.908,103.516,29.785,24.902,24.414,-16.113,0.000,0.000,0.000
489022.912,11.719,31.738,27.832,5.859,-13.184,0.000,0.000,0.000
489022.916,-66.895,33.691,28.809,-9.277,-9.277,0.000,0.000,0.000
489022.920,7.812,36.621,27.344,12.695,4.883,0.000,0.000,0.000
489022.924,104.004,35.645,27.344,34.180,15.625,0.000,0.000,0.000
489022.928,49.805,36.621,26.367,15.625,7.812,0.000,0.000,0.000
489022.932,-60.059,33.691,25.879,-6.348,9.766,0.000,0.000,0.000
489022.936,-18.555,32.227,26.367,7.812,9.277,0.000,0.000,0.000
489022.939,94.727,34.668,22.461,33.691,3.906,0.000,0.000,0.000
489022.943,87.402,28.320,22.461,32.227,6.836,0.000,0.000,0.000
489022.947,-40.527,26.855,27.344,5.859,6.348,0.000,0.000,0.000
489022.951,-48.828,36.621,24.414,0.488,5.371,0.000,0.000,0.000
489022.955,69.336,38.086,22.461,31.738,7.324,0.000,0.000,0.000
489022.959,106.445,32.715,24.902,42.969,5.371,0.000,0.000,0.000
489022.963,-6.836,39.551,27.832,17.090,10.254,0.000,0.000,0.000
489022.967,-61.523,41.016,26.367,9.277,25.879,0.000,0.000,0.000
489022.971,37.598,35.645,26.367,32.227,19.531,0.000,0.000,0.000
489022.975,112.305,37.109,29.297,42.969,5.371,0.000,0.000,0.000
489022.978,24.902,37.598,27.832,18.066,5.859,0.000,0.000,0.000
489022.982,-68.359,35.156,25.879,-4.883,2.930,0.000,0.000,0.000
489022.986,-2.441,33.691,25.879,10.742,1.953,0.000,0.000,0.000
489022.990,101.562,32.715,28.809,39.062,6.836,0.000,0.000,0.000
489022.994,62.012,36.133,33.691,29.785,11.230,0.000,0.000,0.000
489022.998,-62.012,40.527,26.367,-5.859,1.465,0.000,0.000,0.000
489023.002,-40.039,31.250,18.066,-3.418,0.000,0.000,0.000,0.000
489023.006,79.590,25.391,19.531,23.438,4.395,0.000,0.000,0.000
489023.010,79.590,34.180,21.484,21.484,-2.930,0.000,0.000,0.000
489023.014,-45.410,40.527,21.484,-7.812,-8.789,0.000,0.000,0.000
489023.018,-58.105,35.156,20.020,-8.301,-0.977,0.000,0.000,0.000
489023.021,56.641,30.762,20.020,22.949,9.766,0.000,0.000,0.000
489023.025,109.375,34.180,26.855,35.645,6.836,0.000,0.000,0.000
489023.029,2.441,36.133,26.367,12.695,-3.906,0.000,0.000,0.000
489023.033,-70.801,33.203,17.090,-4.883,-5.859,0.000,0.000,0.000
489023.037,19.531,37.598,21.973,17.578,-3.906,0.000,0.000,0.000
489023.041,99.609,41.016,24.414,37.109,-10.254,0.000,0.000,0.000
489023.045,20.020,33.203,21.973,16.113,-20.020,0.000,0.000,0.000
489023.049,-73.730,33.203,23.926,-11.230,-16.602,0.000,0.000,0.000
489023.053,-11.230,30.762,22.949,0.000,-10.254,0.000,0.000,0.000
489023.057,96.680,28.320,21.973,23.438,-11.230,0.000,0.000,0.000
489023.060,66.895,31.738,22.949,14.648,-2.930,0.000,0.000,0.000
489023.064,-51.758,33.691,25.879,-1.953,6.348,0.000,0.000,0.000
489023.068,-38.086,30.762,25.879,4.395,-5.859,0.000,0.000,0.000
489023.072,74.707,33.691,23.926,28.320,-10.742,0.000,0.000,0.000
489023.076,90.332,40.527,23.926,27.344,-7.812,0.000,0.000,0.000
489023.080,-30.273,35.156,21.973,-0.488,-3.906,0.000,0.000,0.000
489023.084,-60.547,29.297,22.949,-2.930,0.977,0.000,0.000,0.000
489023.088,48.828,30.762,24.902,20.020,-11.719,0.000,0.000,0.000
489023.092,102.051,30.762,23.926,30.273,-12.207,0.000,0.000,0.000
489023.096,1.953,27.832,21.484,11.719,-2.441,0.000,0.000,0.000
489023.100,-69.336,27.344,22.461,-4.883,-9.277,0.000,0.000,0.000
489023.103,12.695,31.250,24.902,11.230,-11.230,0.000,0.000,0.000
489023.107,102.539,38.574,26.855,35.645,-6.348,0.000,0.000,0.000
489023.111,36.621,36.133,23.926,17.090,-9.766,0.000,0.000,0.000
489023.115,-70.312,32.715,17.578,-6.836,-5.859,0.000,0.000,0.000
489023.119,-21.484,36.133,16.113,6.348,-10.742,0.000,0.000,0.000
489023.123,85.449,33.203,26.367,26.367,-22.949,0.000,0.000,0.000
489023.127,67.871,33.691,28.809,17.578,-16.602,0.000,0.000,0.000
489023.131,-50.781,38.574,20.508,-5.371,-9.277,0.000,0.000,0.000
489023.135,-46.387,35.645,20.508,-4.883,-9.766,0.000,0.000,0.000
489023.139,75.195,35.645,24.902,23.438,-1.465,0.000,0.000,0.000
489023.143,102.051,35.156,25.879,34.180,7.812,0.000,0.000,0.000
489023.146,-20.996,36.133,24.902,1.465,0.000,0.000,0.000,0.000
489023.150,-58.105,41.016,26.367,-3.418,0.977,0.000,0.000,0.000
489023.154,44.434,30.273,25.879,27.832,10.742,0.000,0.000,0.000
489023.158,112.305,25.391,25.879,43.457,11.719,0.000,0.000,0.000
489023.162,26.855,36.621,29.297,19.043,7.324,0.000,0.000,0.000
489023.166,-54.688,38.086,25.879,0.000,9.766,0.000,0.000,0.000
489023.170,19.043,38.086,20.508,19.043,15.137,0.000,0.000,0.000
489023.174,109.375,34.180,24.414,42.480,10.254,0.000,0.000,0.000
489023.178,59.082,31.738,26.367,24.414,10.254,0.000,0.000,0.000
489023.182,-48.828,37.598,24.414,-1.953,10.254,0.000,0.000,0.000
489023.185,-15.137,36.621,25.879,13.672,6.836,0.000,0.000,0.000
489023.189,96.680,35.156,24.902,45.898,6.348,0.000,0.000,0.000
489023.193,87.891,34.180,21.973,35.156,-2.930,0.000,0.000,0.000
489023.197,-27.344,31.250,24.902,-0.488,4.883,0.000,0.000,0.000
489023.201,-29.785,31.250,22.949,3.418,19.043,0.000,0.000,0.000
489023.205,77.148,37.598,19.531,30.762,16.113,3.000,1.000,45.000
489023.209,108.887,37.598,21.973,31.250,12.695,0.000,0.000,0.000
489023.213,-7.812,34.180,24.414,1.953,25.391,0.000,0.000,0.000
489023.217,-61.523,35.156,24.414,-6.836,26.855,0.000,0.000,0.000
489023.221,35.645,30.762,22.949,20.020,12.207,0.000,0.000,0.000
489023.225,106.934,23.926,22.949,36.133,8.789,0.000,0.000,0.000
489023.228,31.250,30.273,21.484,16.602,24.414,0.000,0.000,0.000
489023.232,-61.523,33.203,21.973,-4.883,24.414,0.000,0.000,0.000
489023.236,0.488,27.344,20.020,12.695,4.883,0.000,0.000,0.000
489023.240,107.422,32.227,18.066,36.621,5.371,0.000,0.000,0.000
489023.244,65.430,34.180,21.484,22.461,9.766,0.000,0.000,0.000
489023.248,-44.922,41.504,22.949,5.859,20.996,0.000,0.000,0.000
489023.252,-20.508,46.875,22.949,15.137,15.625,0.000,0.000,0.000
489023.256,82.520,37.598,20.996,30.273,1.953,0.000,0.000,0.000
489023.260,95.215,36.133,15.137,22.461,11.719,0.000,0.000,0.000
489023.264,-20.996,39.062,15.625,-2.930,17.578,0.000,0.000,0.000
489023.267,-43.457,40.527,16.602,-6.836,11.230,0.000,0.000,0.000
489023.271,71.289,41.504,13.184,23.926,8.789,0.000,0.000,0.000
489023.275,120.605,37.109,14.160,41.504,11.719,0.000,0.000,0.000
489023.279,13.672,40.039,17.578,18.066,16.602,0.000,0.000,0.000
489023.283,-53.711,44.434,18.555,4.395,13.672,0.000,0.000,0.000
489023.287,34.668,38.574,19.531,30.762,12.695,0.000,0.000,0.000
489023.291,123.047,41.992,20.020,47.852,18.066,0.000,0.000,0.000
489023.295,50.293,43.457,23.926,24.902,27.344,0.000,0.000,0.000
489023.299,-53.223,38.574,19.531,-2.441,28.809,0.000,0.000,0.000
489023.303,8.301,41.504,19.043,17.090,20.020,0.000,0.000,0.000
489023.307,112.305,40.039,25.879,49.805,10.742,0.000,0.000,0.000
489023.310,79.102,39.062,22.461,32.715,8.301,0.000,0.000,0.000
489023.314,-39.551,40.039,22.461,6.836,11.230,0.000,0.000,0.000
489023.318,-30.762,40.039,26.367,16.113,13.184,0.000,0.000,0.000
489023.322,84.473,39.062,26.855,31.738,15.137,0.000,0.000,0.000
489023.326,100.098,37.598,25.879,27.344,16.602,0.000,0.000,0.000
489023.330,-27.344,40.527,24.902,-2.930,20.508,0.000,0.000,0.000
489023.334,-61.035,37.598,23.926,-3.418,14.648,0.000,0.000,0.000
489023.338,53.223,31.250,24.414,32.227,-0.977,0.000,0.000,0.000
489023.342,107.422,28.809,20.508,34.180,-6.836,0.000,0.000,0.000
489023.346,4.883,30.273,19.043,1.465,-4.395,0.000,0.000,0.000
489023.349,-60.547,29.785,20.996,-8.301,3.418,0.000,0.000,0.000
489023.353,25.879,32.227,23.438,18.555,12.207,0.000,0.000,0.000
489023.357,107.910,34.180,21.484,40.039,10.254,0.000,0.000,0.000
489023.361,41.504,41.016,20.996,19.531,6.348,0.000,0.000,0.000
489023.365,-55.664,40.527,24.414,-5.859,6.836,0.000,0.000,0.000
489023.369,-7.812,30.762,25.391,6.836,2.930,0.000,0.000,0.000
489023.373,97.656,33.691,24.902,28.320,11.719,0.000,0.000,0.000
489023.377,76.660,37.109,20.996,17.578,16.113,0.000,0.000,0.000
489023.381,-45.410,29.785,18.066,-9.766,0.488,0.000,0.000,0.000
489023.385,-36.621,33.203,23.926,-1.465,-3.906,0.000,0.000,0.000
489023.389,76.172,36.621,20.996,19.531,-15.137,0.000,0.000,0.000
489023.392,102.051,29.297,17.090,18.066,-17.090,0.000,0.000,0.000
489023.396,-9.766,32.715,18.555,-2.930,-9.766,0.000,0.000,0.000
489023.400,-51.758,38.086,19.043,-9.766,-4.395,0.000,0.000,0.000
489023.404,44.922,39.551,24.414,13.184,3.418,0.000,0.000,0.000
489023.408,101.562,34.668,24.414,24.902,1.953,0.000,0.000,0.000
489023.412,14.648,32.227,22.949,10.254,3.906,0.000,0.000,0.000
489023.416,-56.641,38.574,24.902,0.000,5.859,0.000,0.000,0.000
489023.420,17.578,43.457,25.879,16.602,7.812,0.000,0.000,0.000
489023.424,110.352,42.969,24.902,38.086,9.277,0.000,0.000,0.000
489023.428,52.246,35.645,21.973,19.043,8.301,0.000,0.000,0.000
489023.432,-59.082,30.273,20.996,-5.859,0.488,0.000,0.000,0.000
489023.435,-19.043,35.645,21.973,8.301,-6.836,0.000,0.000,0.000
489023.439,91.309,36.133,23.926,37.109,-0.488,0.000,0.000,0.000
489023.443,83.984,36.621,25.391,36.621,12.695,0.000,0.000,0.000
489023.447,-37.109,39.062,27.832,4.883,4.395,0.000,0.000,0.000
489023.451,-43.457,38.574,28.809,5.859,-10.742,0.000,0.000,0.000
489023.455,72.754,35.645,22.461,41.016,-4.883,0.000,0.000,0.000
489023.459,114.258,31.250,19.531,41.504,4.883,0.000,0.000,0.000
489023.463,1.465,32.227,22.949,4.883,3.418,0.000,0.000,0.000
489023.467,-54.688,36.621,22.461,-8.301,-2.930,0.000,0.000,0.000
489023.471,42.969,36.133,20.508,18.555,-0.488,0.000,0.000,0.000
489023.474,109.863,34.180,22.949,34.668,-1.465,0.000,0.000,0.000
489023.478,24.414,39.551,28.320,9.277,-3.418,0.000,0.000,0.000
489023.482,-57.617,37.598,29.785,-4.883,0.977,0.000,0.000,0.000
489023.486,14.648,38.086,29.297,17.090,7.812,0.000,0.000,0.000
489023.490,111.816,38.086,29.297,35.645,11.719,0.000,0.000,0.000
489023.494,71.289,36.621,27.344,20.508,10.254,0.000,0.000,0.000
489023.498,-41.016,38.574,24.414,-2.441,12.207,0.000,0.000,0.000
489023.502,-16.602,41.992,28.320,15.137,15.137,0.000,0.000,0.000
489023.506,89.355,41.992,27.832,44.434,9.277,0.000,0.000,0.000
489023.510,79.102,30.273,20.020,23.438,-0.488,0.000,0.000,0.000
489023.514,-41.504,32.227,23.926,-11.230,0.000,0.000,0.000,0.000
489023.517,-53.223,33.203,27.344,-0.488,4.883,0.000,0.000,0.000
489023.521,50.293,27.344,25.879,25.391,7.324,0.000,0.000,0.000
489023.525,95.703,32.715,24.902,28.809,15.625,0.000,0.000,0.000
489023.529,-4.395,33.691,25.391,9.766,20.508,1.000,1.000,0.000
489023.533,-69.336,32.715,23.926,-5.371,6.836,0.000,0.000,0.000
489023.537,22.461,41.504,23.926,15.137,-9.766,0.000,0.000,0.000
489023.541,103.516,38.086,24.414,34.668,-11.230,0.000,0.000,0.000
489023.545,30.273,32.715,25.391,13.672,-7.812,0.000,0.000,0.000
489023.549,-64.941,38.574,21.484,-8.301,-12.207,0.000,0.000,0.000
489023.553,-5.371,36.621,20.508,12.695,-10.254,0.000,0.000,0.000
489023.556,101.562,32.715,27.344,41.016,-6.836,0.000,0.000,0.000
489023.560,66.406,29.297,21.973,25.391,-8.789,0.000,0.000,0.000
489023.564,-54.688,32.227,19.043,-2.441,-7.812,0.000,0.000,0.000
489023.568,-40.039,32.715,20.508,-5.371,-8.301,0.000,0.000,0.000
489023.572,75.195,30.762,20.996,12.695,-10.742,0.000,0.000,0.000
489023.576,88.867,36.133,23.438,16.113,3.906,0.000,0.000,0.000
489023.580,-32.227,34.180,23.926,-11.230,7.324,0.000,0.000,0.000
489023.584,-63.965,34.180,21.973,-20.020,-15.625,0.000,0.000,0.000
489023.588,42.480,33.203,18.555,11.230,-13.672,0.000,0.000,0.000
489023.592,95.215,25.391,18.066,23.926,-9.277,0.000,0.000,0.000
489023.596,-2.930,23.926,22.461,-0.488,-8.789,0.000,0.000,0.000
489023.599,-69.824,27.344,22.949,-13.184,-5.859,0.000,0.000,0.000
489023.603,12.695,29.785,21.973,3.906,-8.301,0.000,0.000,0.000
489023.607,102.539,28.809,23.926,24.414,-11.230,0.000,0.000,0.000
489023.611,38.086,27.832,24.414,5.859,-15.137,0.000,0.000,0.000
489023.615,-77.637,23.438,25.391,-22.949,-15.625,0.000,0.000,0.000
489023.619,-37.109,23.926,23.438,-7.324,-10.742,0.000,0.000,0.000
489023.623,84.961,30.273,23.926,24.414,-3.906,0.000,0.000,0.000
489023.627,67.383,19.531,20.508,18.555,-6.836,0.000,0.000,0.000
489023.631,-63.477,14.648,15.625,-11.230,-9.277,0.000,0.000,0.000
489023.635,-57.617,20.996,18.555,-10.742,-0.977,0.000,0.000,0.000
489023.639,57.617,23.438,17.578,11.719,2.441,0.000,0.000,0.000
489023.642,80.566,22.949,13.184,11.230,-0.488,0.000,0.000,0.000
489023.646,-32.715,22.461,16.113,-16.113,-3.418,0.000,0.000,0.000
489023.650,-68.848,25.391,21.484,-15.137,-4.395,0.000,0.000,0.000
489023.654,32.227,31.738,23.926,15.625,-4.883,0.000,0.000,0.000
489023.658,94.727,31.738,24.902,26.855,-8.301,0.000,0.000,0.000
489023.662,9.766,27.832,28.809,4.883,2.930,0.000,0.000,0.000
489023.666,-66.895,28.320,23.926,-10.254,16.113,0.000,0.000,0.000
489023.670,9.766,26.855,17.578,14.648,16.602,0.000,0.000,0.000
489023.674,104.492,27.344,22.461,39.551,2.441,0.000,0.000,0.000
489023.678,55.664,32.227,24.902,22.949,-5.371,0.000,0.000,0.000
489023.681,-54.688,26.855,23.438,-0.977,2.441,0.000,0.000,0.000
489023.685,-25.391,26.367,24.414,9.766,7.324,0.000,0.000,0.000
489023.689,89.355,33.203,29.785,37.109,19.043,0.000,0.000,0.000
489023.693,91.309,32.227,29.785,36.133,17.578,0.000,0.000,0.000
489023.697,-30.273,32.715,26.367,8.301,-3.906,0.000,0.000,0.000
489023.701,-36.621,34.180,26.367,7.324,-3.906,0.000,0.000,0.000
489023.705,74.707,34.668,25.391,37.598,10.254,0.000,0.000,0.000
489023.709,106.445,30.762,23.926,45.410,13.672,0.000,0.000,0.000
489023.713,0.488,34.180,26.855,10.742,20.508,0.000,0.000,0.000
489023.717,-51.758,32.227,25.391,-4.883,25.391,0.000,0.000,0.000
489023.721,43.457,26.367,21.973,20.508,18.066,0.000,0.000,0.000
489023.724,121.094,28.320,20.508,36.133,13.672,0.000,0.000,0.000
489023.728,31.738,28.809,22.461,12.207,10.742,0.000,0.000,0.000
489023.732,-64.453,32.227,20.508,-5.859,5.859,0.000,0.000,0.000
489023.736,-0.488,34.180,19.531,13.184,3.418,0.000,0.000,0.000
489023.740,100.098,31.250,17.578,33.203,-1.953,0.000,0.000,0.000
489023.744,66.406,34.180,16.602,21.484,-5.859,0.000,0.000,0.000
489023.748,-51.270,35.156,19.043,-5.371,-9.277,0.000,0.000,0.000
489023.752,-31.250,31.250,20.020,1.465,-12.207,0.000,0.000,0.000
489023.756,84.473,32.715,21.973,30.762,-9.277,0.000,0.000,0.000
489023.760,96.680,34.668,17.578,32.227,-9.277,0.000,0.000,0.000
489023.763,-23.926,35.156,14.160,2.930,-7.812,0.000,0.000,0.000
489023.767,-47.852,29.297,15.137,-1.465,-9.277,0.000,0.000,0.000
489023.771,56.152,30.273,18.555,26.855,-15.625,0.000,0.000,0.000
489023.775,99.609,35.645,21.484,34.180,-13.672,0.000,0.000,0.000
489023.779,-5.859,32.227,23.438,7.324,-8.789,0.000,0.000,0.000
489023.783,-64.453,28.320,19.531,-6.836,-9.277,0.000,0.000,0.000
489023.787,28.809,27.832,19.531,15.625,-3.906,0.000,0.000,0.000
489023.791,106.445,32.715,22.461,34.180,1.465,0.000,0.000,0.000
489023.795,35.156,37.109,22.461,9.277,1.465,0.000,0.000,0.000
489023.799,-62.012,34.668,19.531,-13.672,12.695,0.000,0.000,0.000
489023.803,-8.301,31.250,19.043,6.348,19.531,0.000,0.000,0.000
489023.806,98.633,33.691,20.996,33.203,10.254,0.000,0.000,0.000
489023.810,71.289,40.527,22.461,23.926,-7.324,0.000,0.000,0.000
489023.814,-48.340,41.016,26.367,-1.465,-5.859,0.000,0.000,0.000
489023.818,-38.086,33.203,27.344,0.977,9.766,0.000,0.000,0.000
489023.822,73.730,29.785,25.879,28.320,5.859,0.000,0.000,0.000
489023.826,95.215,35.156,28.809,33.691,-2.441,0.000,0.000,0.000
489023.830,-19.043,36.133,30.273,5.859,5.371,0.000,0.000,0.000
489023.834,-49.805,29.297,27.344,2.930,2.930,0.000,0.000,0.000
489023.838,59.570,33.691,25.879,31.250,-4.883,0.000,0.000,0.000
489023.842,117.188,39.551,20.508,39.062,-3.418,0.000,0.000,0.000
489023.845,19.531,36.133,21.973,16.602,3.418,0.000,0.000,0.000
489023.849,-52.734,36.133,24.414,7.812,5.371,0.000,0.000,0.000
489023.853,26.855,33.691,23.438,23.926,-4.395,0.000,0.000,0.000
489023.857,112.305,33.691,21.973,32.227,-3.418,0.000,0.000,0.000
489023.861,48.340,37.598,21.973,11.230,0.488,0.000,0.000,0.000
489023.865,-54.688,35.156,25.391,-8.301,-5.371,0.000,0.000,0.000
489023.869,-5.371,37.598,24.414,8.789,-5.859,0.000,0.000,0.000
489023.873,103.516,33.691,27.344,38.086,1.953,0.000,0.000,0.000
489023.877,84.961,30.273,32.227,36.133,6.836,0.000,0.000,0.000
489023.881,-41.992,29.785,28.809,7.324,8.301,0.000,0.000,0.000
489023.885,-43.945,28.809,27.832,12.695,1.465,0.000,0.000,0.000
489023.888,66.406,29.297,25.391,42.969,-8.789,0.000,0.000,0.000
489023.892,99.121,26.367,20.020,33.691,-0.977,0.000,0.000,0.000
489023.896,-15.137,27.832,22.949,-9.766,-3.906,0.000,0.000,0.000
489023.900,-63.477,30.273,23.438,-18.555,-11.230,0.000,0.000,0.000
489023.904,35.645,35.156,24.414,17.578,-2.441,0.000,0.000,0.000
489023.908,105.469,34.668,26.367,39.551,3.418,0.000,0.000,0.000
489023.912,22.461,33.203,30.273,17.090,8.301,3.000,1.000,0.000
489023.916,-62.500,31.250,32.227,1.465,13.184,0.000,0.000,0.000
489023.920,11.719,27.832,24.902,22.461,4.395,0.000,0.000,0.000
489023.924,104.004,25.391,23.926,39.062,-0.488,0.000,0.000,0.000
489023.928,50.293,24.414,26.367,22.949,3.906,0.000,0.000,0.000
489023.931,-58.105,29.297,21.973,-5.371,5.859,0.000,0.000,0.000
489023.935,-24.902,34.668,20.508,3.418,7.812,0.000,0.000,0.000
489023.939,86.426,32.715,19.043,33.203,-1.465,0.000,0.000,0.000
489023.943,79.590,30.273,20.020,26.367,-10.254,0.000,0.000,0.000
489023.947,-39.551,31.250,24.414,-1.953,-4.883,0.000,0.000,0.000
489023.951,-45.898,30.762,25.391,3.418,-2.441,0.000,0.000,0.000
489023.955,66.406,32.715,22.949,30.762,1.465,0.000,0.000,0.000
489023.959,106.445,34.180,21.484,34.180,1.953,0.000,0.000,0.000
489023.963,-7.812,36.133,22.949,11.230,3.906,0.000,0.000,0.000
489023.967,-59.082,39.551,22.949,3.906,13.184,0.000,0.000,0.000
489023.970,41.992,44.434,27.344,30.273,13.672,0.000,0.000,0.000
489023.974,113.281,36.621,23.438,39.062,10.742,0.000,0.000,0.000
489023.978,27.344,32.227,17.578,12.207,16.602,0.000,0.000,0.000
489023.982,-59.082,37.598,23.926,8.301,21.484,0.000,0.000,0.000
489023.986,3.906,37.109,25.879,22.949,14.160,0.000,0.000,0.000
489023.990,101.074,35.645,25.391,39.551,16.113,0.000,0.000,0.000
489023.994,72.266,35.156,27.344,29.785,16.113,0.000,0.000,0.000
489023.998,-40.039,37.109,30.762,0.977,10.254,0.000,0.000,0.000
489024.002,-32.227,39.551,33.203,14.648,4.883,0.000,0.000,0.000
489024.006,77.637,40.527,31.250,46.875,5.371,0.000,0.000,0.000
489024.010,89.355,37.598,29.785,40.039,12.207,0.000,0.000,0.000
489024.013,-20.020,41.016,32.715,16.113,21.973,0.000,0.000,0.000
489024.017,-43.945,40.039,33.203,18.555,20.508,0.000,0.000,0.000
489024.021,59.082,31.738,27.344,37.109,8.789,0.000,0.000,0.000
489024.025,106.445,33.691,27.344,39.551,5.859,0.000,0.000,0.000
489024.029,3.906,35.645,28.320,8.301,8.301,0.000,0.000,0.000
489024.033,-63.477,34.180,23.438,-6.836,-1.465,0.000,0.000,0.000
489024.037,19.531,36.621,26.855,19.531,-5.371,0.000,0.000,0.000
489024.041,107.422,38.574,32.227,41.504,3.418,0.000,0.000,0.000
489024.045,33.203,33.203,27.832,17.578,11.230,0.000,0.000,0.000
489024.049,-63.965,39.551,22.949,-7.324,14.160,0.000,0.000,0.000
489024.052,-2.930,40.527,22.949,8.789,4.395,0.000,0.000,0.000
489024.056,99.609,33.203,24.902,37.109,9.277,0.000,0.000,0.000
489024.060,68.848,36.621,20.996,31.250,20.020,0.000,0.000,0.000
489024.064,-49.316,34.668,17.578,4.883,10.254,0.000,0.000,0.000
489024.068,-32.227,32.715,27.344,16.113,4.395,0.000,0.000,0.000
489024.072,83.008,31.250,32.227,47.852,15.137,0.000,0.000,0.000
489024.076,99.121,32.715,29.785,41.016,17.578,0.000,0.000,0.000
489024.080,-16.113,37.598,29.297,3.906,14.160,0.000,0.000,0.000
489024.084,-47.852,35.645,28.320,5.371,12.207,0.000,0.000,0.000
489024.088,56.641,36.621,23.926,33.203,12.207,0.000,0.000,0.000
489024.092,114.258,41.504,20.020,48.340,7.812,0.000,0.000,0.000
489024.095,10.742,41.992,23.438,20.996,4.883,0.000,0.000,0.000
489024.099,-61.523,41.992,26.367,0.000,6.836,0.000,0.000,0.000
489024.103,26.855,44.434,27.344,25.879,6.836,0.000,0.000,0.000
489024.107,107.422,37.598,25.879,36.133,4.883,0.000,0.000,0.000
489024.111,45.898,35.156,25.391,15.625,2.441,0.000,0.000,0.000
489024.115,-45.898,35.156,28.320,4.883,8.789,0.000,0.000,0.000
489024.119,-1.465,37.109,30.762,20.996,20.508,0.000,0.000,0.000
489024.123,104.980,40.527,29.785,42.969,16.113,0.000,0.000,0.000
489024.127,95.703,38.574,29.785,32.227,9.277,0.000,0.000,0.000
489024.131,-20.996,35.156,34.668,1.953,20.020,0.000,0.000,0.000
489024.135,-21.973,36.133,30.762,13.672,31.738,0.000,0.000,0.000
489024.138,83.008,40.527,25.391,46.387,15.137,0.000,0.000,0.000
489024.142,104.492,39.551,29.297,39.551,3.906,0.000,0.000,0.000
489024.146,-8.301,29.785,27.344,-5.859,3.906,0.000,0.000,0.000
489024.150,-56.641,25.391,26.367,-18.555,-2.441,0.000,0.000,0.000
489024.154,35.645,25.879,26.855,16.113,-2.930,0.000,0.000,0.000
489024.158,111.328,31.250,27.832,40.527,7.812,0.000,0.000,0.000
489024.162,22.949,35.156,27.832,20.508,6.348,0.000,0.000,0.000
489024.166,-60.547,36.133,25.391,1.465,0.488,0.000,0.000,0.000
489024.170,18.066,40.527,24.902,23.438,13.672,0.000,0.000,0.000
489024.174,115.234,39.551,26.855,43.945,25.391,0.000,0.000,0.000
489024.177,67.383,40.039,26.855,31.250,16.602,0.000,0.000,0.000
489024.181,-43.457,37.109,20.508,0.488,1.953,0.000,0.000,0.000
489024.185,-14.160,30.762,20.508,6.348,2.930,0.000,0.000,0.000
489024.189,95.703,33.691,24.902,40.039,7.324,0.000,0.000,0.000
489024.193,93.262,39.062,25.879,39.062,10.742,0.000,0.000,0.000
489024.197,-25.391,35.645,23.438,3.418,11.719,0.000,0.000,0.000
489024.201,-40.527,32.227,22.461,6.348,-5.859,0.000,0.000,0.000
489024.205,65.430,35.156,25.879,38.086,-7.812,0.000,0.000,0.000
489024.209,105.957,34.668,29.297,40.039,0.488,0.000,0.000,0.000
489024.213,2.930,36.133,27.344,4.883,-2.930,0.000,0.000,0.000
489024.217,-48.828,32.715,27.344,-12.695,-0.488,0.000,0.000,0.000
489024.220,35.645,25.391,27.344,28.320,8.789,0.000,0.000,0.000
489024.224,104.492,30.273,23.926,46.387,9.766,0.000,0.000,0.000
489024.228,32.227,40.527,21.973,0.977,3.906,0.000,0.000,0.000
489024.232,-53.711,37.109,21.484,-11.230,5.371,0.000,0.000,0.000
489024.236,-6.836,30.273,23.926,14.160,3.906,0.000,0.000,0.000
489024.240,98.145,35.156,22.461,35.645,5.859,0.000,0.000,0.000
489024.244,73.242,38.574,19.531,25.879,5.371,0.000,0.000,0.000
489024.248,-42.480,41.504,23.926,3.906,7.324,0.000,0.000,0.000
489024.252,-18.555,41.504,26.367,15.137,15.625,2.000,1.000,45.000
489024.256,79.590,29.785,24.902,33.203,9.766,0.000,0.000,0.000
489024.259,83.984,26.367,25.879,27.832,4.883,0.000,0.000,0.000
489024.263,-29.785,34.668,28.320,-4.395,4.883,0.000,0.000,0.000
489024.267,-53.711,34.180,26.367,-8.789,-1.465,0.000,0.000,0.000
489024.271,53.711,32.715,20.996,18.066,-12.207,0.000,0.000,0.000
489024.275,105.957,35.645,20.996,27.832,-15.137,0.000,0.000,0.000
489024.279,11.230,39.062,22.949,1.465,-7.812,0.000,0.000,0.000
489024.283,-53.223,38.574,23.438,-4.395,1.465,0.000,0.000,0.000
489024.287,27.832,40.527,25.391,23.926,4.395,0.000,0.000,0.000
489024.291,110.840,38.086,25.391,36.133,6.836,0.000,0.000,0.000
489024.295,46.875,29.785,27.344,20.508,13.672,0.000,0.000,0.000
489024.299,-49.805,30.762,25.879,9.277,16.602,0.000,0.000,0.000
489024.302,5.371,33.203,23.438,26.855,22.461,0.000,0.000,0.000
489024.306,106.445,29.785,20.996,35.645,21.973,0.000,0.000,0.000
489024.310,75.195,32.715,20.020,14.160,7.324,0.000,0.000,0.000
489024.314,-42.969,31.738,21.973,-6.348,1.465,0.000,0.000,0.000
489024.318,-41.992,28.809,18.555,-2.930,-4.883,0.000,0.000,0.000
489024.322,71.777,35.645,20.508,26.367,0.977,0.000,0.000,0.000
489024.326,102.051,37.598,24.414,37.109,10.742,0.000,0.000,0.000
489024.330,-12.695,35.156,25.879,8.301,9.277,0.000,0.000,0.000
489024.334,-52.734,35.645,23.438,-0.488,3.906,0.000,0.000,0.000
489024.338,50.293,40.039,21.973,23.438,4.883,0.000,0.000,0.000
489024.341,110.352,34.668,20.020,34.180,3.418,0.000,0.000,0.000
489024.345,20.020,25.879,19.531,11.719,2.930,0.000,0.000,0.000
489024.349,-52.246,31.250,25.391,-1.465,1.465,0.000,0.000,0.000
489024.353,14.160,34.180,24.902,18.555,-2.441,0.000,0.000,0.000
489024.357,103.516,31.738,27.344,40.039,3.906,0.000,0.000,0.000
489024.361,56.152,32.715,26.855,21.484,4.883,0.000,0.000,0.000
489024.365,-52.734,33.203,23.926,-3.418,-3.418,0.000,0.000,0.000
489024.369,-10.742,35.645,26.367,17.578,0.000,0.000,0.000,0.000
489024.373,102.539,33.691,25.391,38.574,6.348,0.000,0.000,0.000
489024.377,88.379,29.785,26.855,25.879,5.371,0.000,0.000,0.000
489024.381,-28.809,34.180,28.320,1.465,8.789,0.000,0.000,0.000
489024.384,-27.832,35.645,26.855,7.324,12.207,0.000,0.000,0.000
489024.388,84.473,39.551,29.785,41.504,23.438,0.000,0.000,0.000
489024.392,113.281,41.016,23.926,46.875,17.578,0.000,0.000,0.000
489024.396,-1.953,35.645,20.508,13.672,4.883,0.000,0.000,0.000
489024.400,-49.805,30.273,23.926,0.488,9.277,0.000,0.000,0.000
489024.404,40.039,27.832,21.973,23.926,10.742,0.000,0.000,0.000
489024.408,105.469,33.691,22.949,31.738,15.625,0.000,0.000,0.000
489024.412,24.414,32.715,26.367,11.719,19.531,0.000,0.000,0.000
489024.416,-57.129,31.738,29.785,-1.465,0.488,0.000,0.000,0.000
489024.420,5.371,31.250,25.879,13.184,-20.996,0.000,0.000,0.000
489024.424,93.262,28.320,21.973,31.250,-28.809,0.000,0.000,0.000
489024.427,50.781,30.762,22.461,18.066,-37.598,0.000,0.000,0.000
489024.431,-58.594,33.203,24.414,-6.348,-43.945,0.000,0.000,0.000
489024.435,-23.438,38.086,26.855,4.395,-39.062,0.000,0.000,0.000
489024.439,85.449,36.621,22.461,31.738,-28.809,0.000,0.000,0.000
489024.443,83.008,30.762,20.508,28.320,-15.137,0.000,0.000,0.000
489024.447,-30.762,32.715,28.809,6.836,0.488,0.000,0.000,0.000
489024.451,-40.039,37.598,29.785,10.742,16.113,0.000,0.000,0.000
489024.455,70.801,39.062,26.855,33.691,22.461,0.000,0.000,0.000
489024.459,109.863,35.156,30.273,37.109,15.625,0.000,0.000,0.000
489024.463,3.906,37.598,28.809,14.648,17.090,0.000,0.000,0.000
489024.466,-60.059,37.109,25.879,2.930,20.508,0.000,0.000,0.000
489024.470,25.391,33.691,27.344,25.391,26.855,0.000,0.000,0.000
489024.474,108.887,36.621,27.344,47.852,32.715,0.000,0.000,0.000
489024.478,31.738,34.180,25.879,19.043,22.461,0.000,0.000,0.000
489024.482,-62.500,36.133,24.414,-13.184,16.602,0.000,0.000,0.000
489024.486,11.230,41.992,23.438,5.859,15.625,0.000,0.000,0.000
489024.490,111.328,30.273,21.973,36.621,15.137,0.000,0.000,0.000
489024.494,67.871,27.832,21.484,24.414,17.578,0.000,0.000,0.000
489024.498,-48.340,33.203,22.461,-11.230,9.766,0.000,0.000,0.000
489024.502,-33.203,30.762,24.414,-3.418,3.418,0.000,0.000,0.000
489024.506,76.172,36.133,25.879,27.344,1.953,0.000,0.000,0.000
489024.509,94.727,39.062,25.879,25.391,-2.930,0.000,0.000,0.000
489024.513,-22.949,33.691,27.832,-0.977,-2.441,0.000,0.000,0.000
489024.517,-50.293,33.691,29.297,-2.930,1.953,0.000,0.000,0.000
489024.521,56.152,37.109,26.855,26.855,7.324,0.000,0.000,0.000
489024.525,111.816,34.180,23.438,37.109,11.719,0.000,0.000,0.000
489024.529,15.137,36.621,27.344,9.766,20.020,0.000,0.000,0.000
489024.533,-60.059,38.086,28.809,-3.906,15.625,0.000,0.000,0.000
489024.537,20.020,31.250,26.367,19.043,-2.930,0.000,0.000,0.000
489024.541,103.516,32.715,26.367,38.086,-6.836,0.000,0.000,0.000
489024.545,38.086,37.598,22.461,20.020,-5.859,0.000,0.000,0.000
489024.548,-59.082,32.715,23.438,2.930,-3.906,0.000,0.000,0.000
489024.552,-10.254,27.832,24.902,19.531,-0.488,0.000,0.000,0.000
489024.556,95.215,32.715,25.879,41.016,3.906,0.000,0.000,0.000
489024.560,77.637,33.691,28.320,30.762,4.883,0.000,0.000,0.000
489024.564,-33.691,32.227,28.809,11.230,12.695,0.000,0.000,0.000
489024.568,-25.879,35.645,28.809,21.484,26.855,0.000,0.000,0.000
489024.572,75.684,36.621,28.809,45.410,16.602,0.000,0.000,0.000
489024.576,103.027,40.039,30.273,43.945,0.000,0.000,0.000,0.000
489024.580,-13.184,35.156,32.227,1.465,-1.953,0.000,0.000,0.000
489024.584,-60.059,28.320,30.273,-6.348,4.883,0.000,0.000,0.000
489024.588,44.434,31.250,22.461,27.344,-0.977,0.000,0.000,0.000
489024.591,104.980,36.133,25.391,35.645,-9.277,0.000,0.000,0.000
489024.595,9.277,35.645,30.762,9.277,-2.930,0.000,0.000,0.000
489024.599,-63.965,31.250,31.250,-2.441,-3.418,0.000,0.000,0.000
489024.603,7.812,26.855,30.762,15.625,-4.395,0.000,0.000,0.000
489024.607,99.121,29.297,31.738,37.109,2.930,0.000,0.000,0.000
489024.611,47.363,29.785,35.156,27.832,1.465,0.000,0.000,0.000
489024.615,-61.035,26.855,32.715,0.977,-7.324,0.000,0.000,0.000
489024.619,-13.672,29.785,29.785,7.812,-1.953,0.000,0.000,0.000
489024.623,86.426,28.809,34.668,37.109,4.395,0.000,0.000,0.000
489024.627,71.777,28.320,35.156,34.668,10.254,0.000,0.000,0.000
489024.631,-39.062,28.320,32.715,11.719,18.066,0.000,0.000,0.000
489024.634,-37.598,30.273,39.062,18.066,19.043,0.000,0.000,0.000
489024.638,78.613,33.203,36.133,39.551,18.555,0.000,0.000,0.000
489024.642,110.352,25.391,32.227,44.922,28.320,0.000,0.000,0.000
489024.646,-9.277,26.855,38.086,13.672,24.902,0.000,0.000,0.000
489024.650,-62.988,33.203,34.668,0.977,7.324,0.000,0.000,0.000
489024.654,35.645,33.691,33.203,29.785,8.789,0.000,0.000,0.000
489024.658,110.840,36.621,35.645,41.992,11.230,4.000,1.000,45.000
489024.662,26.367,32.227,32.715,20.508,7.812,0.000,0.000,0.000
489024.666,-66.895,26.367,29.297,5.371,6.348,0.000,0.000,0.000
489024.670,-0.488,26.855,27.344,32.227,15.625,0.000,0.000,0.000
489024.673,97.168,26.855,24.414,46.875,15.137,0.000,0.000,0.000
489024.677,55.176,28.320,23.438,20.996,6.348,0.000,0.000,0.000
489024.681,-51.270,33.203,25.391,0.000,14.160,0.000,0.000,0.000
489024.685,-18.066,34.668,29.297,7.812,20.508,0.000,0.000,0.000
489024.689,90.332,31.738,24.414,31.738,17.090,0.000,0.000,0.000
489024.693,83.984,28.320,18.555,26.855,8.789,0.000,0.000,0.000
489024.697,-34.180,30.273,21.973,2.930,8.301,0.000,0.000,0.000
489024.701,-47.363,28.320,20.996,2.930,5.859,0.000,0.000,0.000
489024.705,55.176,25.879,19.043,25.391,3.906,0.000,0.000,0.000
489024.709,96.191,31.738,18.555,33.691,11.230,0.000,0.000,0.000
489024.713,-10.742,31.250,18.555,3.418,12.695,0.000,0.000,0.000
489024.716,-62.012,27.344,21.484,-5.371,1.465,0.000,0.000,0.000
489024.720,30.762,29.297,20.508,26.855,-3.906,0.000,0.000,0.000
489024.724,98.633,35.156,20.020,38.086,0.488,0.000,0.000,0.000
489024.728,26.367,36.621,20.508,10.254,4.883,0.000,0.000,0.000
489024.732,-62.012,34.180,22.949,-4.395,9.277,0.000,0.000,0.000
489024.736,-1.953,34.668,23.926,16.113,12.695,0.000,0.000,0.000
489024.740,103.516,35.156,24.902,34.180,14.160,0.000,0.000,0.000
489024.744,70.312,38.086,24.414,23.438,9.277,0.000,0.000,0.000
