timestamps,TP9,AF7,AF8,TP10,Right AUX,Frequency,Contrast,Orientation
621711.525,16.113,-6.836,-5.859,16.602,0.000,0.000,0.000,0.000
621711.529,28.809,-20.508,-16.113,6.348,0.000,0.000,0.000,0.000
621711.533,24.414,-35.645,-35.156,-45.898,0.000,0.000,0.000,0.000
621711.537,8.301,-21.973,-24.902,-40.039,0.000,0.000,0.000,0.000
621711.541,46.875,24.902,23.438,29.297,0.000,0.000,0.000,0.000
621711.545,45.410,12.207,10.742,24.414,0.000,0.000,0.000,0.000
621711.549,-0.977,-39.551,-43.945,-38.086,0.000,0.000,0.000,0.000
621711.553,-17.578,-43.457,-46.387,-34.668,0.000,0.000,0.000,0.000
621711.557,0.488,-4.395,-9.277,-21.973,0.000,0.000,0.000,0.000
621711.561,17.578,0.000,-3.418,6.348,0.000,0.000,0.000,0.000
621711.564,21.484,-23.926,-27.344,4.395,0.000,0.000,0.000,0.000
621711.568,17.578,-23.926,-32.715,-20.508,0.000,0.000,0.000,0.000
621711.572,1.953,-13.672,-15.625,-14.648,0.000,0.000,0.000,0.000
621711.576,0.488,0.977,0.488,10.742,0.000,0.000,0.000,0.000
621711.580,21.973,-12.695,-19.531,-8.789,0.000,0.000,0.000,0.000
621711.584,20.508,-44.922,-55.664,-34.180,0.000,0.000,0.000,0.000
621711.588,-22.461,-41.016,-49.805,-32.227,0.000,0.000,0.000,0.000
621711.592,-33.203,-21.484,-30.762,-5.859,0.000,0.000,0.000,0.000
621711.596,-10.254,-16.113,-24.414,4.395,0.000,0.000,0.000,0.000
621711.600,4.883,-21.484,-27.832,-44.434,0.000,0.000,0.000,0.000
621711.604,-5.371,-55.176,-54.199,-48.828,0.000,0.000,0.000,0.000
621711.608,-0.488,-33.203,-25.391,-2.930,0.000,0.000,0.000,0.000
621711.611,7.324,-17.090,-8.301,1.465,0.000,0.000,0.000,0.000
621711.615,0.000,-44.434,-40.039,-55.664,0.000,0.000,0.000,0.000
621711.619,-14.160,-47.363,-47.852,-81.543,0.000,0.000,0.000,0.000
621711.623,-16.602,-20.996,-19.043,-22.461,0.000,0.000,0.000,0.000
621711.627,28.809,4.883,5.371,43.945,0.000,0.000,0.000,0.000
621711.631,31.738,-14.160,-17.578,-1.953,0.000,0.000,0.000,0.000
621711.635,-1.465,-37.109,-39.062,-71.777,0.000,0.000,0.000,0.000
621711.639,9.277,-13.672,-16.113,-35.645,0.000,0.000,0.000,0.000
621711.643,31.738,6.348,5.371,29.297,0.000,0.000,0.000,0.000
621711.647,30.273,-10.742,-9.766,24.414,0.000,0.000,0.000,0.000
621711.651,37.109,-23.438,-27.344,-12.695,0.000,0.000,0.000,0.000
621711.655,24.902,-8.789,-14.160,-27.344,0.000,0.000,0.000,0.000
621711.658,26.855,14.160,14.160,5.371,0.000,0.000,0.000,0.000
621711.662,37.109,2.441,2.930,0.000,0.000,0.000,0.000,0.000
621711.666,15.137,-29.297,-33.203,-55.664,0.000,0.000,0.000,0.000
621711.670,2.930,-36.621,-39.062,-34.668,0.000,0.000,0.000,0.000
621711.674,14.160,-0.977,-0.488,-3.418,0.000,0.000,0.000,0.000
621711.678,39.551,23.926,21.973,32.227,0.000,0.000,0.000,0.000
621711.682,46.387,-8.789,-10.254,14.160,0.000,0.000,0.000,0.000
621711.686,22.461,-20.508,-24.902,-0.977,0.000,0.000,0.000,0.000
621711.690,-2.441,-7.324,-13.672,7.812,0.000,0.000,0.000,0.000
621711.694,0.488,-1.465,-8.789,-37.598,0.000,0.000,0.000,0.000
621711.698,19.043,-5.859,-17.578,-44.434,0.000,0.000,0.000,0.000
621711.702,18.555,-21.973,-36.133,-41.504,0.000,0.000,0.000,0.000
621711.706,-14.648,-32.227,-38.574,-21.973,0.000,0.000,0.000,0.000
621711.709,-11.230,-21.484,-19.531,22.461,0.000,0.000,0.000,0.000
621711.713,13.672,-1.465,0.000,18.555,0.000,0.000,0.000,0.000
621711.717,9.277,-28.809,-27.832,-19.043,0.000,0.000,0.000,0.000
621711.721,17.578,-37.598,-36.621,-28.809,0.000,0.000,0.000,0.000
621711.725,10.742,-15.137,-16.602,-4.395,0.000,0.000,0.000,0.000
621711.729,-2.930,-28.809,-34.668,28.320,0.000,0.000,0.000,0.000
621711.733,4.395,-39.551,-45.410,-22.461,0.000,0.000,0.000,0.000
621711.737,-13.672,-39.062,-42.480,-50.293,0.000,0.000,0.000,0.000
621711.741,-28.320,-26.855,-32.715,-42.969,0.000,0.000,0.000,0.000
621711.745,9.766,1.465,-2.930,15.137,0.000,0.000,0.000,0.000
621711.749,49.316,14.160,8.789,35.645,0.000,0.000,0.000,0.000
621711.753,21.484,-14.160,-16.602,-41.992,0.000,0.000,0.000,0.000
621711.756,-3.418,-20.020,-16.602,-32.715,0.000,0.000,0.000,0.000
621711.760,11.719,-2.930,-6.836,31.738,0.000,0.000,0.000,0.000
621711.764,17.578,-23.438,-31.250,5.371,0.000,0.000,0.000,0.000
621711.768,-0.488,-50.781,-53.223,-42.480,0.000,0.000,0.000,0.000
621711.772,-1.465,-32.227,-30.762,-48.828,0.000,0.000,0.000,0.000
621711.776,14.648,-3.906,-0.488,-1.465,0.000,0.000,0.000,0.000
621711.780,9.277,-10.254,-8.789,30.762,0.000,0.000,0.000,0.000
621711.784,2.930,-35.645,-39.062,-9.766,0.000,0.000,0.000,0.000
621711.788,-19.043,-52.734,-55.176,-42.480,0.000,0.000,0.000,0.000
621711.792,-22.461,-17.578,-13.672,-23.926,0.000,0.000,0.000,0.000
621711.796,-7.324,-13.184,-10.742,14.160,0.000,0.000,0.000,0.000
621711.800,-13.672,-52.734,-49.805,-36.621,0.000,0.000,0.000,0.000
621711.803,-20.508,-56.152,-54.199,-46.875,0.000,0.000,0.000,0.000
621711.807,-25.879,-33.691,-29.297,-8.301,0.000,0.000,0.000,0.000
621711.811,-10.742,-22.949,-15.625,-2.441,0.000,0.000,0.000,0.000
621711.815,11.719,-29.297,-27.344,-41.504,0.000,0.000,0.000,0.000
621711.819,1.953,-41.016,-43.457,-56.641,0.000,0.000,0.000,0.000
621711.823,-27.832,-32.227,-38.086,-24.414,0.000,0.000,0.000,0.000
621711.827,-20.020,-12.207,-19.043,1.465,0.000,0.000,0.000,0.000
621711.831,-7.324,-42.480,-45.410,-33.691,0.000,0.000,0.000,0.000
621711.835,-9.277,-63.477,-68.359,-65.918,0.000,0.000,0.000,0.000
621711.839,-17.090,-46.875,-51.270,-36.621,0.000,0.000,0.000,0.000
621711.843,-5.371,-14.648,-13.184,15.625,0.000,0.000,0.000,0.000
621711.847,26.367,2.930,5.371,39.551,0.000,0.000,0.000,0.000
621711.851,15.137,-31.738,-30.273,-8.301,0.000,0.000,0.000,0.000
621711.854,-23.438,-43.457,-46.387,-41.992,0.000,0.000,0.000,0.000
621711.858,-23.926,-13.184,-15.137,-31.738,0.000,0.000,0.000,0.000
621711.862,20.020,4.395,4.395,24.902,0.000,0.000,0.000,0.000
621711.866,16.113,-26.367,-25.391,4.883,0.000,0.000,0.000,0.000
621711.870,-15.625,-61.035,-61.035,-37.598,0.000,0.000,0.000,0.000
621711.874,-16.113,-40.039,-40.527,0.000,0.000,0.000,0.000,0.000
621711.878,1.953,-13.184,-9.277,33.691,0.000,0.000,0.000,0.000
621711.882,35.156,-6.836,-5.371,15.137,0.000,0.000,0.000,0.000
621711.886,3.906,-41.992,-40.039,-10.742,0.000,0.000,0.000,0.000
621711.890,-24.902,-36.133,-32.227,-45.410,0.000,0.000,0.000,0.000
621711.894,4.883,-3.418,-4.395,-12.695,0.000,0.000,0.000,0.000
621711.898,26.367,-10.742,-8.301,34.668,0.000,0.000,0.000,0.000
621711.901,12.207,-34.668,-31.738,0.000,0.000,0.000,0.000,0.000
621711.905,-7.812,-35.156,-31.250,-8.789,0.000,0.000,0.000,0.000
621711.909,37.598,25.879,28.809,34.180,0.000,0.000,0.000,0.000
621711.913,47.852,25.879,24.414,53.711,0.000,0.000,0.000,0.000
621711.917,16.602,-20.020,-18.066,-23.438,0.000,0.000,0.000,0.000
621711.921,-10.254,-36.133,-39.062,-44.434,0.000,0.000,0.000,0.000
621711.925,-25.391,-23.438,-31.250,-11.719,0.000,0.000,0.000,0.000
621711.929,3.418,12.207,5.859,26.367,0.000,0.000,0.000,0.000
621711.933,30.762,-5.859,-12.695,5.371,0.000,0.000,0.000,0.000
621711.937,4.395,-53.223,-60.059,-44.922,0.000,0.000,0.000,0.000
621711.941,-22.949,-35.156,-40.527,-27.832,0.000,0.000,0.000,0.000
621711.945,19.043,12.695,6.836,6.348,0.000,0.000,0.000,0.000
621711.948,33.691,-8.789,-16.602,-23.926,0.000,0.000,0.000,0.000
621711.952,-8.301,-34.180,-42.480,-43.457,0.000,0.000,0.000,0.000
621711.956,-36.621,-21.484,-23.926,-16.602,0.000,0.000,0.000,0.000
621711.960,-29.785,-13.672,-12.695,6.836,0.000,0.000,0.000,0.000
621711.964,-9.766,-35.156,-37.109,-18.066,0.000,0.000,0.000,0.000
621711.968,-23.438,-57.617,-63.477,-75.195,0.000,0.000,0.000,0.000
621711.972,-54.688,-52.734,-62.012,-61.523,0.000,0.000,0.000,0.000
621711.976,-20.020,-20.020,-28.809,-3.418,0.000,0.000,0.000,0.000
621711.980,0.977,-23.438,-28.320,11.230,0.000,0.000,0.000,0.000
621711.984,-11.230,-36.133,-38.574,-33.203,0.000,0.000,0.000,0.000
621711.988,-50.293,-31.250,-32.715,-61.035,0.000,0.000,0.000,0.000
621711.992,-54.199,-26.367,-22.461,-52.734,0.000,0.000,0.000,0.000
621711.995,-18.066,-14.648,-3.906,-19.531,0.000,0.000,0.000,0.000
621711.999,0.977,-20.508,-19.043,1.465,0.000,0.000,0.000,0.000
621712.003,-15.137,-47.852,-50.781,-38.086,0.000,0.000,0.000,0.000
621712.007,-22.461,-37.109,-36.133,-44.922,0.000,0.000,0.000,0.000
621712.011,-11.230,-3.418,-2.441,11.230,0.000,0.000,0.000,0.000
621712.015,8.789,2.930,-5.371,20.508,0.000,0.000,0.000,0.000
621712.019,1.465,-29.297,-37.598,-34.668,0.000,0.000,0.000,0.000
621712.023,-13.672,-28.809,-27.832,-60.059,0.000,0.000,0.000,0.000
621712.027,-3.418,12.207,10.742,-17.578,0.000,0.000,0.000,0.000
621712.031,-6.836,-12.695,-14.160,-6.836,0.000,0.000,0.000,0.000
621712.035,-3.906,-61.523,-60.547,-45.410,0.000,0.000,0.000,0.000
621712.039,-21.484,-62.988,-61.035,-33.691,0.000,0.000,0.000,0.000
621712.043,-24.902,-28.320,-23.926,-9.766,0.000,0.000,0.000,0.000
621712.046,13.184,-5.859,-3.906,10.742,0.000,0.000,0.000,0.000
621712.050,7.324,-43.945,-45.410,-31.250,0.000,0.000,0.000,0.000
621712.054,-41.504,-72.754,-72.754,-98.145,0.000,0.000,0.000,0.000
621712.058,-39.062,-24.902,-23.926,-38.574,0.000,0.000,0.000,0.000
621712.062,7.812,9.766,11.719,26.855,0.000,0.000,0.000,0.000
621712.066,18.066,-15.625,-14.648,-7.324,0.000,0.000,0.000,0.000
621712.070,-9.277,-52.246,-48.828,-50.293,0.000,0.000,0.000,0.000
621712.074,-23.438,-40.527,-36.621,-25.391,0.000,0.000,0.000,0.000
621712.078,3.906,-0.488,1.465,32.227,0.000,0.000,0.000,0.000
621712.082,11.230,-3.906,-4.395,-2.930,0.000,0.000,0.000,0.000
621712.086,-13.184,-36.133,-38.086,-50.781,0.000,0.000,0.000,0.000
621712.090,-26.367,-40.039,-37.598,-39.551,0.000,0.000,0.000,0.000
621712.093,-15.137,-16.602,-11.719,-6.836,0.000,0.000,0.000,0.000
621712.097,10.254,-20.020,-19.531,3.418,0.000,0.000,0.000,0.000
621712.101,10.742,-31.738,-31.250,-57.129,0.000,0.000,0.000,0.000
621712.105,-6.348,-23.926,-20.508,-52.734,0.000,0.000,0.000,0.000
621712.109,0.977,1.953,5.859,-0.977,0.000,0.000,0.000,0.000
621712.113,8.301,2.441,2.441,14.160,0.000,0.000,0.000,0.000
621712.117,-19.043,-64.941,-66.895,-52.734,0.000,0.000,0.000,0.000
621712.121,-28.320,-31.250,-32.227,-46.875,0.000,0.000,0.000,0.000
621712.125,16.113,36.133,32.715,42.480,0.000,0.000,0.000,0.000
621712.129,41.016,1.953,-3.906,49.316,0.000,0.000,0.000,0.000
621712.133,23.926,-26.367,-32.227,-17.578,0.000,0.000,0.000,0.000
621712.137,-18.555,-22.461,-26.855,-43.945,0.000,0.000,0.000,0.000
621712.140,-30.762,5.371,-1.465,-2.930,0.000,0.000,0.000,0.000
621712.144,11.719,-3.418,-11.230,13.184,0.000,0.000,0.000,0.000
621712.148,-5.859,-41.504,-47.363,-15.137,0.000,0.000,0.000,0.000
621712.152,-61.523,-36.133,-44.434,-60.059,0.000,0.000,0.000,0.000
621712.156,-32.715,-0.977,-7.324,-42.480,0.000,0.000,0.000,0.000
621712.160,17.090,-10.254,-14.648,-3.418,0.000,0.000,0.000,0.000
621712.164,-4.883,-46.387,-52.246,-29.785,0.000,0.000,0.000,0.000
621712.168,-38.086,-52.734,-56.152,-47.363,0.000,0.000,0.000,0.000
621712.172,-20.020,-25.879,-22.461,-10.742,0.000,0.000,0.000,0.000
621712.176,-5.371,-11.230,-7.812,18.066,0.000,0.000,0.000,0.000
621712.180,1.953,-32.227,-33.203,-27.832,0.000,0.000,0.000,0.000
621712.184,-12.695,-47.363,-45.410,-51.758,0.000,0.000,0.000,0.000
621712.188,-36.621,-20.020,-20.020,-24.902,0.000,0.000,0.000,0.000
621712.191,-6.348,-11.230,-13.672,20.996,0.000,0.000,0.000,0.000
621712.195,20.020,-26.855,-30.762,-10.254,0.000,0.000,0.000,0.000
621712.199,3.418,-20.508,-26.855,-59.570,0.000,0.000,0.000,0.000
621712.203,-27.832,-7.812,-14.648,-38.086,0.000,0.000,0.000,0.000
621712.207,-22.949,-8.789,-14.160,-21.484,0.000,0.000,0.000,0.000
621712.211,14.160,-7.812,-14.160,28.809,0.000,0.000,0.000,0.000
621712.215,8.789,-20.020,-27.832,-12.695,0.000,0.000,0.000,0.000
621712.219,-20.508,-36.621,-39.062,-45.410,0.000,0.000,0.000,0.000
621712.223,-6.836,-17.090,-19.531,-1.465,0.000,0.000,0.000,0.000
621712.227,10.742,2.930,-3.418,19.043,0.000,0.000,0.000,0.000
621712.231,-5.859,-22.949,-27.832,-32.715,0.000,0.000,0.000,0.000
621712.235,-43.457,-52.734,-52.246,-78.613,0.000,0.000,0.000,0.000
621712.238,-49.316,-43.945,-44.922,-50.293,0.000,0.000,0.000,0.000
621712.242,-37.109,-36.133,-41.016,-18.555,0.000,0.000,0.000,0.000
621712.246,-26.855,-51.270,-55.664,-41.504,0.000,0.000,0.000,0.000
621712.250,-35.645,-61.523,-60.059,-41.016,0.000,0.000,0.000,0.000
621712.254,-42.480,-38.086,-37.109,-24.414,0.000,0.000,0.000,0.000
621712.258,-27.832,-20.996,-19.043,7.324,0.000,0.000,0.000,0.000
621712.262,10.254,-23.438,-17.578,-0.488,0.000,0.000,0.000,0.000
621712.266,-12.207,-48.828,-46.875,-51.758,0.000,0.000,0.000,0.000
621712.270,-40.039,-50.781,-52.246,-40.039,0.000,0.000,0.000,0.000
621712.274,-4.883,-20.020,-19.531,-16.602,0.000,0.000,0.000,0.000
621712.278,-21.973,-24.414,-27.344,-33.691,0.000,0.000,0.000,0.000
621712.282,-39.062,-53.223,-55.664,-62.012,0.000,0.000,0.000,0.000
621712.285,-34.668,-64.941,-63.477,-47.363,0.000,0.000,0.000,0.000
621712.289,-42.480,-55.176,-55.176,-32.227,0.000,0.000,0.000,0.000
621712.293,-25.391,-46.387,-50.293,-28.320,0.000,0.000,0.000,0.000
621712.297,14.160,-35.645,-43.457,-28.320,0.000,0.000,0.000,0.000
621712.301,-12.207,-35.645,-41.504,-30.762,0.000,0.000,0.000,0.000
621712.305,-31.738,-27.344,-32.715,-27.344,0.000,0.000,0.000,0.000
621712.309,-6.348,-18.555,-22.949,6.836,0.000,0.000,0.000,0.000
621712.313,-0.977,-32.227,-36.621,-30.762,0.000,0.000,0.000,0.000
621712.317,-21.484,-56.152,-61.035,-57.617,0.000,0.000,0.000,0.000
621712.321,-49.805,-45.410,-48.828,-34.180,0.000,0.000,0.000,0.000
621712.325,-44.434,-20.020,-23.926,-19.043,0.000,0.000,0.000,0.000
621712.329,-26.855,-36.621,-45.410,-6.348,0.000,0.000,0.000,0.000
621712.333,-26.367,-51.270,-61.035,-54.199,0.000,0.000,0.000,0.000
621712.336,-37.109,-36.621,-43.945,-62.988,0.000,0.000,0.000,0.000
621712.340,-38.086,-16.602,-21.484,1.465,0.000,0.000,0.000,0.000
621712.344,-15.137,-18.555,-25.391,18.066,0.000,0.000,0.000,0.000
621712.348,4.883,-32.227,-46.387,-11.230,0.000,0.000,0.000,0.000
621712.352,-25.391,-47.363,-58.105,-50.781,0.000,0.000,0.000,0.000
621712.356,-43.457,-33.691,-40.527,-51.758,0.000,0.000,0.000,0.000
621712.360,-18.066,-23.438,-27.832,-5.859,0.000,0.000,0.000,0.000
621712.364,-9.277,-37.598,-44.922,-32.227,0.000,0.000,0.000,0.000
621712.368,-35.645,-48.828,-58.594,-64.941,0.000,0.000,0.000,0.000
621712.372,-48.828,-33.691,-36.621,-50.781,0.000,0.000,0.000,0.000
621712.376,-32.227,-20.020,-20.996,-2.441,0.000,0.000,0.000,0.000
621712.380,4.395,-32.227,-32.715,-1.465,0.000,0.000,0.000,0.000
621712.383,12.207,-53.711,-52.246,-41.992,0.000,0.000,0.000,0.000
621712.387,-13.184,-43.945,-39.551,-24.414,0.000,0.000,0.000,0.000
621712.391,11.719,-0.977,-1.465,17.090,0.000,0.000,0.000,0.000
621712.395,36.133,-0.977,-9.766,27.832,0.000,0.000,0.000,0.000
621712.399,15.137,-42.969,-48.828,-21.973,0.000,0.000,0.000,0.000
621712.403,-15.625,-52.246,-55.176,-46.875,0.000,0.000,0.000,0.000
621712.407,-22.949,-14.648,-16.602,5.859,0.000,0.000,0.000,0.000
621712.411,3.418,-16.602,-20.996,5.371,0.000,0.000,0.000,0.000
621712.415,-1.953,-51.758,-55.176,-45.898,0.000,0.000,0.000,0.000
621712.419,-34.668,-57.617,-54.199,-47.852,0.000,0.000,0.000,0.000
621712.423,-44.434,-40.527,-34.668,-55.664,0.000,0.000,0.000,0.000
621712.427,-13.184,-16.113,-13.672,-17.578,0.000,0.000,0.000,0.000
621712.430,0.977,-39.551,-39.062,-38.086,0.000,0.000,0.000,0.000
621712.434,-29.785,-61.035,-62.500,-65.918,0.000,0.000,0.000,0.000
621712.438,-46.875,-37.598,-40.039,-32.715,0.000,0.000,0.000,0.000
621712.442,-7.324,-36.621,-40.527,-3.418,0.000,0.000,0.000,0.000
621712.446,-7.324,-67.383,-66.895,-30.762,0.000,0.000,0.000,0.000
621712.450,-13.184,-59.082,-56.152,-72.266,0.000,0.000,0.000,0.000
621712.454,-15.625,-27.832,-30.762,-43.945,0.000,0.000,0.000,0.000
621712.458,-31.250,-23.438,-24.414,-4.883,0.000,0.000,0.000,0.000
621712.462,-15.625,-35.645,-35.156,-4.883,0.000,0.000,0.000,0.000
621712.466,-17.090,-59.570,-65.918,-20.996,0.000,0.000,0.000,0.000
621712.470,-46.387,-53.711,-60.059,-33.203,0.000,0.000,0.000,0.000
621712.474,-30.273,-26.855,-27.344,-37.598,0.000,0.000,0.000,0.000
621712.478,1.465,-32.715,-35.156,-22.461,0.000,0.000,0.000,0.000
621712.481,-16.113,-55.664,-57.129,-41.016,0.000,0.000,0.000,0.000
621712.485,-44.434,-64.941,-64.941,-65.918,0.000,0.000,0.000,0.000
621712.489,-39.551,-46.387,-43.945,-51.758,0.000,0.000,0.000,0.000
621712.493,-5.859,-7.324,-5.859,0.977,0.000,0.000,0.000,0.000
621712.497,2.930,-0.488,-1.465,1.465,0.000,0.000,0.000,0.000
621712.501,-28.320,-40.527,-40.527,-34.668,0.000,0.000,0.000,0.000
621712.505,-33.203,-61.523,-58.594,-31.250,0.000,0.000,0.000,0.000
621712.509,-33.203,-45.410,-43.945,-8.301,0.000,0.000,0.000,0.000
621712.513,-29.297,-54.199,-54.688,-26.855,0.000,0.000,0.000,0.000
621712.517,-25.391,-64.941,-66.895,-54.199,0.000,0.000,0.000,0.000
621712.521,-19.531,-40.527,-42.480,-33.203,0.000,0.000,0.000,0.000
621712.525,3.906,-7.812,-3.418,-5.859,0.000,0.000,0.000,0.000
621712.528,-1.465,-20.020,-18.066,-16.602,0.000,0.000,0.000,0.000
621712.532,-13.184,-52.734,-53.223,-40.039,0.000,0.000,0.000,0.000
621712.536,-34.668,-72.266,-69.336,-79.590,0.000,0.000,0.000,0.000
621712.540,-11.230,-32.227,-31.738,-29.785,0.000,0.000,0.000,0.000
621712.544,17.578,-5.859,-6.348,54.199,0.000,0.000,0.000,0.000
621712.548,0.488,-42.480,-45.898,-23.438,0.000,0.000,0.000,0.000
621712.552,-18.555,-60.059,-64.453,-49.316,0.000,0.000,0.000,0.000
621712.556,-52.734,-63.965,-61.523,-40.039,0.000,0.000,0.000,0.000
621712.560,-34.180,-34.668,-31.250,-29.785,0.000,0.000,0.000,0.000
621712.564,52.734,-5.371,-4.395,16.113,0.000,0.000,0.000,0.000
621712.568,19.043,-29.297,-31.738,0.488,0.000,0.000,0.000,0.000
621712.572,-11.230,-41.992,-41.016,-23.926,0.000,0.000,0.000,0.000
621712.575,69.336,-1.465,0.977,26.855,0.000,0.000,0.000,0.000
621712.579,46.387,10.742,5.859,52.734,0.000,0.000,0.000,0.000
621712.583,-22.461,-16.113,-19.531,6.836,0.000,0.000,0.000,0.000
621712.587,-22.949,-24.414,-25.391,-18.555,0.000,0.000,0.000,0.000
621712.591,29.297,7.812,4.395,21.973,0.000,0.000,0.000,0.000
621712.595,16.602,8.789,3.906,50.293,0.000,0.000,0.000,0.000
621712.599,-10.742,-28.809,-33.691,5.859,0.000,0.000,0.000,0.000
621712.603,-16.602,-37.109,-41.016,-19.531,0.000,0.000,0.000,0.000
621712.607,-5.859,9.766,8.789,25.879,0.000,0.000,0.000,0.000
621712.611,-21.973,-22.461,-20.508,32.715,0.000,0.000,0.000,0.000
621712.615,-72.754,-101.562,-102.539,-75.195,0.000,0.000,0.000,0.000
621712.619,-78.125,-103.027,-105.957,-104.004,0.000,0.000,0.000,0.000
621712.623,-65.918,-84.473,-84.473,-52.734,0.000,0.000,0.000,0.000
621712.626,-57.617,-68.848,-68.359,-56.152,0.000,0.000,0.000,0.000
621712.630,-59.570,-70.312,-72.266,-78.125,0.000,0.000,0.000,0.000
621712.634,-82.031,-88.379,-94.727,-67.383,0.000,0.000,0.000,0.000
621712.638,-96.680,-99.609,-107.910,-81.543,0.000,0.000,0.000,0.000
621712.642,-80.078,-93.262,-98.633,-81.055,0.000,0.000,0.000,0.000
621712.646,-54.199,-87.402,-92.285,-72.754,0.000,0.000,0.000,0.000
621712.650,-81.543,-114.746,-118.652,-101.074,0.000,0.000,0.000,0.000
621712.654,-129.395,-120.605,-124.023,-99.609,0.000,0.000,0.000,0.000
621712.658,-122.559,-76.172,-78.125,-71.289,0.000,0.000,0.000,0.000
621712.662,-103.516,-89.355,-91.309,-74.707,0.000,0.000,0.000,0.000
621712.666,-91.797,-121.094,-122.559,-91.309,0.000,0.000,0.000,0.000
621712.670,-92.773,-123.535,-123.047,-107.422,0.000,0.000,0.000,0.000
621712.673,-86.914,-101.074,-104.492,-84.961,0.000,0.000,0.000,0.000
621712.677,-63.965,-85.449,-86.914,-41.992,0.000,0.000,0.000,0.000
621712.681,-72.754,-102.539,-105.957,-84.961,0.000,0.000,0.000,0.000
621712.685,-110.840,-116.699,-126.465,-148.926,0.000,0.000,0.000,0.000
621712.689,-102.051,-110.352,-114.746,-104.004,0.000,0.000,0.000,0.000
621712.693,-68.359,-86.426,-90.332,-53.711,0.000,0.000,0.000,0.000
621712.697,-71.289,-106.445,-116.699,-72.266,0.000,0.000,0.000,0.000
621712.701,-97.168,-130.859,-136.719,-124.023,0.000,0.000,0.000,0.000
621712.705,-109.375,-110.840,-107.910,-119.629,0.000,0.000,0.000,0.000
621712.709,-75.195,-78.613,-76.172,-46.387,0.000,0.000,0.000,0.000
621712.713,-70.312,-85.449,-90.820,-54.199,0.000,0.000,0.000,0.000
621712.717,-112.305,-118.652,-130.371,-139.160,0.000,0.000,0.000,0.000
621712.720,-127.441,-122.559,-129.395,-122.559,0.000,0.000,0.000,0.000
621712.724,-119.629,-82.520,-84.961,-90.332,0.000,0.000,0.000,0.000
621712.728,-102.539,-86.914,-86.914,-73.242,0.000,0.000,0.000,0.000
621712.732,-66.895,-104.004,-104.492,-68.848,0.000,0.000,0.000,0.000
621712.736,-87.891,-115.723,-119.141,-83.984,0.000,0.000,0.000,0.000
621712.740,-113.770,-102.539,-100.098,-62.012,0.000,0.000,0.000,0.000
621712.744,-78.613,-69.824,-62.500,-51.270,0.000,0.000,0.000,0.000
621712.748,-70.801,-98.145,-96.680,-91.309,0.000,0.000,0.000,0.000
621712.752,-111.328,-124.512,-128.906,-127.441,0.000,0.000,0.000,0.000
621712.756,-124.023,-101.074,-102.539,-90.332,0.000,0.000,0.000,0.000
621712.760,-86.426,-66.406,-66.406,-37.109,0.000,0.000,0.000,0.000
621712.764,-59.082,-63.477,-66.895,-52.246,0.000,0.000,0.000,0.000
621712.768,-94.238,-100.098,-102.051,-104.492,0.000,0.000,0.000,0.000
621712.771,-123.535,-114.258,-115.723,-96.680,0.000,0.000,0.000,0.000
621712.775,-103.027,-80.078,-82.520,-43.457,0.000,0.000,0.000,0.000
621712.779,-89.355,-65.918,-67.871,-42.969,0.000,0.000,0.000,0.000
621712.783,-75.684,-69.824,-77.148,-109.863,0.000,0.000,0.000,0.000
621712.787,-71.777,-85.938,-92.285,-126.953,0.000,0.000,0.000,0.000
621712.791,-114.746,-79.590,-82.520,-85.938,0.000,0.000,0.000,0.000
621712.795,-87.402,-56.152,-63.965,-20.020,0.000,0.000,0.000,0.000
621712.799,-58.594,-64.453,-70.801,-45.410,0.000,0.000,0.000,0.000
621712.803,-96.680,-81.543,-85.449,-96.191,0.000,0.000,0.000,0.000
621712.807,-88.379,-72.266,-72.754,-55.664,0.000,0.000,0.000,0.000
621712.811,-53.223,-45.898,-47.363,-21.484,0.000,0.000,0.000,0.000
621712.815,-49.316,-48.340,-53.223,-25.391,0.000,0.000,0.000,0.000
621712.818,-57.129,-70.801,-73.242,-80.566,0.000,0.000,0.000,0.000
621712.822,-56.641,-65.918,-68.848,-99.121,0.000,0.000,0.000,0.000
621712.826,-62.988,-25.391,-30.762,-16.602,0.000,0.000,0.000,0.000
621712.830,-57.129,-24.902,-30.273,-6.348,0.000,0.000,0.000,0.000
621712.834,-59.570,-67.383,-71.289,-63.965,0.000,0.000,0.000,0.000
621712.838,-72.754,-52.734,-53.711,-40.527,0.000,0.000,0.000,0.000
621712.842,-57.617,-24.902,-29.785,-7.812,0.000,0.000,0.000,0.000
621712.846,-39.551,-52.246,-55.176,-53.711,0.000,0.000,0.000,0.000
621712.850,-75.684,-80.566,-82.031,-81.543,0.000,0.000,0.000,0.000
621712.854,-83.008,-49.805,-54.688,-69.336,0.000,0.000,0.000,0.000
621712.858,-29.297,3.418,-1.953,-29.785,0.000,0.000,0.000,0.000
621712.862,-9.277,-20.508,-29.297,-27.344,0.000,0.000,0.000,0.000
621712.865,-43.457,-70.312,-77.637,-73.242,0.000,0.000,0.000,0.000
621712.869,-86.914,-67.383,-70.312,-50.781,0.000,2.000,1.000,45.000
621712.873,-70.801,-31.738,-34.668,-19.043,0.000,0.000,0.000,0.000
621712.877,-45.410,-30.762,-38.086,-39.551,0.000,0.000,0.000,0.000
621712.881,-49.316,-61.035,-70.312,-79.102,0.000,0.000,0.000,0.000
621712.885,-59.082,-79.590,-81.055,-94.238,0.000,0.000,0.000,0.000
621712.889,-52.246,-46.875,-42.969,-57.129,0.000,0.000,0.000,0.000
621712.893,-34.180,-13.184,-10.742,-17.578,0.000,0.000,0.000,0.000
621712.897,-31.738,-41.992,-44.434,-45.410,0.000,0.000,0.000,0.000
621712.901,-66.895,-82.031,-83.984,-69.824,0.000,0.000,0.000,0.000
621712.905,-70.312,-70.801,-65.918,-38.574,0.000,0.000,0.000,0.000
621712.909,-56.641,-45.410,-45.898,1.465,0.000,0.000,0.000,0.000
621712.913,-64.941,-64.941,-70.312,-44.922,0.000,0.000,0.000,0.000
621712.916,-75.195,-80.566,-82.031,-88.379,0.000,0.000,0.000,0.000
621712.920,-49.805,-59.082,-57.129,-37.598,0.000,0.000,0.000,0.000
621712.924,-43.457,-37.598,-33.691,-3.418,0.000,0.000,0.000,0.000
621712.928,-65.918,-51.270,-51.270,5.859,0.000,0.000,0.000,0.000
621712.932,-67.383,-51.758,-55.664,-47.852,0.000,0.000,0.000,0.000
621712.936,-78.613,-52.246,-55.176,-85.449,0.000,0.000,0.000,0.000
621712.940,-75.684,-56.152,-59.570,-37.109,0.000,0.000,0.000,0.000
621712.944,-58.105,-56.641,-64.453,-11.230,0.000,0.000,0.000,0.000
621712.948,-48.340,-67.871,-74.707,-53.223,0.000,0.000,0.000,0.000
621712.952,-45.410,-67.383,-70.801,-71.777,0.000,0.000,0.000,0.000
621712.956,-46.875,-45.898,-48.828,-39.551,0.000,0.000,0.000,0.000
621712.960,-76.172,-36.133,-36.133,2.441,0.000,0.000,0.000,0.000
621712.963,-72.754,-37.109,-39.062,-5.859,0.000,0.000,0.000,0.000
621712.967,-57.129,-47.363,-49.316,-39.062,0.000,0.000,0.000,0.000
621712.971,-65.430,-57.129,-58.594,-63.965,0.000,0.000,0.000,0.000
621712.975,-48.828,-50.781,-54.199,-15.625,0.000,0.000,0.000,0.000
621712.979,-31.250,-62.500,-64.941,-8.789,0.000,0.000,0.000,0.000
621712.983,-22.461,-82.520,-88.379,-75.195,0.000,0.000,0.000,0.000
621712.987,-62.500,-75.195,-84.473,-55.664,0.000,0.000,0.000,0.000
621712.991,-85.449,-46.387,-52.246,-16.602,0.000,0.000,0.000,0.000
621712.995,-45.410,-33.203,-39.062,-17.090,0.000,0.000,0.000,0.000
621712.999,-35.645,-54.688,-62.012,-57.617,0.000,0.000,0.000,0.000
621713.003,-62.500,-64.453,-73.730,-68.359,0.000,0.000,0.000,0.000
621713.007,-60.059,-17.578,-27.344,-5.371,0.000,0.000,0.000,0.000
621713.010,-52.246,-22.461,-26.367,13.672,0.000,0.000,0.000,0.000
621713.014,-58.105,-71.777,-77.637,-68.359,0.000,0.000,0.000,0.000
621713.018,-60.547,-83.496,-87.402,-80.566,0.000,0.000,0.000,0.000
621713.022,-54.199,-60.547,-59.082,-28.320,0.000,0.000,0.000,0.000
621713.026,-44.434,-36.621,-37.109,15.137,0.000,0.000,0.000,0.000
621713.030,-26.855,-49.316,-51.758,-24.414,0.000,0.000,0.000,0.000
621713.034,-38.086,-64.941,-64.453,-67.383,0.000,0.000,0.000,0.000
621713.038,-70.801,-39.062,-36.133,-37.598,0.000,0.000,0.000,0.000
621713.042,-55.176,-32.227,-27.832,-25.391,0.000,0.000,0.000,0.000
621713.046,-22.461,-60.059,-59.570,-12.207,0.000,0.000,0.000,0.000
621713.050,-30.273,-61.035,-65.430,-33.691,0.000,0.000,0.000,0.000
621713.054,-47.852,-55.176,-60.059,-55.176,0.000,0.000,0.000,0.000
621713.058,-37.109,-37.109,-43.457,-10.742,0.000,0.000,0.000,0.000
621713.061,-12.207,-27.344,-32.227,10.254,0.000,0.000,0.000,0.000
621713.065,-21.484,-42.969,-45.898,-27.344,0.000,0.000,0.000,0.000
621713.069,-40.527,-41.504,-45.898,-34.668,0.000,0.000,0.000,0.000
621713.073,-16.113,-7.324,-15.137,-23.438,0.000,0.000,0.000,0.000
621713.077,-26.855,-9.277,-15.625,-27.344,0.000,0.000,0.000,0.000
621713.081,-46.387,-45.410,-52.734,-43.457,0.000,0.000,0.000,0.000
621713.085,-20.020,-51.758,-64.453,-40.039,0.000,0.000,0.000,0.000
621713.089,-27.832,-27.344,-33.691,-30.762,0.000,0.000,0.000,0.000
621713.093,-31.738,-14.648,-14.648,-0.488,0.000,0.000,0.000,0.000
621713.097,-24.902,-26.367,-32.715,-8.789,0.000,0.000,0.000,0.000
621713.101,-36.621,-44.922,-53.223,-47.363,0.000,0.000,0.000,0.000
621713.105,-54.688,-41.992,-48.828,-37.598,0.000,0.000,0.000,0.000
621713.108,-43.457,-7.324,-10.742,-21.973,0.000,0.000,0.000,0.000
621713.112,-2.930,-8.301,-7.324,-21.484,0.000,0.000,0.000,0.000
621713.116,-22.949,-41.504,-37.598,-40.039,0.000,0.000,0.000,0.000
621713.120,-45.410,-43.945,-41.504,-39.551,0.000,0.000,0.000,0.000
621713.124,-17.090,-15.625,-19.531,4.883,0.000,0.000,0.000,0.000
621713.128,-12.695,-8.789,-15.625,4.395,0.000,0.000,0.000,0.000
621713.132,-1.953,-27.344,-34.668,-22.461,0.000,0.000,0.000,0.000
621713.136,-8.789,-49.316,-51.758,-3.906,0.000,0.000,0.000,0.000
621713.140,-9.766,-20.508,-14.648,13.184,0.000,0.000,0.000,0.000
621713.144,32.227,10.742,14.160,47.363,0.000,0.000,0.000,0.000
621713.148,33.691,-10.742,-13.184,9.766,0.000,0.000,0.000,0.000
621713.152,-29.785,-42.480,-47.363,-57.617,0.000,0.000,0.000,0.000
621713.155,-35.156,-26.855,-32.715,-14.160,0.000,0.000,0.000,0.000
621713.159,9.766,-0.977,-4.395,37.598,0.000,0.000,0.000,0.000
621713.163,26.367,-17.578,-22.461,30.273,0.000,0.000,0.000,0.000
621713.167,20.508,-26.855,-28.809,-24.414,0.000,0.000,0.000,0.000
621713.171,-8.301,-24.902,-23.438,-26.367,0.000,0.000,0.000,0.000
621713.175,-0.977,-6.348,-1.465,19.043,0.000,0.000,0.000,0.000
621713.179,24.902,-0.977,6.348,33.203,0.000,0.000,0.000,0.000
621713.183,17.090,-30.273,-30.273,-2.930,0.000,0.000,0.000,0.000
621713.187,-45.898,-54.199,-60.547,-54.688,0.000,0.000,0.000,0.000
621713.191,-59.082,-27.832,-32.715,-34.180,0.000,0.000,0.000,0.000
621713.195,-41.992,-20.996,-24.414,13.184,0.000,0.000,0.000,0.000
621713.199,-20.508,-48.340,-50.781,0.000,0.000,0.000,0.000,0.000
621713.203,-30.762,-44.434,-46.387,-30.273,0.000,0.000,0.000,0.000
621713.206,-62.500,-28.320,-28.809,-39.551,0.000,0.000,0.000,0.000
621713.210,-28.809,-8.301,-8.789,12.695,0.000,0.000,0.000,0.000
621713.214,-29.785,-29.297,-29.785,10.254,0.000,0.000,0.000,0.000
621713.218,-55.176,-55.664,-54.199,-30.273,0.000,0.000,0.000,0.000
621713.222,-49.316,-32.227,-32.227,6.348,0.000,0.000,0.000,0.000
621713.226,-32.227,-12.695,-11.230,37.598,0.000,0.000,0.000,0.000
621713.230,-7.324,-25.391,-22.949,7.812,0.000,0.000,0.000,0.000
621713.234,-26.367,-46.875,-45.410,-35.645,0.000,0.000,0.000,0.000
621713.238,-45.410,-53.711,-48.828,-31.738,0.000,0.000,0.000,0.000
621713.242,2.441,-27.344,-24.902,0.488,0.000,0.000,0.000,0.000
621713.246,20.020,-10.254,-13.672,17.090,0.000,0.000,0.000,0.000
621713.250,-4.395,-33.203,-33.691,-8.301,0.000,0.000,0.000,0.000
621713.253,-24.414,-44.434,-44.434,-15.137,0.000,0.000,0.000,0.000
621713.257,-23.438,-21.484,-21.484,2.930,0.000,0.000,0.000,0.000
621713.261,-6.348,-18.066,-17.578,29.785,0.000,0.000,0.000,0.000
621713.265,-17.090,-46.387,-46.387,-26.367,0.000,0.000,0.000,0.000
621713.269,-27.832,-54.688,-52.734,-53.223,0.000,0.000,0.000,0.000
621713.273,-18.555,-19.043,-14.648,-12.695,0.000,0.000,0.000,0.000
621713.277,-14.160,-11.230,-6.836,19.531,0.000,0.000,0.000,0.000
621713.281,-14.648,-37.109,-34.180,-5.859,0.000,0.000,0.000,0.000
621713.285,-24.902,-43.457,-42.969,-36.621,0.000,0.000,0.000,0.000
621713.289,-27.832,-19.531,-19.043,-27.344,0.000,0.000,0.000,0.000
621713.293,-20.020,-7.812,-6.348,4.395,0.000,0.000,0.000,0.000
621713.297,-22.461,-23.926,-25.879,24.414,0.000,0.000,0.000,0.000
621713.300,-25.391,-42.969,-45.898,-9.766,0.000,0.000,0.000,0.000
621713.304,-41.016,-36.621,-40.039,-20.020,0.000,0.000,0.000,0.000
621713.308,-34.180,-2.441,-3.906,-20.996,0.000,0.000,0.000,0.000
621713.312,-1.953,-5.371,-8.789,19.531,0.000,0.000,0.000,0.000
621713.316,2.441,-42.969,-53.711,2.441,0.000,0.000,0.000,0.000
621713.320,-20.508,-48.340,-60.547,-48.340,0.000,0.000,0.000,0.000
621713.324,-37.109,-27.344,-38.086,-17.578,0.000,0.000,0.000,0.000
621713.328,-26.367,-23.438,-22.949,12.695,0.000,0.000,0.000,0.000
621713.332,-5.859,-37.109,-37.598,-17.578,0.000,0.000,0.000,0.000
621713.336,-10.742,-39.062,-43.945,-49.805,0.000,0.000,0.000,0.000
621713.340,-13.184,-20.020,-21.484,-24.902,0.000,0.000,0.000,0.000
621713.344,-2.930,0.488,-5.371,-10.742,0.000,0.000,0.000,0.000
621713.348,-1.465,-14.648,-19.043,-38.086,0.000,0.000,0.000,0.000
621713.351,-10.742,-38.574,-42.969,-39.551,0.000,0.000,0.000,0.000
621713.355,-38.086,-33.203,-35.156,-20.020,0.000,0.000,0.000,0.000
621713.359,-21.973,-11.719,-13.184,6.836,0.000,0.000,0.000,0.000
621713.363,-29.785,-17.578,-22.461,-9.277,0.000,0.000,0.000,0.000
621713.367,-62.988,-43.945,-50.293,-59.082,0.000,0.000,0.000,0.000
621713.371,-43.945,-32.227,-38.574,-57.617,0.000,0.000,0.000,0.000
621713.375,-37.109,-1.465,-5.371,-11.230,0.000,0.000,0.000,0.000
621713.379,-27.344,-7.812,-9.766,18.066,0.000,0.000,0.000,0.000
621713.383,-22.461,-28.809,-29.785,-34.180,0.000,0.000,0.000,0.000
621713.387,-33.691,-48.828,-46.387,-48.340,0.000,0.000,0.000,0.000
621713.391,-27.344,-39.062,-27.344,6.836,0.000,0.000,0.000,0.000
621713.395,-10.742,-8.789,5.371,27.832,0.000,0.000,0.000,0.000
621713.398,22.949,-30.273,-23.438,-24.414,0.000,0.000,0.000,0.000
621713.402,-37.109,-58.594,-58.105,-63.965,0.000,0.000,0.000,0.000
621713.406,-63.477,-26.855,-28.320,-39.551,0.000,0.000,0.000,0.000
621713.410,-3.906,13.184,9.766,6.836,0.000,0.000,0.000,0.000
621713.414,9.766,2.930,0.000,16.113,0.000,0.000,0.000,0.000
621713.418,1.953,-34.668,-33.203,-20.996,0.000,0.000,0.000,0.000
621713.422,-10.254,-32.715,-28.809,-44.922,0.000,0.000,0.000,0.000
621713.426,-13.672,-15.137,-14.648,-1.953,0.000,0.000,0.000,0.000
621713.430,-24.902,-30.762,-33.203,-2.930,0.000,0.000,0.000,0.000
621713.434,-24.414,-59.570,-60.059,-76.172,0.000,0.000,0.000,0.000
621713.438,-10.254,-65.430,-62.988,-68.848,0.000,0.000,0.000,0.000
621713.442,-22.949,-27.344,-28.320,-12.695,0.000,0.000,0.000,0.000
621713.445,-23.438,-11.230,-14.160,-4.883,0.000,0.000,0.000,0.000
621713.449,3.418,-24.414,-29.297,-45.410,0.000,0.000,0.000,0.000
621713.453,-14.648,-47.363,-46.875,-37.109,0.000,0.000,0.000,0.000
621713.457,-23.926,-27.832,-28.320,-40.039,0.000,0.000,0.000,0.000
621713.461,-11.230,9.277,3.906,-24.902,0.000,0.000,0.000,0.000
621713.465,-7.324,-10.254,-11.230,-13.672,0.000,0.000,0.000,0.000
621713.469,-12.207,-42.480,-39.551,-33.691,0.000,0.000,0.000,0.000
621713.473,-14.648,-14.160,-9.766,-12.207,0.000,0.000,0.000,0.000
621713.477,-0.977,21.484,26.367,34.180,0.000,0.000,0.000,0.000
621713.481,4.395,9.277,11.719,1.465,0.000,0.000,0.000,0.000
621713.485,-14.648,-20.996,-20.996,-63.965,0.000,0.000,0.000,0.000
621713.489,-39.062,-28.809,-26.855,-39.551,0.000,0.000,0.000,0.000
621713.493,-27.344,-9.277,-7.324,0.000,0.000,0.000,0.000,0.000
621713.496,2.441,-12.207,-15.137,-19.531,0.000,0.000,0.000,0.000
621713.500,8.301,-22.461,-28.809,-51.758,0.000,0.000,0.000,0.000
621713.504,-28.809,-34.180,-38.086,-46.875,0.000,0.000,0.000,0.000
621713.508,-40.039,-31.738,-31.738,-36.621,0.000,0.000,0.000,0.000
621713.512,-35.156,-27.832,-28.809,-8.301,0.000,0.000,0.000,0.000
621713.516,-47.363,-38.574,-40.527,-58.105,0.000,0.000,0.000,0.000
621713.520,-41.016,-33.691,-37.598,-84.473,0.000,0.000,0.000,0.000
621713.524,-26.367,-29.785,-27.344,-19.531,0.000,0.000,0.000,0.000
621713.528,-17.090,-27.344,-26.367,4.395,0.000,0.000,0.000,0.000
621713.532,-17.090,-38.574,-41.016,-17.090,0.000,0.000,0.000,0.000
621713.536,-60.547,-48.828,-42.480,-46.387,0.000,0.000,0.000,0.000
621713.540,-60.547,-20.996,-16.113,-29.297,0.000,0.000,0.000,0.000
621713.543,-26.855,-27.832,-27.832,-0.977,0.000,0.000,0.000,0.000
621713.547,-39.551,-45.410,-49.316,-59.570,0.000,0.000,0.000,0.000
621713.551,-67.871,-70.312,-78.125,-83.008,0.000,0.000,0.000,0.000
621713.555,-61.035,-55.664,-62.012,-62.500,0.000,0.000,0.000,0.000
621713.559,-22.461,-15.137,-20.996,-20.020,0.000,0.000,0.000,0.000
621713.563,-13.184,-32.227,-35.645,-17.090,0.000,0.000,0.000,0.000
621713.567,-35.156,-50.781,-60.059,-44.922,0.000,0.000,0.000,0.000
621713.571,-47.852,-57.129,-62.500,-53.223,0.000,0.000,0.000,0.000
621713.575,-40.039,-30.273,-30.762,-22.949,0.000,0.000,0.000,0.000
621713.579,-22.461,-23.438,-26.367,1.953,0.000,0.000,0.000,0.000
621713.583,-43.945,-67.383,-68.848,-55.176,0.000,0.000,0.000,0.000
621713.587,-69.336,-72.754,-70.312,-71.777,0.000,0.000,0.000,0.000
621713.590,-44.434,-34.180,-29.297,-30.762,0.000,0.000,0.000,0.000
621713.594,-25.391,-21.973,-20.020,-26.855,0.000,0.000,0.000,0.000
621713.598,-30.762,-37.598,-43.457,-69.824,0.000,0.000,0.000,0.000
621713.602,-44.434,-63.477,-68.359,-56.641,0.000,0.000,0.000,0.000
621713.606,-42.969,-57.129,-58.594,-25.391,0.000,0.000,0.000,0.000
621713.610,-3.906,-28.320,-25.879,-1.953,0.000,0.000,0.000,0.000
621713.614,-37.109,-43.945,-37.598,-35.156,0.000,0.000,0.000,0.000
621713.618,-85.449,-71.777,-66.895,-79.102,0.000,0.000,0.000,0.000
621713.622,-64.941,-53.711,-52.734,-67.871,0.000,0.000,0.000,0.000
621713.626,-26.367,-20.508,-25.391,8.789,0.000,0.000,0.000,0.000
621713.630,-10.254,-34.180,-35.156,0.488,0.000,0.000,0.000,0.000
621713.634,-33.691,-61.035,-58.594,-83.008,0.000,0.000,0.000,0.000
621713.638,-44.922,-48.828,-48.340,-63.965,0.000,0.000,0.000,0.000
621713.641,-21.973,-23.438,-22.461,3.906,0.000,0.000,0.000,0.000
621713.645,-23.926,-30.273,-28.809,8.301,0.000,0.000,0.000,0.000
621713.649,-17.090,-53.711,-56.152,-52.734,0.000,0.000,0.000,0.000
621713.653,-44.434,-62.500,-63.965,-58.105,0.000,0.000,0.000,0.000
621713.657,-58.105,-32.227,-35.645,-20.508,0.000,0.000,0.000,0.000
621713.661,-39.062,-26.855,-32.227,-19.531,0.000,0.000,0.000,0.000
621713.665,-31.738,-50.781,-53.711,-42.480,0.000,0.000,0.000,0.000
621713.669,-24.902,-56.641,-58.594,-41.016,0.000,0.000,0.000,0.000
621713.673,-29.297,-38.086,-37.598,-40.039,0.000,0.000,0.000,0.000
621713.677,-28.320,-26.367,-24.902,-6.348,0.000,0.000,0.000,0.000
621713.681,-14.160,-51.270,-51.270,3.418,0.000,0.000,0.000,0.000
621713.685,3.906,-64.453,-65.918,-36.133,0.000,0.000,0.000,0.000
621713.688,-11.719,-48.828,-48.340,-32.715,0.000,0.000,0.000,0.000
621713.692,-43.457,-35.645,-34.180,-5.371,0.000,0.000,0.000,0.000
621713.696,-44.434,-51.758,-51.758,-35.156,0.000,0.000,0.000,0.000
621713.700,-38.574,-64.453,-67.383,-71.289,0.000,0.000,0.000,0.000
621713.704,-61.035,-66.895,-73.242,-57.617,0.000,0.000,0.000,0.000
621713.708,-43.457,-41.016,-42.480,-15.625,0.000,0.000,0.000,0.000
621713.712,-1.465,-21.973,-16.602,5.371,0.000,0.000,0.000,0.000
621713.716,-17.090,-51.758,-47.363,-37.598,0.000,0.000,0.000,0.000
621713.720,-45.898,-65.430,-61.523,-72.754,0.000,0.000,0.000,0.000
621713.724,-37.598,-41.016,-37.598,-39.551,0.000,0.000,0.000,0.000
621713.728,-15.625,-33.203,-26.855,-29.785,0.000,0.000,0.000,0.000
621713.732,-12.695,-48.828,-45.898,-71.289,0.000,0.000,0.000,0.000
621713.735,-43.457,-60.547,-61.523,-76.660,0.000,0.000,0.000,0.000
621713.739,-55.176,-45.410,-40.039,-58.594,0.000,0.000,0.000,0.000
621713.743,-34.668,-12.207,-6.836,-0.977,0.000,0.000,0.000,0.000
621713.747,-25.391,-22.461,-19.531,-19.043,0.000,0.000,0.000,0.000
621713.751,-47.852,-60.059,-62.500,-100.098,0.000,0.000,0.000,0.000
621713.755,-54.688,-38.574,-43.457,-54.688,0.000,0.000,0.000,0.000
621713.759,-38.574,-10.742,-10.254,2.441,0.000,0.000,0.000,0.000
621713.763,-16.113,-27.344,-27.832,-14.648,0.000,0.000,0.000,0.000
621713.767,-11.230,-43.945,-44.434,-41.992,0.000,0.000,0.000,0.000
621713.771,-20.996,-31.250,-33.203,-44.434,0.000,0.000,0.000,0.000
621713.775,-20.996,-2.930,-3.418,-18.555,0.000,0.000,0.000,0.000
621713.779,-32.715,-16.602,-11.719,3.418,0.000,0.000,0.000,0.000
621713.782,-4.883,-20.508,-16.113,-12.695,0.000,0.000,0.000,0.000
621713.786,-1.465,-15.137,-13.672,-35.645,0.000,0.000,0.000,0.000
621713.790,-25.879,-4.395,-0.488,-21.484,0.000,0.000,0.000,0.000
621713.794,-22.461,10.254,12.695,39.551,0.000,0.000,0.000,0.000
621713.798,-1.465,-11.230,-15.625,11.230,0.000,0.000,0.000,0.000
621713.802,-33.691,-38.574,-44.922,-46.387,0.000,0.000,0.000,0.000
621713.806,-51.270,-29.297,-29.785,-43.457,0.000,0.000,0.000,0.000
621713.810,-25.879,-13.184,-14.648,-13.672,0.000,0.000,0.000,0.000
621713.814,-3.906,-9.766,-17.578,6.348,0.000,0.000,0.000,0.000
621713.818,-20.020,-22.461,-32.715,-18.066,0.000,0.000,0.000,0.000
621713.822,-31.738,-33.691,-38.574,-16.602,0.000,0.000,0.000,0.000
621713.826,-2.441,-4.883,-5.859,28.809,0.000,0.000,0.000,0.000
621713.830,8.789,0.977,-3.906,12.695,0.000,0.000,0.000,0.000
621713.833,-20.508,-32.715,-39.062,-46.875,0.000,0.000,0.000,0.000
621713.837,-30.273,-33.203,-38.086,-44.434,0.000,0.000,0.000,0.000
621713.841,-19.531,1.465,1.465,-2.441,0.000,0.000,0.000,0.000
621713.845,-19.531,-1.953,-0.977,-14.648,0.000,0.000,0.000,0.000
621713.849,-13.184,-25.879,-31.738,-62.988,0.000,0.000,0.000,0.000
621713.853,-20.020,-25.391,-32.227,-36.621,0.000,0.000,0.000,0.000
621713.857,-20.508,-7.812,-6.836,23.438,0.000,0.000,0.000,0.000
621713.861,-6.836,-11.230,-10.254,17.090,0.000,0.000,0.000,0.000
621713.865,-8.789,-31.250,-31.250,-53.711,0.000,0.000,0.000,0.000
621713.869,-19.043,-28.809,-24.902,-61.523,0.000,0.000,0.000,0.000
621713.873,-19.043,-13.672,-10.742,-25.879,0.000,0.000,0.000,0.000
621713.877,-45.410,-11.230,-13.672,-7.812,0.000,0.000,0.000,0.000
621713.880,-34.180,-30.762,-33.691,-20.020,0.000,0.000,0.000,0.000
621713.884,-20.020,-38.574,-43.457,-42.969,0.000,0.000,0.000,0.000
621713.888,-21.484,-10.742,-12.207,-16.113,0.000,0.000,0.000,0.000
621713.892,5.371,12.695,14.160,60.059,0.000,0.000,0.000,0.000
621713.896,4.883,-12.695,-20.020,21.484,0.000,0.000,0.000,0.000
621713.900,-18.555,-38.086,-47.363,-34.668,0.000,0.000,0.000,0.000
621713.904,-26.367,-15.625,-21.973,-34.180,0.000,0.000,0.000,0.000
621713.908,-9.766,19.043,14.648,-1.953,0.000,0.000,0.000,0.000
621713.912,9.766,-2.930,-5.859,-0.488,0.000,0.000,0.000,0.000
621713.916,-4.883,-30.273,-35.156,-38.574,0.000,0.000,0.000,0.000
621713.920,-24.902,-19.531,-19.043,-10.254,0.000,0.000,0.000,0.000
621713.924,-15.137,2.441,7.324,7.324,0.000,0.000,0.000,0.000
621713.927,-8.301,-11.230,-9.277,-0.488,0.000,0.000,0.000,0.000
621713.931,-10.254,-40.039,-39.551,-43.457,0.000,0.000,0.000,0.000
621713.935,-4.395,-31.738,-35.156,-47.363,0.000,0.000,0.000,0.000
621713.939,-5.859,-10.254,-14.160,-3.906,0.000,0.000,0.000,0.000
621713.943,-8.301,-2.441,-6.348,9.766,0.000,0.000,0.000,0.000
621713.947,-9.766,-18.555,-21.973,-19.043,0.000,0.000,0.000,0.000
621713.951,-6.836,-26.367,-26.855,-37.109,0.000,0.000,0.000,0.000
621713.955,-5.371,-4.883,-3.906,-32.715,0.000,0.000,0.000,0.000
621713.959,7.812,8.301,6.348,15.137,0.000,0.000,0.000,0.000
621713.963,14.648,-7.324,-11.719,-6.836,0.000,0.000,0.000,0.000
621713.967,-20.508,-34.668,-35.645,-21.973,0.000,0.000,0.000,0.000
621713.971,-32.227,-31.250,-28.809,0.000,0.000,0.000,0.000,0.000
621713.975,-10.742,0.000,5.371,21.484,0.000,0.000,0.000,0.000
621713.978,1.953,-8.789,-2.441,9.766,0.000,0.000,0.000,0.000
621713.982,-13.184,-34.668,-30.273,-61.035,0.000,0.000,0.000,0.000
621713.986,-21.973,-44.434,-41.016,-64.941,0.000,0.000,0.000,0.000
621713.990,-19.531,-9.766,-4.883,-21.973,0.000,0.000,0.000,0.000
621713.994,-11.719,16.602,19.043,11.230,0.000,0.000,0.000,0.000
621713.998,10.742,-27.344,-27.832,-14.648,0.000,0.000,0.000,0.000
621714.002,-14.648,-45.410,-46.387,-12.695,0.000,0.000,0.000,0.000
621714.006,-28.320,-33.691,-34.668,16.602,0.000,0.000,0.000,0.000
621714.010,-9.766,-29.785,-30.273,25.391,0.000,0.000,0.000,0.000
621714.014,-13.672,-42.969,-44.922,-22.461,0.000,0.000,0.000,0.000
621714.018,-47.363,-61.523,-61.523,-66.406,0.000,0.000,0.000,0.000
621714.022,-51.758,-27.832,-26.855,-22.461,0.000,0.000,0.000,0.000
621714.025,7.812,11.230,15.137,34.180,0.000,0.000,0.000,0.000
621714.029,24.414,1.953,8.789,5.371,0.000,0.000,0.000,0.000
621714.033,-25.879,-28.809,-23.438,-41.504,0.000,0.000,0.000,0.000
621714.037,-38.086,-27.344,-20.508,-19.531,0.000,0.000,0.000,0.000
621714.041,-5.859,7.324,16.113,46.387,0.000,0.000,0.000,0.000
621714.045,-10.742,-14.648,-5.371,41.016,0.000,0.000,0.000,0.000
621714.049,-34.180,-56.152,-49.316,-36.621,0.000,0.000,0.000,0.000
621714.053,-44.434,-43.457,-39.062,-36.621,0.000,0.000,0.000,0.000
621714.057,-23.438,-8.789,-2.930,-8.789,0.000,0.000,0.000,0.000
621714.061,4.883,-12.207,-4.883,-8.789,0.000,0.000,0.000,0.000
621714.065,-5.371,-43.457,-35.156,-22.949,0.000,0.000,0.000,0.000
621714.069,-20.508,-32.227,-26.855,-22.949,0.000,0.000,0.000,0.000
621714.072,-21.484,-5.371,-0.488,-13.184,0.000,0.000,0.000,0.000
621714.076,-26.855,-22.949,-18.555,-19.531,0.000,0.000,0.000,0.000
621714.080,-43.945,-55.664,-53.223,-47.852,0.000,0.000,0.000,0.000
621714.084,-69.824,-61.035,-60.547,-50.781,0.000,0.000,0.000,0.000
621714.088,-52.246,-32.715,-29.785,-15.137,0.000,0.000,0.000,0.000
621714.092,-26.855,-24.414,-15.137,12.207,0.000,0.000,0.000,0.000
621714.096,-8.301,-45.410,-41.504,-51.758,0.000,0.000,0.000,0.000
621714.100,-53.711,-63.477,-58.105,-92.773,0.000,0.000,0.000,0.000
621714.104,-71.289,-41.992,-29.297,-33.203,0.000,0.000,0.000,0.000
621714.108,-29.785,-22.949,-16.602,24.414,0.000,0.000,0.000,0.000
621714.112,-27.344,-40.527,-41.016,-8.301,0.000,0.000,0.000,0.000
621714.116,-41.992,-51.270,-53.711,-40.527,0.000,0.000,0.000,0.000
621714.120,-49.316,-43.945,-46.875,-29.297,0.000,0.000,0.000,0.000
621714.123,-36.133,-30.273,-32.227,-9.766,0.000,0.000,0.000,0.000
621714.127,-14.648,-33.691,-35.645,-20.996,0.000,0.000,0.000,0.000
621714.131,-28.809,-47.363,-53.223,-60.547,0.000,0.000,0.000,0.000
621714.135,-41.504,-48.828,-54.688,-78.125,0.000,0.000,0.000,0.000
621714.139,-27.344,-17.578,-19.043,-18.555,0.000,0.000,0.000,0.000
621714.143,-18.066,-4.883,-3.418,26.855,0.000,0.000,0.000,0.000
621714.147,-22.461,-27.832,-25.879,-27.344,0.000,0.000,0.000,0.000
621714.151,-20.020,-38.086,-35.645,-53.711,0.000,0.000,0.000,0.000
621714.155,-19.043,-12.207,-7.324,-20.996,0.000,0.000,0.000,0.000
621714.159,-14.648,-6.836,-0.977,7.324,0.000,0.000,0.000,0.000
621714.163,-34.180,-45.410,-40.527,-42.969,0.000,0.000,0.000,0.000
621714.167,-52.734,-68.848,-66.895,-67.383,0.000,0.000,0.000,0.000
621714.170,-22.461,-41.504,-42.480,-8.301,0.000,0.000,0.000,0.000
621714.174,-15.137,-5.371,-5.859,9.277,0.000,0.000,0.000,0.000
621714.178,-21.973,-20.996,-23.438,-5.371,0.000,0.000,0.000,0.000
621714.182,-46.387,-63.477,-72.266,-46.387,0.000,0.000,0.000,0.000
621714.186,-70.801,-55.664,-65.430,-51.270,0.000,0.000,0.000,0.000
621714.190,-29.785,-8.301,-13.672,15.137,0.000,0.000,0.000,0.000
621714.194,-7.812,-10.742,-15.625,9.766,0.000,0.000,0.000,0.000
621714.198,-19.531,-41.992,-54.199,-30.762,0.000,0.000,0.000,0.000
621714.202,-32.715,-45.898,-53.711,-29.297,0.000,0.000,0.000,0.000
621714.206,-24.414,-13.672,-14.160,9.766,0.000,0.000,0.000,0.000
621714.210,-13.184,-18.555,-20.020,29.297,0.000,0.000,0.000,0.000
621714.214,-21.484,-36.621,-40.039,-27.832,0.000,0.000,0.000,0.000
621714.217,-10.742,-25.391,-26.367,-36.133,0.000,0.000,0.000,0.000
621714.221,-10.742,-6.348,-3.418,27.832,0.000,0.000,0.000,0.000
621714.225,-12.207,-1.465,-0.488,65.918,0.000,0.000,0.000,0.000
621714.229,-17.578,-23.438,-23.438,0.488,0.000,0.000,0.000,0.000
621714.233,-30.273,-33.691,-36.621,-32.715,0.000,0.000,0.000,0.000
621714.237,-30.762,-15.137,-18.066,8.301,0.000,0.000,0.000,0.000
621714.241,-28.320,-7.324,-7.324,24.902,0.000,0.000,0.000,0.000
621714.245,-32.715,-29.297,-28.320,6.836,0.000,0.000,0.000,0.000
621714.249,-40.039,-46.387,-49.316,-24.414,0.000,0.000,0.000,0.000
621714.253,-25.879,-22.461,-26.855,-18.555,0.000,0.000,0.000,0.000
621714.257,-10.742,14.160,11.719,30.762,0.000,0.000,0.000,0.000
621714.261,-12.207,6.836,1.953,45.410,0.000,0.000,0.000,0.000
621714.265,-20.508,-24.902,-29.297,7.324,0.000,0.000,0.000,0.000
621714.268,-24.902,-33.691,-39.062,0.000,0.000,0.000,0.000,0.000
621714.272,-10.254,-9.277,-16.113,12.207,0.000,0.000,0.000,0.000
621714.276,-3.418,-6.836,-8.301,18.066,0.000,0.000,0.000,0.000
621714.280,-16.602,-31.738,-36.621,-3.418,0.000,0.000,0.000,0.000
621714.284,-41.504,-52.246,-64.941,-31.250,0.000,0.000,0.000,0.000
621714.288,-44.434,-40.527,-47.852,-17.578,0.000,0.000,0.000,0.000
621714.292,-6.836,-20.996,-22.949,15.137,0.000,0.000,0.000,0.000
621714.296,1.465,-32.227,-40.527,0.488,0.000,0.000,0.000,0.000
621714.300,-50.781,-67.383,-77.148,-37.109,0.000,0.000,0.000,0.000
621714.304,-38.086,-48.828,-53.711,-36.621,0.000,0.000,0.000,0.000
621714.308,6.348,-2.930,-6.348,12.207,0.000,0.000,0.000,0.000
621714.312,-16.602,-18.555,-22.461,1.953,0.000,0.000,0.000,0.000
621714.315,-30.762,-49.805,-55.176,-36.621,0.000,0.000,0.000,0.000
621714.319,-27.832,-39.062,-50.781,-28.809,0.000,0.000,0.000,0.000
621714.323,-32.715,-18.066,-25.879,30.762,0.000,0.000,0.000,0.000
621714.327,-23.438,-23.438,-26.367,43.457,0.000,0.000,0.000,0.000
621714.331,-5.859,-41.992,-45.898,-33.691,0.000,0.000,0.000,0.000
621714.335,-36.621,-58.105,-61.035,-50.293,0.000,0.000,0.000,0.000
621714.339,-41.992,-30.762,-30.273,12.695,0.000,0.000,0.000,0.000
621714.343,-15.137,-9.766,-6.836,57.129,0.000,0.000,0.000,0.000
621714.347,-10.742,-30.273,-31.250,11.719,0.000,0.000,0.000,0.000
621714.351,-26.855,-33.203,-39.062,-34.668,0.000,0.000,0.000,0.000
621714.355,-51.270,-17.090,-22.949,-20.508,0.000,0.000,0.000,0.000
621714.359,-41.504,-19.531,-21.973,29.297,0.000,0.000,0.000,0.000
621714.362,-24.414,-39.062,-41.016,28.809,0.000,0.000,0.000,0.000
621714.366,-34.668,-51.758,-54.688,2.441,0.000,0.000,0.000,0.000
621714.370,-39.551,-22.461,-23.438,24.902,0.000,0.000,0.000,0.000
621714.374,-11.230,6.348,8.789,62.988,0.000,0.000,0.000,0.000
621714.378,-8.789,-15.625,-12.695,38.574,0.000,0.000,0.000,0.000
621714.382,-8.789,-43.945,-42.969,0.000,0.000,0.000,0.000,0.000
621714.386,-9.766,-26.367,-23.926,34.180,0.000,4.000,1.000,45.000
621714.390,-18.555,4.395,10.254,71.289,0.000,0.000,0.000,0.000
621714.394,2.930,-9.277,-6.348,32.715,0.000,0.000,0.000,0.000
621714.398,-2.930,-28.320,-30.273,-4.883,0.000,0.000,0.000,0.000
621714.402,-48.828,-43.945,-45.410,-8.301,0.000,0.000,0.000,0.000
621714.406,-46.875,-19.531,-17.090,16.602,0.000,0.000,0.000,0.000
621714.410,-0.977,3.906,8.301,61.523,0.000,0.000,0.000,0.000
621714.413,-13.184,-28.809,-24.414,19.531,0.000,0.000,0.000,0.000
621714.417,-45.898,-48.828,-45.410,-13.672,0.000,0.000,0.000,0.000
621714.421,-34.668,-28.809,-26.855,24.902,0.000,0.000,0.000,0.000
621714.425,0.000,-7.324,-6.348,44.434,0.000,0.000,0.000,0.000
621714.429,1.465,-14.648,-17.578,13.184,0.000,0.000,0.000,0.000
621714.433,-24.414,-41.504,-47.363,-29.297,0.000,0.000,0.000,0.000
621714.437,-14.648,-31.738,-30.762,1.953,0.000,0.000,0.000,0.000
621714.441,-46.387,-17.578,-9.766,37.109,0.000,0.000,0.000,0.000
621714.445,-71.777,-36.621,-30.762,17.578,0.000,0.000,0.000,0.000
621714.449,-31.250,-41.992,-36.133,-11.230,0.000,0.000,0.000,0.000
621714.453,-34.180,-45.898,-37.109,-34.668,0.000,0.000,0.000,0.000
621714.457,-41.504,-20.996,-12.695,-11.230,0.000,0.000,0.000,0.000
621714.460,-20.996,-19.043,-16.602,25.391,0.000,0.000,0.000,0.000
621714.464,-29.785,-53.711,-53.223,-0.488,0.000,0.000,0.000,0.000
621714.468,-45.898,-44.434,-45.410,-15.625,0.000,0.000,0.000,0.000
621714.472,-52.734,-21.973,-20.996,24.414,0.000,0.000,0.000,0.000
621714.476,-46.387,-33.691,-29.785,24.902,0.000,0.000,0.000,0.000
621714.480,-70.801,-69.824,-65.430,-40.039,0.000,0.000,0.000,0.000
621714.484,-82.520,-47.852,-45.898,-43.457,0.000,0.000,0.000,0.000
621714.488,-30.762,2.441,2.441,10.254,0.000,0.000,0.000,0.000
621714.492,-15.625,-14.648,-14.160,19.043,0.000,0.000,0.000,0.000
621714.496,-34.668,-50.293,-55.664,-41.504,0.000,0.000,0.000,0.000
621714.500,-61.523,-63.965,-70.312,-47.363,0.000,0.000,0.000,0.000
621714.504,-72.266,-50.293,-53.711,-28.809,0.000,0.000,0.000,0.000
621714.507,-39.551,-26.855,-31.738,-5.859,0.000,0.000,0.000,0.000
621714.511,-26.367,-53.711,-55.176,-20.020,0.000,0.000,0.000,0.000
621714.515,-82.031,-80.566,-79.102,-62.500,0.000,0.000,0.000,0.000
621714.519,-85.938,-47.852,-44.922,-40.527,0.000,0.000,0.000,0.000
621714.523,-28.320,-1.465,0.000,9.277,0.000,0.000,0.000,0.000
621714.527,-12.695,-13.672,-15.137,1.953,0.000,0.000,0.000,0.000
621714.531,-25.391,-50.781,-51.270,-58.105,0.000,0.000,0.000,0.000
621714.535,-32.227,-47.363,-49.316,-49.805,0.000,0.000,0.000,0.000
621714.539,-30.762,-23.926,-23.926,2.930,0.000,0.000,0.000,0.000
621714.543,-19.531,-33.691,-32.227,-19.043,0.000,0.000,0.000,0.000
621714.547,-21.484,-56.152,-59.570,-56.641,0.000,0.000,0.000,0.000
621714.551,-49.316,-58.105,-60.059,-32.227,0.000,0.000,0.000,0.000
621714.555,-39.062,-23.926,-25.391,0.000,0.000,0.000,0.000,0.000
621714.558,-16.113,-12.695,-9.766,13.184,0.000,0.000,0.000,0.000
621714.562,-30.762,-35.156,-31.250,-45.410,0.000,0.000,0.000,0.000
621714.566,-40.527,-50.293,-50.781,-67.383,0.000,0.000,0.000,0.000
621714.570,-39.062,-44.922,-43.457,-27.344,0.000,0.000,0.000,0.000
621714.574,-18.066,-22.949,-21.973,15.625,0.000,0.000,0.000,0.000
621714.578,-13.184,-43.457,-41.992,-3.906,0.000,0.000,0.000,0.000
621714.582,-25.879,-63.477,-61.035,-60.059,0.000,0.000,0.000,0.000
621714.586,-37.598,-48.828,-48.340,-42.480,0.000,0.000,0.000,0.000
621714.590,-31.738,-25.391,-21.484,2.441,0.000,0.000,0.000,0.000
621714.594,-15.625,-26.367,-22.949,-13.672,0.000,0.000,0.000,0.000
621714.598,-40.527,-53.711,-52.246,-50.781,0.000,0.000,0.000,0.000
621714.602,-66.406,-59.570,-55.176,-60.547,0.000,0.000,0.000,0.000
621714.605,-42.969,-35.156,-33.203,-32.227,0.000,0.000,0.000,0.000
621714.609,-23.438,-31.250,-31.250,-11.719,0.000,0.000,0.000,0.000
621714.613,-23.926,-55.664,-53.711,-43.457,0.000,0.000,0.000,0.000
621714.617,-28.320,-64.453,-60.059,-52.734,0.000,0.000,0.000,0.000
621714.621,-19.043,-28.809,-24.414,-27.344,0.000,0.000,0.000,0.000
621714.625,-4.883,-10.742,-11.230,3.906,0.000,0.000,0.000,0.000
621714.629,-35.645,-46.387,-47.852,-53.223,0.000,0.000,0.000,0.000
621714.633,-50.781,-61.523,-64.941,-70.312,0.000,0.000,0.000,0.000
621714.637,-12.695,-24.902,-31.250,-23.926,0.000,0.000,0.000,0.000
621714.641,-18.066,-18.555,-27.832,-10.254,0.000,0.000,0.000,0.000
621714.645,-14.648,-43.457,-55.176,-32.715,0.000,0.000,0.000,0.000
621714.649,-19.043,-56.641,-69.824,-61.035,0.000,0.000,0.000,0.000
621714.652,-56.641,-43.457,-55.664,-27.832,0.000,0.000,0.000,0.000
621714.656,-49.805,-10.254,-18.555,3.418,0.000,0.000,0.000,0.000
621714.660,-10.254,-19.043,-29.785,0.000,0.000,0.000,0.000,0.000
621714.664,-7.324,-43.457,-54.199,-27.832,0.000,0.000,0.000,0.000
621714.668,-32.227,-44.922,-53.223,-40.039,0.000,0.000,0.000,0.000
621714.672,-33.691,-25.391,-35.156,-0.977,0.000,0.000,0.000,0.000
621714.676,-24.902,-18.555,-24.902,14.648,0.000,0.000,0.000,0.000
621714.680,-22.461,-30.273,-36.133,-40.039,0.000,0.000,0.000,0.000
621714.684,-27.344,-38.086,-43.457,-44.434,0.000,0.000,0.000,0.000
621714.688,-24.902,-27.344,-30.762,-2.441,0.000,0.000,0.000,0.000
621714.692,-18.066,-18.555,-24.902,30.762,0.000,0.000,0.000,0.000
621714.696,-6.836,-34.668,-43.457,-2.441,0.000,0.000,0.000,0.000
621714.700,-27.344,-41.016,-52.246,-48.828,0.000,0.000,0.000,0.000
621714.703,-43.945,-30.273,-35.645,-36.133,0.000,0.000,0.000,0.000
621714.707,-13.672,-15.625,-17.090,7.324,0.000,0.000,0.000,0.000
621714.711,-18.555,-20.508,-24.902,-15.625,0.000,0.000,0.000,0.000
621714.715,-29.785,-39.551,-44.434,-39.551,0.000,0.000,0.000,0.000
621714.719,-14.648,-33.203,-37.598,-31.738,0.000,0.000,0.000,0.000
621714.723,-24.902,-16.602,-18.555,-8.301,0.000,0.000,0.000,0.000
621714.727,-19.043,-20.996,-25.391,20.508,0.000,0.000,0.000,0.000
621714.731,-17.578,-49.316,-53.711,-33.203,0.000,0.000,0.000,0.000
621714.735,-56.152,-63.477,-63.477,-67.383,0.000,0.000,0.000,0.000
621714.739,-30.762,-32.227,-32.227,-26.855,0.000,0.000,0.000,0.000
621714.743,-0.977,-21.973,-21.973,3.418,0.000,0.000,0.000,0.000
621714.747,-35.645,-44.922,-44.434,-40.039,0.000,0.000,0.000,0.000
621714.750,-56.152,-59.082,-56.641,-33.691,0.000,0.000,0.000,0.000
621714.754,-25.391,-33.203,-26.367,0.977,0.000,0.000,0.000,0.000
621714.758,3.418,-4.395,-0.977,26.367,0.000,0.000,0.000,0.000
621714.762,-5.859,-22.949,-23.438,13.184,0.000,0.000,0.000,0.000
621714.766,-33.691,-57.129,-58.594,-42.969,0.000,0.000,0.000,0.000
621714.770,-45.410,-46.875,-47.852,-30.273,0.000,0.000,0.000,0.000
621714.774,-33.203,-21.484,-17.090,17.090,0.000,0.000,0.000,0.000
621714.778,-21.484,-34.180,-27.832,-9.766,0.000,0.000,0.000,0.000
621714.782,-36.133,-53.223,-57.129,-39.062,0.000,0.000,0.000,0.000
621714.786,-42.480,-34.180,-38.086,-27.832,0.000,0.000,0.000,0.000
621714.790,-21.484,-1.465,-3.906,40.527,0.000,0.000,0.000,0.000
621714.794,-6.836,-19.531,-19.531,36.133,0.000,0.000,0.000,0.000
621714.797,-17.578,-61.523,-58.105,-53.223,0.000,0.000,0.000,0.000
621714.801,-64.453,-59.082,-60.547,-47.852,0.000,0.000,0.000,0.000
621714.805,-53.711,-20.508,-18.555,15.137,0.000,0.000,0.000,0.000
621714.809,-42.969,-28.320,-24.902,24.414,0.000,0.000,0.000,0.000
621714.813,-51.758,-48.828,-51.758,-41.016,0.000,0.000,0.000,0.000
621714.817,-50.781,-51.270,-56.641,-54.199,0.000,0.000,0.000,0.000
621714.821,-51.758,-31.250,-34.180,-14.648,0.000,0.000,0.000,0.000
621714.825,-20.020,-9.277,-11.230,37.109,0.000,0.000,0.000,0.000
621714.829,-12.695,-27.832,-33.203,14.160,0.000,0.000,0.000,0.000
621714.833,-39.551,-49.316,-55.664,-37.598,0.000,0.000,0.000,0.000
621714.837,-51.758,-39.551,-41.016,-18.555,0.000,0.000,0.000,0.000
621714.841,-39.062,-20.508,-21.484,30.762,0.000,0.000,0.000,0.000
621714.845,-29.785,-36.133,-37.598,7.324,0.000,0.000,0.000,0.000
621714.848,-38.574,-57.129,-55.664,-43.457,0.000,0.000,0.000,0.000
621714.852,-51.270,-46.387,-43.945,-52.734,0.000,0.000,0.000,0.000
621714.856,-44.922,-22.461,-18.066,-24.414,0.000,0.000,0.000,0.000
621714.860,-29.297,-25.391,-20.020,7.812,0.000,0.000,0.000,0.000
621714.864,-36.133,-53.223,-52.246,-37.109,0.000,0.000,0.000,0.000
621714.868,-53.711,-53.223,-51.758,-45.898,0.000,0.000,0.000,0.000
621714.872,-38.086,-22.461,-21.484,-10.254,0.000,0.000,0.000,0.000
621714.876,-8.789,-13.184,-11.230,8.789,0.000,0.000,0.000,0.000
621714.880,-26.855,-38.086,-35.156,-20.996,0.000,0.000,0.000,0.000
621714.884,-62.500,-63.477,-64.453,-50.293,0.000,0.000,0.000,0.000
621714.888,-61.035,-54.199,-52.246,-35.156,0.000,0.000,0.000,0.000
621714.892,-52.246,-30.273,-25.879,-19.531,0.000,0.000,0.000,0.000
621714.895,-37.109,-24.902,-21.484,-29.785,0.000,0.000,0.000,0.000
621714.899,-51.270,-53.223,-52.734,-50.781,0.000,0.000,0.000,0.000
621714.903,-65.430,-56.641,-55.176,-36.621,0.000,0.000,0.000,0.000
621714.907,-46.875,-35.156,-34.668,11.230,0.000,0.000,0.000,0.000
621714.911,-38.574,-79.102,-76.172,-9.277,0.000,0.000,0.000,0.000
621714.915,-35.156,-73.730,-67.871,-48.340,0.000,0.000,0.000,0.000
621714.919,-49.805,-55.664,-50.293,-32.227,0.000,0.000,0.000,0.000
621714.923,-58.105,-25.879,-20.020,-5.859,0.000,0.000,0.000,0.000
621714.927,-23.438,-108.887,-104.004,32.715,0.000,0.000,0.000,0.000
621714.931,-18.066,-122.070,-113.770,-36.133,0.000,0.000,0.000,0.000
621714.935,-59.570,23.438,26.855,-91.309,0.000,0.000,0.000,0.000
621714.939,-65.918,-10.254,-16.113,-26.855,0.000,0.000,0.000,0.000
621714.942,-25.879,-47.852,-51.270,27.344,0.000,0.000,0.000,0.000
621714.946,-2.930,-165.039,-166.992,-12.207,0.000,0.000,0.000,0.000
621714.950,-33.691,-137.695,-136.230,-54.688,0.000,0.000,0.000,0.000
621714.954,-63.965,103.027,104.492,-44.922,0.000,0.000,0.000,0.000
621714.958,-42.480,109.863,106.934,-7.324,0.000,0.000,0.000,0.000
621714.962,-4.883,36.133,37.109,-21.484,0.000,0.000,0.000,0.000
621714.966,-13.672,-1.953,-1.465,-51.758,0.000,0.000,0.000,0.000
621714.970,-49.316,-6.348,-5.859,-46.387,0.000,0.000,0.000,0.000
621714.974,-26.367,16.602,19.043,-11.230,0.000,0.000,0.000,0.000
621714.978,23.926,16.113,16.113,28.320,0.000,0.000,0.000,0.000
621714.982,8.301,-23.926,-26.367,-2.930,0.000,0.000,0.000,0.000
621714.986,-27.344,-35.645,-37.109,-19.043,0.000,0.000,0.000,0.000
621714.990,-9.277,1.953,-0.977,5.371,0.000,0.000,0.000,0.000
621714.993,-5.859,1.953,0.977,18.066,0.000,0.000,0.000,0.000
621714.997,-24.902,-32.715,-37.598,-29.785,0.000,0.000,0.000,0.000
621715.001,-35.645,-49.805,-56.641,-48.828,0.000,0.000,0.000,0.000
621715.005,-48.340,-30.762,-30.762,-1.953,0.000,0.000,0.000,0.000
621715.009,-45.410,-11.230,-7.812,6.348,0.000,0.000,0.000,0.000
621715.013,-25.391,-25.879,-22.949,-23.438,0.000,0.000,0.000,0.000
621715.017,-23.926,-47.852,-46.387,-28.809,0.000,0.000,0.000,0.000
621715.021,-30.762,-37.109,-33.203,-28.809,0.000,0.000,0.000,0.000
621715.025,-9.766,-6.836,-8.301,16.113,0.000,0.000,0.000,0.000
621715.029,-7.324,-11.230,-20.020,2.930,0.000,0.000,0.000,0.000
621715.033,-20.020,-35.156,-46.387,-54.688,0.000,0.000,0.000,0.000
621715.037,-19.531,-41.016,-50.293,-51.270,0.000,0.000,0.000,0.000
621715.040,-2.441,0.000,-3.418,6.348,0.000,0.000,0.000,0.000
621715.044,-6.348,-5.371,-6.348,23.438,0.000,0.000,0.000,0.000
621715.048,-27.832,-45.410,-49.805,-30.762,0.000,0.000,0.000,0.000
621715.052,-38.086,-42.969,-44.434,-29.297,0.000,0.000,0.000,0.000
621715.056,-26.367,-25.391,-18.066,6.836,0.000,0.000,0.000,0.000
621715.060,-3.906,-15.137,-8.789,39.551,0.000,0.000,0.000,0.000
621715.064,-16.113,-37.598,-39.062,4.883,0.000,0.000,0.000,0.000
621715.068,-40.527,-55.176,-55.664,-31.738,0.000,0.000,0.000,0.000
621715.072,-32.227,-28.320,-26.855,-5.371,0.000,0.000,0.000,0.000
621715.076,-15.137,-11.230,-16.602,21.484,0.000,0.000,0.000,0.000
621715.080,-15.137,-43.457,-44.922,-2.441,0.000,0.000,0.000,0.000
621715.084,-27.832,-69.336,-67.871,-15.625,0.000,0.000,0.000,0.000
621715.087,-59.082,-46.387,-47.852,-18.555,0.000,0.000,0.000,0.000
621715.091,-48.828,0.000,-0.977,38.574,0.000,0.000,0.000,0.000
621715.095,-11.719,-17.578,-15.625,48.340,0.000,0.000,0.000,0.000
621715.099,-25.879,-63.477,-62.500,-27.344,0.000,0.000,0.000,0.000
621715.103,-48.828,-52.734,-49.805,-29.785,0.000,0.000,0.000,0.000
621715.107,-41.992,-13.184,-10.742,4.883,0.000,0.000,0.000,0.000
621715.111,-29.297,-23.438,-22.949,9.766,0.000,0.000,0.000,0.000
621715.115,-35.156,-61.035,-60.547,-45.410,0.000,0.000,0.000,0.000
621715.119,-38.574,-61.523,-62.988,-41.992,0.000,0.000,0.000,0.000
621715.123,-27.344,-29.297,-27.832,20.020,0.000,0.000,0.000,0.000
621715.127,-20.020,-28.809,-26.367,27.344,0.000,0.000,0.000,0.000
621715.131,-22.461,-53.223,-51.270,-10.742,0.000,0.000,0.000,0.000
621715.135,-35.645,-57.617,-60.059,-31.250,0.000,0.000,0.000,0.000
621715.138,-40.039,-46.875,-53.223,-15.137,0.000,0.000,0.000,0.000
621715.142,-31.738,-22.461,-26.855,31.250,0.000,0.000,0.000,0.000
621715.146,0.000,-9.277,-9.766,29.785,0.000,0.000,0.000,0.000
621715.150,-12.695,-42.480,-43.945,-15.137,0.000,0.000,0.000,0.000
621715.154,-22.461,-50.293,-51.270,10.742,0.000,0.000,0.000,0.000
621715.158,-2.441,-15.625,-9.766,48.340,0.000,0.000,0.000,0.000
621715.162,-13.184,-22.461,-22.461,36.133,0.000,0.000,0.000,0.000
621715.166,-11.230,-50.293,-55.176,-6.836,0.000,0.000,0.000,0.000
621715.170,-40.039,-47.363,-47.852,-22.949,0.000,0.000,0.000,0.000
621715.174,-41.992,-19.531,-19.043,11.230,0.000,0.000,0.000,0.000
621715.178,-9.277,-19.531,-20.996,22.949,0.000,0.000,0.000,0.000
621715.182,-28.809,-41.992,-44.434,14.160,0.000,0.000,0.000,0.000
621715.185,-42.480,-45.410,-45.898,-11.230,0.000,0.000,0.000,0.000
621715.189,-35.156,-24.414,-23.926,-24.902,0.000,0.000,0.000,0.000
621715.193,-5.371,-0.977,-4.395,30.273,0.000,0.000,0.000,0.000
621715.197,3.418,-24.414,-33.203,13.184,0.000,0.000,0.000,0.000
621715.201,-30.273,-62.012,-74.219,-23.926,0.000,0.000,0.000,0.000
621715.205,-52.734,-54.199,-58.594,-8.301,0.000,0.000,0.000,0.000
621715.209,-36.133,-17.090,-13.672,31.250,0.000,0.000,0.000,0.000
621715.213,-6.836,-18.555,-18.555,36.621,0.000,0.000,0.000,0.000
621715.217,-18.555,-45.898,-48.340,-8.789,0.000,0.000,0.000,0.000
621715.221,-32.227,-40.527,-43.457,-16.113,0.000,0.000,0.000,0.000
621715.225,-26.367,-10.742,-14.648,11.230,0.000,0.000,0.000,0.000
621715.229,-9.277,-22.461,-25.391,3.418,0.000,0.000,0.000,0.000
621715.232,-22.461,-59.570,-62.500,-36.621,0.000,0.000,0.000,0.000
621715.236,-45.898,-51.758,-53.223,-17.578,0.000,0.000,0.000,0.000
621715.240,-19.531,-18.066,-18.555,21.973,0.000,0.000,0.000,0.000
621715.244,-18.066,-8.301,-8.789,31.738,0.000,0.000,0.000,0.000
621715.248,-6.836,-29.785,-32.227,8.789,0.000,0.000,0.000,0.000
621715.252,-20.508,-38.574,-41.016,-17.090,0.000,0.000,0.000,0.000
621715.256,-40.039,-12.695,-13.184,-9.766,0.000,0.000,0.000,0.000
621715.260,-34.180,-7.812,-7.812,30.762,0.000,0.000,0.000,0.000
621715.264,-33.691,-34.180,-35.156,0.488,0.000,0.000,0.000,0.000
621715.268,-31.738,-47.852,-47.363,-30.273,0.000,0.000,0.000,0.000
621715.272,-29.297,-21.973,-21.484,11.719,0.000,0.000,0.000,0.000
621715.276,-13.672,0.000,1.953,29.785,0.000,0.000,0.000,0.000
621715.280,-4.883,-17.578,-17.090,3.418,0.000,0.000,0.000,0.000
621715.283,-31.738,-40.527,-41.504,-42.480,0.000,0.000,0.000,0.000
621715.287,-52.734,-41.504,-41.992,-43.457,0.000,0.000,0.000,0.000
621715.291,-22.461,-22.949,-20.508,4.883,0.000,0.000,0.000,0.000
621715.295,-20.996,-34.668,-34.668,17.090,0.000,0.000,0.000,0.000
621715.299,-22.949,-54.688,-57.129,-18.555,0.000,0.000,0.000,0.000
621715.303,-38.086,-42.969,-42.969,-17.578,0.000,0.000,0.000,0.000
621715.307,-32.227,-15.625,-15.137,18.555,0.000,0.000,0.000,0.000
621715.311,2.441,-15.137,-11.719,55.664,0.000,0.000,0.000,0.000
621715.315,-0.488,-35.645,-28.809,23.438,0.000,0.000,0.000,0.000
621715.319,-19.531,-39.551,-34.668,-20.508,0.000,0.000,0.000,0.000
621715.323,-31.250,-32.227,-25.879,-25.391,0.000,0.000,0.000,0.000
621715.327,-17.578,-15.625,-11.719,5.371,0.000,0.000,0.000,0.000
621715.330,-7.812,-25.879,-20.996,-0.488,0.000,0.000,0.000,0.000
621715.334,-28.320,-54.688,-48.828,-20.020,0.000,0.000,0.000,0.000
621715.338,-31.250,-47.363,-41.992,-15.625,0.000,0.000,0.000,0.000
621715.342,-34.668,-12.695,-11.230,-7.324,0.000,0.000,0.000,0.000
621715.346,-17.578,-15.625,-17.578,8.301,0.000,0.000,0.000,0.000
621715.350,-12.695,-45.898,-44.434,-13.672,0.000,0.000,0.000,0.000
621715.354,-25.391,-46.875,-44.434,-25.391,0.000,0.000,0.000,0.000
621715.358,-11.230,-16.602,-17.578,11.230,0.000,0.000,0.000,0.000
621715.362,-13.672,-12.695,-15.625,18.066,0.000,0.000,0.000,0.000
621715.366,-24.902,-34.668,-39.062,-30.273,0.000,0.000,0.000,0.000
621715.370,-33.691,-44.922,-51.758,-50.781,0.000,0.000,0.000,0.000
621715.374,-34.180,-23.438,-28.320,0.977,0.000,0.000,0.000,0.000
621715.377,-15.625,-11.230,-17.578,41.016,0.000,0.000,0.000,0.000
621715.381,11.719,-16.113,-22.949,15.625,0.000,0.000,0.000,0.000
621715.385,-11.230,-32.715,-40.039,2.930,0.000,0.000,0.000,0.000
621715.389,-43.945,-29.297,-35.156,10.742,0.000,0.000,0.000,0.000
621715.393,-13.672,-4.395,-8.301,31.738,0.000,0.000,0.000,0.000
621715.397,-9.766,-21.973,-22.949,10.742,0.000,0.000,0.000,0.000
621715.401,-35.645,-29.785,-33.203,-25.879,0.000,0.000,0.000,0.000
621715.405,-34.180,-13.184,-19.043,-15.137,0.000,0.000,0.000,0.000
621715.409,-22.949,2.441,0.000,22.461,0.000,0.000,0.000,0.000
621715.413,-7.324,-8.301,-12.207,35.645,0.000,0.000,0.000,0.000
621715.417,-6.348,-32.715,-38.086,-17.090,0.000,0.000,0.000,0.000
621715.421,-27.832,-25.391,-29.785,-32.227,0.000,0.000,0.000,0.000
621715.425,-19.043,4.395,-0.488,39.062,0.000,0.000,0.000,0.000
621715.428,19.043,5.859,1.953,66.406,0.000,0.000,0.000,0.000
621715.432,21.973,-13.672,-21.484,12.695,0.000,0.000,0.000,0.000
621715.436,-33.691,-25.391,-33.203,-25.879,0.000,0.000,0.000,0.000
621715.440,-36.621,1.953,1.953,-2.930,0.000,0.000,0.000,0.000
621715.444,-4.395,16.113,15.137,32.715,0.000,0.000,0.000,0.000
621715.448,13.672,1.465,-5.859,20.996,0.000,0.000,0.000,0.000
621715.452,0.000,-7.324,-11.230,19.531,0.000,0.000,0.000,0.000
621715.456,-11.230,0.000,-4.395,3.906,0.000,0.000,0.000,0.000
621715.460,1.465,10.742,2.930,15.625,0.000,0.000,0.000,0.000
621715.464,-1.953,-16.113,-22.949,14.648,0.000,0.000,0.000,0.000
621715.468,-20.020,-44.922,-56.152,-34.668,0.000,0.000,0.000,0.000
621715.472,-38.086,-39.062,-49.805,-19.043,0.000,0.000,0.000,0.000
621715.475,-7.812,5.371,-7.812,12.207,0.000,0.000,0.000,0.000
621715.479,13.672,7.812,-2.441,18.066,0.000,0.000,0.000,0.000
621715.483,-16.113,-22.461,-27.832,-14.160,0.000,0.000,0.000,0.000
621715.487,-29.297,-30.762,-31.738,-37.109,0.000,0.000,0.000,0.000
621715.491,-8.301,-8.301,-9.277,16.113,0.000,0.000,0.000,0.000
621715.495,0.000,0.977,-4.395,29.297,0.000,0.000,0.000,0.000
621715.499,-6.348,-20.996,-25.879,-29.297,0.000,0.000,0.000,0.000
621715.503,-10.742,-39.551,-45.898,-41.504,0.000,0.000,0.000,0.000
621715.507,-29.785,-25.879,-31.738,-8.789,0.000,0.000,0.000,0.000
621715.511,-10.254,-2.930,-10.254,8.789,0.000,0.000,0.000,0.000
621715.515,20.508,-14.160,-23.438,-16.113,0.000,0.000,0.000,0.000
621715.519,-20.996,-37.598,-46.387,-29.785,0.000,0.000,0.000,0.000
621715.522,-43.457,-26.367,-31.250,-25.879,0.000,0.000,0.000,0.000
621715.526,3.906,4.395,5.859,20.508,0.000,0.000,0.000,0.000
621715.530,17.578,-7.324,-8.301,30.762,0.000,0.000,0.000,0.000
621715.534,-26.855,-41.504,-42.969,-32.715,0.000,0.000,0.000,0.000
621715.538,-35.156,-42.480,-35.645,-41.992,0.000,0.000,0.000,0.000
621715.542,-32.227,-10.742,-4.883,0.488,0.000,0.000,0.000,0.000
621715.546,-19.531,-12.695,-12.695,30.762,0.000,0.000,0.000,0.000
621715.550,-4.395,-41.992,-41.992,-14.648,0.000,0.000,0.000,0.000
621715.554,-19.531,-41.992,-46.387,-60.547,0.000,0.000,0.000,0.000
621715.558,-13.184,-9.277,-13.672,-28.809,0.000,0.000,0.000,0.000
621715.562,-11.230,-3.906,-5.371,5.859,0.000,0.000,0.000,0.000
621715.566,-10.254,-26.855,-27.832,-4.395,0.000,0.000,0.000,0.000
621715.570,-25.879,-44.434,-47.852,-25.391,0.000,0.000,0.000,0.000
621715.573,-33.203,-27.344,-28.809,-20.996,0.000,0.000,0.000,0.000
621715.577,1.953,10.254,8.301,26.855,0.000,0.000,0.000,0.000
621715.581,1.465,-14.648,-20.996,-7.812,0.000,0.000,0.000,0.000
621715.585,-32.715,-58.594,-63.965,-72.754,0.000,0.000,0.000,0.000
621715.589,-33.203,-30.762,-40.527,-23.438,0.000,0.000,0.000,0.000
621715.593,-11.230,-0.977,-6.836,22.461,0.000,0.000,0.000,0.000
621715.597,10.254,-14.648,-19.531,11.230,0.000,0.000,0.000,0.000
621715.601,2.441,-33.203,-41.992,-15.625,0.000,0.000,0.000,0.000
621715.605,-33.691,-20.996,-27.344,-7.812,0.000,0.000,0.000,0.000
621715.609,-38.574,3.418,-0.488,25.391,0.000,0.000,0.000,0.000
621715.613,-26.367,-8.301,-11.719,11.230,0.000,0.000,0.000,0.000
621715.617,-24.902,-36.133,-38.574,-52.734,0.000,0.000,0.000,0.000
621715.620,-37.109,-51.270,-51.758,-72.754,0.000,0.000,0.000,0.000
621715.624,-35.156,-28.320,-28.320,-33.203,0.000,0.000,0.000,0.000
621715.628,-5.371,-8.301,-6.836,31.250,0.000,0.000,0.000,0.000
621715.632,3.418,-24.902,-26.855,0.000,0.000,0.000,0.000,0.000
621715.636,-23.438,-44.922,-45.898,-37.598,0.000,0.000,0.000,0.000
621715.640,-44.922,-45.410,-41.504,-27.344,0.000,0.000,0.000,0.000
621715.644,-22.461,-26.855,-24.414,-3.906,0.000,0.000,0.000,0.000
621715.648,-7.812,-25.391,-21.973,0.000,0.000,0.000,0.000,0.000
621715.652,-37.598,-46.387,-40.039,-38.086,0.000,0.000,0.000,0.000
621715.656,-45.410,-41.504,-37.598,-59.570,0.000,0.000,0.000,0.000
621715.660,-16.602,2.441,0.977,-15.625,0.000,0.000,0.000,0.000
621715.664,-3.418,8.789,7.812,32.227,0.000,0.000,0.000,0.000
621715.667,-20.996,-32.715,-30.762,-14.160,0.000,0.000,0.000,0.000
621715.671,-46.875,-45.898,-45.410,-67.383,0.000,0.000,0.000,0.000
621715.675,-34.180,-4.883,-5.859,-17.578,0.000,0.000,0.000,0.000
621715.679,8.789,18.555,15.625,35.645,0.000,0.000,0.000,0.000
621715.683,1.465,-16.113,-21.973,-18.066,0.000,0.000,0.000,0.000
621715.687,-41.016,-48.340,-46.387,-66.406,0.000,0.000,0.000,0.000
621715.691,-46.875,-16.113,-10.742,-39.551,0.000,0.000,0.000,0.000
621715.695,-18.066,9.766,6.348,-2.441,0.000,0.000,0.000,0.000
621715.699,-9.277,-24.414,-25.391,-41.016,0.000,0.000,0.000,0.000
621715.703,-32.227,-58.105,-55.176,-70.801,0.000,0.000,0.000,0.000
621715.707,-28.320,-30.273,-29.785,-23.438,0.000,0.000,0.000,0.000
621715.711,-18.066,4.883,1.953,8.789,0.000,0.000,0.000,0.000
621715.714,-15.625,-19.531,-23.926,-22.949,0.000,0.000,0.000,0.000
621715.718,0.977,-30.273,-32.715,-35.645,0.000,0.000,0.000,0.000
621715.722,-16.113,-21.973,-26.855,-29.785,0.000,0.000,0.000,0.000
621715.726,-10.742,-1.953,-4.395,3.906,0.000,0.000,0.000,0.000
621715.730,14.648,-3.418,-6.836,-1.953,0.000,0.000,0.000,0.000
621715.734,-15.137,-33.203,-40.527,-63.477,0.000,0.000,0.000,0.000
621715.738,-45.898,-37.598,-41.504,-49.805,0.000,0.000,0.000,0.000
621715.742,-35.156,-15.137,-19.531,-9.277,0.000,0.000,0.000,0.000
621715.746,-4.883,-5.371,-10.254,-0.488,0.000,2.000,1.000,0.000
621715.750,-0.977,-19.043,-20.996,-50.781,0.000,0.000,0.000,0.000
621715.754,-12.695,-30.273,-29.785,-55.176,0.000,0.000,0.000,0.000
621715.758,-9.277,-17.578,-19.043,-13.672,0.000,0.000,0.000,0.000
621715.762,-6.836,-8.789,-12.695,4.395,0.000,0.000,0.000,0.000
621715.765,-9.277,-21.484,-28.809,-5.859,0.000,0.000,0.000,0.000
621715.769,-3.906,-36.621,-43.457,-43.945,0.000,0.000,0.000,0.000
621715.773,-30.762,-30.762,-30.273,-52.734,0.000,0.000,0.000,0.000
621715.777,-34.180,2.441,1.465,3.906,0.000,0.000,0.000,0.000
621715.781,10.254,0.488,0.977,19.043,0.000,0.000,0.000,0.000
621715.785,-5.371,-27.832,-25.879,-35.156,0.000,0.000,0.000,0.000
621715.789,-36.621,-21.484,-24.414,-38.086,0.000,0.000,0.000,0.000
621715.793,-18.066,1.465,2.930,26.855,0.000,0.000,0.000,0.000
621715.797,-1.953,-8.301,-1.465,37.598,0.000,0.000,0.000,0.000
621715.801,-12.695,-36.621,-36.621,-35.156,0.000,0.000,0.000,0.000
621715.805,-27.344,-38.574,-41.504,-23.438,0.000,0.000,0.000,0.000
621715.809,-2.930,0.000,-1.465,-2.930,0.000,0.000,0.000,0.000
621715.812,-0.488,0.488,-1.953,1.953,0.000,0.000,0.000,0.000
621715.816,-7.812,-28.809,-28.809,-17.090,0.000,0.000,0.000,0.000
621715.820,-23.438,-39.062,-36.133,-45.898,0.000,0.000,0.000,0.000
621715.824,-35.645,-23.926,-19.043,-16.113,0.000,0.000,0.000,0.000
621715.828,-13.672,1.953,9.277,22.949,0.000,0.000,0.000,0.000
621715.832,5.859,-14.160,-8.301,-6.836,0.000,0.000,0.000,0.000
621715.836,0.000,-34.668,-34.180,-34.180,0.000,0.000,0.000,0.000
621715.840,-41.504,-24.414,-23.926,-19.531,0.000,0.000,0.000,0.000
621715.844,-41.016,-16.113,-16.602,15.137,0.000,0.000,0.000,0.000
621715.848,-12.695,-27.832,-29.297,16.113,0.000,0.000,0.000,0.000
621715.852,-27.832,-58.105,-56.641,-53.223,0.000,0.000,0.000,0.000
621715.856,-48.340,-58.594,-53.223,-52.734,0.000,0.000,0.000,0.000
621715.859,-31.738,-17.578,-16.113,9.277,0.000,0.000,0.000,0.000
621715.863,-25.391,-21.484,-25.391,15.137,0.000,0.000,0.000,0.000
621715.867,-19.043,-36.133,-41.016,-44.922,0.000,0.000,0.000,0.000
621715.871,-38.086,-44.434,-51.758,-62.500,0.000,0.000,0.000,0.000
621715.875,-57.129,-35.156,-40.527,-31.738,0.000,0.000,0.000,0.000
621715.879,-41.016,-22.949,-25.879,8.789,0.000,0.000,0.000,0.000
621715.883,-45.898,-48.828,-50.781,-17.090,0.000,0.000,0.000,0.000
621715.887,-62.500,-53.711,-56.152,-63.477,0.000,0.000,0.000,0.000
621715.891,-66.406,-30.273,-31.250,-51.758,0.000,0.000,0.000,0.000
621715.895,-32.227,-11.230,-13.672,7.812,0.000,0.000,0.000,0.000
621715.899,0.000,-23.438,-23.926,0.488,0.000,0.000,0.000,0.000
621715.903,-30.273,-37.109,-34.668,-52.246,0.000,0.000,0.000,0.000
621715.907,-46.875,-20.508,-20.508,-46.387,0.000,0.000,0.000,0.000
621715.910,-16.602,-4.395,-1.465,-11.230,0.000,0.000,0.000,0.000
621715.914,-10.254,-17.578,-11.230,-4.883,0.000,0.000,0.000,0.000
621715.918,-21.484,-39.551,-38.574,-31.738,0.000,0.000,0.000,0.000
621715.922,-43.457,-50.293,-53.711,-36.621,0.000,0.000,0.000,0.000
621715.926,-43.945,-27.832,-27.832,-22.949,0.000,0.000,0.000,0.000
621715.930,-14.160,-16.113,-13.672,5.859,0.000,0.000,0.000,0.000
621715.934,-19.043,-25.391,-25.879,-29.785,0.000,0.000,0.000,0.000
621715.938,-35.156,-37.598,-41.504,-41.016,0.000,0.000,0.000,0.000
621715.942,-38.574,-31.738,-32.715,-6.836,0.000,0.000,0.000,0.000
621715.946,-27.832,-14.160,-13.672,-9.766,0.000,0.000,0.000,0.000
621715.950,-20.020,-34.668,-38.574,-29.297,0.000,0.000,0.000,0.000
621715.954,-24.414,-59.570,-62.500,-45.410,0.000,0.000,0.000,0.000
621715.957,-41.992,-49.805,-50.293,-32.227,0.000,0.000,0.000,0.000
621715.961,-26.367,-17.578,-18.066,-7.812,0.000,0.000,0.000,0.000
621715.965,-14.160,-33.203,-32.227,-39.062,0.000,0.000,0.000,0.000
621715.969,-49.316,-60.059,-59.082,-40.039,0.000,0.000,0.000,0.000
621715.973,-65.918,-38.086,-39.551,-8.301,0.000,0.000,0.000,0.000
621715.977,-47.363,-10.254,-12.207,11.230,0.000,0.000,0.000,0.000
621715.981,-20.996,-24.414,-21.484,-16.602,0.000,0.000,0.000,0.000
621715.985,-32.715,-50.781,-50.293,-70.801,0.000,0.000,0.000,0.000
621715.989,-41.504,-40.039,-39.551,-62.500,0.000,0.000,0.000,0.000
621715.993,-19.531,-10.254,-6.348,-7.812,0.000,0.000,0.000,0.000
621715.997,-7.324,-28.320,-26.367,-10.254,0.000,0.000,0.000,0.000
621716.001,-30.762,-55.176,-55.176,-63.477,0.000,0.000,0.000,0.000
621716.004,-60.547,-57.129,-55.664,-54.199,0.000,0.000,0.000,0.000
621716.008,-36.133,-23.438,-20.996,-4.395,0.000,0.000,0.000,0.000
621716.012,-7.324,-12.695,-8.301,20.996,0.000,0.000,0.000,0.000
621716.016,-12.207,-44.434,-43.457,-16.602,0.000,0.000,0.000,0.000
621716.020,-41.016,-56.641,-55.664,-53.223,0.000,0.000,0.000,0.000
621716.024,-33.691,-20.020,-15.137,-22.461,0.000,0.000,0.000,0.000
621716.028,-0.488,-6.348,-0.488,6.348,0.000,0.000,0.000,0.000
621716.032,1.953,-37.109,-33.203,-1.953,0.000,0.000,0.000,0.000
621716.036,-26.855,-52.734,-53.223,-40.039,0.000,0.000,0.000,0.000
621716.040,-31.250,-31.250,-29.785,-38.574,0.000,0.000,0.000,0.000
621716.044,-13.672,-16.113,-9.277,21.484,0.000,0.000,0.000,0.000
621716.048,-2.930,-26.367,-21.484,-11.719,0.000,0.000,0.000,0.000
621716.052,-18.555,-37.109,-40.527,-77.148,0.000,0.000,0.000,0.000
621716.055,-33.203,-31.738,-33.691,-40.527,0.000,0.000,0.000,0.000
621716.059,-10.742,-11.719,-5.371,53.223,0.000,0.000,0.000,0.000
621716.063,10.254,-18.066,-11.719,8.301,0.000,0.000,0.000,0.000
621716.067,-12.207,-37.598,-39.062,-65.430,0.000,0.000,0.000,0.000
621716.071,-38.574,-41.504,-45.898,-17.090,0.000,0.000,0.000,0.000
621716.075,-16.113,-21.973,-21.973,-14.160,0.000,0.000,0.000,0.000
621716.079,0.488,-16.113,-19.043,-46.875,0.000,0.000,0.000,0.000
621716.083,-18.066,-49.805,-55.664,-66.406,0.000,0.000,0.000,0.000
621716.087,-45.898,-68.848,-67.383,-62.012,0.000,0.000,0.000,0.000
621716.091,-42.480,-29.785,-26.367,-26.367,0.000,0.000,0.000,0.000
621716.095,-27.832,-2.930,-0.488,-3.418,0.000,0.000,0.000,0.000
621716.099,-15.137,-27.344,-26.367,-31.250,0.000,0.000,0.000,0.000
621716.102,-37.109,-54.199,-51.270,-54.199,0.000,0.000,0.000,0.000
621716.106,-50.781,-39.062,-33.691,-42.480,0.000,0.000,0.000,0.000
621716.110,-23.926,-15.625,-13.672,-2.930,0.000,0.000,0.000,0.000
621716.114,-10.254,-41.992,-40.527,-27.344,0.000,0.000,0.000,0.000
621716.118,-46.387,-69.824,-67.871,-101.074,0.000,0.000,0.000,0.000
621716.122,-61.523,-51.758,-50.293,-79.102,0.000,0.000,0.000,0.000
621716.126,-32.227,-8.789,-7.324,-6.348,0.000,0.000,0.000,0.000
621716.130,-12.695,-14.160,-7.812,5.371,0.000,0.000,0.000,0.000
621716.134,-19.043,-58.105,-49.316,-48.828,0.000,0.000,0.000,0.000
621716.138,-40.527,-57.129,-52.734,-68.848,0.000,0.000,0.000,0.000
621716.142,-37.598,-20.996,-18.066,-18.066,0.000,0.000,0.000,0.000
621716.146,-22.461,-18.066,-11.719,18.066,0.000,0.000,0.000,0.000
621716.149,-16.602,-37.598,-34.668,-17.578,0.000,0.000,0.000,0.000
621716.153,-41.992,-46.387,-52.734,-44.434,0.000,0.000,0.000,0.000
621716.157,-49.805,-25.391,-29.297,-53.223,0.000,0.000,0.000,0.000
621716.161,-33.691,-12.207,-12.207,-13.672,0.000,0.000,0.000,0.000
621716.165,-7.812,-35.156,-34.668,-21.484,0.000,0.000,0.000,0.000
621716.169,-15.137,-53.711,-56.641,-59.082,0.000,0.000,0.000,0.000
621716.173,-29.297,-30.762,-36.621,-34.180,0.000,0.000,0.000,0.000
621716.177,-12.695,-11.230,-13.672,-4.395,0.000,0.000,0.000,0.000
621716.181,0.000,-25.391,-29.785,-18.066,0.000,0.000,0.000,0.000
621716.185,-14.648,-45.410,-51.758,-53.711,0.000,0.000,0.000,0.000
621716.189,-30.273,-48.340,-51.758,-51.758,0.000,0.000,0.000,0.000
621716.193,-17.090,-21.973,-20.996,-13.184,0.000,0.000,0.000,0.000
621716.197,-17.090,-16.113,-18.555,-27.344,0.000,0.000,0.000,0.000
621716.200,-28.809,-42.480,-53.223,-67.383,0.000,0.000,0.000,0.000
621716.204,-47.852,-53.711,-60.547,-61.523,0.000,0.000,0.000,0.000
621716.208,-34.668,-32.715,-35.156,-20.020,0.000,0.000,0.000,0.000
621716.212,-12.695,-25.391,-25.391,29.297,0.000,0.000,0.000,0.000
621716.216,-9.766,-31.250,-33.691,-33.203,0.000,0.000,0.000,0.000
621716.220,-21.973,-40.527,-45.898,-78.125,0.000,0.000,0.000,0.000
621716.224,-37.109,-38.086,-40.527,-45.898,0.000,0.000,0.000,0.000
621716.228,-27.832,-18.066,-18.066,-0.488,0.000,0.000,0.000,0.000
621716.232,-0.977,-17.578,-20.996,-19.531,0.000,0.000,0.000,0.000
621716.236,-5.371,-31.250,-36.133,-69.336,0.000,0.000,0.000,0.000
621716.240,-41.016,-33.691,-38.086,-61.523,0.000,0.000,0.000,0.000
621716.244,-47.363,-16.113,-25.879,-19.043,0.000,0.000,0.000,0.000
621716.247,-22.949,-18.555,-27.832,7.324,0.000,0.000,0.000,0.000
621716.251,-16.602,-44.434,-53.223,-48.340,0.000,0.000,0.000,0.000
621716.255,-37.598,-45.410,-57.129,-78.125,0.000,0.000,0.000,0.000
621716.259,-32.715,-19.531,-31.250,-16.113,0.000,0.000,0.000,0.000
621716.263,-3.418,-13.672,-19.531,14.648,0.000,0.000,0.000,0.000
621716.267,-17.090,-35.645,-38.086,-38.574,0.000,0.000,0.000,0.000
621716.271,-34.668,-43.945,-47.363,-52.734,0.000,0.000,0.000,0.000
621716.275,-30.273,-19.043,-21.973,-24.902,0.000,0.000,0.000,0.000
621716.279,-9.277,-2.441,-4.395,0.977,0.000,0.000,0.000,0.000
621716.283,-8.301,-25.391,-26.855,-34.180,0.000,0.000,0.000,0.000
621716.287,-39.062,-47.852,-46.875,-57.129,0.000,0.000,0.000,0.000
621716.291,-20.020,-19.531,-20.508,-23.926,0.000,0.000,0.000,0.000
621716.294,-23.926,-2.930,-4.883,9.277,0.000,0.000,0.000,0.000
621716.298,-48.340,-34.668,-36.133,-60.059,0.000,0.000,0.000,0.000
621716.302,-38.574,-53.711,-55.176,-83.496,0.000,0.000,0.000,0.000
621716.306,-33.691,-24.414,-20.996,4.395,0.000,0.000,0.000,0.000
621716.310,-8.789,-2.441,0.977,23.438,0.000,0.000,0.000,0.000
621716.314,2.441,-24.414,-27.832,-29.785,0.000,0.000,0.000,0.000
621716.318,-30.273,-43.945,-46.875,-43.457,0.000,0.000,0.000,0.000
621716.322,-32.715,-17.090,-19.043,-25.879,0.000,0.000,0.000,0.000
621716.326,-24.902,2.930,0.977,21.973,0.000,0.000,0.000,0.000
621716.330,-21.973,-16.113,-15.625,5.859,0.000,0.000,0.000,0.000
621716.334,-8.789,-20.020,-26.367,-56.641,0.000,0.000,0.000,0.000
621716.338,-20.508,-22.461,-27.832,-42.969,0.000,0.000,0.000,0.000
621716.342,-29.785,-14.160,-14.648,-5.859,0.000,0.000,0.000,0.000
621716.345,-17.090,-18.555,-21.973,0.000,0.000,0.000,0.000,0.000
621716.349,-20.996,-34.668,-41.504,-62.500,0.000,0.000,0.000,0.000
621716.353,-30.273,-29.297,-37.109,-83.496,0.000,0.000,0.000,0.000
621716.357,-8.789,-8.301,-9.277,-15.137,0.000,0.000,0.000,0.000
621716.361,6.348,-10.742,-5.371,10.742,0.000,0.000,0.000,0.000
621716.365,-9.766,-33.203,-27.344,-24.902,0.000,0.000,0.000,0.000
621716.369,-39.062,-36.133,-32.227,-55.176,0.000,0.000,0.000,0.000
621716.373,-34.668,-26.855,-25.879,-49.316,0.000,0.000,0.000,0.000
621716.377,-1.465,-0.488,-0.977,5.859,0.000,0.000,0.000,0.000
621716.381,-15.137,-14.160,-17.578,-16.113,0.000,0.000,0.000,0.000
621716.385,-49.316,-54.199,-56.152,-65.918,0.000,0.000,0.000,0.000
621716.389,-41.504,-41.504,-41.016,-63.477,0.000,0.000,0.000,0.000
621716.392,-23.438,-18.066,-18.066,-29.785,0.000,0.000,0.000,0.000
621716.396,-25.391,-30.273,-28.809,-30.273,0.000,0.000,0.000,0.000
621716.400,-37.109,-55.176,-50.293,-63.965,0.000,0.000,0.000,0.000
621716.404,-42.480,-58.594,-53.711,-46.875,0.000,0.000,0.000,0.000
621716.408,-22.949,-20.996,-21.484,-29.297,0.000,0.000,0.000,0.000
621716.412,-6.836,-12.207,-21.484,-15.625,0.000,0.000,0.000,0.000
621716.416,-6.836,-43.945,-57.617,-50.293,0.000,0.000,0.000,0.000
621716.420,-35.645,-49.316,-55.176,-79.102,0.000,0.000,0.000,0.000
621716.424,-47.363,-25.391,-27.832,-28.809,0.000,0.000,0.000,0.000
621716.428,-15.625,-14.648,-14.648,3.906,0.000,0.000,0.000,0.000
621716.432,-4.395,-32.715,-33.691,-26.855,0.000,0.000,0.000,0.000
621716.436,-34.668,-42.969,-47.852,-43.945,0.000,0.000,0.000,0.000
621716.439,-33.691,-8.301,-8.789,-17.090,0.000,0.000,0.000,0.000
621716.443,10.742,20.508,24.414,34.180,0.000,0.000,0.000,0.000
621716.447,12.207,-7.324,-4.883,-10.742,0.000,0.000,0.000,0.000
621716.451,-24.414,-38.574,-39.062,-62.012,0.000,0.000,0.000,0.000
621716.455,-32.715,-29.785,-27.832,-45.898,0.000,0.000,0.000,0.000
621716.459,-0.488,1.953,3.418,6.836,0.000,0.000,0.000,0.000
621716.463,2.441,-7.812,-12.695,8.789,0.000,0.000,0.000,0.000
621716.467,-25.391,-36.133,-38.574,-64.453,0.000,0.000,0.000,0.000
621716.471,-40.039,-31.738,-30.762,-52.734,0.000,0.000,0.000,0.000
621716.475,-41.016,-13.672,-13.672,6.348,0.000,0.000,0.000,0.000
621716.479,-16.113,-16.113,-12.207,10.254,0.000,0.000,0.000,0.000
621716.483,-1.465,-27.344,-29.297,-44.434,0.000,0.000,0.000,0.000
621716.487,-32.227,-30.273,-34.668,-51.758,0.000,0.000,0.000,0.000
621716.490,-30.762,-16.113,-16.113,-19.043,0.000,0.000,0.000,0.000
621716.494,-5.371,-11.230,-10.742,0.977,0.000,0.000,0.000,0.000
621716.498,0.000,-18.555,-19.531,-1.465,0.000,0.000,0.000,0.000
621716.502,-17.090,-33.691,-35.156,-41.504,0.000,0.000,0.000,0.000
621716.506,-22.949,-13.184,-14.648,-32.715,0.000,0.000,0.000,0.000
621716.510,-4.883,7.324,3.418,15.137,0.000,0.000,0.000,0.000
621716.514,-2.930,-3.906,-11.719,5.859,0.000,0.000,0.000,0.000
621716.518,-30.273,-29.297,-36.621,-28.809,0.000,0.000,0.000,0.000
621716.522,-36.621,-29.297,-34.668,-30.762,0.000,0.000,0.000,0.000
621716.526,-17.090,6.348,1.953,1.465,0.000,0.000,0.000,0.000
621716.530,-6.348,0.977,-2.930,3.906,0.000,0.000,0.000,0.000
621716.534,-3.906,-19.043,-27.832,-36.133,0.000,0.000,0.000,0.000
621716.537,-28.320,-26.367,-36.621,-29.297,0.000,0.000,0.000,0.000
621716.541,-26.367,-13.184,-19.043,12.695,0.000,0.000,0.000,0.000
621716.545,-3.906,-7.812,-15.625,0.977,0.000,0.000,0.000,0.000
621716.549,-25.391,-34.180,-44.434,-41.992,0.000,0.000,0.000,0.000
621716.553,-37.109,-45.410,-53.711,-35.645,0.000,0.000,0.000,0.000
621716.557,-24.414,-17.090,-20.020,-14.160,0.000,0.000,0.000,0.000
621716.561,-4.883,4.883,7.324,26.367,0.000,0.000,0.000,0.000
621716.565,2.930,-11.719,-11.230,-10.742,0.000,0.000,0.000,0.000
621716.569,-31.738,-36.621,-38.086,-57.617,0.000,0.000,0.000,0.000
621716.573,-39.062,-29.785,-31.250,-29.785,0.000,0.000,0.000,0.000
621716.577,-20.508,-5.371,-9.277,34.668,0.000,0.000,0.000,0.000
621716.581,-2.930,-13.672,-15.137,27.832,0.000,0.000,0.000,0.000
621716.584,-16.602,-41.992,-40.039,-46.387,0.000,0.000,0.000,0.000
621716.588,-29.297,-33.691,-33.691,-41.504,0.000,0.000,0.000,0.000
621716.592,-15.137,-3.418,2.930,12.695,0.000,0.000,0.000,0.000
621716.596,-15.625,-20.020,-13.672,14.160,0.000,0.000,0.000,0.000
621716.600,-32.227,-44.434,-42.969,-42.480,0.000,0.000,0.000,0.000
621716.604,-48.340,-32.715,-28.320,-53.711,0.000,0.000,0.000,0.000
621716.608,-39.062,-20.996,-14.160,-18.066,0.000,0.000,0.000,0.000
621716.612,5.371,-21.484,-11.719,4.395,0.000,0.000,0.000,0.000
621716.616,2.930,-40.039,-31.738,-14.648,0.000,0.000,0.000,0.000
621716.620,-37.109,-48.340,-44.434,-31.250,0.000,0.000,0.000,0.000
621716.624,-17.578,-21.484,-21.973,-4.883,0.000,0.000,0.000,0.000
621716.628,19.531,-10.742,-12.207,6.348,0.000,0.000,0.000,0.000
621716.632,12.695,-28.320,-30.273,-32.715,0.000,0.000,0.000,0.000
621716.635,-12.207,-28.809,-33.203,-24.414,0.000,0.000,0.000,0.000
621716.639,-8.789,2.441,-3.418,-7.812,0.000,0.000,0.000,0.000
621716.643,15.625,5.859,-1.465,2.930,0.000,0.000,0.000,0.000
621716.647,21.973,-17.090,-25.391,-12.695,0.000,0.000,0.000,0.000
621716.651,7.324,-19.043,-23.438,-11.230,0.000,0.000,0.000,0.000
621716.655,6.348,-4.395,-5.859,3.418,0.000,0.000,0.000,0.000
621716.659,24.902,9.277,8.301,34.180,0.000,0.000,0.000,0.000
621716.663,4.395,-8.301,-11.230,26.855,0.000,0.000,0.000,0.000
621716.667,-7.812,-27.832,-27.832,-27.832,0.000,0.000,0.000,0.000
621716.671,2.441,-18.555,-17.090,-3.418,0.000,0.000,0.000,0.000
621716.675,0.488,-1.953,-1.953,23.926,0.000,0.000,0.000,0.000
621716.679,2.441,-9.277,-9.766,-10.742,0.000,0.000,0.000,0.000
621716.682,-12.207,-17.578,-25.879,-37.598,0.000,0.000,0.000,0.000
621716.686,-35.156,-26.855,-32.715,-21.973,0.000,0.000,0.000,0.000
621716.690,-24.414,-8.789,-10.742,2.930,0.000,0.000,0.000,0.000
621716.694,-11.230,-8.789,-9.766,0.488,0.000,0.000,0.000,0.000
621716.698,-16.113,-34.180,-31.250,-41.992,0.000,0.000,0.000,0.000
621716.702,-36.621,-51.270,-48.340,-60.059,0.000,0.000,0.000,0.000
621716.706,-34.668,-27.344,-25.391,-38.086,0.000,0.000,0.000,0.000
621716.710,-12.207,1.953,2.441,20.996,0.000,0.000,0.000,0.000
621716.714,6.836,-17.090,-22.461,14.160,0.000,0.000,0.000,0.000
621716.718,-8.301,-22.949,-30.762,-38.574,0.000,0.000,0.000,0.000
621716.722,-14.160,4.395,-3.418,-4.395,0.000,0.000,0.000,0.000
621716.726,17.090,5.371,-2.441,29.297,0.000,0.000,0.000,0.000
621716.729,10.742,-25.879,-33.691,-36.133,0.000,0.000,0.000,0.000
621716.733,-29.297,-32.715,-39.062,-60.059,0.000,0.000,0.000,0.000
621716.737,-26.855,0.977,-1.953,-27.832,0.000,0.000,0.000,0.000
621716.741,-6.836,1.953,1.953,-4.395,0.000,0.000,0.000,0.000
621716.745,9.766,-19.043,-20.508,-25.391,0.000,0.000,0.000,0.000
621716.749,-11.230,-41.504,-41.992,-33.691,0.000,0.000,0.000,0.000
621716.753,-36.621,-27.344,-27.344,-18.555,0.000,0.000,0.000,0.000
621716.757,-10.254,4.883,7.812,4.395,0.000,0.000,0.000,0.000
621716.761,6.836,-12.207,-10.742,7.812,0.000,0.000,0.000,0.000
621716.765,-15.625,-33.203,-33.691,-23.438,0.000,0.000,0.000,0.000
621716.769,-28.809,-21.484,-19.043,-15.137,0.000,0.000,0.000,0.000
621716.773,-9.277,1.465,6.348,10.742,0.000,0.000,0.000,0.000
621716.777,21.484,-1.465,0.977,-0.488,0.000,0.000,0.000,0.000
621716.780,-7.812,-29.785,-29.297,-29.297,0.000,0.000,0.000,0.000
621716.784,-39.551,-39.551,-39.551,-28.809,0.000,0.000,0.000,0.000
621716.788,-14.160,-15.625,-15.625,30.762,0.000,0.000,0.000,0.000
621716.792,7.812,-0.488,1.465,37.109,0.000,0.000,0.000,0.000
621716.796,0.977,-22.949,-24.414,-26.367,0.000,0.000,0.000,0.000
621716.800,-20.508,-42.969,-45.898,-38.574,0.000,0.000,0.000,0.000
621716.804,-20.996,-17.090,-12.207,-7.324,0.000,0.000,0.000,0.000
621716.808,-3.418,1.953,11.230,48.828,0.000,0.000,0.000,0.000
621716.812,-1.465,-14.648,-9.766,20.020,0.000,0.000,0.000,0.000
621716.816,-15.625,-33.203,-33.691,-16.113,0.000,0.000,0.000,0.000
621716.820,-6.836,-22.949,-22.461,-7.812,0.000,0.000,0.000,0.000
621716.824,-2.441,0.977,2.441,8.789,0.000,0.000,0.000,0.000
621716.827,-30.762,-15.625,-15.137,-8.789,0.000,0.000,0.000,0.000
621716.831,-41.504,-39.062,-37.109,-34.668,0.000,0.000,0.000,0.000
621716.835,-35.645,-29.785,-27.832,-19.043,0.000,0.000,0.000,0.000
621716.839,-24.414,-4.395,1.465,22.461,0.000,0.000,0.000,0.000
621716.843,-9.277,-13.672,-8.301,30.762,0.000,0.000,0.000,0.000
621716.847,-18.066,-41.016,-42.480,-32.715,0.000,0.000,0.000,0.000
621716.851,-31.250,-37.598,-37.109,-53.223,0.000,0.000,0.000,0.000
621716.855,-18.555,-3.418,-3.906,-25.391,0.000,0.000,0.000,0.000
621716.859,-5.859,-4.395,-7.812,12.207,0.000,0.000,0.000,0.000
621716.863,-2.930,-41.504,-41.992,-26.855,0.000,0.000,0.000,0.000
621716.867,-29.297,-59.570,-55.664,-62.012,0.000,0.000,0.000,0.000
621716.871,-33.691,-27.344,-25.879,-29.785,0.000,0.000,0.000,0.000
621716.874,-10.254,-3.418,-8.789,2.930,0.000,0.000,0.000,0.000
621716.878,-8.789,-26.855,-27.832,-17.090,0.000,0.000,0.000,0.000
621716.882,-27.344,-51.270,-47.852,-32.227,0.000,0.000,0.000,0.000
621716.886,-34.180,-35.645,-30.762,-20.508,0.000,0.000,0.000,0.000
621716.890,-17.578,-4.395,0.000,-7.324,0.000,0.000,0.000,0.000
621716.894,6.348,-8.789,-9.766,-6.836,0.000,0.000,0.000,0.000
621716.898,-1.953,-27.344,-33.203,-34.180,0.000,0.000,0.000,0.000
621716.902,-21.484,-25.879,-34.180,-16.602,0.000,0.000,0.000,0.000
621716.906,0.000,-2.930,-5.859,3.906,0.000,0.000,0.000,0.000
621716.910,26.367,-5.371,-5.371,-1.465,0.000,0.000,0.000,0.000
621716.914,6.836,-24.902,-22.949,-26.367,0.000,0.000,0.000,0.000
621716.918,-17.090,-12.695,-10.742,-24.414,0.000,0.000,0.000,0.000
621716.922,-5.859,-0.977,1.953,19.043,0.000,0.000,0.000,0.000
621716.925,7.812,-11.230,-9.766,15.625,0.000,0.000,0.000,0.000
621716.929,5.371,-29.297,-31.738,-58.105,0.000,0.000,0.000,0.000
621716.933,-11.719,-29.297,-28.320,-53.711,0.000,0.000,0.000,0.000
621716.937,-7.324,-4.395,0.000,-2.930,0.000,0.000,0.000,0.000
621716.941,-5.371,-4.883,-4.395,8.301,0.000,0.000,0.000,0.000
621716.945,6.836,-19.043,-19.531,-18.066,0.000,0.000,0.000,0.000
621716.949,-9.277,-20.508,-23.926,-21.484,0.000,0.000,0.000,0.000
621716.953,-29.785,0.977,-3.906,-20.996,0.000,0.000,0.000,0.000
621716.957,-4.395,-6.348,-5.859,-11.230,0.000,0.000,0.000,0.000
621716.961,0.000,-31.738,-31.250,-13.184,0.000,0.000,0.000,0.000
621716.965,-23.926,-26.367,-25.879,-24.414,0.000,0.000,0.000,0.000
621716.969,-20.996,-7.812,0.000,-16.602,0.000,0.000,0.000,0.000
621716.972,-4.883,7.324,16.602,16.602,0.000,0.000,0.000,0.000
621716.976,23.438,-0.488,0.000,18.066,0.000,0.000,0.000,0.000
621716.980,22.949,-18.066,-24.414,-24.414,0.000,0.000,0.000,0.000
621716.984,-16.602,-22.949,-24.414,-30.273,0.000,0.000,0.000,0.000
621716.988,-19.531,3.418,10.742,1.465,0.000,0.000,0.000,0.000
621716.992,-5.371,0.000,6.836,-0.977,0.000,0.000,0.000,0.000
621716.996,-11.230,-25.391,-27.344,-45.898,0.000,0.000,0.000,0.000
621717.000,-10.742,-26.855,-31.250,-33.203,0.000,0.000,0.000,0.000
621717.004,-19.043,-8.301,-7.812,28.320,0.000,0.000,0.000,0.000
621717.008,-17.578,0.000,-2.441,34.668,0.000,0.000,0.000,0.000
621717.012,-8.789,-28.320,-32.715,-30.273,0.000,0.000,0.000,0.000
621717.016,-41.016,-52.246,-54.199,-55.176,0.000,0.000,0.000,0.000
621717.019,-49.316,-25.391,-23.438,-19.043,0.000,0.000,0.000,0.000
621717.023,-3.418,0.977,5.371,21.973,0.000,0.000,0.000,0.000
621717.027,-0.488,-19.531,-18.066,-26.367,0.000,0.000,0.000,0.000
621717.031,-43.457,-36.133,-38.574,-56.152,0.000,0.000,0.000,0.000
621717.035,-27.344,-17.578,-18.555,-15.137,0.000,0.000,0.000,0.000
621717.039,-17.090,-9.277,-3.906,16.602,0.000,0.000,0.000,0.000
621717.043,-19.043,-26.855,-23.438,-3.906,0.000,0.000,0.000,0.000
621717.047,-17.090,-40.527,-42.969,-42.969,0.000,0.000,0.000,0.000
621717.051,-37.598,-34.180,-32.227,-15.137,0.000,0.000,0.000,0.000
621717.055,-47.363,-11.230,-2.930,28.809,0.000,0.000,0.000,0.000
621717.059,-26.855,-25.879,-14.648,12.207,0.000,0.000,0.000,0.000
621717.063,-25.391,-52.246,-45.898,-32.715,0.000,0.000,0.000,0.000
621717.067,-39.062,-49.805,-49.316,-36.621,0.000,0.000,0.000,0.000
621717.070,-26.367,-8.301,-13.184,-8.301,0.000,0.000,0.000,0.000
621717.074,-6.348,-3.906,-10.742,16.113,0.000,0.000,0.000,0.000
621717.078,-7.324,-40.039,-44.922,-17.090,0.000,0.000,0.000,0.000
621717.082,-40.527,-52.246,-54.199,-46.875,0.000,0.000,0.000,0.000
621717.086,-47.363,-30.273,-29.785,-49.316,0.000,0.000,0.000,0.000
621717.090,-30.762,-19.531,-19.043,-6.348,0.000,0.000,0.000,0.000
621717.094,-14.160,-27.344,-26.367,-2.930,0.000,0.000,0.000,0.000
621717.098,-13.672,-35.156,-32.715,-17.090,0.000,0.000,0.000,0.000
621717.102,-36.133,-30.273,-28.809,-26.367,0.000,0.000,0.000,0.000
621717.106,-22.461,-10.254,-7.812,-16.602,0.000,0.000,0.000,0.000
621717.110,9.766,-20.020,-20.020,-18.555,0.000,0.000,0.000,0.000
621717.114,0.488,-31.250,-38.574,-34.180,0.000,0.000,0.000,0.000
621717.117,-11.719,-31.250,-32.715,-10.742,0.000,0.000,0.000,0.000
621717.121,-3.418,-12.207,-11.230,-8.301,0.000,0.000,0.000,0.000
621717.125,-3.418,-11.230,-9.277,-10.254,0.000,0.000,0.000,0.000
621717.129,-1.465,-30.273,-32.715,-15.625,0.000,0.000,0.000,0.000
621717.133,-12.695,-35.645,-40.039,-12.695,0.000,0.000,0.000,0.000
621717.137,-9.766,-12.207,-12.207,10.742,0.000,0.000,0.000,0.000
621717.141,8.789,2.930,3.906,33.203,0.000,0.000,0.000,0.000
621717.145,11.719,-13.184,-13.184,-7.812,0.000,0.000,0.000,0.000
621717.149,-7.324,-38.086,-36.133,-44.922,0.000,0.000,0.000,0.000
621717.153,-21.973,-28.809,-25.879,-10.742,0.000,0.000,0.000,0.000
621717.157,-14.648,-2.930,-3.906,50.781,0.000,0.000,0.000,0.000
621717.161,-5.859,-18.555,-19.043,7.324,0.000,0.000,0.000,0.000
621717.164,-14.648,-41.504,-39.551,-49.805,0.000,0.000,0.000,0.000
621717.168,-16.602,-32.227,-30.762,-15.625,0.000,0.000,0.000,0.000
621717.172,0.000,3.906,1.953,23.438,0.000,0.000,0.000,0.000
621717.176,12.207,-1.953,-7.812,6.836,0.000,0.000,0.000,0.000
621717.180,-10.254,-30.762,-36.133,-50.781,0.000,0.000,0.000,0.000
621717.184,-27.344,-30.273,-35.645,-45.898,0.000,0.000,0.000,0.000
621717.188,-14.160,-4.395,-8.789,8.789,0.000,0.000,0.000,0.000
621717.192,5.371,-7.812,-9.277,23.926,0.000,0.000,0.000,0.000
621717.196,3.418,-41.016,-43.457,-34.180,0.000,0.000,0.000,0.000
621717.200,-38.086,-46.875,-54.688,-58.594,0.000,0.000,0.000,0.000
621717.204,-29.785,-7.812,-18.555,-16.602,0.000,0.000,0.000,0.000
621717.208,-1.465,4.883,-1.465,17.090,0.000,0.000,0.000,0.000
621717.212,1.465,-16.602,-24.902,-25.879,0.000,0.000,0.000,0.000
621717.215,-15.137,-26.367,-38.574,-66.406,0.000,0.000,0.000,0.000
621717.219,-43.457,-19.531,-19.531,-33.691,0.000,0.000,0.000,0.000
621717.223,-15.625,-6.836,-1.953,-7.324,0.000,0.000,0.000,0.000
621717.227,4.395,-25.879,-22.949,-27.832,0.000,0.000,0.000,0.000
621717.231,-26.367,-44.922,-46.875,-40.527,0.000,0.000,0.000,0.000
621717.235,-44.434,-35.156,-37.109,-29.297,0.000,0.000,0.000,0.000
621717.239,-29.297,-9.766,-6.348,24.902,0.000,0.000,0.000,0.000
621717.243,-8.301,-18.066,-16.113,18.066,0.000,0.000,0.000,0.000
621717.247,-6.348,-42.969,-44.922,-70.312,0.000,0.000,0.000,0.000
621717.251,-41.992,-45.410,-42.969,-66.895,0.000,0.000,0.000,0.000
621717.255,-47.852,-29.297,-25.879,5.371,0.000,0.000,0.000,0.000
621717.259,-11.230,-19.531,-18.555,-2.930,0.000,0.000,0.000,0.000
621717.262,-11.719,-38.574,-41.016,-50.781,0.000,0.000,0.000,0.000
621717.266,-48.828,-63.477,-65.918,-42.480,0.000,0.000,0.000,0.000
621717.270,-44.434,-46.387,-43.945,-2.441,0.000,0.000,0.000,0.000
621717.274,-8.789,-19.043,-17.090,28.320,0.000,4.000,1.000,0.000
621717.278,6.836,-18.066,-23.438,-45.410,0.000,0.000,0.000,0.000
621717.282,-19.531,-37.598,-44.922,-87.402,0.000,0.000,0.000,0.000
621717.286,-54.688,-43.457,-46.387,-67.871,0.000,0.000,0.000,0.000
621717.290,-46.875,-30.762,-28.809,-9.766,0.000,0.000,0.000,0.000
621717.294,-16.113,-21.484,-20.996,19.531,0.000,0.000,0.000,0.000
621717.298,-18.555,-38.086,-37.109,-57.129,0.000,0.000,0.000,0.000
621717.302,-25.391,-42.480,-41.016,-58.594,0.000,0.000,0.000,0.000
621717.306,-24.414,-18.066,-14.160,15.137,0.000,0.000,0.000,0.000
621717.309,-15.137,-23.438,-19.531,7.812,0.000,0.000,0.000,0.000
621717.313,-31.250,-48.828,-51.758,-62.988,0.000,0.000,0.000,0.000
621717.317,-64.941,-41.504,-44.434,-63.965,0.000,0.000,0.000,0.000
621717.321,-47.852,-16.602,-14.648,5.371,0.000,0.000,0.000,0.000
621717.325,-22.461,-26.855,-27.344,-5.859,0.000,0.000,0.000,0.000
621717.329,-37.109,-60.059,-59.082,-60.059,0.000,0.000,0.000,0.000
621717.333,-63.477,-62.500,-56.152,-61.035,0.000,0.000,0.000,0.000
621717.337,-51.270,-25.391,-25.391,-42.969,0.000,0.000,0.000,0.000
621717.341,-35.645,-32.227,-29.297,-14.160,0.000,0.000,0.000,0.000
621717.345,-42.480,-73.242,-64.941,-34.180,0.000,0.000,0.000,0.000
621717.349,-60.547,-73.730,-71.777,-35.156,0.000,0.000,0.000,0.000
621717.353,-35.645,-24.902,-21.973,-45.898,0.000,0.000,0.000,0.000
621717.357,-25.879,-10.742,-7.812,-48.828,0.000,0.000,0.000,0.000
621717.360,-50.293,-38.574,-37.598,-64.941,0.000,0.000,0.000,0.000
621717.364,-52.246,-56.641,-54.688,-74.707,0.000,0.000,0.000,0.000
621717.368,-60.547,-39.062,-38.086,-27.832,0.000,0.000,0.000,0.000
621717.372,-51.758,-16.602,-16.602,0.977,0.000,0.000,0.000,0.000
621717.376,-33.203,-35.156,-35.645,-40.527,0.000,0.000,0.000,0.000
621717.380,-41.504,-63.477,-65.430,-74.219,0.000,0.000,0.000,0.000
621717.384,-45.410,-42.480,-43.457,-31.738,0.000,0.000,0.000,0.000
621717.388,-26.855,-6.348,-4.395,28.320,0.000,0.000,0.000,0.000
621717.392,-3.418,-11.230,-11.230,-16.602,0.000,0.000,0.000,0.000
621717.396,-10.742,-26.855,-32.227,-73.242,0.000,0.000,0.000,0.000
621717.400,-13.672,-34.668,-38.086,-65.430,0.000,0.000,0.000,0.000
621717.404,-5.859,-3.906,-3.906,-23.926,0.000,0.000,0.000,0.000
621717.407,-27.344,-1.953,-0.488,5.859,0.000,0.000,0.000,0.000
621717.411,-30.762,-26.855,-31.250,-53.223,0.000,0.000,0.000,0.000
621717.415,-42.969,-28.320,-33.691,-49.805,0.000,0.000,0.000,0.000
621717.419,-42.969,-13.184,-15.137,-7.324,0.000,0.000,0.000,0.000
621717.423,-11.719,-1.465,-2.930,-1.953,0.000,0.000,0.000,0.000
621717.427,7.812,-12.207,-14.648,-25.879,0.000,0.000,0.000,0.000
621717.431,-9.766,-14.160,-13.184,-50.781,0.000,0.000,0.000,0.000
621717.435,-25.879,-1.465,-1.465,-15.625,0.000,0.000,0.000,0.000
621717.439,-11.230,5.859,1.953,20.508,0.000,0.000,0.000,0.000
621717.443,2.930,-4.395,-8.789,-9.766,0.000,0.000,0.000,0.000
621717.447,-28.809,-38.086,-42.480,-47.852,0.000,0.000,0.000,0.000
621717.451,-46.387,-32.715,-34.180,-61.523,0.000,0.000,0.000,0.000
621717.454,-33.691,-1.465,3.418,-30.762,0.000,0.000,0.000,0.000
621717.458,-28.809,-11.719,-5.371,2.930,0.000,0.000,0.000,0.000
621717.462,-30.762,-41.992,-36.621,-34.180,0.000,0.000,0.000,0.000
621717.466,-41.992,-48.828,-41.016,-45.410,0.000,0.000,0.000,0.000
621717.470,-17.578,-11.230,-3.906,0.000,0.000,0.000,0.000,0.000
621717.474,-2.441,-20.508,-13.672,-9.766,0.000,0.000,0.000,0.000
621717.478,-29.785,-57.129,-52.246,-62.988,0.000,0.000,0.000,0.000
621717.482,-42.969,-46.387,-39.551,-47.852,0.000,0.000,0.000,0.000
621717.486,-36.133,-11.230,-5.371,-14.160,0.000,0.000,0.000,0.000
621717.490,-15.625,-20.020,-21.973,-29.297,0.000,0.000,0.000,0.000
621717.494,-37.109,-57.617,-60.547,-55.664,0.000,0.000,0.000,0.000
621717.498,-76.660,-65.430,-63.477,-45.898,0.000,0.000,0.000,0.000
621717.502,-52.246,-26.855,-21.973,-33.691,0.000,0.000,0.000,0.000
621717.505,-19.531,-14.160,-10.742,-11.230,0.000,0.000,0.000,0.000
621717.509,-19.531,-36.621,-32.715,-47.363,0.000,0.000,0.000,0.000
621717.513,-39.551,-56.152,-49.316,-86.426,0.000,0.000,0.000,0.000
621717.517,-50.781,-34.668,-24.414,-60.547,0.000,0.000,0.000,0.000
621717.521,-52.734,-18.555,-9.277,-22.461,0.000,0.000,0.000,0.000
621717.525,-32.715,-43.945,-42.969,-41.016,0.000,0.000,0.000,0.000
621717.529,-41.016,-52.734,-54.199,-87.402,0.000,0.000,0.000,0.000
621717.533,-67.383,-39.551,-31.738,-47.852,0.000,0.000,0.000,0.000
621717.537,-50.781,-20.508,-13.672,-8.301,0.000,0.000,0.000,0.000
621717.541,-32.227,-24.902,-23.926,-12.207,0.000,0.000,0.000,0.000
621717.545,-36.621,-45.898,-43.945,-42.969,0.000,0.000,0.000,0.000
621717.549,-60.059,-39.551,-36.621,-69.336,0.000,0.000,0.000,0.000
621717.552,-53.223,-6.348,-8.789,-32.227,0.000,0.000,0.000,0.000
621717.556,-26.367,-5.371,-5.371,22.461,0.000,0.000,0.000,0.000
621717.560,-21.973,-41.016,-39.551,-37.109,0.000,0.000,0.000,0.000
621717.564,-52.246,-48.828,-52.246,-69.336,0.000,0.000,0.000,0.000
621717.568,-57.129,-30.273,-32.227,-47.852,0.000,0.000,0.000,0.000
621717.572,-30.762,-35.156,-33.203,-19.043,0.000,0.000,0.000,0.000
621717.576,-37.598,-32.227,-28.809,-65.430,0.000,0.000,0.000,0.000
621717.580,-50.293,-39.062,-36.133,-81.055,0.000,0.000,0.000,0.000
621717.584,-27.832,-25.879,-19.043,-33.691,0.000,0.000,0.000,0.000
621717.588,-16.602,-13.672,-6.348,-10.254,0.000,0.000,0.000,0.000
621717.592,-23.926,-28.809,-23.926,5.859,0.000,0.000,0.000,0.000
621717.596,-35.156,-61.035,-56.641,-62.500,0.000,0.000,0.000,0.000
621717.599,-33.691,-62.988,-57.617,-62.988,0.000,0.000,0.000,0.000
621717.603,-31.738,-7.324,-0.977,0.000,0.000,0.000,0.000,0.000
621717.607,-24.902,0.000,2.930,-37.109,0.000,0.000,0.000,0.000
621717.611,-40.039,-46.875,-45.898,-99.609,0.000,0.000,0.000,0.000
621717.615,-59.082,-55.664,-56.152,-67.383,0.000,0.000,0.000,0.000
621717.619,-44.922,-24.414,-20.996,2.441,0.000,0.000,0.000,0.000
621717.623,-29.785,-20.508,-15.625,-11.230,0.000,0.000,0.000,0.000
621717.627,-24.414,-50.293,-49.316,-77.637,0.000,0.000,0.000,0.000
621717.631,-32.715,-58.105,-55.176,-44.434,0.000,0.000,0.000,0.000
621717.635,-29.297,-28.320,-21.973,12.695,0.000,0.000,0.000,0.000
621717.639,-10.254,-13.184,-8.789,3.906,0.000,0.000,0.000,0.000
621717.643,-4.883,-31.250,-29.785,-53.711,0.000,0.000,0.000,0.000
621717.646,-34.180,-51.758,-48.828,-99.121,0.000,0.000,0.000,0.000
621717.650,-31.250,-28.320,-26.855,-57.129,0.000,0.000,0.000,0.000
621717.654,-16.113,-6.348,-0.977,-6.348,0.000,0.000,0.000,0.000
621717.658,-19.531,-34.668,-31.250,-27.832,0.000,0.000,0.000,0.000
621717.662,-41.016,-64.453,-64.941,-67.871,0.000,0.000,0.000,0.000
621717.666,-41.992,-41.992,-41.504,-44.434,0.000,0.000,0.000,0.000
621717.670,-11.230,-10.742,-8.789,35.645,0.000,0.000,0.000,0.000
621717.674,1.953,-20.996,-18.555,13.184,0.000,0.000,0.000,0.000
621717.678,-6.348,-39.551,-41.016,-62.500,0.000,0.000,0.000,0.000
621717.682,-37.109,-45.410,-44.922,-57.129,0.000,0.000,0.000,0.000
621717.686,-41.992,-17.090,-14.160,-42.480,0.000,0.000,0.000,0.000
621717.690,-33.691,-13.184,-13.184,-22.461,0.000,0.000,0.000,0.000
621717.694,-25.879,-42.969,-45.410,-50.293,0.000,0.000,0.000,0.000
621717.697,-38.086,-54.199,-58.594,-61.523,0.000,0.000,0.000,0.000
621717.701,-49.316,-27.832,-29.297,-22.949,0.000,0.000,0.000,0.000
621717.705,-25.391,-9.766,-11.719,2.930,0.000,0.000,0.000,0.000
621717.709,-22.949,-30.273,-32.715,-14.648,0.000,0.000,0.000,0.000
621717.713,-46.875,-53.711,-53.223,-44.922,0.000,0.000,0.000,0.000
621717.717,-56.152,-39.551,-38.574,-62.012,0.000,0.000,0.000,0.000
621717.721,-36.621,-10.254,-9.277,-23.926,0.000,0.000,0.000,0.000
621717.725,-19.043,-23.926,-24.414,-33.691,0.000,0.000,0.000,0.000
621717.729,-37.598,-51.270,-49.805,-79.102,0.000,0.000,0.000,0.000
621717.733,-49.805,-46.387,-43.945,-50.781,0.000,0.000,0.000,0.000
621717.737,-40.039,-22.949,-20.996,-6.348,0.000,0.000,0.000,0.000
621717.741,-32.715,-19.531,-19.531,-19.531,0.000,0.000,0.000,0.000
621717.744,-17.578,-40.527,-44.434,-73.242,0.000,0.000,0.000,0.000
621717.748,-50.293,-52.246,-56.641,-71.289,0.000,0.000,0.000,0.000
621717.752,-48.828,-14.648,-20.020,1.953,0.000,0.000,0.000,0.000
621717.756,-25.879,3.906,-5.859,16.602,0.000,0.000,0.000,0.000
621717.760,-27.832,-25.879,-34.180,-51.270,0.000,0.000,0.000,0.000
621717.764,-29.297,-46.875,-55.176,-64.453,0.000,0.000,0.000,0.000
621717.768,-28.320,-22.461,-22.949,-22.949,0.000,0.000,0.000,0.000
621717.772,-10.254,7.324,10.254,23.926,0.000,0.000,0.000,0.000
621717.776,-9.277,-21.484,-22.461,-18.555,0.000,0.000,0.000,0.000
621717.780,-42.480,-51.758,-54.688,-83.984,0.000,0.000,0.000,0.000
621717.784,-49.316,-32.715,-37.598,-60.547,0.000,0.000,0.000,0.000
621717.788,-18.066,-4.883,-8.301,1.465,0.000,0.000,0.000,0.000
621717.791,-18.555,-22.949,-28.320,-12.207,0.000,0.000,0.000,0.000
621717.795,-25.879,-44.434,-52.734,-38.086,0.000,0.000,0.000,0.000
621717.799,-24.414,-20.020,-24.414,-22.461,0.000,0.000,0.000,0.000
621717.803,-6.348,0.977,-1.953,-3.418,0.000,0.000,0.000,0.000
621717.807,6.836,-12.695,-18.555,-17.578,0.000,0.000,0.000,0.000
621717.811,-26.855,-35.645,-40.039,-24.414,0.000,0.000,0.000,0.000
621717.815,-34.180,-25.879,-26.367,-19.043,0.000,0.000,0.000,0.000
621717.819,-17.090,3.418,1.953,-3.906,0.000,0.000,0.000,0.000
621717.823,7.812,-0.488,-5.859,11.719,0.000,0.000,0.000,0.000
621717.827,-10.254,-19.043,-26.367,-62.988,0.000,0.000,0.000,0.000
621717.831,-41.992,-25.879,-30.273,-61.523,0.000,0.000,0.000,0.000
621717.835,-20.996,-14.648,-14.648,13.184,0.000,0.000,0.000,0.000
621717.839,2.930,-10.742,-13.184,19.531,0.000,0.000,0.000,0.000
621717.842,-16.113,-33.691,-41.016,-17.578,0.000,0.000,0.000,0.000
621717.846,-32.227,-39.062,-48.340,-38.086,0.000,0.000,0.000,0.000
621717.850,-36.621,-27.832,-33.203,-9.766,0.000,0.000,0.000,0.000
621717.854,-32.715,-13.184,-14.160,-0.488,0.000,0.000,0.000,0.000
621717.858,-17.578,-13.672,-15.625,-67.871,0.000,0.000,0.000,0.000
621717.862,-44.922,-36.133,-40.039,-77.637,0.000,0.000,0.000,0.000
621717.866,-47.852,-27.832,-29.785,-41.992,0.000,0.000,0.000,0.000
621717.870,-22.949,-18.066,-18.555,13.672,0.000,0.000,0.000,0.000
621717.874,-26.855,-31.738,-30.762,26.367,0.000,0.000,0.000,0.000
621717.878,-50.781,-42.969,-42.480,-47.363,0.000,0.000,0.000,0.000
621717.882,-58.594,-32.715,-34.180,-70.801,0.000,0.000,0.000,0.000
621717.886,-31.738,-13.672,-13.672,-22.461,0.000,0.000,0.000,0.000
621717.889,-11.230,-17.578,-18.555,-15.625,0.000,0.000,0.000,0.000
621717.893,-38.574,-25.879,-22.461,-44.434,0.000,0.000,0.000,0.000
621717.897,-56.152,-12.207,-4.395,-28.809,0.000,0.000,0.000,0.000
621717.901,-28.320,-0.977,9.277,10.254,0.000,0.000,0.000,0.000
621717.905,-18.555,-26.855,-15.137,-9.766,0.000,0.000,0.000,0.000
621717.909,-36.621,-60.547,-53.711,-38.574,0.000,0.000,0.000,0.000
621717.913,-49.316,-47.363,-41.504,-46.875,0.000,0.000,0.000,0.000
621717.917,-37.598,-10.742,-2.441,-17.578,0.000,0.000,0.000,0.000
621717.921,-21.973,-23.438,-12.695,7.324,0.000,0.000,0.000,0.000
621717.925,-21.973,-56.152,-46.875,-60.547,0.000,0.000,0.000,0.000
621717.929,-41.016,-50.781,-44.434,-62.012,0.000,0.000,0.000,0.000
621717.933,-49.805,-12.695,-6.348,-21.973,0.000,0.000,0.000,0.000
621717.936,-33.203,-3.418,2.441,-14.160,0.000,0.000,0.000,0.000
621717.940,-17.090,-23.438,-24.902,-51.758,0.000,0.000,0.000,0.000
621717.944,-31.250,-34.668,-38.574,-37.598,0.000,0.000,0.000,0.000
621717.948,-43.457,-12.207,-8.789,15.625,0.000,0.000,0.000,0.000
621717.952,-19.531,6.836,8.301,3.418,0.000,0.000,0.000,0.000
621717.956,-5.859,-26.855,-27.832,-14.648,0.000,0.000,0.000,0.000
621717.960,-49.316,-60.059,-58.594,-34.668,0.000,0.000,0.000,0.000
621717.964,-53.223,-23.926,-24.902,-23.438,0.000,0.000,0.000,0.000
621717.968,-19.043,12.695,14.160,5.371,0.000,0.000,0.000,0.000
621717.972,-5.859,-3.418,-1.953,-29.297,0.000,0.000,0.000,0.000
621717.976,-25.391,-37.598,-41.504,-62.988,0.000,0.000,0.000,0.000
621717.980,-61.523,-43.945,-48.340,-55.176,0.000,0.000,0.000,0.000
621717.984,-48.828,-16.602,-20.996,6.836,0.000,0.000,0.000,0.000
621717.987,-13.672,-12.207,-15.137,13.184,0.000,0.000,0.000,0.000
621717.991,1.465,-26.855,-31.738,-73.730,0.000,0.000,0.000,0.000
621717.995,-30.273,-31.738,-38.574,-59.082,0.000,0.000,0.000,0.000
621717.999,-47.363,-19.531,-20.996,1.953,0.000,0.000,0.000,0.000
621718.003,-22.949,-14.648,-18.066,21.484,0.000,0.000,0.000,0.000
621718.007,-12.695,-35.645,-44.434,-19.531,0.000,0.000,0.000,0.000
621718.011,-39.551,-53.223,-59.570,-77.148,0.000,0.000,0.000,0.000
621718.015,-54.688,-32.227,-35.645,-68.359,0.000,0.000,0.000,0.000
621718.019,-28.320,-15.137,-17.090,-14.648,0.000,0.000,0.000,0.000
621718.023,-21.484,-34.180,-38.574,-31.250,0.000,0.000,0.000,0.000
621718.027,-40.527,-52.734,-54.199,-80.078,0.000,0.000,0.000,0.000
621718.031,-31.250,-28.809,-29.297,-19.531,0.000,0.000,0.000,0.000
621718.034,-8.301,-12.695,-14.648,25.879,0.000,0.000,0.000,0.000
621718.038,-7.812,-38.574,-42.480,-54.199,0.000,0.000,0.000,0.000
621718.042,-28.320,-62.012,-66.895,-77.637,0.000,0.000,0.000,0.000
621718.046,-29.297,-35.645,-38.574,-45.898,0.000,0.000,0.000,0.000
621718.050,-10.254,-5.859,-13.672,2.930,0.000,0.000,0.000,0.000
621718.054,-5.859,-34.180,-43.457,-20.508,0.000,0.000,0.000,0.000
621718.058,-19.043,-60.059,-64.941,-97.656,0.000,0.000,0.000,0.000
621718.062,-27.344,-33.691,-32.227,-62.500,0.000,0.000,0.000,0.000
621718.066,-19.531,-7.812,-5.859,-27.344,0.000,0.000,0.000,0.000
621718.070,-14.160,-26.855,-29.785,-56.641,0.000,0.000,0.000,0.000
621718.074,-27.832,-47.852,-51.270,-57.617,0.000,0.000,0.000,0.000
621718.078,-39.062,-28.320,-26.855,-41.504,0.000,0.000,0.000,0.000
621718.081,-36.621,-12.695,-2.441,-10.254,0.000,0.000,0.000,0.000
621718.085,-35.156,-35.156,-28.320,-36.133,0.000,0.000,0.000,0.000
621718.089,-42.969,-59.570,-60.547,-65.430,0.000,0.000,0.000,0.000
621718.093,-50.293,-41.504,-43.945,-49.316,0.000,0.000,0.000,0.000
621718.097,-41.992,-14.160,-12.207,-1.465,0.000,0.000,0.000,0.000
621718.101,-22.461,-26.855,-22.461,-5.371,0.000,0.000,0.000,0.000
621718.105,-11.719,-40.527,-32.715,-58.594,0.000,0.000,0.000,0.000
621718.109,-36.621,-44.434,-26.367,-59.082,0.000,0.000,0.000,0.000
621718.113,-33.203,-18.555,-5.371,-39.551,0.000,0.000,0.000,0.000
621718.117,-0.488,-3.906,0.000,11.230,0.000,0.000,0.000,0.000
621718.121,-12.695,-28.809,-25.391,-8.301,0.000,0.000,0.000,0.000
621718.125,-41.016,-41.016,-38.574,-59.570,0.000,0.000,0.000,0.000
621718.129,-29.297,-18.555,-20.508,-19.531,0.000,0.000,0.000,0.000
621718.132,-11.719,-13.672,-17.578,22.461,0.000,0.000,0.000,0.000
621718.136,-6.348,-35.156,-40.039,-18.066,0.000,0.000,0.000,0.000
621718.140,-30.273,-46.875,-52.734,-50.293,0.000,0.000,0.000,0.000
621718.144,-38.574,-28.320,-30.273,-55.664,0.000,0.000,0.000,0.000
621718.148,-10.254,-9.766,-12.695,-21.973,0.000,0.000,0.000,0.000
621718.152,-0.977,-26.855,-29.785,-11.230,0.000,0.000,0.000,0.000
621718.156,-25.879,-46.387,-46.387,-37.598,0.000,0.000,0.000,0.000
621718.160,-41.016,-39.551,-42.480,-34.180,0.000,0.000,0.000,0.000
621718.164,-26.367,-8.789,-11.230,-15.137,0.000,0.000,0.000,0.000
621718.168,-14.648,-15.137,-14.648,-2.930,0.000,0.000,0.000,0.000
621718.172,-8.301,-34.668,-32.715,-38.086,0.000,0.000,0.000,0.000
621718.176,-23.438,-42.480,-38.086,-27.344,0.000,0.000,0.000,0.000
621718.179,-16.113,-28.320,-23.438,-20.508,0.000,0.000,0.000,0.000
621718.183,4.883,-7.324,-6.348,-25.391,0.000,0.000,0.000,0.000
621718.187,0.977,-23.438,-23.926,-60.059,0.000,0.000,0.000,0.000
621718.191,-13.184,-48.340,-46.875,-75.195,0.000,0.000,0.000,0.000
621718.195,-46.387,-36.621,-35.156,-35.156,0.000,0.000,0.000,0.000
621718.199,-26.367,2.441,2.441,17.578,0.000,0.000,0.000,0.000
621718.203,-4.395,-6.348,-6.348,4.395,0.000,0.000,0.000,0.000
621718.207,-18.555,-35.156,-39.551,-48.828,0.000,0.000,0.000,0.000
621718.211,-25.879,-25.391,-30.762,-49.316,0.000,0.000,0.000,0.000
621718.215,-13.672,0.000,-0.488,34.180,0.000,0.000,0.000,0.000
621718.219,-2.930,-13.184,-14.648,11.230,0.000,0.000,0.000,0.000
621718.223,-27.344,-45.410,-50.293,-96.680,0.000,0.000,0.000,0.000
621718.226,-35.156,-21.973,-26.855,-58.594,0.000,0.000,0.000,0.000
621718.230,-7.324,10.254,4.883,18.555,0.000,0.000,0.000,0.000
621718.234,-4.395,-8.301,-13.672,-11.230,0.000,0.000,0.000,0.000
621718.238,-18.066,-16.113,-20.996,-57.129,0.000,0.000,0.000,0.000
621718.242,-13.672,-0.488,-6.348,-8.789,0.000,0.000,0.000,0.000
621718.246,-12.695,7.812,2.930,38.086,0.000,0.000,0.000,0.000
621718.250,-4.883,-6.348,-14.648,2.930,0.000,0.000,0.000,0.000
621718.254,-8.789,-29.785,-39.551,-31.250,0.000,0.000,0.000,0.000
621718.258,-24.902,-16.113,-20.996,-23.926,0.000,0.000,0.000,0.000
621718.262,-12.695,2.930,-3.906,-24.414,0.000,0.000,0.000,0.000
621718.266,-7.324,-6.836,-14.648,-17.578,0.000,0.000,0.000,0.000
621718.270,-14.160,-20.508,-31.250,-18.066,0.000,0.000,0.000,0.000
621718.274,-19.531,-28.320,-38.574,-27.832,0.000,0.000,0.000,0.000
621718.277,-11.719,-7.324,-15.137,-15.625,0.000,0.000,0.000,0.000
621718.281,0.977,-1.953,-12.207,19.531,0.000,0.000,0.000,0.000
621718.285,-7.324,-26.855,-36.133,-11.230,0.000,0.000,0.000,0.000
621718.289,-30.762,-43.945,-52.734,-29.297,0.000,0.000,0.000,0.000
621718.293,-58.105,-33.203,-40.527,-34.180,0.000,0.000,0.000,0.000
621718.297,-36.621,-8.789,-16.113,-43.457,0.000,0.000,0.000,0.000
621718.301,-6.836,-16.602,-28.320,-61.035,0.000,0.000,0.000,0.000
621718.305,-18.555,-35.156,-46.387,-65.430,0.000,0.000,0.000,0.000
621718.309,-27.344,-21.973,-26.855,-12.207,0.000,0.000,0.000,0.000
621718.313,-5.371,-1.953,-5.859,3.418,0.000,0.000,0.000,0.000
621718.317,6.348,-10.742,-14.648,-3.906,0.000,0.000,0.000,0.000
621718.321,-35.645,-38.086,-40.039,-39.062,0.000,0.000,0.000,0.000
621718.324,-43.457,-31.738,-36.133,-47.852,0.000,0.000,0.000,0.000
621718.328,-12.207,6.348,3.418,8.301,0.000,0.000,0.000,0.000
621718.332,14.160,8.789,6.836,31.738,0.000,0.000,0.000,0.000
621718.336,22.461,-10.254,-16.113,-25.391,0.000,0.000,0.000,0.000
621718.340,-12.695,-33.203,-39.062,-62.988,0.000,0.000,0.000,0.000
621718.344,-23.926,-24.902,-24.414,-12.695,0.000,0.000,0.000,0.000
621718.348,0.977,0.488,-0.488,33.203,0.000,0.000,0.000,0.000
621718.352,0.000,-20.996,-18.555,-2.441,0.000,0.000,0.000,0.000
621718.356,-25.391,-45.898,-39.062,-51.758,0.000,0.000,0.000,0.000
621718.360,-46.387,-31.738,-30.762,-43.457,0.000,0.000,0.000,0.000
621718.364,-34.668,-13.672,-12.207,-2.441,0.000,0.000,0.000,0.000
621718.368,-14.648,-28.809,-27.832,-9.277,0.000,0.000,0.000,0.000
621718.371,-32.227,-59.570,-58.594,-39.551,0.000,0.000,0.000,0.000
621718.375,-43.457,-43.945,-44.434,-48.828,0.000,0.000,0.000,0.000
621718.379,-15.137,-1.953,-9.277,-12.695,0.000,0.000,0.000,0.000
621718.383,-7.812,-11.230,-10.742,10.254,0.000,0.000,0.000,0.000
621718.387,-35.156,-46.387,-50.293,-44.922,0.000,0.000,0.000,0.000
621718.391,-48.828,-45.898,-51.270,-51.270,0.000,0.000,0.000,0.000
621718.395,-34.180,-6.836,-7.324,-4.883,0.000,0.000,0.000,0.000
621718.399,-20.020,-4.883,-5.859,19.043,0.000,0.000,0.000,0.000
621718.403,-16.113,-27.344,-36.133,-32.715,0.000,0.000,0.000,0.000
621718.407,-22.461,-37.598,-54.688,-40.527,0.000,0.000,0.000,0.000
621718.411,-21.973,-19.531,-25.879,-0.977,0.000,0.000,0.000,0.000
621718.415,-30.273,-4.395,-7.812,-16.602,0.000,0.000,0.000,0.000
621718.419,-16.113,-19.531,-25.391,-9.766,0.000,0.000,0.000,0.000
621718.422,-4.395,-32.715,-33.691,-14.648,0.000,0.000,0.000,0.000
621718.426,-20.508,-17.578,-16.602,-15.137,0.000,0.000,0.000,0.000
621718.430,-10.742,7.812,11.719,18.066,0.000,0.000,0.000,0.000
621718.434,17.090,-0.488,-6.348,-1.953,0.000,0.000,0.000,0.000
621718.438,5.371,-18.066,-28.809,-20.508,0.000,0.000,0.000,0.000
621718.442,-15.625,-8.301,-14.648,-14.648,0.000,0.000,0.000,0.000
621718.446,-5.371,5.859,-0.488,7.324,0.000,0.000,0.000,0.000
621718.450,14.160,9.766,1.953,23.438,0.000,0.000,0.000,0.000
621718.454,6.348,-12.695,-20.996,-45.410,0.000,0.000,0.000,0.000
621718.458,-24.414,-20.020,-28.320,-29.297,0.000,0.000,0.000,0.000
621718.462,-5.371,1.953,-1.465,33.203,0.000,0.000,0.000,0.000
621718.466,17.090,0.977,2.930,33.691,0.000,0.000,0.000,0.000
621718.469,20.020,-5.371,-2.441,1.465,0.000,0.000,0.000,0.000
621718.473,-8.789,-17.578,-17.578,-21.484,0.000,0.000,0.000,0.000
621718.477,-28.809,-13.184,-19.043,-20.996,0.000,0.000,0.000,0.000
621718.481,16.113,19.531,11.719,18.555,0.000,0.000,0.000,0.000
621718.485,31.738,4.883,0.488,20.996,0.000,0.000,0.000,0.000
621718.489,-11.719,-37.598,-34.180,-33.691,0.000,0.000,0.000,0.000
621718.493,-22.949,-28.809,-20.996,-35.645,0.000,0.000,0.000,0.000
621718.497,4.883,-1.465,1.465,25.879,0.000,0.000,0.000,0.000
621718.501,10.742,-9.277,-8.789,20.996,0.000,0.000,0.000,0.000
621718.505,-4.395,-31.250,-31.250,-27.344,0.000,0.000,0.000,0.000
621718.509,-25.391,-35.156,-33.203,-31.738,0.000,0.000,0.000,0.000
621718.513,-16.113,-4.883,3.906,0.977,0.000,0.000,0.000,0.000
621718.516,30.762,10.254,15.137,42.480,0.000,0.000,0.000,0.000
621718.520,38.086,-24.902,-25.391,-15.137,0.000,0.000,0.000,0.000
621718.524,-4.883,-45.898,-43.945,-32.227,0.000,0.000,0.000,0.000
621718.528,-29.785,-11.230,-10.254,6.348,0.000,0.000,0.000,0.000
621718.532,-22.461,7.324,4.883,13.672,0.000,0.000,0.000,0.000
621718.536,-20.020,-32.715,-34.668,-16.113,0.000,0.000,0.000,0.000
621718.540,-26.367,-40.527,-48.828,-38.574,0.000,0.000,0.000,0.000
621718.544,-17.090,0.488,-10.254,10.254,0.000,0.000,0.000,0.000
621718.548,-4.395,13.184,10.742,41.992,0.000,0.000,0.000,0.000
621718.552,9.277,-6.836,-10.254,-5.859,0.000,0.000,0.000,0.000
621718.556,-4.883,-27.344,-36.133,-58.105,0.000,0.000,0.000,0.000
621718.560,-19.531,-25.391,-28.809,-27.832,0.000,0.000,0.000,0.000
621718.564,-6.836,2.441,5.371,44.434,0.000,0.000,0.000,0.000
621718.567,7.324,-1.465,0.000,26.367,0.000,0.000,0.000,0.000
621718.571,-3.418,-28.320,-26.367,-37.598,0.000,0.000,0.000,0.000
621718.575,-4.883,-18.066,-15.625,-15.625,0.000,0.000,0.000,0.000
621718.579,14.648,14.648,19.531,20.508,0.000,0.000,0.000,0.000
621718.583,15.137,12.695,15.625,36.621,0.000,0.000,0.000,0.000
621718.587,-5.371,-13.672,-9.766,-10.742,0.000,0.000,0.000,0.000
621718.591,-22.461,-29.297,-27.344,-54.688,0.000,0.000,0.000,0.000
621718.595,-9.277,-3.418,-3.418,-7.324,0.000,0.000,0.000,0.000
621718.599,16.602,10.254,13.184,46.387,0.000,0.000,0.000,0.000
621718.603,27.344,-16.602,-15.137,6.836,0.000,0.000,0.000,0.000
621718.607,12.207,-31.250,-32.227,-28.320,0.000,0.000,0.000,0.000
621718.611,3.418,-21.484,-17.578,-3.418,0.000,0.000,0.000,0.000
621718.614,11.719,-6.348,3.418,25.879,0.000,0.000,0.000,0.000
621718.618,14.648,-20.508,-15.625,-2.441,0.000,0.000,0.000,0.000
621718.622,-4.883,-51.758,-50.293,-38.574,0.000,0.000,0.000,0.000
621718.626,-32.227,-41.992,-37.598,-38.574,0.000,0.000,0.000,0.000
621718.630,-16.113,-4.883,0.488,-5.371,0.000,0.000,0.000,0.000
621718.634,8.789,-16.113,-9.277,15.625,0.000,0.000,0.000,0.000
621718.638,8.301,-43.457,-40.527,-14.160,0.000,0.000,0.000,0.000
621718.642,0.977,-41.504,-41.504,-17.578,0.000,2.000,1.000,90.000
621718.646,-12.207,-15.625,-10.742,12.695,0.000,0.000,0.000,0.000
621718.650,-6.836,-9.277,-0.977,26.367,0.000,0.000,0.000,0.000
621718.654,4.395,-29.297,-22.949,-37.109,0.000,0.000,0.000,0.000
621718.658,-8.301,-56.152,-49.316,-60.059,0.000,0.000,0.000,0.000
621718.661,-13.184,-39.062,-34.668,-6.836,0.000,0.000,0.000,0.000
621718.665,6.348,-3.906,-6.836,10.254,0.000,0.000,0.000,0.000
621718.669,17.090,-12.207,-20.508,-29.785,0.000,0.000,0.000,0.000
621718.673,-17.578,-40.527,-51.270,-40.527,0.000,0.000,0.000,0.000
