timestamps,TP9,AF7,AF8,TP10,Right AUX,Frequency,Contrast,Orientation
489219.242,-20.020,38.574,26.367,11.719,54.688,0.000,0.000,0.000
489219.246,95.215,37.109,21.484,34.668,41.016,0.000,0.000,0.000
489219.250,96.191,39.551,21.973,28.320,27.344,0.000,0.000,0.000
489219.254,-25.391,41.016,21.973,-1.465,24.414,0.000,0.000,0.000
489219.258,-47.852,29.785,21.973,-5.371,20.508,0.000,0.000,0.000
489219.262,75.195,32.715,24.902,31.738,18.555,0.000,0.000,0.000
489219.266,122.559,39.551,22.949,44.922,13.672,0.000,0.000,0.000
489219.270,14.160,32.715,24.414,17.090,11.719,0.000,0.000,0.000
489219.273,-49.805,36.133,26.367,-2.441,10.742,0.000,0.000,0.000
489219.277,38.086,37.598,21.973,12.695,0.000,0.000,0.000,0.000
489219.281,116.211,31.738,23.438,31.250,-4.883,0.000,0.000,0.000
489219.285,45.410,31.738,25.391,10.742,-1.953,0.000,0.000,0.000
489219.289,-61.035,29.785,22.949,-17.090,-1.465,0.000,0.000,0.000
489219.293,-4.883,29.297,22.461,-4.395,-1.953,0.000,0.000,0.000
489219.297,101.562,34.180,22.461,30.762,5.371,0.000,0.000,0.000
489219.301,69.824,32.227,22.461,20.508,19.043,0.000,0.000,0.000
489219.305,-46.387,31.250,23.438,-10.254,35.156,0.000,0.000,0.000
489219.309,-25.391,35.645,23.926,0.488,31.738,0.000,0.000,0.000
489219.313,93.750,36.621,24.414,34.180,29.785,0.000,0.000,0.000
489219.316,108.398,33.691,24.414,41.016,41.504,0.000,0.000,0.000
489219.320,-19.043,29.297,22.461,14.648,35.645,0.000,0.000,0.000
489219.324,-53.223,26.855,22.461,1.465,26.855,0.000,0.000,0.000
489219.328,64.941,27.344,25.879,28.320,27.344,0.000,0.000,0.000
489219.332,110.840,29.297,26.855,40.527,23.926,0.000,0.000,0.000
489219.336,6.348,27.832,28.320,8.789,21.484,0.000,0.000,0.000
489219.340,-66.895,26.367,33.691,-1.465,17.090,0.000,0.000,0.000
489219.344,23.438,27.832,31.250,24.414,17.578,0.000,0.000,0.000
489219.348,116.211,34.180,30.273,48.828,28.320,0.000,0.000,0.000
489219.352,46.875,27.832,29.785,34.180,20.996,0.000,0.000,0.000
489219.355,-64.453,16.113,24.414,4.883,10.742,0.000,0.000,0.000
489219.359,-10.742,19.531,21.973,17.578,13.184,0.000,0.000,0.000
489219.363,102.051,20.996,22.949,48.340,14.160,0.000,0.000,0.000
489219.367,76.172,22.949,22.949,37.109,5.859,0.000,0.000,0.000
489219.371,-45.410,31.738,29.297,14.160,10.254,0.000,0.000,0.000
489219.375,-38.086,26.367,28.320,20.996,20.508,0.000,0.000,0.000
489219.379,75.195,20.020,22.461,44.922,19.531,0.000,0.000,0.000
489219.383,96.680,27.832,26.855,45.898,16.602,0.000,0.000,0.000
489219.387,-21.484,27.344,32.715,21.973,17.578,0.000,0.000,0.000
489219.391,-69.336,24.414,29.785,9.277,22.461,0.000,0.000,0.000
489219.395,41.016,27.832,21.484,26.367,20.508,0.000,0.000,0.000
489219.398,112.793,28.320,23.438,44.434,25.879,0.000,0.000,0.000
489219.402,27.832,34.668,27.832,31.738,33.203,0.000,0.000,0.000
489219.406,-59.570,36.133,25.879,10.254,38.574,0.000,0.000,0.000
489219.410,20.020,35.156,24.414,29.785,42.969,0.000,0.000,0.000
489219.414,114.258,34.180,24.902,50.293,35.156,0.000,0.000,0.000
489219.418,60.059,34.668,23.926,27.344,33.203,0.000,0.000,0.000
489219.422,-53.223,35.156,21.973,3.418,34.668,0.000,0.000,0.000
489219.426,-18.555,32.227,20.996,15.625,39.551,0.000,0.000,0.000
489219.430,96.680,38.574,20.996,44.434,45.898,0.000,0.000,0.000
489219.434,87.891,36.133,22.949,36.621,33.691,0.000,0.000,0.000
489219.438,-36.621,33.691,23.438,9.277,19.531,0.000,0.000,0.000
489219.441,-39.551,46.875,24.902,15.625,25.391,0.000,0.000,0.000
489219.445,76.660,40.039,24.902,38.574,25.391,0.000,0.000,0.000
489219.449,108.398,28.320,20.508,35.156,11.719,0.000,0.000,0.000
489219.453,-3.418,29.785,23.438,9.277,6.348,0.000,0.000,0.000
489219.457,-59.570,28.320,26.855,-5.859,7.324,0.000,0.000,0.000
489219.461,42.969,33.203,25.391,18.066,4.883,0.000,0.000,0.000
489219.465,113.770,33.203,25.391,37.598,2.930,0.000,0.000,0.000
489219.469,27.832,35.645,25.391,16.602,5.371,0.000,0.000,0.000
489219.473,-63.477,38.574,25.391,-2.930,13.184,0.000,0.000,0.000
489219.477,7.812,37.109,26.367,15.625,7.324,0.000,0.000,0.000
489219.480,108.398,36.133,27.832,38.086,1.465,0.000,0.000,0.000
489219.484,64.941,36.133,28.320,25.879,9.277,0.000,0.000,0.000
489219.488,-54.199,39.062,30.273,0.000,13.672,0.000,0.000,0.000
489219.492,-24.414,36.133,29.785,9.277,18.555,0.000,0.000,0.000
489219.496,90.332,29.785,29.785,41.504,21.484,0.000,0.000,0.000
489219.500,87.402,31.738,31.738,35.156,24.902,0.000,0.000,0.000
489219.504,-35.645,32.227,31.250,8.789,24.414,0.000,0.000,0.000
489219.508,-43.945,39.551,30.273,15.137,33.691,0.000,0.000,0.000
489219.512,74.707,41.016,27.344,41.016,44.922,0.000,0.000,0.000
489219.516,125.000,38.574,23.926,48.340,50.293,0.000,0.000,0.000
489219.520,20.996,41.992,26.855,24.414,53.223,0.000,0.000,0.000
489219.523,-58.594,37.598,31.250,3.906,41.504,0.000,0.000,0.000
489219.527,30.273,33.691,33.203,26.855,31.250,0.000,0.000,0.000
489219.531,112.305,34.668,31.250,50.293,32.715,0.000,0.000,0.000
489219.535,39.551,36.621,30.273,27.344,28.320,0.000,0.000,0.000
489219.539,-63.965,37.598,30.273,6.348,27.832,0.000,0.000,0.000
489219.543,-0.488,44.922,32.227,20.020,33.691,0.000,0.000,0.000
489219.547,106.445,44.434,30.273,40.527,15.625,0.000,0.000,0.000
489219.551,73.730,33.203,23.926,24.902,-7.812,0.000,0.000,0.000
489219.555,-48.340,35.156,27.344,3.418,-5.371,0.000,0.000,0.000
489219.559,-35.645,32.715,29.297,7.812,5.859,0.000,0.000,0.000
489219.563,83.984,33.203,28.320,32.715,4.883,0.000,0.000,0.000
489219.566,97.656,34.668,30.762,44.434,-0.488,0.000,0.000,0.000
489219.570,-26.855,30.762,31.250,24.902,4.883,0.000,0.000,0.000
489219.574,-61.035,27.832,33.691,21.484,15.137,0.000,0.000,0.000
489219.578,53.223,23.926,36.133,50.293,27.832,0.000,0.000,0.000
489219.582,112.793,25.879,33.691,66.895,31.738,0.000,0.000,0.000
489219.586,12.207,26.855,32.715,40.527,26.855,0.000,0.000,0.000
489219.590,-62.988,25.879,31.250,12.695,32.227,0.000,0.000,0.000
489219.594,24.414,26.855,25.879,30.273,40.039,0.000,0.000,0.000
489219.598,112.305,29.297,29.785,49.805,46.875,0.000,0.000,0.000
489219.602,48.828,31.738,30.273,34.180,44.434,0.000,0.000,0.000
489219.605,-60.547,34.668,26.367,8.789,32.227,0.000,0.000,0.000
489219.609,-6.348,38.086,24.414,20.996,33.203,0.000,0.000,0.000
489219.613,106.445,33.203,23.926,50.293,31.250,0.000,0.000,0.000
489219.617,79.102,32.227,26.367,37.109,25.879,0.000,0.000,0.000
489219.621,-47.852,33.203,26.855,7.324,25.391,0.000,0.000,0.000
489219.625,-41.504,26.855,25.879,9.277,16.602,0.000,0.000,0.000
489219.629,74.707,22.949,29.785,38.086,14.648,0.000,0.000,0.000
489219.633,102.539,30.273,37.598,50.293,18.555,0.000,0.000,0.000
489219.637,-10.254,36.621,40.039,26.855,16.113,0.000,0.000,0.000
489219.641,-64.941,26.855,34.180,6.836,9.766,0.000,0.000,0.000
489219.645,39.062,24.414,30.273,34.180,7.812,0.000,0.000,0.000
489219.648,108.398,27.832,26.367,46.387,1.465,0.000,0.000,0.000
489219.652,13.184,28.809,23.438,14.648,-0.488,0.000,0.000,0.000
489219.656,-75.684,24.902,25.391,1.465,9.277,0.000,0.000,0.000
489219.660,3.418,18.555,29.297,26.855,12.695,0.000,0.000,0.000
489219.664,101.562,24.414,32.227,49.805,13.184,0.000,0.000,0.000
489219.668,46.387,30.762,31.250,33.691,20.508,0.000,0.000,0.000
489219.672,-74.707,32.715,35.156,10.742,29.785,0.000,0.000,0.000
489219.676,-34.180,33.691,36.621,15.625,18.555,0.000,0.000,0.000
489219.680,79.590,23.926,26.855,37.109,8.789,0.000,0.000,0.000
489219.684,69.336,20.508,29.297,40.039,19.531,0.000,0.000,0.000
489219.687,-53.711,27.832,31.250,18.555,28.809,0.000,0.000,0.000
489219.691,-58.594,26.855,29.297,14.160,32.715,0.000,0.000,0.000
489219.695,62.988,25.879,30.273,40.039,30.273,0.000,0.000,0.000
489219.699,100.098,28.320,33.203,50.293,27.832,0.000,0.000,0.000
489219.703,-3.906,34.180,36.621,29.785,30.273,0.000,0.000,0.000
489219.707,-54.199,34.180,33.691,15.137,32.227,0.000,0.000,0.000
489219.711,45.410,30.273,34.668,36.133,29.297,0.000,0.000,0.000
489219.715,121.582,31.250,35.156,48.340,33.203,0.000,0.000,0.000
489219.719,41.016,36.133,31.738,18.066,44.434,0.000,0.000,0.000
489219.723,-55.176,41.504,31.250,-0.488,40.527,0.000,0.000,0.000
489219.727,14.160,37.598,23.926,17.090,31.250,0.000,0.000,0.000
489219.730,111.816,32.715,19.043,37.598,25.391,0.000,0.000,0.000
489219.734,65.430,40.527,24.902,20.508,17.090,0.000,0.000,0.000
489219.738,-57.129,35.645,25.391,-14.160,10.742,0.000,0.000,0.000
489219.742,-26.367,28.320,23.438,-12.207,9.766,0.000,0.000,0.000
489219.746,95.703,33.203,23.438,22.949,4.883,0.000,0.000,0.000
489219.750,95.703,37.109,26.367,22.949,-2.441,0.000,0.000,0.000
489219.754,-34.668,31.738,26.855,-12.207,-3.418,0.000,0.000,0.000
489219.758,-55.176,26.855,22.949,-14.648,-3.418,0.000,0.000,0.000
489219.762,62.988,34.180,25.879,20.508,-1.465,0.000,0.000,0.000
489219.766,105.957,34.180,29.785,37.109,-2.441,0.000,0.000,0.000
489219.770,-8.789,34.668,29.297,13.672,-5.859,0.000,0.000,0.000
489219.773,-81.055,31.738,26.367,-3.906,-0.977,0.000,0.000,0.000
489219.777,20.508,25.879,24.902,20.508,19.043,0.000,0.000,0.000
489219.781,109.375,26.855,23.438,41.504,16.113,0.000,0.000,0.000
489219.785,37.109,30.273,21.973,11.719,-7.812,0.000,0.000,0.000
489219.789,-63.965,34.668,22.461,-13.184,-3.906,0.000,0.000,0.000
489219.793,-2.930,32.715,22.461,4.395,3.418,0.000,0.000,0.000
489219.797,104.004,31.738,22.949,33.203,6.348,0.000,0.000,0.000
489219.801,75.195,41.504,26.367,27.832,17.578,0.000,0.000,0.000
489219.805,-42.480,42.969,26.855,1.953,24.902,0.000,0.000,0.000
489219.809,-29.297,31.250,24.414,7.324,27.832,0.000,0.000,0.000
489219.812,86.914,29.785,24.902,41.016,39.551,0.000,0.000,0.000
489219.816,105.469,32.227,26.855,48.340,44.434,0.000,0.000,0.000
489219.820,-11.230,33.203,28.320,16.113,31.250,0.000,0.000,0.000
489219.824,-34.668,40.039,27.344,7.324,30.762,0.000,0.000,0.000
489219.828,73.242,35.156,21.973,32.227,23.438,0.000,0.000,0.000
489219.832,114.258,33.691,21.973,40.527,8.789,0.000,0.000,0.000
489219.836,17.090,40.527,22.461,19.531,6.348,0.000,0.000,0.000
489219.840,-62.988,28.809,20.020,0.488,2.441,0.000,0.000,0.000
489219.844,18.555,26.367,21.973,20.020,2.930,0.000,0.000,0.000
489219.848,102.051,29.785,20.996,42.969,-1.953,0.000,0.000,0.000
489219.852,38.086,26.367,21.484,28.809,-5.371,0.000,0.000,0.000
489219.855,-66.895,29.785,26.855,9.766,-0.488,0.000,0.000,0.000
489219.859,-17.578,32.715,30.273,20.508,5.371,0.000,0.000,0.000
489219.863,95.215,35.645,31.738,48.828,13.672,0.000,0.000,0.000
489219.867,76.660,36.133,31.738,45.898,15.625,0.000,0.000,0.000
489219.871,-44.434,30.273,31.738,9.277,18.066,0.000,0.000,0.000
489219.875,-39.062,24.414,28.809,7.812,21.973,0.000,0.000,0.000
489219.879,77.148,26.367,23.926,36.133,22.949,0.000,0.000,0.000
489219.883,100.586,27.832,23.926,42.969,25.879,0.000,0.000,0.000
489219.887,-12.695,28.320,25.391,20.020,33.203,0.000,0.000,0.000
489219.891,-57.129,36.133,22.461,5.371,21.484,0.000,0.000,0.000
489219.895,52.246,37.109,24.414,31.250,11.230,0.000,0.000,0.000
489219.898,118.652,33.691,27.832,48.828,16.602,0.000,0.000,0.000
489219.902,22.949,39.551,32.227,26.855,20.508,0.000,0.000,0.000
489219.906,-61.035,38.574,32.227,7.324,26.855,0.000,0.000,0.000
489219.910,22.461,33.203,26.367,26.855,33.203,0.000,0.000,0.000
489219.914,114.258,30.273,20.996,50.293,32.227,0.000,0.000,0.000
489219.918,54.199,32.227,20.996,37.109,19.531,0.000,0.000,0.000
489219.922,-59.570,35.645,27.344,18.555,15.625,0.000,0.000,0.000
489219.926,-18.066,39.551,28.809,32.227,20.508,0.000,0.000,0.000
489219.930,97.168,45.410,27.344,60.059,26.855,0.000,0.000,0.000
489219.934,90.332,39.551,27.344,45.898,27.344,0.000,0.000,0.000
489219.937,-28.809,35.645,29.785,14.648,27.344,0.000,0.000,0.000
489219.941,-31.250,31.738,28.809,16.602,31.738,0.000,0.000,0.000
489219.945,87.402,27.344,28.320,43.945,31.738,0.000,0.000,0.000
489219.949,115.723,31.250,27.344,50.293,23.438,0.000,0.000,0.000
489219.953,-5.371,32.715,23.438,14.648,15.137,0.000,0.000,0.000
489219.957,-62.988,34.668,24.414,-1.953,18.066,0.000,0.000,0.000
489219.961,39.062,34.668,28.320,27.832,20.508,0.000,0.000,0.000
489219.965,105.957,39.062,29.297,41.992,12.207,0.000,0.000,0.000
489219.969,12.695,39.062,26.855,10.254,7.324,0.000,0.000,0.000
489219.973,-78.125,33.203,25.391,-10.254,16.113,0.000,0.000,0.000
489219.977,-3.906,26.367,24.414,10.254,15.625,0.000,0.000,0.000
489219.980,102.051,25.879,25.879,42.480,10.742,0.000,0.000,0.000
489219.984,65.430,34.668,27.832,34.180,12.695,0.000,0.000,0.000
489219.988,-53.711,30.762,27.832,5.859,27.344,0.000,0.000,0.000
489219.992,-21.973,23.926,25.879,17.090,46.875,0.000,0.000,0.000
489219.996,99.121,32.227,25.879,44.922,32.227,0.000,0.000,0.000
489220.000,99.609,35.645,27.344,48.828,17.578,0.000,0.000,0.000
489220.004,-25.879,27.344,25.879,27.344,31.738,0.000,0.000,0.000
489220.008,-38.574,29.297,28.809,18.555,39.062,0.000,0.000,0.000
489220.012,86.914,38.086,32.715,47.363,37.109,0.000,0.000,0.000
489220.016,127.930,38.086,31.250,51.758,35.156,0.000,0.000,0.000
489220.020,7.324,32.227,27.344,18.066,35.645,0.000,0.000,0.000
489220.023,-65.430,28.320,24.414,5.371,41.992,0.000,0.000,0.000
489220.027,36.621,34.668,25.391,28.809,39.551,0.000,0.000,0.000
489220.031,115.234,33.203,27.832,54.688,34.668,0.000,0.000,0.000
489220.035,42.969,29.785,29.785,39.551,28.320,0.000,0.000,0.000
489220.039,-49.316,31.250,26.855,9.277,28.320,0.000,0.000,0.000
489220.043,9.277,33.203,28.320,24.902,37.109,0.000,0.000,0.000
489220.047,107.422,31.250,27.832,49.805,34.180,0.000,0.000,0.000
489220.051,65.918,28.320,24.414,32.715,23.438,0.000,0.000,0.000
489220.055,-56.641,34.180,28.320,1.953,16.113,0.000,0.000,0.000
489220.059,-35.156,36.133,26.367,6.836,17.578,0.000,0.000,0.000
489220.062,82.520,40.039,21.484,40.039,29.297,0.000,0.000,0.000
489220.066,96.680,40.527,19.043,45.898,24.902,0.000,0.000,0.000
489220.070,-20.020,40.039,22.461,15.137,15.137,0.000,0.000,0.000
489220.074,-45.410,39.551,20.020,2.930,24.414,0.000,0.000,0.000
489220.078,72.754,30.273,19.043,39.062,28.809,0.000,0.000,0.000
489220.082,129.883,29.785,24.902,59.082,30.273,0.000,0.000,0.000
489220.086,26.367,36.621,30.273,39.551,36.621,0.000,0.000,0.000
489220.090,-48.828,40.039,34.180,28.320,41.016,0.000,0.000,0.000
489220.094,38.574,37.109,31.250,47.363,34.668,0.000,0.000,0.000
489220.098,123.047,39.062,27.832,68.848,34.180,0.000,0.000,0.000
489220.102,58.594,37.598,30.762,49.805,36.621,0.000,0.000,0.000
489220.105,-47.363,34.668,31.738,22.461,39.062,0.000,0.000,0.000
489220.109,3.906,32.227,28.320,33.203,45.898,0.000,0.000,0.000
489220.113,114.258,29.785,28.320,60.547,46.875,0.000,0.000,0.000
489220.117,89.355,28.809,32.715,50.781,32.227,0.000,0.000,0.000
489220.121,-35.645,28.809,33.203,21.973,30.273,0.000,0.000,0.000
489220.125,-26.855,32.227,31.738,20.020,32.227,0.000,0.000,0.000
489220.129,90.332,36.133,27.832,46.387,24.902,0.000,0.000,0.000
489220.133,111.328,35.156,28.320,46.875,18.555,0.000,0.000,0.000
489220.137,-12.695,35.156,31.250,18.066,13.184,0.000,0.000,0.000
489220.141,-62.012,29.785,29.785,4.395,7.324,0.000,0.000,0.000
489220.144,47.363,21.973,30.273,29.297,6.348,0.000,0.000,0.000
489220.148,113.281,28.809,28.809,44.922,9.766,0.000,0.000,0.000
489220.152,23.438,33.203,28.320,18.066,12.695,0.000,0.000,0.000
489220.156,-61.523,25.391,26.855,-4.395,10.254,0.000,0.000,0.000
489220.160,18.555,30.273,29.785,12.695,9.277,0.000,0.000,0.000
489220.164,110.840,35.156,30.762,33.691,15.137,0.000,0.000,0.000
489220.168,52.734,26.855,27.344,19.531,21.484,0.000,0.000,0.000
489220.172,-56.641,29.297,28.809,-0.488,12.695,0.000,0.000,0.000
489220.176,-7.812,37.598,33.203,15.625,13.672,0.000,0.000,0.000
489220.180,108.887,41.992,31.738,45.410,30.762,0.000,0.000,0.000
489220.184,97.168,34.668,29.297,41.016,39.551,0.000,0.000,0.000
489220.187,-21.484,32.715,30.762,16.113,40.527,0.000,0.000,0.000
489220.191,-26.855,35.156,27.832,10.254,38.574,0.000,0.000,0.000
489220.195,94.238,35.645,22.949,41.016,37.109,0.000,0.000,0.000
489220.199,127.930,32.715,23.438,50.781,37.598,0.000,0.000,0.000
489220.203,10.254,28.809,24.902,13.672,30.273,0.000,0.000,0.000
489220.207,-41.504,32.227,23.926,-0.977,27.832,0.000,0.000,0.000
489220.211,58.105,36.621,25.879,26.855,27.832,0.000,0.000,0.000
489220.215,126.953,42.969,26.855,49.316,28.809,0.000,0.000,0.000
489220.219,36.133,40.527,24.902,20.508,24.902,0.000,0.000,0.000
489220.223,-63.477,31.738,24.902,-4.883,19.043,0.000,0.000,0.000
489220.227,11.719,33.691,23.926,17.090,20.508,0.000,0.000,0.000
489220.230,113.770,37.109,23.438,31.250,20.508,0.000,0.000,0.000
489220.234,62.012,36.133,22.461,11.719,15.625,0.000,0.000,0.000
489220.238,-57.617,30.273,21.484,-16.113,7.324,0.000,0.000,0.000
489220.242,-20.508,33.691,25.391,-1.953,-2.441,0.000,0.000,0.000
489220.246,90.332,40.039,27.344,31.250,-5.371,0.000,0.000,0.000
489220.250,78.613,37.598,25.391,27.344,-2.441,0.000,0.000,0.000
489220.254,-43.945,34.180,28.320,-2.930,-5.859,0.000,0.000,0.000
489220.258,-62.500,33.691,25.879,-4.395,-7.324,0.000,0.000,0.000
489220.262,54.199,28.320,23.438,30.762,5.859,0.000,0.000,0.000
489220.266,99.121,24.414,24.902,41.016,-1.953,0.000,0.000,0.000
489220.269,-5.371,33.203,26.367,15.625,-1.953,0.000,0.000,0.000
489220.273,-63.965,37.109,26.855,1.465,17.578,0.000,0.000,0.000
489220.277,32.227,31.250,24.414,25.879,23.926,0.000,0.000,0.000
489220.281,122.070,36.133,23.438,54.199,40.527,0.000,0.000,0.000
489220.285,52.246,35.156,26.367,36.621,47.852,0.000,0.000,0.000
489220.289,-62.500,33.691,31.738,6.348,35.156,0.000,0.000,0.000
489220.293,-8.301,31.738,34.668,22.949,32.227,0.000,0.000,0.000
489220.297,109.375,33.203,32.227,55.664,37.598,0.000,0.000,0.000
489220.301,82.031,42.969,31.250,41.992,43.945,0.000,0.000,0.000
489220.305,-43.945,41.992,36.133,10.254,58.594,0.000,0.000,0.000
489220.309,-26.855,32.227,33.203,4.395,35.645,0.000,0.000,0.000
489220.312,93.750,31.250,28.809,23.438,-9.766,0.000,0.000,0.000
489220.316,105.469,32.227,27.832,24.902,-16.602,0.000,0.000,0.000
489220.320,-21.973,29.785,33.691,-0.488,-3.418,0.000,0.000,0.000
489220.324,-50.781,31.738,35.156,-9.277,8.789,0.000,0.000,0.000
489220.328,58.594,28.320,28.809,14.648,-0.488,0.000,0.000,0.000
489220.332,111.816,22.461,27.344,27.344,-11.719,0.000,0.000,0.000
489220.336,20.996,30.762,30.762,14.160,1.953,0.000,0.000,0.000
489220.340,-55.664,36.133,31.738,1.465,5.859,0.000,0.000,0.000
489220.344,24.902,29.785,26.855,13.184,1.465,0.000,0.000,0.000
489220.348,110.840,26.855,30.762,31.250,4.883,0.000,0.000,0.000
489220.352,43.457,24.414,33.203,18.066,3.418,0.000,0.000,0.000
489220.355,-64.453,25.879,34.180,-3.418,6.348,0.000,0.000,0.000
489220.359,-13.184,29.785,36.621,9.766,14.648,0.000,0.000,0.000
489220.363,98.145,31.738,33.691,44.434,22.461,0.000,0.000,0.000
489220.367,75.684,30.762,29.785,37.598,26.367,0.000,0.000,0.000
489220.371,-44.922,32.227,30.762,12.695,21.484,0.000,0.000,0.000
489220.375,-32.715,29.297,28.320,13.672,15.137,0.000,0.000,0.000
489220.379,88.867,31.250,25.391,41.016,21.484,0.000,0.000,0.000
489220.383,112.305,35.156,27.832,45.898,30.273,0.000,0.000,0.000
489220.387,-8.789,29.785,29.785,17.090,36.621,0.000,0.000,0.000
489220.391,-53.223,25.879,29.297,11.230,40.527,0.000,0.000,0.000
489220.394,60.547,28.809,31.738,37.598,31.738,0.000,0.000,0.000
489220.398,117.188,30.762,29.297,44.434,24.414,0.000,0.000,0.000
489220.402,18.066,31.250,28.809,20.508,30.762,0.000,0.000,0.000
489220.406,-62.500,28.809,33.203,5.859,41.016,0.000,0.000,0.000
489220.410,18.066,26.855,28.320,25.879,47.363,0.000,0.000,0.000
489220.414,110.352,28.809,25.879,49.316,42.969,0.000,0.000,0.000
489220.418,52.734,30.273,25.391,27.344,29.785,0.000,0.000,0.000
489220.422,-62.988,29.297,26.367,-1.465,22.949,0.000,0.000,0.000
489220.426,-16.602,31.250,27.832,11.719,28.809,0.000,0.000,0.000
489220.430,98.633,33.691,24.902,37.109,33.691,0.000,0.000,0.000
489220.434,84.961,30.273,21.973,34.668,24.414,0.000,0.000,0.000
489220.437,-28.809,36.621,27.832,18.555,24.414,0.000,0.000,0.000
489220.441,-26.367,41.016,32.227,20.508,35.645,0.000,0.000,0.000
489220.445,87.402,30.273,28.809,41.504,31.250,0.000,0.000,0.000
489220.449,118.652,27.832,25.879,40.039,24.902,0.000,0.000,0.000
489220.453,7.324,32.227,27.344,11.230,28.809,0.000,0.000,0.000
489220.457,-48.340,27.832,26.367,3.418,32.715,0.000,0.000,0.000
489220.461,50.293,29.785,20.508,29.297,25.879,0.000,0.000,0.000
489220.465,122.070,37.598,24.414,41.504,23.926,0.000,0.000,0.000
489220.469,39.551,38.574,31.738,19.531,24.414,0.000,0.000,0.000
489220.473,-49.316,38.086,29.785,-2.930,33.203,0.000,0.000,0.000
489220.476,19.043,38.086,31.250,15.625,36.621,0.000,0.000,0.000
489220.480,114.746,44.434,31.250,45.898,19.043,0.000,0.000,0.000
489220.484,68.359,37.109,26.855,31.738,14.160,0.000,0.000,0.000
489220.488,-52.246,31.250,30.762,2.930,21.484,0.000,0.000,0.000
489220.492,-22.461,40.527,26.855,5.371,21.973,0.000,0.000,0.000
489220.496,98.633,35.645,23.438,34.668,35.645,0.000,0.000,0.000
489220.500,97.656,31.738,25.391,33.691,34.668,0.000,0.000,0.000
489220.504,-36.621,33.691,24.414,4.883,12.207,0.000,0.000,0.000
489220.508,-51.758,39.551,26.855,0.977,10.742,0.000,0.000,0.000
489220.512,65.430,42.969,24.414,27.832,16.602,0.000,0.000,0.000
489220.516,106.445,39.062,21.973,38.086,15.137,0.000,0.000,0.000
489220.519,2.441,35.645,25.391,10.254,14.160,0.000,0.000,0.000
489220.523,-56.152,33.203,28.809,-7.812,20.996,0.000,0.000,0.000
489220.527,38.086,28.809,23.926,10.254,24.414,0.000,0.000,0.000
489220.531,120.605,28.320,23.926,39.062,22.461,0.000,0.000,0.000
489220.535,41.504,32.227,31.250,25.391,21.973,0.000,0.000,0.000
489220.539,-66.895,30.273,29.297,-4.395,20.996,0.000,0.000,0.000
489220.543,-1.953,23.926,25.391,11.719,21.973,0.000,0.000,0.000
489220.547,101.562,17.578,26.367,43.945,16.602,0.000,0.000,0.000
489220.551,72.754,24.414,30.762,36.133,18.066,0.000,0.000,0.000
489220.555,-43.457,32.715,33.691,9.766,27.832,0.000,0.000,0.000
489220.559,-22.949,28.809,29.297,15.625,39.551,0.000,0.000,0.000
489220.562,93.262,26.367,24.902,38.574,35.156,0.000,0.000,0.000
489220.566,105.957,31.738,28.809,44.434,24.414,0.000,0.000,0.000
489220.570,-10.254,41.504,32.227,21.973,30.273,0.000,0.000,0.000
489220.574,-46.387,36.621,23.926,6.348,23.926,0.000,0.000,0.000
489220.578,57.129,20.508,19.043,21.484,14.648,0.000,0.000,0.000
489220.582,104.004,20.020,22.461,29.785,27.344,0.000,0.000,0.000
489220.586,4.395,30.273,25.391,12.207,27.344,0.000,0.000,0.000
489220.590,-68.359,34.668,26.855,-0.977,17.090,0.000,0.000,0.000
489220.594,26.855,36.133,26.367,21.973,16.113,0.000,0.000,0.000
489220.598,114.746,37.598,27.344,47.852,8.301,0.000,0.000,0.000
489220.601,42.969,32.715,30.762,33.691,13.672,0.000,0.000,0.000
489220.605,-60.059,33.691,33.203,13.672,24.902,0.000,0.000,0.000
489220.609,5.371,41.992,29.785,27.832,29.785,0.000,0.000,0.000
489220.613,110.352,42.480,21.973,48.828,24.414,0.000,0.000,0.000
489220.617,80.078,42.480,22.461,35.156,21.484,0.000,0.000,0.000
489220.621,-45.410,42.480,23.438,2.441,19.531,0.000,0.000,0.000
489220.625,-43.945,38.574,21.484,2.930,18.555,0.000,0.000,0.000
489220.629,69.336,35.156,19.043,30.762,9.277,0.000,0.000,0.000
489220.633,85.449,27.832,22.461,36.133,3.418,0.000,0.000,0.000
489220.637,-30.762,27.832,27.832,13.672,14.648,0.000,0.000,0.000
489220.641,-67.383,32.715,27.832,3.906,17.090,0.000,0.000,0.000
489220.644,42.480,35.645,32.715,40.527,19.043,0.000,0.000,0.000
489220.648,105.957,32.715,31.250,56.152,29.297,0.000,0.000,0.000
489220.652,12.695,32.715,26.855,21.973,35.156,0.000,0.000,0.000
489220.656,-73.242,34.180,28.809,1.953,15.625,0.000,0.000,0.000
489220.660,6.836,33.203,28.809,23.438,2.441,0.000,0.000,0.000
489220.664,94.238,27.832,26.367,48.828,12.207,0.000,0.000,0.000
489220.668,29.297,24.902,27.344,30.762,21.973,0.000,0.000,0.000
489220.672,-82.031,21.484,27.832,0.977,19.531,0.000,0.000,0.000
489220.676,-26.855,23.438,25.879,14.648,11.719,0.000,0.000,0.000
489220.680,93.262,31.738,29.297,52.246,16.602,2.000,1.000,45.000
489220.684,76.660,30.762,32.715,46.875,17.090,0.000,0.000,0.000
489220.687,-45.898,27.344,30.762,15.137,18.555,0.000,0.000,0.000
489220.691,-43.457,23.926,31.738,9.766,28.320,0.000,0.000,0.000
489220.695,72.266,31.738,32.715,37.598,32.715,0.000,0.000,0.000
489220.699,97.168,26.367,27.832,42.969,29.297,0.000,0.000,0.000
489220.703,-10.254,21.484,24.902,18.066,36.621,0.000,0.000,0.000
489220.707,-54.199,31.738,24.902,0.000,30.762,0.000,0.000,0.000
489220.711,46.387,33.203,20.996,13.184,14.648,0.000,0.000,0.000
489220.715,112.793,40.527,21.484,39.551,20.508,0.000,0.000,0.000
489220.719,19.531,41.016,20.020,10.254,18.555,0.000,0.000,0.000
489220.723,-75.195,34.180,13.184,-24.414,15.137,0.000,0.000,0.000
489220.726,2.930,38.574,15.137,-2.441,22.949,0.000,0.000,0.000
489220.730,98.145,43.945,11.719,20.996,17.578,0.000,0.000,0.000
489220.734,54.199,37.598,7.812,1.953,3.418,0.000,0.000,0.000
489220.738,-55.176,33.691,11.230,-21.484,12.207,0.000,0.000,0.000
489220.742,-29.297,35.156,13.184,-3.906,29.297,0.000,0.000,0.000
489220.746,83.984,35.645,16.113,26.367,14.648,0.000,0.000,0.000
489220.750,82.520,35.156,17.578,19.531,1.465,0.000,0.000,0.000
489220.754,-40.039,33.691,17.090,-4.883,5.371,0.000,0.000,0.000
489220.758,-49.316,35.156,18.066,-2.441,12.207,0.000,0.000,0.000
489220.762,72.754,42.480,19.531,28.320,21.973,0.000,0.000,0.000
489220.766,112.793,36.621,17.090,41.016,24.414,0.000,0.000,0.000
489220.769,4.395,28.320,18.066,26.855,40.039,0.000,0.000,0.000
489220.773,-51.758,28.809,18.066,10.742,41.504,0.000,0.000,0.000
489220.777,47.852,30.762,16.602,24.902,25.391,0.000,0.000,0.000
489220.781,123.047,38.574,22.949,44.434,27.344,0.000,0.000,0.000
489220.785,45.898,41.016,23.926,22.461,26.367,0.000,0.000,0.000
489220.789,-53.223,37.598,23.926,0.488,27.344,0.000,0.000,0.000
489220.793,8.789,34.180,22.461,13.672,29.785,0.000,0.000,0.000
489220.797,107.422,29.785,15.625,37.598,26.855,0.000,0.000,0.000
489220.801,68.848,27.344,15.137,27.832,29.785,0.000,0.000,0.000
489220.805,-49.805,30.273,17.578,-2.441,25.879,0.000,0.000,0.000
489220.809,-23.926,35.645,18.555,4.395,6.348,0.000,0.000,0.000
489220.812,94.238,33.203,18.066,39.551,-12.695,0.000,0.000,0.000
489220.816,97.168,33.691,20.996,35.645,-20.508,0.000,0.000,0.000
489220.820,-23.926,41.504,22.949,0.488,-20.508,0.000,0.000,0.000
489220.824,-52.734,35.645,20.996,-8.301,-10.742,0.000,0.000,0.000
489220.828,60.059,33.203,21.973,25.879,16.602,0.000,0.000,0.000
489220.832,116.699,37.598,24.902,40.527,22.949,0.000,0.000,0.000
489220.836,11.230,33.203,26.367,9.277,9.766,0.000,0.000,0.000
489220.840,-67.871,29.785,26.855,-9.766,8.301,0.000,0.000,0.000
489220.844,29.297,32.227,27.344,16.113,10.254,0.000,0.000,0.000
489220.848,119.629,41.504,26.367,40.039,15.625,0.000,0.000,0.000
489220.851,44.922,43.945,25.879,17.090,16.602,0.000,0.000,0.000
489220.855,-63.965,37.598,27.344,-8.789,20.996,0.000,0.000,0.000
489220.859,-3.906,31.250,28.320,11.230,29.297,0.000,0.000,0.000
489220.863,107.910,33.203,26.855,40.527,29.785,0.000,0.000,0.000
489220.867,84.473,31.250,29.785,31.738,27.344,0.000,0.000,0.000
489220.871,-37.598,26.855,29.297,10.742,31.250,0.000,0.000,0.000
489220.875,-30.273,27.344,24.902,16.602,40.039,0.000,0.000,0.000
489220.879,84.961,32.227,24.414,40.039,37.109,0.000,0.000,0.000
489220.883,107.422,36.621,25.879,39.551,20.996,0.000,0.000,0.000
489220.887,-10.742,30.273,25.879,10.742,18.555,0.000,0.000,0.000
489220.891,-51.270,27.344,25.879,3.418,31.250,0.000,0.000,0.000
489220.894,57.129,29.297,24.414,25.879,30.762,0.000,0.000,0.000
489220.898,117.188,32.227,28.320,44.922,28.809,0.000,0.000,0.000
489220.902,26.855,34.180,33.203,20.020,28.809,0.000,0.000,0.000
489220.906,-49.805,32.227,31.250,-6.836,27.832,0.000,0.000,0.000
489220.910,32.227,35.156,29.785,14.648,30.273,0.000,0.000,0.000
489220.914,122.070,30.762,26.855,35.156,25.879,0.000,0.000,0.000
489220.918,75.195,30.273,25.879,25.879,33.691,0.000,0.000,0.000
489220.922,-42.969,33.691,22.461,0.000,41.992,0.000,0.000,0.000
489220.926,-14.648,28.809,22.461,-1.465,29.297,0.000,0.000,0.000
489220.930,101.562,27.832,23.926,26.855,19.531,0.000,0.000,0.000
489220.933,90.332,28.809,25.879,26.367,26.367,0.000,0.000,0.000
489220.937,-28.809,35.156,29.785,1.953,33.691,0.000,0.000,0.000
489220.941,-28.320,35.645,28.809,5.859,42.969,0.000,0.000,0.000
489220.945,86.914,38.086,28.320,32.227,43.457,0.000,0.000,0.000
489220.949,119.141,40.527,26.855,43.457,48.828,0.000,0.000,0.000
489220.953,5.371,36.133,27.344,22.949,50.293,0.000,0.000,0.000
489220.957,-54.688,39.062,28.809,4.883,39.062,0.000,0.000,0.000
489220.961,46.875,33.203,29.785,21.484,36.133,0.000,0.000,0.000
489220.965,117.676,30.762,31.738,38.086,31.738,0.000,0.000,0.000
489220.969,28.809,36.621,32.715,24.902,26.855,0.000,0.000,0.000
489220.973,-65.918,33.691,30.273,0.000,24.414,0.000,0.000,0.000
489220.976,14.160,36.621,27.344,11.719,25.879,0.000,0.000,0.000
489220.980,118.164,36.133,24.902,36.133,26.855,0.000,0.000,0.000
489220.984,67.871,31.250,28.320,21.973,28.809,0.000,0.000,0.000
489220.988,-49.316,42.480,28.320,-2.930,18.555,0.000,0.000,0.000
489220.992,-22.949,35.645,22.461,2.441,5.859,0.000,0.000,0.000
489220.996,92.773,19.043,22.461,33.691,7.324,0.000,0.000,0.000
489221.000,90.332,25.391,24.902,32.715,13.672,0.000,0.000,0.000
489221.004,-35.645,33.691,25.879,-1.953,16.602,0.000,0.000,0.000
489221.008,-46.387,37.598,25.879,-5.371,14.160,0.000,0.000,0.000
489221.012,70.312,38.086,25.391,29.297,21.973,0.000,0.000,0.000
489221.016,105.957,37.598,22.461,33.203,17.578,0.000,0.000,0.000
489221.019,-9.277,40.039,20.508,-4.395,-0.977,0.000,0.000,0.000
489221.023,-72.266,41.992,26.367,-12.207,-0.488,0.000,0.000,0.000
489221.027,24.414,39.062,21.973,19.531,9.277,0.000,0.000,0.000
489221.031,94.727,26.855,18.066,38.574,6.836,0.000,0.000,0.000
489221.035,16.602,22.461,23.438,16.113,8.789,0.000,0.000,0.000
489221.039,-70.312,26.367,24.414,-7.324,27.344,0.000,0.000,0.000
489221.043,0.488,24.414,27.344,9.766,32.715,0.000,0.000,0.000
489221.047,98.633,24.902,25.391,35.156,23.926,0.000,0.000,0.000
489221.051,58.105,32.715,27.344,28.320,24.414,0.000,0.000,0.000
489221.055,-67.383,34.668,26.855,1.465,24.414,0.000,0.000,0.000
489221.058,-43.945,27.832,19.043,0.488,23.926,0.000,0.000,0.000
489221.062,79.590,26.855,20.996,28.809,16.602,0.000,0.000,0.000
489221.066,79.102,31.738,23.926,29.785,16.113,0.000,0.000,0.000
489221.070,-40.527,31.738,23.438,6.348,23.926,0.000,0.000,0.000
489221.074,-59.570,27.344,22.949,4.883,23.438,4.000,1.000,45.000
489221.078,60.059,27.832,23.926,30.762,23.438,0.000,0.000,0.000
489221.082,116.699,29.785,26.367,49.316,28.320,0.000,0.000,0.000
489221.086,13.184,28.320,26.855,27.832,33.203,0.000,0.000,0.000
489221.090,-56.152,33.203,26.367,8.301,29.785,0.000,0.000,0.000
489221.094,30.273,41.992,26.855,28.320,18.555,0.000,0.000,0.000
489221.098,110.840,32.227,25.879,47.852,15.625,0.000,0.000,0.000
489221.101,44.922,28.320,28.809,28.320,15.625,0.000,0.000,0.000
489221.105,-69.824,27.344,28.320,-3.906,6.836,0.000,0.000,0.000
489221.109,-14.648,24.414,21.973,2.441,5.859,0.000,0.000,0.000
489221.113,96.191,26.367,19.531,34.668,12.207,0.000,0.000,0.000
489221.117,65.918,26.855,20.020,29.297,20.508,0.000,0.000,0.000
489221.121,-55.664,31.738,20.020,2.930,13.672,0.000,0.000,0.000
489221.125,-40.527,28.320,23.926,9.766,-17.578,0.000,0.000,0.000
489221.129,76.660,26.367,25.879,41.504,-20.996,0.000,0.000,0.000
489221.133,101.562,41.504,25.879,47.852,-1.953,0.000,0.000,0.000
489221.137,-13.672,43.945,27.344,20.508,6.836,0.000,0.000,0.000
489221.141,-54.199,30.273,27.832,0.977,20.020,0.000,0.000,0.000
489221.144,58.594,29.297,26.367,24.902,34.668,0.000,0.000,0.000
489221.148,109.863,29.297,25.879,38.574,29.785,0.000,0.000,0.000
489221.152,6.836,31.738,28.320,9.277,24.414,0.000,0.000,0.000
489221.156,-74.219,36.621,26.855,-3.906,30.762,0.000,0.000,0.000
489221.160,8.789,36.621,24.902,21.484,30.762,0.000,0.000,0.000
489221.164,105.469,36.133,25.879,44.922,29.785,0.000,0.000,0.000
489221.168,54.199,40.039,27.832,33.203,32.715,0.000,0.000,0.000
489221.172,-51.270,41.016,31.738,10.254,34.668,0.000,0.000,0.000
489221.176,0.488,40.527,31.738,21.484,33.203,0.000,0.000,0.000
489221.180,116.211,33.691,26.367,47.852,33.203,0.000,0.000,0.000
489221.183,98.633,33.691,27.832,40.527,41.016,0.000,0.000,0.000
489221.187,-23.926,43.457,27.344,9.277,34.180,0.000,0.000,0.000
489221.191,-31.738,37.598,21.973,0.000,20.020,0.000,0.000,0.000
489221.195,78.125,28.320,23.438,21.973,14.160,0.000,0.000,0.000
489221.199,108.398,31.738,25.879,32.227,14.648,0.000,0.000,0.000
489221.203,-9.766,32.227,26.855,7.324,18.066,0.000,0.000,0.000
489221.207,-60.059,29.297,28.809,-0.488,23.438,0.000,0.000,0.000
489221.211,48.340,29.297,30.762,26.855,28.809,0.000,0.000,0.000
489221.215,129.395,30.273,31.250,44.434,34.668,0.000,0.000,0.000
489221.219,44.922,34.180,32.227,20.996,34.668,0.000,0.000,0.000
489221.223,-50.781,30.762,33.691,1.953,35.645,0.000,0.000,0.000
489221.226,23.438,25.879,36.621,21.973,36.133,0.000,0.000,0.000
489221.230,114.258,31.738,30.273,39.062,15.625,0.000,0.000,0.000
489221.234,62.012,25.879,22.949,26.367,-10.742,0.000,0.000,0.000
489221.238,-56.641,24.414,26.855,1.465,-14.648,0.000,0.000,0.000
489221.242,-24.902,31.738,26.855,3.418,-12.207,0.000,0.000,0.000
489221.246,91.309,30.762,26.367,34.668,-8.301,0.000,0.000,0.000
489221.250,87.891,34.668,27.832,36.621,-2.441,0.000,0.000,0.000
489221.254,-34.668,32.227,27.344,5.859,4.883,0.000,0.000,0.000
489221.258,-56.641,24.902,24.414,1.465,12.207,0.000,0.000,0.000
489221.262,58.594,31.250,28.320,32.715,20.020,0.000,0.000,0.000
489221.265,106.445,32.715,33.203,38.086,23.926,0.000,0.000,0.000
489221.269,-0.488,37.598,32.227,12.207,20.508,0.000,0.000,0.000
489221.273,-62.988,36.133,32.227,0.977,24.902,0.000,0.000,0.000
489221.277,41.016,26.855,30.762,26.367,33.691,0.000,0.000,0.000
489221.281,125.000,23.926,27.832,48.828,31.738,0.000,0.000,0.000
489221.285,45.898,28.320,28.809,26.367,22.461,0.000,0.000,0.000
489221.289,-58.594,35.156,32.227,0.000,14.648,0.000,0.000,0.000
489221.293,3.418,32.715,32.227,13.184,17.090,0.000,0.000,0.000
489221.297,106.445,33.691,28.809,41.016,20.020,0.000,0.000,0.000
489221.301,70.312,41.504,28.809,33.203,15.625,0.000,0.000,0.000
489221.305,-50.781,35.645,32.227,10.254,17.578,0.000,0.000,0.000
489221.308,-28.809,32.227,32.715,18.555,31.250,0.000,0.000,0.000
489221.312,89.844,37.598,29.785,44.434,42.480,0.000,0.000,0.000
489221.316,98.145,35.156,28.809,38.086,26.855,0.000,0.000,0.000
489221.320,-24.414,37.109,30.762,9.277,15.137,0.000,0.000,0.000
489221.324,-52.246,29.785,27.832,4.395,20.508,0.000,0.000,0.000
489221.328,58.594,25.879,24.414,31.250,20.996,0.000,0.000,0.000
489221.332,104.004,34.668,23.438,47.363,24.414,0.000,0.000,0.000
489221.336,4.395,35.156,27.344,22.949,25.391,0.000,0.000,0.000
489221.340,-63.477,34.180,31.738,6.836,19.043,0.000,0.000,0.000
489221.344,30.762,34.668,32.227,27.832,19.043,0.000,0.000,0.000
489221.348,114.746,30.762,33.691,44.434,24.902,0.000,0.000,0.000
489221.351,45.898,30.762,31.250,25.391,29.785,0.000,0.000,0.000
489221.355,-63.477,26.367,27.344,-3.906,26.367,0.000,0.000,0.000
489221.359,-12.207,28.320,26.855,6.348,20.508,0.000,0.000,0.000
489221.363,97.656,36.133,26.367,37.598,23.438,0.000,0.000,0.000
489221.367,68.359,31.738,24.902,22.461,26.855,0.000,0.000,0.000
489221.371,-59.082,29.297,25.879,-5.859,34.180,0.000,0.000,0.000
489221.375,-39.551,30.273,27.344,6.348,34.180,0.000,0.000,0.000
489221.379,83.496,30.762,28.809,36.621,25.879,0.000,0.000,0.000
489221.383,92.285,29.785,25.879,39.551,25.391,0.000,0.000,0.000
489221.387,-25.879,25.391,27.344,17.090,28.809,0.000,0.000,0.000
489221.390,-62.500,26.855,28.320,5.371,27.344,0.000,0.000,0.000
489221.394,45.898,33.203,22.949,28.320,26.367,0.000,0.000,0.000
489221.398,110.840,34.668,20.508,40.039,22.949,0.000,0.000,0.000
489221.402,12.207,38.086,24.414,17.578,23.926,0.000,0.000,0.000
489221.406,-78.125,37.109,25.391,-0.488,24.902,0.000,0.000,0.000
489221.410,10.742,32.715,22.461,23.438,25.879,0.000,0.000,0.000
489221.414,109.375,32.227,21.973,53.711,23.926,0.000,0.000,0.000
489221.418,45.410,26.367,27.344,32.227,21.484,0.000,0.000,0.000
489221.422,-62.500,22.949,30.273,9.277,33.691,2.000,1.000,0.000
489221.426,-17.090,21.484,27.832,24.414,27.832,0.000,0.000,0.000
489221.430,91.309,23.926,24.414,49.316,22.461,0.000,0.000,0.000
489221.433,77.148,26.855,23.438,39.062,22.949,0.000,0.000,0.000
489221.437,-47.363,27.832,28.320,2.441,5.371,0.000,0.000,0.000
489221.441,-51.758,30.273,28.320,3.418,0.977,0.000,0.000,0.000
489221.445,64.941,30.273,24.902,33.691,5.859,0.000,0.000,0.000
489221.449,99.121,40.039,26.367,38.086,11.230,0.000,0.000,0.000
489221.453,-16.602,39.551,26.367,3.906,10.742,0.000,0.000,0.000
489221.457,-63.965,24.414,26.855,-8.301,12.695,0.000,0.000,0.000
489221.461,46.387,27.344,29.297,23.926,19.043,0.000,0.000,0.000
489221.465,113.770,33.203,26.855,40.039,18.555,0.000,0.000,0.000
489221.469,22.461,28.809,25.879,15.625,15.625,0.000,0.000,0.000
489221.473,-67.383,27.344,28.809,-1.465,17.090,0.000,0.000,0.000
489221.476,13.672,28.809,29.297,18.555,20.508,0.000,0.000,0.000
489221.480,111.816,30.273,26.855,38.574,15.625,0.000,0.000,0.000
489221.484,57.129,33.691,27.832,35.156,13.672,0.000,0.000,0.000
489221.488,-53.711,36.621,32.715,15.137,24.902,0.000,0.000,0.000
489221.492,-15.137,33.203,30.762,12.207,32.227,0.000,0.000,0.000
489221.496,102.051,28.809,27.344,39.551,26.367,0.000,0.000,0.000
489221.500,98.145,29.297,25.879,33.691,17.578,0.000,0.000,0.000
489221.504,-30.762,30.273,25.391,5.859,19.043,0.000,0.000,0.000
489221.508,-46.875,33.203,24.414,12.207,27.832,0.000,0.000,0.000
489221.512,69.824,32.227,24.414,39.062,29.297,0.000,0.000,0.000
489221.515,111.816,31.250,30.273,43.945,22.461,0.000,0.000,0.000
489221.519,0.488,27.832,29.297,20.508,21.484,0.000,0.000,0.000
489221.523,-63.477,21.973,25.879,8.301,27.344,0.000,0.000,0.000
489221.527,38.574,21.973,26.855,29.785,27.832,0.000,0.000,0.000
489221.531,121.582,24.902,31.738,54.688,34.180,0.000,0.000,0.000
489221.535,44.922,26.855,33.691,32.715,32.715,0.000,0.000,0.000
489221.539,-49.805,31.738,31.738,7.324,32.715,0.000,0.000,0.000
489221.543,21.484,34.668,30.273,25.879,26.855,0.000,0.000,0.000
489221.547,123.047,29.297,27.344,52.734,11.230,0.000,0.000,0.000
489221.551,77.637,29.297,27.344,34.180,-0.488,0.000,0.000,0.000
489221.555,-45.898,30.762,29.297,1.465,-7.812,0.000,0.000,0.000
489221.558,-22.461,34.180,26.367,7.324,-6.348,0.000,0.000,0.000
489221.562,89.355,36.133,25.879,36.621,-2.930,0.000,0.000,0.000
489221.566,96.680,31.250,29.785,42.969,8.789,0.000,0.000,0.000
489221.570,-22.461,32.227,31.250,14.160,13.184,0.000,0.000,0.000
489221.574,-48.828,41.504,29.297,9.277,15.137,0.000,0.000,0.000
489221.578,64.453,42.969,25.879,37.598,20.020,0.000,0.000,0.000
489221.582,107.910,33.691,21.973,40.039,17.090,0.000,0.000,0.000
489221.586,-7.812,33.691,22.461,11.230,20.020,0.000,0.000,0.000
489221.590,-83.496,36.621,24.414,-9.277,21.484,0.000,0.000,0.000
489221.594,16.113,38.086,24.902,24.902,27.344,0.000,0.000,0.000
489221.597,107.910,36.133,25.391,55.664,31.738,0.000,0.000,0.000
489221.601,34.180,33.203,25.879,26.367,24.414,0.000,0.000,0.000
489221.605,-68.848,32.227,27.832,1.465,26.367,0.000,0.000,0.000
489221.609,-7.812,28.320,30.273,20.020,33.691,0.000,0.000,0.000
489221.613,95.703,26.367,23.926,40.527,30.273,0.000,0.000,0.000
489221.617,66.895,34.180,21.973,28.320,27.344,0.000,0.000,0.000
489221.621,-50.781,46.875,24.902,5.371,19.531,0.000,0.000,0.000
489221.625,-38.086,40.527,22.461,3.418,13.672,0.000,0.000,0.000
489221.629,77.637,34.180,22.461,28.809,18.555,0.000,0.000,0.000
489221.633,92.285,37.109,20.508,28.809,14.648,0.000,0.000,0.000
489221.637,-25.391,33.203,21.973,5.371,12.207,0.000,0.000,0.000
489221.640,-62.500,30.273,25.879,6.836,24.414,0.000,0.000,0.000
489221.644,50.293,34.180,26.367,35.156,38.086,0.000,0.000,0.000
489221.648,111.328,35.156,25.391,45.898,29.297,0.000,0.000,0.000
489221.652,10.254,26.855,23.438,16.602,6.348,0.000,0.000,0.000
489221.656,-69.336,22.949,20.020,-2.930,3.906,0.000,0.000,0.000
489221.660,15.137,33.691,20.020,16.113,8.789,0.000,0.000,0.000
489221.664,101.074,41.016,22.949,38.086,6.348,0.000,0.000,0.000
489221.668,42.480,39.062,21.973,21.973,12.207,0.000,0.000,0.000
489221.672,-65.430,37.598,19.043,-6.348,18.555,0.000,0.000,0.000
489221.676,-20.508,33.203,20.996,2.441,21.484,0.000,0.000,0.000
489221.680,94.727,34.180,20.996,31.738,24.414,0.000,0.000,0.000
489221.683,85.938,33.203,20.996,27.832,23.926,0.000,0.000,0.000
489221.687,-35.156,33.203,23.438,0.488,25.879,0.000,0.000,0.000
489221.691,-36.621,30.273,20.996,0.977,28.809,0.000,0.000,0.000
489221.695,89.355,29.785,24.414,39.551,29.297,0.000,0.000,0.000
489221.699,121.582,39.062,29.785,56.152,25.391,0.000,0.000,0.000
489221.703,1.953,39.062,32.715,33.691,28.809,0.000,0.000,0.000
489221.707,-53.223,26.855,27.832,11.230,23.926,0.000,0.000,0.000
489221.711,56.641,25.879,26.855,30.762,24.902,0.000,0.000,0.000
489221.715,131.836,30.273,26.855,52.246,29.297,0.000,0.000,0.000
489221.719,39.062,32.227,26.855,27.832,24.414,0.000,0.000,0.000
489221.722,-51.270,33.691,32.227,8.789,27.344,0.000,0.000,0.000
489221.726,26.855,31.738,29.785,29.785,27.344,0.000,0.000,0.000
489221.730,124.512,33.691,26.855,52.246,22.949,0.000,0.000,0.000
489221.734,74.219,34.668,29.297,36.133,25.391,0.000,0.000,0.000
489221.738,-43.457,30.762,32.227,5.859,26.855,0.000,0.000,0.000
489221.742,-4.883,35.156,32.227,17.090,37.109,0.000,0.000,0.000
489221.746,107.910,35.156,31.250,49.805,54.688,0.000,0.000,0.000
489221.750,92.285,23.438,26.855,35.645,38.086,0.000,0.000,0.000
489221.754,-42.969,20.996,24.414,-2.930,13.672,0.000,0.000,0.000
489221.758,-55.664,22.461,26.855,-5.859,14.160,0.000,0.000,0.000
489221.762,67.383,19.531,26.855,24.902,10.254,0.000,0.000,0.000
489221.765,102.539,19.043,24.902,27.832,4.883,0.000,0.000,0.000
489221.769,-13.184,26.367,22.461,1.465,4.395,0.000,0.000,0.000
489221.773,-72.266,29.297,23.926,-8.789,7.324,0.000,0.000,0.000
489221.777,22.461,28.320,24.414,17.090,10.254,0.000,0.000,0.000
489221.781,99.609,32.227,21.484,35.645,8.301,0.000,0.000,0.000
489221.785,25.879,35.156,24.414,17.578,5.371,0.000,0.000,0.000
489221.789,-72.754,37.598,24.902,0.000,12.207,0.000,0.000,0.000
489221.793,0.000,34.180,23.438,15.625,25.391,0.000,0.000,0.000
489221.797,110.352,30.273,22.949,38.086,29.785,0.000,0.000,0.000
489221.801,68.359,37.109,25.391,25.879,19.043,0.000,0.000,0.000
489221.805,-50.293,39.062,27.344,2.930,21.484,0.000,0.000,0.000
489221.808,-25.879,37.598,23.438,12.207,26.367,0.000,0.000,0.000
489221.812,85.449,39.062,21.484,41.504,19.043,0.000,0.000,0.000
489221.816,85.938,36.133,20.508,39.551,15.137,4.000,1.000,0.000
489221.820,-39.062,34.180,20.508,9.766,14.648,0.000,0.000,0.000
489221.824,-59.570,35.156,26.855,5.371,16.602,0.000,0.000,0.000
489221.828,52.246,35.156,26.855,29.785,14.160,0.000,0.000,0.000
489221.832,98.145,35.645,24.414,38.574,10.254,0.000,0.000,0.000
489221.836,-1.465,40.039,27.344,16.602,16.602,0.000,0.000,0.000
489221.840,-66.895,35.645,25.879,2.441,24.414,0.000,0.000,0.000
489221.844,34.668,32.715,25.879,30.273,26.367,0.000,0.000,0.000
489221.847,112.793,29.297,29.785,49.805,21.973,0.000,0.000,0.000
489221.851,40.527,28.320,28.320,24.902,18.066,0.000,0.000,0.000
489221.855,-68.359,34.668,28.809,5.859,15.625,0.000,0.000,0.000
489221.859,-17.578,33.691,29.297,18.555,7.812,0.000,0.000,0.000
489221.863,96.680,34.668,28.809,41.504,11.719,0.000,0.000,0.000
489221.867,67.383,34.180,28.320,37.109,19.043,0.000,0.000,0.000
489221.871,-60.059,31.738,24.414,9.277,8.789,0.000,0.000,0.000
489221.875,-36.621,39.551,29.785,10.742,1.953,0.000,0.000,0.000
489221.879,86.914,42.480,34.668,36.133,0.977,0.000,0.000,0.000
489221.883,95.215,30.762,32.227,40.039,-6.836,0.000,0.000,0.000
489221.887,-24.414,26.367,31.738,16.113,-3.906,0.000,0.000,0.000
489221.890,-62.500,31.738,30.273,2.441,3.418,0.000,0.000,0.000
489221.894,46.387,35.156,26.367,25.879,6.348,0.000,0.000,0.000
489221.898,107.422,32.715,23.926,43.457,7.812,0.000,0.000,0.000
489221.902,10.254,37.598,25.879,17.578,9.766,0.000,0.000,0.000
489221.906,-68.848,39.062,27.832,-1.465,20.508,0.000,0.000,0.000
489221.910,21.484,34.668,25.879,24.414,29.785,0.000,0.000,0.000
489221.914,110.352,45.410,22.949,42.480,24.902,0.000,0.000,0.000
489221.918,43.457,40.527,19.531,17.090,11.230,0.000,0.000,0.000
489221.922,-62.012,29.785,17.578,-6.348,10.742,0.000,0.000,0.000
489221.926,-15.137,34.180,18.066,6.836,19.531,0.000,0.000,0.000
489221.930,91.797,35.156,17.578,28.320,17.578,0.000,0.000,0.000
489221.933,76.172,37.109,20.020,22.949,20.508,0.000,0.000,0.000
489221.937,-41.992,39.551,20.996,-1.953,27.344,0.000,0.000,0.000
489221.941,-31.738,38.574,20.020,-8.301,32.227,0.000,0.000,0.000
489221.945,79.590,37.598,21.484,14.648,25.391,0.000,0.000,0.000
489221.949,101.074,35.645,22.461,26.855,19.531,0.000,0.000,0.000
489221.953,-6.836,33.691,25.391,3.906,26.855,0.000,0.000,0.000
489221.957,-59.570,31.738,25.391,-9.277,35.645,0.000,0.000,0.000
489221.961,45.410,37.598,25.879,23.926,31.738,0.000,0.000,0.000
489221.965,116.211,30.273,26.367,38.574,20.508,0.000,0.000,0.000
489221.969,25.879,21.484,26.855,19.043,13.672,0.000,0.000,0.000
489221.972,-62.500,32.227,27.344,3.906,13.184,0.000,0.000,0.000
489221.976,13.184,34.668,24.414,16.113,13.184,0.000,0.000,0.000
489221.980,114.258,35.156,24.414,40.527,10.742,0.000,0.000,0.000
489221.984,62.500,34.668,30.273,27.832,11.230,0.000,0.000,0.000
489221.988,-57.617,29.785,29.785,-1.953,10.254,0.000,0.000,0.000
489221.992,-15.137,32.715,27.832,5.859,21.484,0.000,0.000,0.000
489221.996,105.469,36.133,31.738,36.133,33.691,0.000,0.000,0.000
489222.000,95.215,35.156,33.691,34.668,20.996,0.000,0.000,0.000
489222.004,-30.273,36.133,32.227,0.488,9.766,0.000,0.000,0.000
489222.008,-36.621,39.551,31.250,1.953,23.438,0.000,0.000,0.000
489222.012,73.730,32.227,27.832,33.691,25.391,0.000,0.000,0.000
489222.015,104.004,27.832,26.855,38.574,19.531,0.000,0.000,0.000
489222.019,-5.371,31.738,27.344,12.695,23.926,0.000,0.000,0.000
489222.023,-62.012,33.691,27.344,-4.395,28.809,0.000,0.000,0.000
489222.027,44.434,35.156,26.855,17.578,30.273,0.000,0.000,0.000
489222.031,115.723,36.133,27.344,34.180,27.344,0.000,0.000,0.000
489222.035,23.926,34.180,26.855,11.719,19.531,0.000,0.000,0.000
489222.039,-71.777,30.273,26.855,-11.230,18.066,0.000,0.000,0.000
489222.043,3.906,27.832,27.344,6.348,20.508,0.000,0.000,0.000
489222.047,108.887,26.855,25.391,38.086,19.531,0.000,0.000,0.000
489222.051,74.219,34.668,28.809,29.785,21.973,0.000,0.000,0.000
489222.054,-45.410,31.738,31.738,-1.465,27.832,0.000,0.000,0.000
489222.058,-22.461,25.391,27.344,0.488,26.855,0.000,0.000,0.000
489222.062,93.262,27.832,25.879,31.250,28.809,0.000,0.000,0.000
489222.066,102.051,28.809,26.855,36.133,37.109,0.000,0.000,0.000
489222.070,-20.020,35.156,29.297,9.766,37.109,0.000,0.000,0.000
489222.074,-49.805,32.715,29.785,8.789,31.250,0.000,0.000,0.000
489222.078,67.871,31.738,28.320,37.598,31.738,0.000,0.000,0.000
489222.082,121.094,37.109,26.855,43.945,27.832,0.000,0.000,0.000
489222.086,22.461,38.086,28.809,25.391,26.855,0.000,0.000,0.000
489222.090,-48.340,40.527,28.809,9.766,30.762,0.000,0.000,0.000
489222.094,36.133,32.715,24.902,24.902,24.902,0.000,0.000,0.000
489222.097,120.605,28.320,23.926,43.457,27.832,0.000,0.000,0.000
489222.101,52.246,29.785,26.367,25.879,31.738,0.000,0.000,0.000
489222.105,-55.176,30.762,27.832,4.395,21.484,0.000,0.000,0.000
489222.109,0.488,30.273,24.414,17.578,28.809,0.000,0.000,0.000
489222.113,109.375,30.273,27.344,44.434,42.480,0.000,0.000,0.000
489222.117,81.543,34.668,29.297,35.645,37.109,0.000,0.000,0.000
489222.121,-48.828,35.156,28.320,5.371,36.133,0.000,0.000,0.000
489222.125,-38.086,36.133,27.344,5.859,37.109,0.000,0.000,0.000
489222.129,81.543,38.574,24.414,36.133,27.832,0.000,0.000,0.000
489222.133,97.168,35.156,21.484,41.504,18.066,0.000,0.000,0.000
489222.137,-25.879,32.715,22.461,13.184,15.625,0.000,0.000,0.000
489222.140,-65.430,27.344,23.926,2.441,13.672,0.000,0.000,0.000
489222.144,48.828,31.250,24.902,32.715,11.719,0.000,0.000,0.000
489222.148,107.910,33.203,22.949,41.504,15.625,0.000,0.000,0.000
489222.152,15.625,29.785,26.855,16.602,19.043,0.000,0.000,0.000
489222.156,-63.965,35.156,29.297,2.441,22.949,0.000,0.000,0.000
489222.160,18.555,38.574,25.391,25.879,35.156,0.000,0.000,0.000
489222.164,108.887,38.574,24.902,49.316,41.016,0.000,0.000,0.000
489222.168,46.875,41.992,25.391,29.297,25.391,0.000,0.000,0.000
489222.172,-65.430,34.180,23.926,1.953,14.160,2.000,1.000,90.000
489222.176,-19.531,26.367,19.043,8.789,16.113,0.000,0.000,0.000
489222.179,95.703,34.180,20.020,38.086,17.090,0.000,0.000,0.000
489222.183,78.125,35.645,22.461,30.273,16.113,0.000,0.000,0.000
489222.187,-43.457,26.855,20.020,-3.906,17.090,0.000,0.000,0.000
489222.191,-33.691,25.391,22.461,-0.977,27.832,0.000,0.000,0.000
489222.195,84.961,27.344,25.391,34.668,33.691,0.000,0.000,0.000
489222.199,98.633,28.809,23.926,36.133,23.926,0.000,0.000,0.000
489222.203,-21.973,29.785,26.367,1.953,18.555,0.000,0.000,0.000
489222.207,-66.406,28.809,26.855,-9.766,31.738,0.000,0.000,0.000
489222.211,44.922,31.250,27.832,23.926,41.016,0.000,0.000,0.000
489222.215,111.328,34.180,32.715,44.434,32.715,0.000,0.000,0.000
489222.219,20.508,35.156,27.344,14.648,23.438,0.000,0.000,0.000
489222.222,-67.383,29.785,21.484,-6.836,26.855,0.000,0.000,0.000
489222.226,13.672,20.508,20.996,12.207,33.203,0.000,0.000,0.000
489222.230,112.793,21.484,22.461,34.668,22.949,0.000,0.000,0.000
489222.234,62.988,27.344,28.320,25.391,12.695,0.000,0.000,0.000
489222.238,-49.805,28.320,31.250,2.930,18.066,0.000,0.000,0.000
489222.242,-14.648,27.344,30.273,5.859,18.555,0.000,0.000,0.000
489222.246,94.238,27.344,29.297,30.273,9.277,0.000,0.000,0.000
489222.250,80.078,28.809,28.809,32.715,11.230,0.000,0.000,0.000
489222.254,-46.875,32.715,29.785,6.836,19.043,0.000,0.000,0.000
489222.258,-61.523,26.367,26.855,-1.465,8.789,0.000,0.000,0.000
489222.262,59.570,20.508,23.926,27.344,-0.977,0.000,0.000,0.000
489222.265,99.121,21.484,22.949,37.109,3.418,0.000,0.000,0.000
489222.269,-13.184,27.832,22.949,13.672,15.137,0.000,0.000,0.000
489222.273,-69.336,34.668,26.855,2.930,21.484,0.000,0.000,0.000
489222.277,27.344,33.203,23.438,24.902,19.531,0.000,0.000,0.000
489222.281,97.168,31.738,20.508,37.109,12.695,0.000,0.000,0.000
489222.285,17.578,36.621,27.832,8.789,13.184,0.000,0.000,0.000
489222.289,-87.402,32.715,26.367,-17.578,11.719,0.000,0.000,0.000
489222.293,-20.508,28.320,21.484,-2.441,0.000,0.000,0.000,0.000
489222.297,88.379,30.762,22.949,30.273,2.441,0.000,0.000,0.000
489222.301,42.969,22.461,21.973,24.414,5.859,0.000,0.000,0.000
489222.304,-76.172,23.438,25.391,-2.441,4.883,0.000,0.000,0.000
489222.308,-43.945,24.902,26.855,0.488,-15.137,0.000,0.000,0.000
489222.312,80.078,29.785,23.926,35.645,-37.109,0.000,0.000,0.000
489222.316,88.379,29.785,24.414,36.133,-40.039,0.000,0.000,0.000
489222.320,-38.086,30.762,27.832,3.906,-34.668,0.000,0.000,0.000
489222.324,-59.570,38.086,29.785,-1.465,-16.602,0.000,0.000,0.000
489222.328,57.129,35.645,28.809,29.785,-0.488,0.000,0.000,0.000
489222.332,103.027,28.320,28.320,48.828,10.742,0.000,0.000,0.000
489222.336,1.953,33.203,32.227,24.414,23.438,0.000,0.000,0.000
489222.340,-59.082,37.109,31.738,7.324,43.945,0.000,0.000,0.000
489222.344,44.434,30.762,25.391,34.180,52.246,0.000,0.000,0.000
489222.347,134.766,31.250,26.367,54.199,54.688,0.000,0.000,0.000
489222.351,58.594,29.297,27.832,36.133,73.242,0.000,0.000,0.000
489222.355,-41.504,27.832,29.297,13.184,75.195,0.000,0.000,0.000
489222.359,24.902,32.715,29.785,25.879,56.641,0.000,0.000,0.000
489222.363,125.488,32.715,27.832,52.246,49.805,0.000,0.000,0.000
489222.367,89.355,33.691,28.809,37.598,45.898,0.000,0.000,0.000
489222.371,-41.016,36.621,27.832,6.836,38.086,0.000,0.000,0.000
489222.375,-33.691,31.250,23.438,7.324,35.156,0.000,0.000,0.000
489222.379,89.844,32.227,27.832,39.062,37.109,0.000,0.000,0.000
489222.383,108.887,38.086,30.273,39.062,35.645,0.000,0.000,0.000
489222.386,-9.277,39.551,31.250,9.766,35.645,0.000,0.000,0.000
489222.390,-34.668,37.598,35.645,11.230,41.992,0.000,0.000,0.000
489222.394,72.754,35.645,36.133,37.598,47.363,0.000,0.000,0.000
489222.398,113.281,31.738,33.203,41.504,36.621,0.000,0.000,0.000
489222.402,13.672,28.320,34.668,19.043,18.066,0.000,0.000,0.000
489222.406,-72.266,24.414,31.250,0.488,12.695,0.000,0.000,0.000
489222.410,7.324,24.414,30.273,19.531,10.254,0.000,0.000,0.000
489222.414,103.516,38.086,33.203,43.945,11.230,0.000,0.000,0.000
489222.418,42.480,37.598,34.180,29.297,20.020,0.000,0.000,0.000
489222.422,-70.312,23.438,31.738,4.883,20.996,0.000,0.000,0.000
489222.426,-13.672,25.879,28.320,14.648,24.902,0.000,0.000,0.000
489222.429,103.027,30.273,30.762,38.574,39.062,0.000,0.000,0.000
489222.433,81.055,29.785,32.715,31.738,41.504,0.000,0.000,0.000
489222.437,-42.480,31.250,31.738,7.812,28.809,0.000,0.000,0.000
489222.441,-38.086,27.832,29.297,8.301,23.438,0.000,0.000,0.000
489222.445,82.520,25.391,31.250,38.574,25.391,0.000,0.000,0.000
489222.449,110.352,34.668,29.785,46.387,28.320,0.000,0.000,0.000
489222.453,-8.789,30.762,28.809,16.113,29.297,0.000,0.000,0.000
489222.457,-55.176,24.902,32.715,11.230,22.949,0.000,0.000,0.000
489222.461,51.758,28.809,31.738,34.180,23.926,0.000,0.000,0.000
489222.465,113.770,26.367,30.762,42.480,27.832,0.000,0.000,0.000
489222.469,21.484,25.879,31.250,25.391,28.320,0.000,0.000,0.000
489222.472,-65.430,28.809,30.762,1.465,30.762,0.000,0.000,0.000
489222.476,11.230,30.273,27.344,15.137,28.320,0.000,0.000,0.000
489222.480,108.398,30.762,30.273,44.922,28.320,0.000,0.000,0.000
489222.484,60.547,27.832,33.691,35.156,36.621,0.000,0.000,0.000
489222.488,-59.570,32.715,31.250,5.371,36.621,0.000,0.000,0.000
489222.492,-25.391,35.645,29.297,12.207,28.809,0.000,0.000,0.000
489222.496,91.797,24.902,23.438,39.062,28.320,0.000,0.000,0.000
489222.500,84.473,20.020,16.602,29.297,15.137,0.000,0.000,0.000
489222.504,-43.457,19.531,16.602,-2.930,4.883,0.000,0.000,0.000
489222.508,-50.781,21.484,20.020,-1.465,11.719,0.000,0.000,0.000
489222.511,68.359,26.367,21.484,40.039,17.090,0.000,0.000,0.000
489222.515,102.051,32.227,23.926,44.922,14.160,0.000,0.000,0.000
489222.519,-10.742,30.273,25.879,5.371,14.160,0.000,0.000,0.000
489222.523,-67.871,26.855,28.320,-6.836,25.879,0.000,0.000,0.000
489222.527,36.621,25.879,26.367,23.926,21.973,0.000,0.000,0.000
489222.531,114.746,27.832,25.391,39.062,6.348,0.000,0.000,0.000
489222.535,28.809,27.832,28.320,12.207,9.277,0.000,0.000,0.000
489222.539,-70.801,21.973,26.855,-4.395,13.184,0.000,0.000,0.000
489222.543,-0.977,22.461,21.484,14.648,14.648,0.000,0.000,0.000
489222.547,102.051,28.320,20.996,38.574,19.531,0.000,0.000,0.000
489222.551,65.430,32.227,26.855,27.832,24.902,0.000,0.000,0.000
489222.554,-49.805,32.715,27.344,6.348,29.785,0.000,0.000,0.000
489222.558,-23.438,32.715,23.926,14.160,29.297,0.000,0.000,0.000
489222.562,94.238,32.227,24.902,44.434,20.020,0.000,0.000,0.000
489222.566,102.051,37.109,27.344,47.852,23.438,0.000,0.000,0.000
489222.570,-24.414,33.203,24.414,15.137,27.344,0.000,0.000,0.000
489222.574,-47.363,22.461,23.926,4.883,27.344,4.000,1.000,90.000
489222.578,62.012,24.902,22.949,25.879,23.438,0.000,0.000,0.000
489222.582,99.121,28.809,21.973,36.621,12.695,0.000,0.000,0.000
489222.586,-4.395,28.320,26.367,13.672,8.301,0.000,0.000,0.000
489222.590,-72.754,26.855,25.391,1.465,13.672,0.000,0.000,0.000
489222.594,22.461,35.645,24.902,26.855,11.230,0.000,0.000,0.000
489222.597,106.934,34.180,22.949,46.387,2.441,0.000,0.000,0.000
489222.601,35.156,26.367,21.484,26.855,0.977,0.000,0.000,0.000
489222.605,-70.312,27.832,20.508,2.930,3.906,0.000,0.000,0.000
489222.609,-13.672,32.227,20.996,10.254,14.160,0.000,0.000,0.000
489222.613,100.098,36.621,25.391,33.691,27.344,0.000,0.000,0.000
489222.617,74.707,38.086,27.344,36.621,21.484,0.000,0.000,0.000
489222.621,-54.688,40.527,25.391,10.742,9.766,0.000,0.000,0.000
489222.625,-38.574,36.621,23.438,7.324,16.602,0.000,0.000,0.000
489222.629,86.914,39.062,22.461,36.621,18.555,0.000,0.000,0.000
489222.633,98.633,40.527,24.902,40.527,14.160,0.000,0.000,0.000
489222.636,-19.043,37.598,28.809,12.695,20.996,0.000,0.000,0.000
489222.640,-57.617,35.645,27.832,6.836,24.414,0.000,0.000,0.000
489222.644,49.316,25.391,26.367,40.039,15.625,0.000,0.000,0.000
489222.648,111.816,25.391,28.320,56.152,15.137,0.000,0.000,0.000
489222.652,5.371,28.809,28.809,20.508,11.719,0.000,0.000,0.000
489222.656,-75.195,24.902,27.344,-1.465,15.625,0.000,0.000,0.000
489222.660,18.555,30.273,28.809,25.391,26.367,0.000,0.000,0.000
489222.664,104.980,35.645,33.203,48.828,28.809,0.000,0.000,0.000
489222.668,37.109,35.156,36.621,30.762,23.438,0.000,0.000,0.000
489222.672,-74.707,30.762,34.180,8.301,17.578,0.000,0.000,0.000
489222.676,-20.996,32.715,33.203,20.508,21.484,0.000,0.000,0.000
489222.679,90.820,32.227,33.203,40.527,30.273,0.000,0.000,0.000
489222.683,68.359,30.273,34.180,35.156,35.645,0.000,0.000,0.000
489222.687,-49.316,29.297,32.715,9.277,25.879,0.000,0.000,0.000
489222.691,-47.852,23.926,27.344,6.348,29.297,0.000,0.000,0.000
489222.695,69.336,29.785,25.879,36.133,37.598,0.000,0.000,0.000
489222.699,98.145,33.691,25.391,40.039,18.555,0.000,0.000,0.000
489222.703,-18.555,33.203,28.809,19.531,8.789,0.000,0.000,0.000
489222.707,-64.453,30.273,30.762,11.719,16.113,0.000,0.000,0.000
489222.711,42.480,29.785,27.832,26.367,18.066,0.000,0.000,0.000
489222.715,106.934,31.250,26.367,42.480,21.973,0.000,0.000,0.000
489222.719,15.625,29.785,27.832,24.414,18.555,0.000,0.000,0.000
489222.722,-73.730,35.156,26.367,0.488,10.742,0.000,0.000,0.000
489222.726,8.789,33.691,23.438,19.043,9.277,0.000,0.000,0.000
489222.730,108.887,34.668,24.414,51.270,7.812,0.000,0.000,0.000
489222.734,57.617,39.062,28.320,37.598,4.395,0.000,0.000,0.000
489222.738,-55.176,33.691,32.227,16.113,11.719,0.000,0.000,0.000
489222.742,-15.137,38.574,30.273,26.367,17.090,0.000,0.000,0.000
489222.746,96.191,31.738,31.738,46.387,23.438,0.000,0.000,0.000
489222.750,89.844,21.973,34.180,49.805,32.715,0.000,0.000,0.000
489222.754,-23.926,28.320,32.227,21.484,31.250,0.000,0.000,0.000
489222.758,-31.250,28.320,30.273,13.672,27.832,0.000,0.000,0.000
489222.761,84.961,27.344,30.762,46.875,33.203,0.000,0.000,0.000
489222.765,124.023,28.320,31.738,57.617,51.270,0.000,0.000,0.000
489222.769,16.602,34.668,34.668,32.715,63.477,0.000,0.000,0.000
489222.773,-44.434,35.156,35.156,19.531,44.434,0.000,0.000,0.000
489222.777,59.082,41.016,36.133,48.340,28.320,0.000,0.000,0.000
489222.781,132.324,37.598,34.180,58.594,16.113,0.000,0.000,0.000
489222.785,41.504,27.344,34.180,32.715,12.207,0.000,0.000,0.000
489222.789,-50.781,36.621,32.227,13.184,16.602,0.000,0.000,0.000
489222.793,17.090,30.273,25.879,26.367,11.719,0.000,0.000,0.000
489222.797,120.605,22.949,27.344,54.688,17.578,0.000,0.000,0.000
489222.801,81.543,27.344,25.391,36.133,19.043,0.000,0.000,0.000
489222.804,-41.016,30.273,24.414,1.465,13.672,0.000,0.000,0.000
489222.808,-12.207,31.250,25.391,6.348,14.160,0.000,0.000,0.000
489222.812,102.051,34.180,24.902,33.203,15.137,0.000,0.000,0.000
489222.816,94.727,35.156,22.949,29.297,11.230,0.000,0.000,0.000
489222.820,-25.879,28.809,21.973,5.859,13.672,0.000,0.000,0.000
489222.824,-41.504,30.762,25.391,9.766,22.461,0.000,0.000,0.000
489222.828,70.312,32.227,25.391,31.250,25.391,0.000,0.000,0.000
489222.832,117.188,25.879,23.926,42.969,22.949,0.000,0.000,0.000
489222.836,17.090,28.320,23.926,24.902,26.855,0.000,0.000,0.000
489222.840,-44.434,31.250,23.438,8.789,39.551,0.000,0.000,0.000
489222.843,54.688,28.809,21.973,33.691,33.691,0.000,0.000,0.000
489222.847,136.230,36.133,25.879,57.617,26.367,0.000,0.000,0.000
489222.851,57.129,41.992,29.297,39.062,37.109,0.000,0.000,0.000
489222.855,-57.129,30.273,24.902,11.719,34.180,0.000,0.000,0.000
489222.859,3.418,30.273,23.926,21.484,20.020,0.000,0.000,0.000
489222.863,118.164,35.156,26.855,50.293,20.020,2.000,1.000,135.000
489222.867,87.402,32.715,31.250,49.316,28.809,0.000,0.000,0.000
489222.871,-34.180,27.344,29.297,20.508,27.344,0.000,0.000,0.000
489222.875,-15.137,30.273,22.949,19.531,27.832,0.000,0.000,0.000
489222.879,103.027,38.086,20.996,44.434,29.297,0.000,0.000,0.000
489222.883,116.699,39.062,22.949,47.852,23.926,0.000,0.000,0.000
489222.886,0.488,43.457,28.809,22.949,24.902,0.000,0.000,0.000
489222.890,-33.203,43.457,26.855,14.160,25.391,0.000,0.000,0.000
489222.894,70.801,28.320,21.973,37.598,15.137,0.000,0.000,0.000
489222.898,122.559,22.949,21.973,43.945,5.859,0.000,0.000,0.000
489222.902,25.879,28.320,24.414,17.090,10.742,0.000,0.000,0.000
489222.906,-49.316,28.320,26.855,-0.488,16.113,0.000,0.000,0.000
489222.910,38.574,26.855,27.344,26.855,21.484,0.000,0.000,0.000
489222.914,129.395,28.320,26.367,49.316,22.461,0.000,0.000,0.000
489222.918,61.523,31.738,25.391,24.902,15.625,0.000,0.000,0.000
489222.922,-49.316,36.621,23.438,5.371,26.855,0.000,0.000,0.000
489222.926,2.930,38.574,23.926,22.949,31.250,0.000,0.000,0.000
489222.929,113.281,40.527,27.832,48.828,16.602,0.000,0.000,0.000
489222.933,90.820,37.598,27.832,35.156,16.113,0.000,0.000,0.000
489222.937,-36.621,31.250,28.320,8.789,28.809,0.000,0.000,0.000
489222.941,-38.574,23.438,27.832,17.090,23.438,0.000,0.000,0.000
489222.945,85.938,26.367,25.879,41.016,8.789,0.000,0.000,0.000
489222.949,111.328,31.250,25.391,37.109,10.254,0.000,0.000,0.000
489222.953,-14.648,31.738,23.438,2.930,5.859,0.000,0.000,0.000
489222.957,-55.664,36.133,21.973,-3.418,6.836,0.000,0.000,0.000
489222.961,60.547,39.062,25.879,32.715,22.461,0.000,0.000,0.000
489222.965,122.070,36.621,25.391,42.969,20.508,0.000,0.000,0.000
489222.968,32.227,44.434,25.391,21.973,14.648,0.000,0.000,0.000
489222.972,-54.688,41.016,26.855,-3.418,20.996,0.000,0.000,0.000
489222.976,19.043,33.203,26.367,10.742,23.926,0.000,0.000,0.000
489222.980,109.863,37.598,27.344,36.133,17.090,0.000,0.000,0.000
489222.984,53.223,34.180,28.809,17.090,4.395,0.000,0.000,0.000
489222.988,-58.594,30.762,25.391,-10.742,-0.488,0.000,0.000,0.000
489222.992,-23.438,38.086,22.949,1.465,0.000,0.000,0.000,0.000
489222.996,84.961,37.598,26.367,32.227,0.000,0.000,0.000,0.000
489223.000,74.219,31.738,27.344,28.320,3.418,0.000,0.000,0.000
489223.004,-45.410,34.668,26.855,1.465,-6.348,0.000,0.000,0.000
489223.008,-49.805,39.062,29.297,3.418,-26.367,0.000,0.000,0.000
489223.011,60.059,37.598,28.809,33.691,-25.391,0.000,0.000,0.000
489223.015,83.496,30.762,27.344,36.621,-20.996,0.000,0.000,0.000
489223.019,-30.273,33.203,27.832,12.695,-24.902,0.000,0.000,0.000
489223.023,-76.660,35.156,28.320,5.859,-14.160,0.000,0.000,0.000
489223.027,32.227,36.133,30.273,35.156,6.348,0.000,0.000,0.000
489223.031,104.004,38.086,31.738,53.711,16.602,0.000,0.000,0.000
489223.035,20.020,37.598,31.250,31.738,28.809,0.000,0.000,0.000
489223.039,-72.754,34.668,31.250,14.648,42.969,0.000,0.000,0.000
489223.043,-0.977,33.691,30.273,30.762,42.969,0.000,0.000,0.000
489223.047,100.586,33.691,28.809,47.363,44.434,0.000,0.000,0.000
489223.051,56.641,40.039,32.715,34.668,52.246,0.000,0.000,0.000
489223.054,-62.500,41.016,35.645,11.230,46.875,0.000,0.000,0.000
489223.058,-33.691,30.273,30.762,13.672,38.086,0.000,0.000,0.000
489223.062,90.820,29.297,27.832,42.969,42.480,0.000,0.000,0.000
489223.066,98.145,31.250,29.297,44.434,39.062,0.000,0.000,0.000
489223.070,-30.273,32.715,28.809,14.160,33.203,0.000,0.000,0.000
489223.074,-48.828,33.691,25.879,2.930,37.598,0.000,0.000,0.000
489223.078,71.289,36.133,25.391,34.180,36.621,0.000,0.000,0.000
489223.082,112.793,38.086,26.855,46.387,31.738,0.000,0.000,0.000
489223.086,2.441,36.133,27.832,12.207,21.973,0.000,0.000,0.000
489223.090,-65.430,33.203,29.785,-0.977,22.461,0.000,0.000,0.000
489223.093,28.809,32.227,30.762,24.414,26.367,0.000,0.000,0.000
489223.097,108.887,30.762,27.832,41.992,10.254,0.000,0.000,0.000
489223.101,37.598,31.738,27.344,16.602,8.789,0.000,0.000,0.000
489223.105,-60.059,38.574,29.785,-5.371,17.090,0.000,0.000,0.000
489223.109,0.977,37.598,23.926,13.672,21.973,0.000,0.000,0.000
489223.113,112.305,32.715,21.484,37.598,23.438,0.000,0.000,0.000
489223.117,81.543,36.133,23.438,28.320,19.043,0.000,0.000,0.000
489223.121,-45.898,39.062,26.367,7.812,16.113,0.000,0.000,0.000
489223.125,-27.344,38.574,27.832,10.742,22.461,0.000,0.000,0.000
489223.129,91.309,37.109,22.461,35.645,27.832,0.000,0.000,0.000
489223.133,98.145,34.180,21.484,40.527,20.508,0.000,0.000,0.000
489223.136,-24.414,29.785,24.902,19.531,19.531,0.000,0.000,0.000
489223.140,-55.176,22.949,21.973,9.277,27.344,0.000,0.000,0.000
489223.144,57.617,20.508,20.020,33.691,27.344,0.000,0.000,0.000
489223.148,110.840,24.902,21.484,48.340,20.508,0.000,0.000,0.000
489223.152,11.719,27.344,26.855,28.320,28.320,0.000,0.000,0.000
489223.156,-68.359,24.414,31.250,12.207,27.344,0.000,0.000,0.000
489223.160,14.648,27.344,28.320,25.879,19.043,0.000,0.000,0.000
489223.164,104.980,35.156,31.738,46.875,29.785,0.000,0.000,0.000
489223.168,37.109,36.621,37.598,33.203,22.461,0.000,0.000,0.000
489223.172,-79.102,28.320,35.645,10.254,9.766,0.000,0.000,0.000
489223.175,-33.203,16.602,31.738,19.531,11.719,0.000,0.000,0.000
489223.179,80.078,14.160,27.832,44.434,10.254,0.000,0.000,0.000
489223.183,63.477,20.020,24.902,38.086,15.625,0.000,0.000,0.000
489223.187,-60.059,24.414,25.391,10.742,20.020,0.000,0.000,0.000
489223.191,-59.570,25.391,25.879,6.348,16.113,0.000,0.000,0.000
489223.195,60.547,31.738,25.391,38.086,19.531,0.000,0.000,0.000
489223.199,95.703,34.180,27.832,46.387,25.879,0.000,0.000,0.000
489223.203,-23.926,32.715,27.344,9.277,21.973,0.000,0.000,0.000
489223.207,-70.801,31.738,26.855,-3.418,20.996,0.000,0.000,0.000
489223.211,43.945,25.391,30.762,30.273,26.367,0.000,0.000,0.000
489223.215,110.352,23.438,27.344,47.363,24.902,0.000,0.000,0.000
489223.218,16.602,27.832,21.973,20.996,19.531,0.000,0.000,0.000
489223.222,-69.336,29.297,25.879,1.465,16.602,0.000,0.000,0.000
489223.226,9.766,33.691,27.832,17.090,16.113,0.000,0.000,0.000
489223.230,100.098,33.691,24.414,38.086,13.672,0.000,0.000,0.000
489223.234,48.828,36.133,29.785,30.273,6.836,0.000,0.000,0.000
489223.238,-65.918,37.598,29.785,4.395,4.883,0.000,0.000,0.000
489223.242,-28.320,29.785,24.902,8.789,25.391,0.000,0.000,0.000
489223.246,93.262,26.855,28.809,44.434,34.668,0.000,0.000,0.000
489223.250,80.078,25.879,33.203,38.086,15.137,0.000,0.000,0.000
489223.254,-46.387,27.344,32.227,-1.465,0.977,0.000,0.000,0.000
489223.258,-50.781,30.762,27.832,0.488,5.371,0.000,0.000,0.000
489223.261,61.523,25.391,24.902,31.250,7.812,0.000,0.000,0.000
489223.265,89.355,20.996,26.367,33.203,8.789,0.000,0.000,0.000
489223.269,-21.484,34.668,32.715,9.766,21.484,4.000,1.000,135.000
489223.273,-73.242,32.715,31.250,1.465,25.391,0.000,0.000,0.000
489223.277,34.668,20.020,24.902,23.926,27.344,0.000,0.000,0.000
489223.281,107.422,23.926,24.414,40.039,29.785,0.000,0.000,0.000
489223.285,23.926,28.809,29.785,26.855,32.227,0.000,0.000,0.000
489223.289,-64.941,32.715,33.691,9.766,35.156,0.000,0.000,0.000
489223.293,9.766,33.691,26.855,23.926,32.715,0.000,0.000,0.000
489223.297,106.934,29.785,23.438,45.410,27.344,0.000,0.000,0.000
489223.300,56.152,29.297,26.367,33.203,19.043,0.000,0.000,0.000
489223.304,-64.453,30.273,24.902,4.883,16.113,0.000,0.000,0.000
489223.308,-37.598,29.785,24.902,7.324,15.625,0.000,0.000,0.000
489223.312,77.148,29.297,26.855,28.809,15.625,0.000,0.000,0.000
489223.316,82.031,31.738,25.391,25.879,14.648,0.000,0.000,0.000
489223.320,-43.945,28.320,27.832,-1.465,13.184,0.000,0.000,0.000
489223.324,-68.848,20.020,28.320,-2.441,12.695,0.000,0.000,0.000
489223.328,51.758,26.367,27.832,33.691,2.930,0.000,0.000,0.000
489223.332,103.516,32.715,32.227,44.922,-3.418,0.000,0.000,0.000
489223.336,-3.906,32.227,31.738,18.066,-5.371,0.000,0.000,0.000
489223.340,-65.918,34.180,31.250,2.441,3.906,0.000,0.000,0.000
489223.343,36.621,34.180,35.156,21.973,8.789,0.000,0.000,0.000
489223.347,113.770,32.227,30.762,40.527,1.953,0.000,0.000,0.000
489223.351,37.598,27.344,28.320,24.902,6.836,0.000,0.000,0.000
489223.355,-68.359,27.832,31.250,0.977,13.184,0.000,0.000,0.000
489223.359,-13.672,31.250,29.785,12.695,14.160,0.000,0.000,0.000
489223.363,90.820,32.227,31.250,47.852,14.648,0.000,0.000,0.000
489223.367,61.523,40.039,36.621,44.434,27.344,0.000,0.000,0.000
489223.371,-56.641,44.922,37.109,15.625,39.551,0.000,0.000,0.000
489223.375,-41.992,40.527,33.203,15.137,28.809,0.000,0.000,0.000
489223.379,79.590,40.527,31.738,35.156,22.949,0.000,0.000,0.000
489223.383,92.285,32.715,29.785,40.039,24.414,0.000,0.000,0.000
489223.386,-35.645,23.438,33.691,12.207,27.344,0.000,0.000,0.000
489223.390,-66.406,29.297,33.691,1.953,29.785,0.000,0.000,0.000
489223.394,45.898,25.391,29.785,30.762,26.367,0.000,0.000,0.000
489223.398,99.609,24.414,28.320,42.480,27.832,0.000,0.000,0.000
489223.402,4.395,33.691,26.855,14.160,32.227,0.000,0.000,0.000
489223.406,-66.895,34.668,26.855,-3.906,44.434,0.000,0.000,0.000
489223.410,31.250,35.645,31.738,27.832,40.039,0.000,0.000,0.000
489223.414,128.906,34.668,31.250,52.246,27.832,0.000,0.000,0.000
489223.418,61.035,31.250,28.809,25.879,16.602,0.000,0.000,0.000
489223.422,-51.758,33.691,31.250,1.953,8.301,0.000,0.000,0.000
489223.425,-2.441,32.715,29.297,16.113,11.719,0.000,0.000,0.000
489223.429,101.562,28.320,23.926,36.621,6.836,0.000,0.000,0.000
489223.433,83.008,27.832,23.926,26.855,2.441,0.000,0.000,0.000
489223.437,-40.039,34.180,30.273,4.395,10.254,0.000,0.000,0.000
489223.441,-34.180,32.227,32.227,8.789,23.926,0.000,0.000,0.000
489223.445,84.961,25.391,33.691,39.551,25.391,0.000,0.000,0.000
489223.449,99.121,29.785,36.621,44.922,23.926,0.000,0.000,0.000
489223.453,-22.949,28.809,32.227,16.602,22.949,0.000,0.000,0.000
489223.457,-65.918,24.902,29.297,8.789,22.949,0.000,0.000,0.000
489223.461,36.133,28.320,25.879,30.762,30.273,0.000,0.000,0.000
489223.465,98.145,36.621,27.344,46.875,31.738,0.000,0.000,0.000
489223.468,7.812,31.250,30.762,24.902,21.973,0.000,0.000,0.000
489223.472,-75.684,27.344,29.785,1.465,23.438,0.000,0.000,0.000
489223.476,10.742,26.367,32.227,23.438,31.738,0.000,0.000,0.000
489223.480,105.957,21.484,33.691,48.340,29.785,0.000,0.000,0.000
489223.484,50.293,25.391,31.738,28.809,27.832,0.000,0.000,0.000
489223.488,-67.871,20.020,31.250,2.441,35.645,0.000,0.000,0.000
489223.492,-39.551,14.160,29.785,11.719,27.344,0.000,0.000,0.000
489223.496,73.730,23.438,30.273,39.062,7.812,0.000,0.000,0.000
489223.500,62.500,28.320,31.738,34.180,2.441,0.000,0.000,0.000
489223.504,-63.477,22.461,28.320,3.418,4.395,0.000,0.000,0.000
489223.508,-62.988,22.949,29.297,-5.371,12.695,0.000,0.000,0.000
489223.511,55.664,31.738,28.809,20.508,18.066,0.000,0.000,0.000
489223.515,86.914,37.109,25.391,33.203,15.625,0.000,0.000,0.000
489223.519,-21.973,33.691,23.926,7.324,15.137,0.000,0.000,0.000
489223.523,-78.613,30.273,17.090,-7.812,15.625,0.000,0.000,0.000
489223.527,25.391,32.227,15.137,21.484,18.066,0.000,0.000,0.000
489223.531,104.492,34.180,18.555,47.852,20.020,0.000,0.000,0.000
489223.535,27.344,38.086,20.996,21.973,17.578,0.000,0.000,0.000
489223.539,-61.523,36.621,25.879,0.488,25.879,0.000,0.000,0.000
489223.543,8.789,32.715,27.832,26.855,34.180,0.000,0.000,0.000
489223.547,118.652,38.086,26.367,48.340,28.320,0.000,0.000,0.000
489223.550,77.637,39.551,25.879,27.832,20.996,0.000,0.000,0.000
489223.554,-50.293,33.203,27.832,0.977,19.531,0.000,0.000,0.000
489223.558,-26.367,30.273,24.902,6.348,20.508,0.000,0.000,0.000
489223.562,86.426,31.738,20.508,32.715,18.066,0.000,0.000,0.000
489223.566,88.867,34.180,28.320,37.598,20.508,0.000,0.000,0.000
489223.570,-33.691,32.715,32.715,19.531,23.926,0.000,0.000,0.000
489223.574,-49.316,27.832,29.297,24.902,30.273,0.000,0.000,0.000
489223.578,72.266,29.297,32.715,53.223,40.527,0.000,0.000,0.000
489223.582,112.793,33.203,32.715,50.293,29.785,0.000,0.000,0.000
489223.586,4.883,36.133,34.180,17.090,13.672,0.000,0.000,0.000
489223.590,-55.664,37.109,38.574,-0.977,16.113,0.000,0.000,0.000
489223.593,34.668,37.598,36.621,23.926,16.602,0.000,0.000,0.000
489223.597,109.375,40.039,30.762,42.480,7.324,0.000,0.000,0.000
489223.601,28.320,33.203,28.320,16.113,0.977,0.000,0.000,0.000
489223.605,-78.613,34.668,29.297,-3.418,7.324,0.000,0.000,0.000
489223.609,-13.672,37.109,27.832,20.020,16.602,0.000,0.000,0.000
489223.613,98.633,27.832,28.320,50.293,14.648,0.000,0.000,0.000
489223.617,72.266,29.785,30.762,41.016,13.184,0.000,0.000,0.000
489223.621,-43.457,37.109,33.691,17.578,33.691,0.000,0.000,0.000
489223.625,-30.273,31.250,31.738,19.531,40.039,0.000,0.000,0.000
489223.629,77.637,26.855,29.297,40.527,17.578,0.000,0.000,0.000
489223.632,89.844,26.855,27.832,37.598,13.184,0.000,0.000,0.000
489223.636,-28.320,28.320,30.762,9.766,20.996,0.000,0.000,0.000
489223.640,-62.012,31.738,31.250,0.000,18.555,0.000,0.000,0.000
489223.644,52.734,35.156,26.855,29.785,22.461,0.000,0.000,0.000
489223.648,108.398,33.203,25.879,42.480,24.414,0.000,0.000,0.000
489223.652,12.695,32.715,24.414,10.254,23.438,0.000,0.000,0.000
489223.656,-54.199,35.156,21.973,-11.230,27.344,1.000,1.000,45.000
489223.660,37.109,40.039,26.855,13.184,27.832,0.000,0.000,0.000
489223.664,125.000,43.457,24.414,39.551,30.273,0.000,0.000,0.000
489223.668,52.734,40.039,20.020,15.625,23.438,0.000,0.000,0.000
489223.672,-63.965,35.645,21.484,-12.207,6.836,0.000,0.000,0.000
489223.675,-10.254,27.832,18.066,1.953,3.418,0.000,0.000,0.000
489223.679,101.562,23.926,14.648,36.133,3.418,0.000,0.000,0.000
489223.683,76.660,30.762,14.648,31.738,0.977,0.000,0.000,0.000
489223.687,-48.340,31.738,16.113,-7.324,-1.953,0.000,0.000,0.000
489223.691,-39.551,31.250,18.066,-6.836,-5.371,0.000,0.000,0.000
489223.695,80.078,30.762,19.531,26.855,-8.789,0.000,0.000,0.000
489223.699,103.516,30.762,22.949,30.762,-8.301,0.000,0.000,0.000
489223.703,-11.719,34.668,24.414,5.859,-1.465,0.000,0.000,0.000
489223.707,-60.547,24.902,20.508,-1.953,2.441,0.000,0.000,0.000
489223.711,40.039,16.602,17.090,20.508,-0.488,0.000,0.000,0.000
489223.715,102.539,19.531,17.090,38.086,10.742,0.000,0.000,0.000
489223.718,5.371,22.949,17.578,11.719,18.555,0.000,0.000,0.000
489223.722,-82.031,25.879,19.531,-5.859,13.672,0.000,0.000,0.000
489223.726,3.418,29.785,20.020,22.461,20.020,0.000,0.000,0.000
489223.730,99.609,25.879,16.113,50.781,24.902,0.000,0.000,0.000
489223.734,51.758,29.297,23.438,39.551,24.414,0.000,0.000,0.000
489223.738,-52.734,41.992,27.832,12.695,37.109,0.000,0.000,0.000
489223.742,-12.207,41.016,22.949,24.414,50.781,0.000,0.000,0.000
489223.746,96.191,30.273,21.484,46.875,56.641,0.000,0.000,0.000
489223.750,87.402,29.297,19.531,44.434,46.875,0.000,0.000,0.000
489223.754,-29.297,34.668,26.855,29.785,39.551,0.000,0.000,0.000
489223.757,-29.297,36.621,31.738,32.715,48.340,0.000,0.000,0.000
489223.761,87.891,30.273,28.320,62.500,50.293,0.000,0.000,0.000
489223.765,123.047,28.320,28.320,64.941,40.527,0.000,0.000,0.000
489223.769,8.789,30.762,28.809,35.645,36.133,0.000,0.000,0.000
489223.773,-54.199,31.250,23.926,24.414,39.551,0.000,0.000,0.000
489223.777,39.062,30.273,20.996,45.410,32.715,0.000,0.000,0.000
489223.781,104.980,28.809,26.367,55.664,29.297,0.000,0.000,0.000
489223.785,22.461,28.320,25.879,27.344,34.668,0.000,0.000,0.000
489223.789,-75.684,30.273,25.391,5.371,23.926,0.000,0.000,0.000
489223.793,-7.324,31.738,26.855,18.555,12.207,0.000,0.000,0.000
489223.797,95.703,32.715,28.320,41.504,18.555,0.000,0.000,0.000
489223.800,51.270,32.227,29.785,24.414,17.578,0.000,0.000,0.000
489223.804,-62.988,30.273,22.461,-9.277,9.277,0.000,0.000,0.000
489223.808,-32.227,30.762,18.066,1.465,8.789,0.000,0.000,0.000
489223.812,78.613,30.273,19.043,29.785,10.254,0.000,0.000,0.000
489223.816,75.195,25.391,18.555,18.555,12.207,0.000,0.000,0.000
489223.820,-44.434,29.297,21.973,-10.254,15.137,0.000,0.000,0.000
489223.824,-61.035,31.738,20.508,-15.137,17.578,0.000,0.000,0.000
489223.828,58.594,27.832,14.160,17.578,30.762,0.000,0.000,0.000
489223.832,108.887,27.344,14.160,34.180,33.691,0.000,0.000,0.000
489223.836,0.000,28.320,18.555,1.953,14.160,0.000,0.000,0.000
489223.840,-68.848,28.809,20.508,-17.090,9.766,0.000,0.000,0.000
489223.843,29.785,28.809,22.461,12.207,13.184,0.000,0.000,0.000
489223.847,109.375,23.438,20.020,33.691,7.812,0.000,0.000,0.000
489223.851,34.180,20.508,17.090,5.859,9.277,0.000,0.000,0.000
489223.855,-67.871,24.414,18.066,-11.719,6.836,0.000,0.000,0.000
489223.859,-2.441,26.855,19.043,10.742,10.742,0.000,0.000,0.000
489223.863,106.934,30.273,20.996,31.250,24.902,0.000,0.000,0.000
489223.867,65.918,30.273,19.531,17.090,15.625,0.000,0.000,0.000
489223.871,-52.246,32.227,18.555,-6.836,10.742,0.000,0.000,0.000
489223.875,-27.344,32.227,23.926,3.906,26.855,0.000,0.000,0.000
489223.879,92.285,28.320,24.414,34.668,29.297,0.000,0.000,0.000
489223.882,105.957,26.367,26.367,39.551,26.855,0.000,0.000,0.000
489223.886,-8.301,29.785,31.738,20.508,30.762,0.000,0.000,0.000
489223.890,-32.715,30.273,28.809,15.137,35.645,0.000,0.000,0.000
489223.894,78.613,29.297,29.297,43.945,35.156,0.000,0.000,0.000
489223.898,128.906,24.902,27.344,56.152,33.203,0.000,0.000,0.000
489223.902,35.156,19.043,28.809,24.414,41.992,0.000,0.000,0.000
489223.906,-36.621,26.367,34.180,9.277,54.199,0.000,0.000,0.000
489223.910,52.734,30.273,33.203,34.668,60.059,0.000,0.000,0.000
489223.914,137.207,24.414,31.738,54.688,57.129,0.000,0.000,0.000
489223.918,67.871,24.414,33.691,41.504,47.852,0.000,0.000,0.000
489223.922,-44.434,28.320,34.668,14.648,36.133,0.000,0.000,0.000
489223.925,-3.418,24.902,30.273,20.996,30.273,0.000,0.000,0.000
489223.929,106.934,27.344,31.250,53.223,38.086,0.000,0.000,0.000
489223.933,85.938,30.273,32.227,44.434,35.645,0.000,0.000,0.000
489223.937,-41.016,24.414,26.367,13.184,30.762,0.000,0.000,0.000
489223.941,-30.762,27.344,27.832,13.184,37.598,0.000,0.000,0.000
489223.945,88.867,25.879,29.785,42.480,36.133,0.000,0.000,0.000
489223.949,111.328,23.926,29.785,45.898,26.855,0.000,0.000,0.000
489223.953,-1.465,25.391,31.250,14.648,24.902,0.000,0.000,0.000
489223.957,-43.945,31.250,31.250,4.883,24.414,0.000,0.000,0.000
489223.961,62.500,32.227,31.250,34.180,29.297,0.000,0.000,0.000
489223.964,124.512,28.809,28.320,46.387,28.809,0.000,0.000,0.000
489223.968,32.715,33.691,32.227,21.484,22.461,0.000,0.000,0.000
489223.972,-46.387,47.363,35.645,10.742,18.555,0.000,0.000,0.000
489223.976,30.762,46.875,28.809,25.391,21.484,0.000,0.000,0.000
489223.980,119.629,32.715,28.320,36.133,20.020,0.000,0.000,0.000
489223.984,62.012,35.645,32.715,24.902,14.648,0.000,0.000,0.000
489223.988,-55.176,32.715,31.250,0.488,16.113,0.000,0.000,0.000
489223.992,-10.254,27.344,29.785,11.719,14.648,0.000,0.000,0.000
489223.996,105.469,36.133,33.691,49.805,12.695,0.000,0.000,0.000
489224.000,84.961,32.715,31.738,37.109,19.043,0.000,0.000,0.000
489224.004,-47.852,27.832,30.762,-0.488,15.625,0.000,0.000,0.000
489224.007,-57.129,31.250,31.738,1.953,0.977,0.000,0.000,0.000
489224.011,58.105,29.785,30.762,33.203,-5.371,0.000,0.000,0.000
489224.015,90.820,30.762,27.832,30.762,-2.441,0.000,0.000,0.000
489224.019,-14.160,25.391,26.855,0.488,3.418,0.000,0.000,0.000
489224.023,-64.453,24.414,28.320,-3.418,3.906,0.000,0.000,0.000
489224.027,38.086,27.832,31.250,31.250,15.625,0.000,0.000,0.000
489224.031,108.398,26.367,31.738,37.598,20.020,0.000,0.000,0.000
489224.035,25.879,27.344,29.785,15.625,19.043,0.000,0.000,0.000
489224.039,-62.012,32.715,28.320,5.859,19.531,0.000,0.000,0.000
489224.043,8.301,27.832,21.973,14.648,15.137,3.000,1.000,45.000
489224.047,111.816,21.484,19.531,40.039,18.555,0.000,0.000,0.000
489224.050,64.941,26.367,19.043,29.297,18.066,0.000,0.000,0.000
489224.054,-53.223,26.855,21.973,-1.465,18.555,0.000,0.000,0.000
489224.058,-14.648,25.391,26.855,11.230,24.902,0.000,0.000,0.000
489224.062,102.051,25.391,27.344,43.945,20.020,0.000,0.000,0.000
489224.066,98.633,24.414,27.832,41.504,14.648,0.000,0.000,0.000
489224.070,-25.879,30.762,31.250,18.066,18.066,0.000,0.000,0.000
489224.074,-48.828,28.809,28.320,8.789,12.695,0.000,0.000,0.000
489224.078,66.895,17.090,25.391,30.762,13.184,0.000,0.000,0.000
489224.082,114.258,20.996,27.344,45.898,13.184,0.000,0.000,0.000
489224.086,5.371,27.344,27.344,21.484,12.695,0.000,0.000,0.000
489224.089,-56.641,28.809,25.391,8.789,21.484,0.000,0.000,0.000
489224.093,44.922,30.762,27.832,36.621,33.203,0.000,0.000,0.000
489224.097,128.418,30.762,29.785,57.617,29.297,0.000,0.000,0.000
489224.101,55.664,31.738,30.762,41.504,16.602,0.000,0.000,0.000
489224.105,-47.852,33.691,33.691,13.184,22.949,0.000,0.000,0.000
489224.109,12.207,36.133,29.785,16.113,17.578,0.000,0.000,0.000
489224.113,117.676,32.227,25.879,40.039,-1.465,0.000,0.000,0.000
489224.117,83.496,35.156,30.273,33.691,-0.977,0.000,0.000,0.000
489224.121,-38.086,30.762,29.297,0.977,-2.930,0.000,0.000,0.000
489224.125,-20.508,19.531,23.926,-1.953,-4.395,0.000,0.000,0.000
489224.129,97.656,24.414,24.902,29.785,3.906,0.000,0.000,0.000
489224.132,115.723,32.227,24.414,36.133,6.348,0.000,0.000,0.000
489224.136,0.488,37.109,25.879,15.137,12.207,0.000,0.000,0.000
489224.140,-31.738,40.527,28.320,11.719,18.555,0.000,0.000,0.000
489224.144,83.008,42.969,31.250,36.133,23.438,0.000,0.000,0.000
489224.148,129.883,34.668,27.344,41.992,18.555,0.000,0.000,0.000
489224.152,26.367,34.180,25.879,12.207,13.184,0.000,0.000,0.000
489224.156,-41.016,40.527,31.738,-2.930,20.996,0.000,0.000,0.000
489224.160,50.293,35.156,28.809,21.484,25.391,0.000,0.000,0.000
489224.164,130.859,33.691,24.414,41.016,25.391,0.000,0.000,0.000
489224.168,62.012,38.574,27.832,23.926,26.367,0.000,0.000,0.000
489224.172,-47.852,38.086,30.273,3.418,26.367,0.000,0.000,0.000
489224.175,6.836,36.133,33.691,20.508,32.715,0.000,0.000,0.000
489224.179,116.211,41.504,33.203,41.504,32.715,0.000,0.000,0.000
489224.183,85.449,37.598,29.785,30.273,28.320,0.000,0.000,0.000
489224.187,-33.203,34.180,28.809,8.301,31.250,0.000,0.000,0.000
489224.191,-24.902,36.133,25.879,9.766,36.133,0.000,0.000,0.000
489224.195,81.055,29.297,21.973,32.227,34.180,0.000,0.000,0.000
489224.199,98.633,25.391,21.484,34.180,22.461,0.000,0.000,0.000
489224.203,-17.090,28.320,22.461,8.301,15.137,0.000,0.000,0.000
489224.207,-60.547,27.832,23.926,1.953,17.578,0.000,0.000,0.000
489224.211,50.293,25.879,22.461,28.809,19.531,0.000,0.000,0.000
489224.214,119.141,27.832,24.902,43.945,30.273,0.000,0.000,0.000
489224.218,21.484,31.738,31.250,26.367,42.969,0.000,0.000,0.000
489224.222,-63.477,42.480,29.297,16.602,32.715,0.000,0.000,0.000
489224.226,22.949,39.062,24.414,31.250,20.020,0.000,0.000,0.000
489224.230,116.699,33.203,25.391,44.922,21.484,0.000,0.000,0.000
489224.234,61.035,34.668,26.367,33.203,16.113,0.000,0.000,0.000
489224.238,-51.758,31.250,26.367,5.859,14.648,0.000,0.000,0.000
489224.242,-12.207,31.250,28.320,16.113,19.531,0.000,0.000,0.000
489224.246,98.633,34.180,29.297,44.922,21.484,0.000,0.000,0.000
489224.250,94.238,32.715,31.250,44.434,20.508,0.000,0.000,0.000
489224.254,-24.414,36.133,32.227,17.578,11.719,0.000,0.000,0.000
489224.257,-35.645,37.109,31.738,10.742,5.371,0.000,0.000,0.000
489224.261,82.520,31.738,31.250,40.527,6.836,0.000,0.000,0.000
489224.265,119.141,33.203,29.297,47.363,8.789,0.000,0.000,0.000
489224.269,8.789,29.297,29.785,18.555,10.254,0.000,0.000,0.000
489224.273,-43.945,25.391,32.227,7.324,13.672,0.000,0.000,0.000
489224.277,55.176,27.832,26.367,34.180,14.160,0.000,0.000,0.000
489224.281,128.418,34.180,27.344,52.246,11.230,0.000,0.000,0.000
489224.285,46.387,37.598,31.250,30.762,8.789,0.000,0.000,0.000
489224.289,-43.945,34.668,31.250,8.301,18.066,0.000,0.000,0.000
489224.293,30.762,39.551,33.691,33.691,32.227,0.000,0.000,0.000
489224.296,131.836,47.363,30.762,61.035,34.668,0.000,0.000,0.000
489224.300,82.031,40.039,26.855,37.109,22.949,0.000,0.000,0.000
489224.304,-42.480,34.668,31.738,12.695,19.043,0.000,0.000,0.000
489224.308,-13.184,36.133,31.250,15.625,21.484,0.000,0.000,0.000
489224.312,104.980,29.785,25.879,34.180,17.090,0.000,0.000,0.000
489224.316,104.492,28.809,25.391,32.715,14.160,0.000,0.000,0.000
489224.320,-23.926,30.762,23.926,3.906,23.438,0.000,0.000,0.000
489224.324,-35.156,30.762,27.832,8.301,35.156,0.000,0.000,0.000
489224.328,83.496,35.156,29.297,41.992,19.043,0.000,0.000,0.000
489224.332,114.258,39.551,27.832,42.969,-1.465,0.000,0.000,0.000
489224.336,10.254,39.062,29.785,12.207,0.488,0.000,0.000,0.000
489224.339,-54.199,31.738,24.902,-3.418,7.812,0.000,0.000,0.000
489224.343,33.203,26.855,20.996,17.578,8.301,0.000,0.000,0.000
489224.347,113.281,30.273,25.391,36.621,6.348,0.000,0.000,0.000
489224.351,37.109,34.668,30.273,24.902,18.066,0.000,0.000,0.000
489224.355,-69.336,27.344,28.809,3.418,25.879,1.000,1.000,45.000
489224.359,-6.836,28.809,26.855,12.207,16.602,0.000,0.000,0.000
489224.363,96.191,29.785,23.926,36.621,2.441,0.000,0.000,0.000
489224.367,66.406,27.832,30.273,32.227,7.812,0.000,0.000,0.000
489224.371,-48.340,35.156,36.621,4.883,17.090,0.000,0.000,0.000
489224.375,-32.715,36.133,29.785,11.230,18.555,0.000,0.000,0.000
489224.379,84.961,34.180,20.996,37.598,15.137,0.000,0.000,0.000
489224.382,96.680,30.273,21.484,29.785,17.090,0.000,0.000,0.000
489224.386,-18.555,30.762,25.879,7.812,23.438,0.000,0.000,0.000
489224.390,-49.316,36.133,27.832,3.906,25.879,0.000,0.000,0.000
489224.394,53.223,31.250,24.902,25.391,23.438,0.000,0.000,0.000
489224.398,114.258,27.344,22.949,41.992,21.973,0.000,0.000,0.000
489224.402,17.578,26.855,26.855,23.438,19.043,0.000,0.000,0.000
489224.406,-62.500,35.156,31.250,1.953,18.555,0.000,0.000,0.000
489224.410,29.297,38.086,28.809,20.996,21.484,0.000,0.000,0.000
489224.414,110.840,24.902,22.461,38.086,14.648,0.000,0.000,0.000
489224.418,48.828,26.855,24.414,23.438,14.160,0.000,0.000,0.000
489224.421,-48.340,32.227,24.414,0.000,16.113,0.000,0.000,0.000
489224.425,-3.418,22.949,21.484,6.348,19.043,0.000,0.000,0.000
489224.429,105.957,23.926,22.461,36.133,26.367,0.000,0.000,0.000
489224.433,82.520,29.297,23.438,26.855,16.113,0.000,0.000,0.000
489224.437,-46.875,32.227,22.949,-7.324,3.906,0.000,0.000,0.000
489224.441,-37.109,36.621,25.391,0.000,5.371,0.000,0.000,0.000
489224.445,86.914,39.551,25.879,29.297,6.836,0.000,0.000,0.000
489224.449,106.934,35.156,22.461,27.832,2.441,0.000,0.000,0.000
489224.453,-9.277,33.691,25.879,9.766,0.977,0.000,0.000,0.000
489224.457,-49.316,31.250,23.438,4.883,8.789,0.000,0.000,0.000
489224.461,62.012,27.344,18.555,26.367,21.484,0.000,0.000,0.000
489224.464,121.582,25.879,21.973,37.598,20.020,0.000,0.000,0.000
489224.468,21.484,21.484,20.996,5.371,10.742,0.000,0.000,0.000
489224.472,-61.035,31.738,22.949,-9.277,19.531,0.000,0.000,0.000
489224.476,16.113,38.086,26.855,13.672,15.137,0.000,0.000,0.000
489224.480,104.004,27.344,20.996,30.273,2.930,0.000,0.000,0.000
489224.484,49.805,29.297,24.902,15.137,6.836,0.000,0.000,0.000
489224.488,-59.570,33.691,28.320,-8.789,16.113,0.000,0.000,0.000
489224.492,-19.043,28.320,21.484,-0.977,21.973,0.000,0.000,0.000
489224.496,94.238,28.320,22.461,28.320,15.625,0.000,0.000,0.000
489224.500,89.844,34.668,27.344,32.715,19.043,0.000,0.000,0.000
489224.504,-27.344,36.133,28.809,16.113,31.250,0.000,0.000,0.000
489224.507,-29.785,32.227,26.855,10.254,33.691,0.000,0.000,0.000
489224.511,91.797,41.016,29.297,34.180,40.039,0.000,0.000,0.000
489224.515,119.629,41.016,31.250,43.457,39.062,0.000,0.000,0.000
489224.519,5.371,27.832,27.832,17.578,34.668,0.000,0.000,0.000
489224.523,-44.434,27.832,26.855,0.977,34.668,0.000,0.000,0.000
489224.527,56.152,30.762,23.926,19.531,29.297,0.000,0.000,0.000
489224.531,128.418,28.809,22.949,42.969,31.738,0.000,0.000,0.000
489224.535,41.504,25.879,28.320,28.809,44.922,0.000,0.000,0.000
489224.539,-52.246,26.855,29.297,11.230,41.016,0.000,0.000,0.000
489224.543,24.414,29.785,27.832,26.855,28.320,0.000,0.000,0.000
489224.546,126.465,39.551,30.273,57.129,33.203,0.000,0.000,0.000
489224.550,77.148,36.133,30.273,42.969,30.762,0.000,0.000,0.000
489224.554,-44.922,25.879,30.762,8.789,24.414,0.000,0.000,0.000
489224.558,-13.184,31.250,27.832,19.043,21.973,0.000,0.000,0.000
489224.562,103.027,30.762,26.855,48.828,21.484,0.000,0.000,0.000
489224.566,100.098,31.250,27.344,40.039,11.230,0.000,0.000,0.000
489224.570,-21.973,35.645,26.367,11.719,-2.930,0.000,0.000,0.000
489224.574,-42.480,38.574,24.902,6.836,-1.953,0.000,0.000,0.000
489224.578,73.730,37.109,23.438,34.180,4.395,0.000,0.000,0.000
489224.582,125.488,39.062,27.344,55.176,12.207,0.000,0.000,0.000
489224.586,11.719,39.551,25.879,27.344,10.254,0.000,0.000,0.000
489224.589,-62.500,29.785,21.484,1.953,9.277,0.000,0.000,0.000
489224.593,38.086,30.273,21.973,26.367,15.625,0.000,0.000,0.000
489224.597,115.723,31.738,20.996,41.992,14.160,0.000,0.000,0.000
489224.601,33.203,33.203,21.973,13.184,8.301,0.000,0.000,0.000
489224.605,-68.359,38.086,23.926,-9.766,12.207,0.000,0.000,0.000
489224.609,-1.465,41.992,24.414,9.766,21.973,0.000,0.000,0.000
489224.613,110.840,36.621,23.926,38.574,26.367,0.000,0.000,0.000
489224.617,82.031,32.715,22.949,29.297,21.484,0.000,0.000,0.000
489224.621,-40.039,34.180,23.438,-1.953,21.484,0.000,0.000,0.000
489224.625,-25.879,31.250,23.438,0.977,23.926,0.000,0.000,0.000
489224.629,90.820,29.785,25.391,33.203,27.344,0.000,0.000,0.000
489224.632,100.098,29.297,26.367,33.691,31.738,0.000,0.000,0.000
489224.636,-19.531,32.715,24.414,7.812,21.484,0.000,0.000,0.000
489224.640,-45.410,37.598,26.367,5.371,18.555,0.000,0.000,0.000
489224.644,67.871,34.180,25.391,40.527,22.461,0.000,0.000,0.000
489224.648,121.582,29.785,25.391,47.852,21.484,0.000,0.000,0.000
489224.652,22.461,34.180,28.809,18.555,20.996,0.000,0.000,0.000
489224.656,-61.035,24.902,26.367,5.371,19.043,0.000,0.000,0.000
489224.660,24.414,25.391,25.391,21.973,19.531,0.000,0.000,0.000
489224.664,117.676,35.156,28.809,41.504,22.461,0.000,0.000,0.000
489224.668,52.734,32.715,27.344,26.367,22.949,0.000,0.000,0.000
489224.671,-51.758,35.156,23.926,5.859,20.020,0.000,0.000,0.000
489224.675,0.000,33.691,23.438,21.973,23.926,0.000,0.000,0.000
489224.679,105.469,30.762,26.855,50.781,26.855,0.000,0.000,0.000
489224.683,86.914,38.086,27.344,44.434,28.320,0.000,0.000,0.000
489224.687,-35.156,36.621,23.438,20.508,27.832,0.000,0.000,0.000
489224.691,-31.738,31.250,24.902,20.020,25.879,0.000,0.000,0.000
489224.695,87.891,36.621,28.320,45.410,22.949,0.000,0.000,0.000
489224.699,110.352,35.645,28.809,48.828,24.414,0.000,0.000,0.000
489224.703,-8.301,33.691,31.250,16.113,24.414,0.000,0.000,0.000
489224.707,-57.129,31.250,27.832,-0.488,16.602,0.000,0.000,0.000
489224.711,51.270,27.344,20.996,24.414,18.555,0.000,0.000,0.000
489224.714,119.141,30.762,22.461,43.457,23.926,0.000,0.000,0.000
489224.718,27.832,37.109,25.391,25.391,26.855,0.000,0.000,0.000
489224.722,-53.711,35.645,23.926,8.301,28.320,0.000,0.000,0.000
489224.726,34.668,36.133,24.414,28.320,41.504,0.000,0.000,0.000
489224.730,125.488,40.527,29.297,47.363,43.945,0.000,0.000,0.000
489224.734,63.965,31.738,27.832,26.855,18.555,0.000,0.000,0.000
489224.738,-46.387,22.949,23.438,-5.371,10.742,0.000,0.000,0.000
489224.742,-4.883,26.855,27.344,10.254,24.902,0.000,0.000,0.000
489224.746,109.863,31.738,32.227,47.363,35.156,0.000,0.000,0.000
489224.750,96.191,32.227,28.809,41.504,33.691,0.000,0.000,0.000
489224.753,-32.227,28.320,27.344,10.254,16.113,3.000,1.000,45.000
489224.757,-29.785,30.273,29.785,9.277,21.484,0.000,0.000,0.000
489224.761,91.309,37.109,31.738,48.828,40.039,0.000,0.000,0.000
489224.765,117.676,29.297,30.273,52.246,26.367,0.000,0.000,0.000
489224.769,8.301,29.297,33.203,21.484,19.531,0.000,0.000,0.000
489224.773,-47.363,31.250,30.762,10.742,29.785,0.000,0.000,0.000
489224.777,55.176,23.926,26.367,38.086,29.785,0.000,0.000,0.000
489224.781,129.395,25.391,32.227,51.270,23.926,0.000,0.000,0.000
489224.785,37.109,27.344,34.180,22.949,24.414,0.000,0.000,0.000
489224.789,-55.664,25.391,29.297,8.301,33.203,0.000,0.000,0.000
489224.793,21.484,27.832,28.320,28.809,35.156,0.000,0.000,0.000
489224.796,115.723,29.785,29.297,50.781,28.320,0.000,0.000,0.000
489224.800,67.383,28.809,29.785,36.621,22.949,0.000,0.000,0.000
489224.804,-51.758,24.902,27.832,7.812,26.367,0.000,0.000,0.000
489224.808,-20.996,27.344,27.344,12.695,26.367,0.000,0.000,0.000
489224.812,95.215,31.738,24.902,38.574,15.625,0.000,0.000,0.000
489224.816,92.285,24.902,25.879,38.574,10.742,0.000,0.000,0.000
489224.820,-28.809,24.902,30.273,17.578,19.531,0.000,0.000,0.000
489224.824,-46.875,26.855,29.297,10.254,20.996,0.000,0.000,0.000
489224.828,69.336,27.344,29.785,37.109,20.020,0.000,0.000,0.000
489224.832,118.164,28.320,32.715,56.641,25.391,0.000,0.000,0.000
489224.836,11.230,24.414,35.156,31.738,20.996,0.000,0.000,0.000
489224.839,-51.758,20.996,32.227,9.277,26.855,0.000,0.000,0.000
489224.843,52.246,24.414,27.832,35.156,33.691,0.000,0.000,0.000
489224.847,137.695,30.762,30.762,58.105,23.438,0.000,0.000,0.000
489224.851,59.570,32.715,31.738,37.598,21.484,0.000,0.000,0.000
489224.855,-47.852,27.344,31.250,9.277,27.832,0.000,0.000,0.000
489224.859,10.254,26.855,27.344,12.207,18.066,0.000,0.000,0.000
489224.863,110.352,34.668,24.414,38.086,6.836,0.000,0.000,0.000
489224.867,74.219,31.738,25.879,31.250,9.766,0.000,0.000,0.000
489224.871,-50.293,26.367,23.438,-3.418,5.371,0.000,0.000,0.000
489224.875,-31.738,31.250,23.438,-6.348,1.953,0.000,0.000,0.000
489224.878,89.844,35.156,26.367,29.297,8.301,0.000,0.000,0.000
489224.882,101.074,33.203,23.926,37.109,7.812,0.000,0.000,0.000
489224.886,-21.973,32.227,26.855,10.254,10.742,0.000,0.000,0.000
489224.890,-58.105,30.762,29.297,1.465,24.902,0.000,0.000,0.000
489224.894,55.664,28.809,26.367,27.344,17.578,0.000,0.000,0.000
489224.898,115.723,32.715,25.879,40.527,5.371,0.000,0.000,0.000
489224.902,9.766,29.297,23.926,9.766,0.000,0.000,0.000,0.000
489224.906,-63.965,27.832,22.949,-7.812,7.324,0.000,0.000,0.000
489224.910,22.949,29.785,20.020,17.090,6.836,0.000,0.000,0.000
489224.914,102.539,27.832,18.066,39.062,3.418,0.000,0.000,0.000
489224.918,42.480,32.227,22.461,18.066,10.254,0.000,0.000,0.000
489224.921,-65.430,36.621,24.414,-14.648,10.742,0.000,0.000,0.000
489224.925,-12.695,40.039,24.414,3.418,15.625,0.000,0.000,0.000
489224.929,98.145,35.156,23.926,37.598,20.996,0.000,0.000,0.000
489224.933,70.312,25.391,21.973,25.391,21.973,0.000,0.000,0.000
489224.937,-48.340,28.320,26.855,-1.465,33.691,0.000,0.000,0.000
489224.941,-33.203,28.809,27.832,8.789,37.109,0.000,0.000,0.000
489224.945,87.402,29.785,23.438,37.109,16.602,0.000,0.000,0.000
489224.949,107.910,32.715,22.461,38.574,2.930,0.000,0.000,0.000
489224.953,-8.301,28.809,24.902,17.090,4.395,0.000,0.000,0.000
489224.957,-50.293,30.762,27.832,6.836,16.602,0.000,0.000,0.000
489224.961,49.316,29.785,24.902,30.273,10.254,0.000,0.000,0.000
489224.964,105.957,20.508,22.949,47.363,1.953,0.000,0.000,0.000
489224.968,17.090,26.855,25.879,28.809,13.184,0.000,0.000,0.000
489224.972,-62.500,33.203,27.344,6.836,19.043,0.000,0.000,0.000
489224.976,12.207,21.484,24.414,21.484,17.090,0.000,0.000,0.000
489224.980,105.957,19.531,26.855,52.246,20.508,0.000,0.000,0.000
489224.984,56.152,25.879,27.832,29.785,25.879,0.000,0.000,0.000
489224.988,-56.152,24.414,27.832,-7.812,26.367,0.000,0.000,0.000
489224.992,-17.090,25.879,29.785,6.836,20.020,0.000,0.000,0.000
489224.996,95.215,26.367,27.832,35.645,19.043,0.000,0.000,0.000
489225.000,86.426,28.809,28.809,34.180,23.438,0.000,0.000,0.000
489225.003,-38.574,31.250,29.297,9.277,24.902,0.000,0.000,0.000
489225.007,-48.340,23.926,28.320,5.371,25.879,0.000,0.000,0.000
489225.011,78.125,28.809,27.832,39.551,24.414,0.000,0.000,0.000
489225.015,113.281,28.320,26.855,51.270,16.113,0.000,0.000,0.000
489225.019,-3.906,21.484,29.297,22.949,11.719,0.000,0.000,0.000
489225.023,-55.176,24.902,29.297,12.695,18.066,0.000,0.000,0.000
489225.027,49.805,27.344,27.832,44.922,20.996,0.000,0.000,0.000
489225.031,116.699,24.414,26.855,60.547,12.207,0.000,0.000,0.000
489225.035,33.203,24.414,31.250,32.227,14.160,0.000,0.000,0.000
489225.039,-53.711,34.180,35.645,11.230,27.832,0.000,0.000,0.000
489225.043,19.531,38.574,33.691,27.832,29.785,0.000,0.000,0.000
489225.046,122.070,36.133,32.715,53.223,12.207,0.000,0.000,0.000
489225.050,71.289,32.715,32.715,33.691,2.930,0.000,0.000,0.000
489225.054,-44.922,32.227,33.691,-0.977,15.625,0.000,0.000,0.000
489225.058,-8.789,33.691,32.715,10.742,27.344,0.000,0.000,0.000
489225.062,106.934,36.621,36.133,47.852,22.461,0.000,0.000,0.000
489225.066,105.469,38.574,37.109,44.922,13.672,0.000,0.000,0.000
489225.070,-22.461,37.598,36.133,12.207,15.137,0.000,0.000,0.000
489225.074,-40.039,35.156,37.598,13.672,29.297,0.000,0.000,0.000
489225.078,70.312,30.273,33.691,38.574,29.785,1.000,1.000,0.000
489225.082,111.816,28.809,29.785,42.969,20.020,0.000,0.000,0.000
489225.085,5.859,25.879,31.738,23.926,20.508,0.000,0.000,0.000
489225.089,-59.082,27.344,32.715,10.742,23.926,0.000,0.000,0.000
489225.093,41.504,31.250,32.227,34.180,25.879,0.000,0.000,0.000
489225.097,118.652,34.180,34.668,57.617,20.508,0.000,0.000,0.000
489225.101,41.992,37.109,36.133,37.598,16.113,0.000,0.000,0.000
489225.105,-58.105,34.668,32.715,16.113,20.020,0.000,0.000,0.000
489225.109,2.441,29.785,31.250,27.832,25.391,0.000,0.000,0.000
489225.113,105.957,30.762,28.320,49.316,25.879,0.000,0.000,0.000
489225.117,70.801,32.227,23.926,35.156,18.555,0.000,0.000,0.000
489225.121,-50.293,30.273,27.344,3.906,19.531,0.000,0.000,0.000
489225.125,-37.598,21.484,28.320,9.766,28.809,0.000,0.000,0.000
489225.128,80.566,30.762,26.855,40.527,39.062,0.000,0.000,0.000
489225.132,89.355,35.645,29.297,39.551,32.227,0.000,0.000,0.000
489225.136,-28.809,32.715,32.227,16.113,16.113,0.000,0.000,0.000
489225.140,-53.711,38.574,35.156,12.207,12.695,0.000,0.000,0.000
489225.144,53.223,32.715,32.227,33.691,8.789,0.000,0.000,0.000
489225.148,103.027,24.902,25.391,40.527,5.859,0.000,0.000,0.000
489225.152,-2.930,23.926,25.391,13.672,7.812,0.000,0.000,0.000
489225.156,-70.801,26.367,26.855,-1.465,11.230,0.000,0.000,0.000
489225.160,29.297,34.180,22.461,21.484,19.531,0.000,0.000,0.000
489225.164,109.375,31.738,20.020,36.621,24.902,0.000,0.000,0.000
489225.168,40.527,24.414,20.508,14.160,26.367,0.000,0.000,0.000
489225.171,-61.035,35.156,24.414,-5.859,26.367,0.000,0.000,0.000
489225.175,-4.395,43.457,26.367,7.812,16.602,0.000,0.000,0.000
489225.179,105.469,39.551,23.926,31.250,13.184,0.000,0.000,0.000
489225.183,78.613,40.527,26.855,26.367,24.414,0.000,0.000,0.000
489225.187,-48.340,39.062,28.809,-3.418,21.484,0.000,0.000,0.000
489225.191,-47.852,32.227,20.996,-3.418,0.000,0.000,0.000,0.000
489225.195,68.848,35.156,19.043,31.738,2.930,0.000,0.000,0.000
489225.199,94.727,38.574,23.438,41.992,13.184,0.000,0.000,0.000
489225.203,-20.996,31.250,29.297,15.625,8.301,0.000,0.000,0.000
489225.207,-54.688,29.785,31.250,6.836,18.066,0.000,0.000,0.000
489225.210,60.547,38.086,29.785,40.039,27.832,0.000,0.000,0.000
489225.214,125.000,33.203,26.855,63.965,24.902,0.000,0.000,0.000
489225.218,32.715,26.855,25.879,38.574,23.438,0.000,0.000,0.000
489225.222,-50.781,31.738,27.832,10.254,28.320,0.000,0.000,0.000
489225.226,37.598,37.109,32.715,33.691,40.527,0.000,0.000,0.000
489225.230,129.395,43.457,27.832,58.105,38.086,0.000,0.000,0.000
489225.234,68.359,39.551,25.879,41.016,32.227,0.000,0.000,0.000
489225.238,-38.086,35.645,28.809,20.020,43.945,0.000,0.000,0.000
489225.242,8.301,39.062,28.320,27.832,42.480,0.000,0.000,0.000
489225.246,115.234,43.945,30.273,55.176,32.715,0.000,0.000,0.000
489225.250,94.727,41.016,26.855,49.316,27.344,0.000,0.000,0.000
489225.253,-27.344,30.273,26.855,17.578,31.250,0.000,0.000,0.000
489225.257,-36.133,30.762,30.273,17.090,30.273,0.000,0.000,0.000
489225.261,74.219,37.109,28.320,43.945,11.719,0.000,0.000,0.000
489225.265,107.910,42.480,27.832,43.457,6.836,0.000,0.000,0.000
489225.269,-4.395,38.574,27.832,14.160,9.766,0.000,0.000,0.000
489225.273,-58.105,34.180,27.344,0.977,10.742,0.000,0.000,0.000
489225.277,44.434,34.668,27.832,25.391,13.672,0.000,0.000,0.000
489225.281,115.234,35.645,30.762,43.945,19.531,0.000,0.000,0.000
489225.285,25.391,34.668,28.809,15.137,4.395,0.000,0.000,0.000
489225.289,-73.242,31.250,25.879,-9.766,-12.695,0.000,0.000,0.000
489225.293,4.883,35.645,28.320,8.301,-6.836,0.000,0.000,0.000
489225.296,106.445,33.203,26.367,29.785,0.000,0.000,0.000,0.000
489225.300,54.688,28.320,23.438,14.648,-4.395,0.000,0.000,0.000
489225.304,-65.918,24.902,25.391,-8.789,-1.953,0.000,0.000,0.000
489225.308,-27.344,28.809,28.809,4.395,9.766,0.000,0.000,0.000
489225.312,86.914,29.297,23.926,33.691,10.254,0.000,0.000,0.000
489225.316,77.637,26.367,25.391,32.715,7.324,0.000,0.000,0.000
489225.320,-44.922,29.785,25.391,5.371,6.348,0.000,0.000,0.000
489225.324,-58.594,30.762,22.461,0.488,7.324,0.000,0.000,0.000
489225.328,58.594,29.785,24.414,26.855,15.625,0.000,0.000,0.000
489225.332,103.516,32.715,26.367,38.574,19.531,0.000,0.000,0.000
489225.335,-0.977,37.109,23.438,12.695,2.441,0.000,0.000,0.000
489225.339,-65.918,29.297,23.926,-2.441,-1.953,0.000,0.000,0.000
489225.343,36.133,24.902,27.344,30.273,9.766,0.000,0.000,0.000
489225.347,115.723,25.391,25.391,52.246,11.719,0.000,0.000,0.000
489225.351,40.527,25.879,28.809,35.645,15.625,0.000,0.000,0.000
489225.355,-57.617,29.297,29.785,17.090,23.926,0.000,0.000,0.000
489225.359,5.371,29.785,24.902,28.809,25.391,0.000,0.000,0.000
489225.363,111.328,30.762,22.461,52.246,24.902,0.000,0.000,0.000
489225.367,75.195,39.062,25.879,44.434,17.578,0.000,0.000,0.000
489225.371,-41.016,41.016,25.879,14.160,16.602,0.000,0.000,0.000
489225.375,-22.949,30.762,22.461,6.348,36.621,0.000,0.000,0.000
489225.378,85.449,25.391,22.949,32.227,26.367,0.000,0.000,0.000
489225.382,90.820,26.855,21.484,36.133,-0.488,0.000,0.000,0.000
489225.386,-29.785,33.691,22.949,11.719,8.789,0.000,0.000,0.000
489225.390,-56.152,33.691,21.484,-0.977,16.113,0.000,0.000,0.000
489225.394,60.547,34.180,21.973,30.762,27.344,0.000,0.000,0.000
489225.398,110.352,37.109,25.391,46.387,33.203,0.000,0.000,0.000
489225.402,6.836,35.645,24.902,18.555,30.762,0.000,0.000,0.000
489225.406,-67.383,31.250,23.926,8.789,33.203,0.000,0.000,0.000
489225.410,23.926,34.668,27.832,33.203,28.320,0.000,0.000,0.000
489225.414,106.445,31.738,25.391,46.387,22.949,0.000,0.000,0.000
489225.418,38.086,23.438,24.902,25.391,20.508,0.000,0.000,0.000
489225.421,-57.129,27.832,27.344,2.441,20.996,0.000,0.000,0.000
489225.425,1.465,34.180,25.879,19.531,26.855,0.000,0.000,0.000
489225.429,109.375,32.227,25.391,50.781,26.855,0.000,0.000,0.000
489225.433,85.449,32.715,27.344,45.898,24.902,0.000,0.000,0.000
489225.437,-37.598,35.645,28.809,14.160,26.367,0.000,0.000,0.000
489225.441,-26.367,34.180,23.438,8.301,28.320,0.000,0.000,0.000
489225.445,92.773,32.227,23.926,38.574,24.414,0.000,0.000,0.000
489225.449,112.305,31.250,26.855,49.805,23.438,0.000,0.000,0.000
489225.453,-0.488,30.762,26.367,26.855,39.062,0.000,0.000,0.000
489225.457,-39.551,32.715,25.879,16.113,42.969,0.000,0.000,0.000
489225.460,69.336,33.203,24.902,41.016,27.344,0.000,0.000,0.000
489225.464,136.230,33.203,21.484,58.594,27.344,3.000,1.000,0.000
489225.468,46.387,38.574,24.902,36.621,33.203,0.000,0.000,0.000
489225.472,-46.387,38.574,26.367,8.301,28.809,0.000,0.000,0.000
489225.476,27.344,37.109,19.531,25.391,28.320,0.000,0.000,0.000
489225.480,119.141,36.621,18.555,54.688,30.273,0.000,0.000,0.000
489225.484,61.523,33.203,22.461,32.715,25.391,0.000,0.000,0.000
489225.488,-52.734,32.227,24.414,0.488,18.066,0.000,0.000,0.000
489225.492,-8.789,38.574,20.996,11.230,17.578,0.000,0.000,0.000
489225.496,107.910,39.062,20.508,41.016,19.043,0.000,0.000,0.000
489225.500,100.098,41.992,24.414,40.527,17.578,0.000,0.000,0.000
489225.503,-24.414,40.527,25.391,9.766,15.625,0.000,0.000,0.000
489225.507,-30.273,37.109,24.902,9.766,20.020,0.000,0.000,0.000
489225.511,84.473,37.109,20.508,38.574,24.414,0.000,0.000,0.000
489225.515,114.258,32.715,17.578,41.504,18.555,0.000,0.000,0.000
489225.519,4.883,33.203,19.531,13.672,19.531,0.000,0.000,0.000
489225.523,-44.434,37.109,23.926,5.371,20.996,0.000,0.000,0.000
489225.527,56.152,36.133,25.391,30.762,19.531,0.000,0.000,0.000
489225.531,123.047,30.273,26.367,44.922,15.137,0.000,0.000,0.000
489225.535,38.574,33.203,29.297,27.832,15.625,0.000,0.000,0.000
489225.539,-50.293,39.062,26.367,7.812,27.832,0.000,0.000,0.000
489225.542,23.438,35.645,24.902,21.973,28.320,0.000,0.000,0.000
489225.546,120.117,31.738,25.879,43.457,34.180,0.000,0.000,0.000
489225.550,66.406,33.203,24.902,26.855,24.414,0.000,0.000,0.000
489225.554,-50.781,32.715,26.367,3.906,10.254,0.000,0.000,0.000
489225.558,-18.066,35.645,29.785,17.090,23.926,0.000,0.000,0.000
489225.562,95.703,45.410,32.715,45.898,22.461,0.000,0.000,0.000
489225.566,94.238,41.016,31.738,41.504,12.695,0.000,0.000,0.000
489225.570,-26.367,33.691,28.320,7.812,15.625,0.000,0.000,0.000
489225.574,-42.480,33.203,24.414,-0.977,13.672,0.000,0.000,0.000
489225.578,69.824,30.762,24.414,26.855,10.254,0.000,0.000,0.000
489225.582,112.305,32.227,26.855,38.086,18.066,0.000,0.000,0.000
489225.585,7.812,31.250,27.344,18.066,16.113,0.000,0.000,0.000
489225.589,-55.176,32.715,27.344,7.324,13.672,0.000,0.000,0.000
489225.593,37.109,33.691,26.855,24.414,16.113,0.000,0.000,0.000
489225.597,118.652,29.297,29.297,45.898,18.066,0.000,0.000,0.000
489225.601,49.316,33.203,31.250,31.738,22.949,0.000,0.000,0.000
489225.605,-50.293,36.133,31.738,10.742,23.926,0.000,0.000,0.000
489225.609,14.648,37.598,28.320,24.414,24.414,0.000,0.000,0.000
489225.613,120.117,34.668,26.367,48.340,29.297,0.000,0.000,0.000
489225.617,83.008,31.738,28.320,37.598,38.086,0.000,0.000,0.000
489225.621,-35.645,34.180,29.785,8.789,36.621,0.000,0.000,0.000
489225.625,-17.090,35.156,27.344,12.207,25.391,0.000,0.000,0.000
489225.628,97.656,34.668,26.367,44.922,30.762,0.000,0.000,0.000
489225.632,109.863,36.621,28.809,45.898,40.039,0.000,0.000,0.000
489225.636,-14.648,41.016,25.879,14.160,43.945,0.000,0.000,0.000
489225.640,-45.898,37.598,29.297,11.719,41.504,0.000,0.000,0.000
489225.644,64.453,31.250,27.344,31.250,33.203,0.000,0.000,0.000
489225.648,119.629,31.738,23.438,37.598,26.367,0.000,0.000,0.000
489225.652,16.113,32.227,26.855,15.625,15.625,0.000,0.000,0.000
489225.656,-61.523,34.668,27.832,-0.977,10.742,0.000,0.000,0.000
489225.660,27.832,35.645,26.855,17.090,-0.488,0.000,0.000,0.000
489225.664,108.398,36.133,29.785,39.062,-9.277,0.000,0.000,0.000
489225.667,40.039,38.574,29.785,20.020,-5.859,0.000,0.000,0.000
489225.671,-64.453,33.691,28.809,-4.395,0.977,0.000,0.000,0.000
489225.675,-13.672,28.320,25.879,4.395,3.906,0.000,0.000,0.000
489225.679,91.309,24.902,22.461,26.367,-0.488,0.000,0.000,0.000
489225.683,68.359,26.367,28.809,28.320,2.441,0.000,0.000,0.000
489225.687,-52.246,30.273,29.785,3.906,11.719,0.000,0.000,0.000
489225.691,-39.551,28.320,27.832,7.812,21.973,0.000,0.000,0.000
489225.695,76.660,28.809,27.832,35.645,23.926,0.000,0.000,0.000
489225.699,96.680,37.109,28.809,43.457,24.414,0.000,0.000,0.000
489225.703,-13.672,37.598,29.785,20.508,31.250,0.000,0.000,0.000
489225.707,-51.758,33.691,28.809,7.812,31.738,0.000,0.000,0.000
489225.710,55.664,37.109,24.902,29.297,35.156,0.000,0.000,0.000
489225.714,110.840,35.156,20.996,43.457,34.180,0.000,0.000,0.000
489225.718,17.090,29.297,23.438,20.020,26.367,0.000,0.000,0.000
489225.722,-62.988,30.762,27.832,1.953,29.297,0.000,0.000,0.000
489225.726,19.531,33.203,26.367,23.926,37.109,0.000,0.000,0.000
489225.730,114.258,31.738,24.902,49.805,30.762,0.000,0.000,0.000
489225.734,57.129,36.133,28.320,37.598,23.926,0.000,0.000,0.000
489225.738,-48.828,29.785,27.344,15.625,27.344,0.000,0.000,0.000
489225.742,-5.859,29.785,28.320,26.855,30.273,0.000,0.000,0.000
489225.746,91.797,36.133,28.809,47.852,25.879,0.000,0.000,0.000
489225.750,70.312,29.297,25.391,36.133,13.672,0.000,0.000,0.000
489225.753,-51.270,28.320,27.344,8.301,11.719,0.000,0.000,0.000
489225.757,-57.129,27.344,28.320,0.977,10.742,0.000,0.000,0.000
489225.761,63.477,29.297,27.832,25.879,12.695,0.000,0.000,0.000
489225.765,100.098,30.273,30.762,33.691,17.578,0.000,0.000,0.000
489225.769,-15.137,30.762,32.227,7.324,17.090,0.000,0.000,0.000
489225.773,-69.336,30.762,29.297,-1.465,20.020,0.000,0.000,0.000
489225.777,35.645,31.738,30.762,23.926,28.809,0.000,0.000,0.000
489225.781,105.469,33.203,30.762,41.016,24.414,0.000,0.000,0.000
489225.785,18.066,33.203,28.809,17.090,10.254,0.000,0.000,0.000
489225.789,-75.684,34.668,27.344,-7.324,3.418,0.000,0.000,0.000
489225.792,3.418,30.273,24.414,11.230,8.301,0.000,0.000,0.000
489225.796,107.910,35.156,29.297,43.457,24.902,0.000,0.000,0.000
489225.800,59.082,39.551,32.227,32.227,20.020,0.000,0.000,0.000
489225.804,-54.199,37.598,30.273,6.348,10.742,2.000,1.000,45.000
489225.808,-22.949,31.250,26.855,12.207,13.672,0.000,0.000,0.000
489225.812,96.191,32.227,28.320,37.109,26.855,0.000,0.000,0.000
489225.816,91.797,33.203,24.414,33.691,31.738,0.000,0.000,0.000
489225.820,-37.598,23.926,21.973,6.348,13.672,0.000,0.000,0.000
489225.824,-53.223,23.438,20.508,0.488,11.719,0.000,0.000,0.000
489225.828,60.059,25.879,19.531,31.250,20.020,0.000,0.000,0.000
489225.832,102.051,28.320,26.367,41.504,9.766,0.000,0.000,0.000
489225.835,-0.977,26.855,31.250,12.695,7.324,0.000,0.000,0.000
489225.839,-61.035,26.855,32.227,-4.883,7.812,0.000,0.000,0.000
489225.843,33.203,27.344,27.832,20.508,3.418,0.000,0.000,0.000
489225.847,104.980,26.367,30.762,41.504,-0.977,0.000,0.000,0.000
489225.851,22.461,25.391,31.738,12.207,-2.930,0.000,0.000,0.000
489225.855,-70.801,24.414,25.879,-12.207,4.883,0.000,0.000,0.000
489225.859,-1.465,26.367,23.926,8.301,10.254,0.000,0.000,0.000
489225.863,100.586,29.785,27.344,34.180,11.719,0.000,0.000,0.000
489225.867,68.359,30.762,30.762,29.785,15.625,0.000,0.000,0.000
489225.871,-47.363,30.762,28.320,9.766,21.973,0.000,0.000,0.000
489225.874,-23.438,26.855,26.855,13.672,29.297,0.000,0.000,0.000
489225.878,93.262,24.414,29.297,45.898,31.738,0.000,0.000,0.000
489225.882,102.051,28.809,33.203,51.270,27.344,0.000,0.000,0.000
489225.886,-13.184,34.180,37.109,22.949,23.438,0.000,0.000,0.000
489225.890,-36.133,40.039,35.645,10.742,25.879,0.000,0.000,0.000
489225.894,71.289,34.180,27.344,33.691,19.531,0.000,0.000,0.000
489225.898,121.094,30.273,25.879,45.898,22.461,0.000,0.000,0.000
489225.902,20.020,32.227,27.344,21.973,40.039,0.000,0.000,0.000
489225.906,-51.270,33.203,26.855,7.812,33.691,0.000,0.000,0.000
489225.910,40.039,30.273,22.949,31.250,12.207,0.000,0.000,0.000
489225.914,117.188,28.809,20.996,44.922,10.254,0.000,0.000,0.000
489225.917,45.898,32.227,22.461,18.066,14.648,0.000,0.000,0.000
489225.921,-61.523,38.086,26.855,-2.930,21.484,0.000,0.000,0.000
489225.925,-9.766,38.574,24.902,9.766,19.531,0.000,0.000,0.000
489225.929,97.656,30.273,24.414,36.621,17.090,0.000,0.000,0.000
489225.933,74.707,30.273,26.855,34.668,14.160,0.000,0.000,0.000
489225.937,-48.828,32.715,27.832,6.836,4.883,0.000,0.000,0.000
489225.941,-43.457,25.879,29.297,7.812,-6.348,0.000,0.000,0.000
489225.945,69.824,25.879,26.855,32.227,-21.973,0.000,0.000,0.000
489225.949,90.820,32.715,27.832,30.762,-35.645,0.000,0.000,0.000
489225.953,-23.926,35.645,30.762,-1.465,-35.645,0.000,0.000,0.000
489225.957,-65.918,41.016,32.227,-10.254,-21.973,0.000,0.000,0.000
489225.960,41.016,41.504,28.320,21.973,-3.906,0.000,0.000,0.000
489225.964,109.863,30.762,27.344,41.016,12.207,0.000,0.000,0.000
489225.968,18.066,31.738,27.344,18.555,25.879,0.000,0.000,0.000
489225.972,-69.336,26.855,28.320,1.953,39.551,0.000,0.000,0.000
489225.976,19.531,20.508,30.273,26.367,52.734,0.000,0.000,0.000
489225.980,117.188,27.832,27.344,47.852,37.598,0.000,0.000,0.000
489225.984,51.758,27.344,26.367,26.855,30.273,0.000,0.000,0.000
489225.988,-62.988,24.414,26.855,-0.488,46.875,0.000,0.000,0.000
489225.992,-21.484,29.297,24.902,10.742,35.156,0.000,0.000,0.000
489225.996,89.844,38.574,26.367,39.062,21.973,0.000,0.000,0.000
489225.999,80.078,37.109,25.879,29.785,27.832,0.000,0.000,0.000
489226.003,-44.922,24.902,20.996,1.465,23.926,0.000,0.000,0.000
489226.007,-51.758,22.949,21.484,5.371,26.367,0.000,0.000,0.000
489226.011,63.965,23.438,22.461,33.203,31.250,0.000,0.000,0.000
489226.015,99.609,22.461,24.902,39.062,31.250,0.000,0.000,0.000
489226.019,-4.883,26.367,29.785,18.066,41.504,0.000,0.000,0.000
489226.023,-53.711,30.762,30.762,8.789,45.410,0.000,0.000,0.000
489226.027,41.992,32.227,30.762,29.297,33.691,0.000,0.000,0.000
489226.031,104.980,33.691,29.297,44.922,27.344,0.000,0.000,0.000
489226.035,21.973,41.016,32.227,27.344,25.879,0.000,0.000,0.000
489226.039,-68.848,38.574,31.250,5.371,23.438,0.000,0.000,0.000
489226.042,0.488,31.250,28.320,23.438,23.438,0.000,0.000,0.000
489226.046,93.262,29.297,25.879,47.363,20.508,0.000,0.000,0.000
489226.050,44.922,24.414,23.926,29.785,18.555,0.000,0.000,0.000
489226.054,-58.105,25.391,23.926,0.977,25.391,0.000,0.000,0.000
489226.058,-20.020,29.297,27.832,15.137,42.480,0.000,0.000,0.000
489226.062,90.332,34.180,29.785,45.898,38.086,0.000,0.000,0.000
489226.066,93.262,36.621,29.785,41.992,32.227,0.000,0.000,0.000
489226.070,-16.602,45.410,31.250,17.578,40.527,0.000,0.000,0.000
489226.074,-33.203,45.410,29.297,13.672,43.945,0.000,0.000,0.000
489226.078,72.266,28.809,27.832,44.434,38.086,0.000,0.000,0.000
489226.082,109.863,24.414,23.926,43.945,10.742,0.000,0.000,0.000
489226.085,6.836,29.297,21.973,6.836,-2.930,0.000,0.000,0.000
489226.089,-55.664,29.785,22.461,-5.371,9.277,0.000,0.000,0.000
489226.093,38.574,29.785,24.902,20.996,18.066,0.000,0.000,0.000
489226.097,119.629,32.715,25.391,40.039,18.555,0.000,0.000,0.000
489226.101,47.363,33.691,29.297,21.973,28.809,0.000,0.000,0.000
489226.105,-45.410,41.504,29.785,3.418,50.781,0.000,0.000,0.000
489226.109,13.672,36.133,22.949,19.531,49.805,0.000,0.000,0.000
489226.113,109.863,21.973,20.508,40.039,28.809,0.000,0.000,0.000
489226.117,78.125,29.297,23.438,30.762,24.414,0.000,0.000,0.000
489226.121,-43.945,31.250,27.832,3.906,25.391,0.000,0.000,0.000
489226.124,-25.879,29.297,29.785,8.789,27.832,0.000,0.000,0.000
489226.128,90.332,34.668,31.738,40.527,26.855,0.000,0.000,0.000
489226.132,94.727,35.156,28.320,39.062,13.672,0.000,0.000,0.000
489226.136,-23.926,32.227,30.762,17.090,20.020,0.000,0.000,0.000
489226.140,-52.734,32.715,32.227,4.883,36.621,0.000,0.000,0.000
489226.144,62.500,32.227,28.809,29.785,31.738,0.000,0.000,0.000
489226.148,112.793,31.250,29.297,49.316,23.926,0.000,0.000,0.000
489226.152,11.719,27.344,31.250,26.367,31.250,0.000,0.000,0.000
489226.156,-54.199,22.461,29.785,10.254,28.809,0.000,0.000,0.000
489226.160,37.598,21.484,23.926,25.879,15.137,0.000,0.000,0.000
489226.164,120.117,29.297,24.414,48.340,19.531,0.000,0.000,0.000
489226.167,51.270,38.086,24.414,37.109,23.438,0.000,0.000,0.000
489226.171,-48.340,38.086,24.414,9.277,25.879,0.000,0.000,0.000
489226.175,9.277,41.504,26.367,20.996,31.250,0.000,0.000,0.000
489226.179,113.770,40.527,23.926,46.387,31.250,0.000,0.000,0.000
489226.183,82.520,28.320,20.996,33.691,21.973,0.000,0.000,0.000
489226.187,-40.039,26.367,21.484,3.418,16.602,0.000,0.000,0.000
489226.191,-33.691,28.809,20.508,0.977,15.625,0.000,0.000,0.000
489226.195,77.637,30.762,22.461,30.762,18.066,0.000,0.000,0.000
489226.199,97.656,35.156,27.832,36.133,21.973,0.000,0.000,0.000
489226.203,-23.438,30.273,26.855,9.277,26.367,0.000,0.000,0.000
489226.206,-61.035,25.879,26.855,-2.441,28.320,4.000,1.000,45.000
489226.210,55.664,32.715,27.832,24.414,23.438,0.000,0.000,0.000
489226.214,114.746,30.762,22.949,43.945,22.461,0.000,0.000,0.000
489226.218,17.578,24.902,22.461,22.949,20.996,0.000,0.000,0.000
489226.222,-74.707,24.902,20.508,0.977,25.879,0.000,0.000,0.000
489226.226,3.418,22.949,16.602,16.602,28.809,0.000,0.000,0.000
489226.230,103.516,31.250,18.066,41.992,17.578,0.000,0.000,0.000
489226.234,45.410,33.691,21.484,27.344,9.277,0.000,0.000,0.000
489226.238,-63.965,36.621,24.902,0.488,31.250,0.000,0.000,0.000
489226.242,-9.277,43.945,26.855,12.695,41.504,0.000,0.000,0.000
489226.246,98.633,32.715,24.902,39.062,19.531,0.000,0.000,0.000
489226.249,80.078,23.926,21.973,27.832,12.695,0.000,0.000,0.000
489226.253,-35.645,28.320,22.949,0.977,17.578,0.000,0.000,0.000
489226.257,-40.039,30.762,25.391,0.488,22.949,0.000,0.000,0.000
489226.261,80.078,37.598,25.879,29.785,25.879,0.000,0.000,0.000
489226.265,115.234,39.551,23.438,35.156,24.414,0.000,0.000,0.000
489226.269,0.000,39.062,24.414,4.395,22.949,0.000,0.000,0.000
489226.273,-51.270,38.086,28.320,-0.488,24.902,0.000,0.000,0.000
489226.277,55.664,39.551,28.320,25.879,30.273,0.000,0.000,0.000
489226.281,124.023,43.457,27.832,39.062,28.809,0.000,0.000,0.000
489226.285,35.156,40.039,33.203,24.902,28.320,0.000,0.000,0.000
489226.289,-54.688,34.668,34.180,3.906,31.250,0.000,0.000,0.000
489226.292,20.020,26.367,26.855,17.090,26.855,0.000,0.000,0.000
489226.296,115.723,24.902,24.414,41.504,23.926,0.000,0.000,0.000
489226.300,62.012,32.227,28.320,29.297,31.738,0.000,0.000,0.000
489226.304,-53.711,28.320,30.273,5.371,32.715,0.000,0.000,0.000
489226.308,-19.531,29.297,27.832,12.695,28.809,0.000,0.000,0.000
489226.312,91.309,31.738,27.344,36.621,19.531,0.000,0.000,0.000
489226.316,87.402,36.621,26.855,31.250,12.695,0.000,0.000,0.000
489226.320,-32.227,39.062,24.902,3.906,7.324,0.000,0.000,0.000
489226.324,-48.340,26.855,22.949,3.906,10.742,0.000,0.000,0.000
489226.328,65.918,28.809,24.902,30.273,28.320,0.000,0.000,0.000
489226.331,109.375,33.203,27.344,41.504,23.438,0.000,0.000,0.000
489226.335,4.395,31.250,27.832,16.602,9.277,0.000,0.000,0.000
489226.339,-56.152,29.785,25.879,-3.906,13.672,0.000,0.000,0.000
489226.343,46.875,37.109,22.461,20.020,22.461,0.000,0.000,0.000
489226.347,130.371,44.434,22.461,44.922,29.297,0.000,0.000,0.000
489226.351,46.387,34.668,26.855,30.762,29.785,0.000,0.000,0.000
489226.355,-60.547,39.551,32.715,-1.465,16.602,0.000,0.000,0.000
489226.359,4.395,43.945,28.809,7.324,5.371,0.000,0.000,0.000
489226.363,107.422,30.273,25.391,39.062,-3.906,0.000,0.000,0.000
489226.367,70.312,25.879,28.809,27.344,-13.184,0.000,0.000,0.000
489226.371,-43.457,32.227,30.273,2.441,-8.301,0.000,0.000,0.000
489226.374,-23.438,30.762,26.855,9.766,-2.441,0.000,0.000,0.000
489226.378,87.891,27.832,26.855,42.969,12.695,0.000,0.000,0.000
489226.382,97.656,31.250,31.250,46.387,25.391,0.000,0.000,0.000
489226.386,-21.973,34.180,34.668,19.531,21.973,0.000,0.000,0.000
489226.390,-58.594,34.180,33.691,8.301,12.695,0.000,0.000,0.000
489226.394,49.316,29.297,32.227,29.785,13.672,0.000,0.000,0.000
489226.398,99.609,29.297,28.809,36.621,22.949,0.000,0.000,0.000
489226.402,-2.930,31.738,27.832,9.277,23.926,0.000,0.000,0.000
489226.406,-67.871,29.785,30.273,-3.906,21.973,0.000,0.000,0.000
489226.410,32.227,33.203,24.902,22.949,18.066,0.000,0.000,0.000
489226.414,119.629,34.668,20.996,50.781,18.555,0.000,0.000,0.000
489226.417,52.734,35.645,23.926,31.738,18.066,0.000,0.000,0.000
489226.421,-55.664,37.598,25.879,3.906,19.043,0.000,0.000,0.000
489226.425,-3.906,34.668,22.949,11.719,23.926,0.000,0.000,0.000
489226.429,108.398,34.668,21.973,45.898,25.391,0.000,0.000,0.000
489226.433,80.078,28.320,20.508,36.621,23.438,0.000,0.000,0.000
489226.437,-44.922,31.250,19.043,2.930,22.949,0.000,0.000,0.000
489226.441,-29.785,37.109,19.043,9.277,29.297,0.000,0.000,0.000
489226.445,86.426,35.645,20.020,41.992,29.297,0.000,0.000,0.000
489226.449,95.703,31.250,22.461,41.992,20.020,0.000,0.000,0.000
489226.453,-24.414,28.809,22.461,11.719,22.949,0.000,0.000,0.000
489226.456,-56.641,34.180,24.902,7.324,23.926,0.000,0.000,0.000
489226.460,54.688,38.574,28.809,30.273,12.695,0.000,0.000,0.000
489226.464,115.723,39.062,28.320,39.062,14.160,0.000,0.000,0.000
489226.468,20.020,35.645,25.391,18.555,20.020,0.000,0.000,0.000
489226.472,-58.594,30.762,22.461,4.883,26.855,0.000,0.000,0.000
489226.476,24.902,30.273,20.996,26.367,28.320,0.000,0.000,0.000
489226.480,117.188,34.180,18.555,47.852,26.855,0.000,0.000,0.000
489226.484,60.059,31.738,20.508,33.691,27.344,0.000,0.000,0.000
489226.488,-53.711,29.785,23.438,11.230,27.832,0.000,0.000,0.000
489226.492,-11.230,31.250,22.949,16.113,34.180,0.000,0.000,0.000
489226.496,102.051,33.203,23.926,46.387,41.504,1.000,1.000,135.000
489226.499,91.797,33.203,29.297,46.875,29.785,0.000,0.000,0.000
489226.503,-34.668,34.668,30.273,16.113,15.625,0.000,0.000,0.000
489226.507,-45.898,29.297,23.926,15.625,11.719,0.000,0.000,0.000
489226.511,73.730,27.344,24.414,42.969,13.672,0.000,0.000,0.000
489226.515,110.352,35.156,24.902,45.410,17.090,0.000,0.000,0.000
489226.519,-3.906,35.156,28.320,22.949,21.973,0.000,0.000,0.000
489226.523,-55.176,32.715,25.391,8.301,22.461,0.000,0.000,0.000
489226.527,57.129,38.574,23.438,34.180,20.996,0.000,0.000,0.000
489226.531,130.859,40.527,23.926,50.781,30.762,0.000,0.000,0.000
