timestamps,TP9,AF7,AF8,TP10,Right AUX,Frequency,Contrast,Orientation
484110.991,40.527,30.762,28.809,50.781,69.824,0.000,0.000,0.000
484110.995,30.762,36.133,25.879,52.734,205.078,0.000,0.000,0.000
484110.999,20.996,37.109,32.227,23.926,-82.520,0.000,0.000,0.000
484111.003,28.320,33.203,32.227,17.578,-236.816,0.000,0.000,0.000
484111.007,44.922,35.645,29.297,48.828,-5.371,0.000,0.000,0.000
484111.011,38.574,37.109,35.645,64.453,227.539,0.000,0.000,0.000
484111.015,18.555,29.297,39.062,33.691,72.266,0.000,0.000,0.000
484111.018,23.438,28.809,34.180,10.254,-243.164,0.000,0.000,0.000
484111.022,28.809,27.344,25.879,22.949,-104.980,0.000,0.000,0.000
484111.026,31.250,27.832,26.367,45.410,264.160,0.000,0.000,0.000
484111.030,28.809,36.621,31.250,31.250,193.359,0.000,0.000,0.000
484111.034,23.438,38.574,35.645,5.371,-124.023,0.000,0.000,0.000
484111.038,32.715,34.668,32.227,16.113,-101.562,0.000,0.000,0.000
484111.042,42.480,34.668,27.344,49.805,219.238,0.000,0.000,0.000
484111.046,36.133,38.574,34.668,50.293,238.770,0.000,0.000,0.000
484111.050,25.391,39.551,40.039,20.996,-69.824,0.000,0.000,0.000
484111.054,32.715,35.156,31.738,16.602,-78.125,0.000,0.000,0.000
484111.057,43.945,33.203,26.367,46.875,236.816,0.000,0.000,0.000
484111.061,40.039,31.738,26.855,53.711,319.336,0.000,0.000,0.000
484111.065,25.391,33.203,35.156,25.391,15.137,0.000,0.000,0.000
484111.069,23.438,34.668,36.621,11.719,-199.219,0.000,0.000,0.000
484111.073,36.621,35.156,29.785,35.645,7.324,0.000,0.000,0.000
484111.077,38.574,33.691,33.691,54.688,253.906,0.000,0.000,0.000
484111.081,20.996,34.180,35.156,27.344,118.164,0.000,0.000,0.000
484111.085,22.461,35.156,31.250,7.324,-131.348,0.000,0.000,0.000
484111.089,36.133,30.273,26.367,28.809,-6.348,0.000,0.000,0.000
484111.093,45.898,32.715,28.809,58.105,318.359,0.000,0.000,0.000
484111.097,31.250,37.598,29.297,41.504,278.809,0.000,0.000,0.000
484111.100,20.020,34.668,31.250,11.230,-70.801,0.000,0.000,0.000
484111.104,31.738,30.762,31.738,20.020,-166.016,0.000,0.000,0.000
484111.108,32.715,29.297,24.902,45.898,131.348,0.000,0.000,0.000
484111.112,23.926,29.785,31.250,44.922,185.547,0.000,0.000,0.000
484111.116,14.648,30.273,31.250,13.672,-91.797,0.000,0.000,0.000
484111.120,30.273,27.832,30.762,13.184,-209.961,0.000,0.000,0.000
484111.124,43.945,24.414,31.250,46.875,10.254,0.000,0.000,0.000
484111.128,27.832,23.438,21.973,48.340,247.559,0.000,0.000,0.000
484111.132,18.066,30.273,28.320,22.949,34.180,0.000,0.000,0.000
484111.136,24.414,31.250,36.133,12.207,-192.383,0.000,0.000,0.000
484111.140,31.250,25.391,30.762,29.785,51.758,0.000,0.000,0.000
484111.143,35.156,30.762,34.180,53.711,316.895,0.000,0.000,0.000
484111.147,21.973,32.227,41.016,35.645,131.836,0.000,0.000,0.000
484111.151,20.996,27.832,40.527,9.766,-183.594,0.000,0.000,0.000
484111.155,41.992,30.762,37.598,27.344,-50.293,0.000,0.000,0.000
484111.159,42.480,31.250,30.273,54.688,327.637,0.000,0.000,0.000
484111.163,26.855,32.227,32.715,43.457,295.898,0.000,0.000,0.000
484111.167,24.414,36.133,35.156,18.066,-51.758,0.000,0.000,0.000
484111.171,36.621,37.598,29.785,22.461,-134.277,0.000,0.000,0.000
484111.175,40.527,32.715,27.344,46.875,161.621,0.000,0.000,0.000
484111.179,30.762,32.715,30.762,45.898,258.789,0.000,0.000,0.000
484111.182,17.090,34.668,32.227,16.602,-34.180,0.000,0.000,0.000
484111.186,22.461,31.738,29.785,10.742,-196.289,0.000,0.000,0.000
484111.190,37.598,33.691,26.367,45.410,33.203,0.000,0.000,0.000
484111.194,40.527,36.621,24.902,60.547,269.043,0.000,0.000,0.000
484111.198,29.297,38.574,30.273,32.227,49.316,0.000,0.000,0.000
484111.202,28.809,38.574,30.273,13.184,-214.844,0.000,0.000,0.000
484111.206,40.527,40.039,28.320,32.715,-61.523,0.000,0.000,0.000
484111.210,46.387,41.504,27.344,54.199,214.355,0.000,0.000,0.000
484111.214,33.691,38.086,25.391,32.715,116.699,0.000,0.000,0.000
484111.218,21.484,35.645,27.344,7.324,-189.453,0.000,0.000,0.000
484111.222,32.715,38.086,23.926,22.461,-145.508,0.000,0.000,0.000
484111.225,38.574,39.551,21.484,48.340,233.398,0.000,0.000,0.000
484111.229,21.484,40.039,23.438,35.645,218.750,0.000,0.000,0.000
484111.233,8.789,39.551,22.949,3.906,-117.188,0.000,0.000,0.000
484111.237,15.137,33.203,20.020,4.395,-175.781,0.000,0.000,0.000
484111.241,27.344,33.691,22.461,41.016,79.102,0.000,0.000,0.000
484111.245,22.949,38.086,29.297,45.410,193.359,0.000,0.000,0.000
484111.249,6.348,33.691,24.414,11.719,-57.129,0.000,0.000,0.000
484111.253,13.672,30.273,18.066,7.324,-202.148,0.000,0.000,0.000
484111.257,29.785,31.738,22.461,38.574,12.695,0.000,0.000,0.000
484111.261,32.227,37.598,28.809,54.688,215.332,0.000,0.000,0.000
484111.264,7.324,36.621,31.250,26.367,62.988,0.000,0.000,0.000
484111.268,-0.488,29.297,25.879,-3.418,-208.008,0.000,0.000,0.000
484111.272,19.531,31.738,27.344,17.578,-74.707,0.000,0.000,0.000
484111.276,19.531,33.203,29.785,37.598,308.594,0.000,0.000,0.000
484111.280,3.906,28.320,25.879,18.066,285.156,0.000,0.000,0.000
484111.284,7.324,25.391,25.879,-2.930,-62.988,0.000,0.000,0.000
484111.288,20.996,25.879,22.461,7.812,-129.883,0.000,0.000,0.000
484111.292,33.203,28.809,25.879,46.387,200.195,0.000,0.000,0.000
484111.296,28.809,31.250,34.180,45.898,304.688,0.000,0.000,0.000
484111.300,17.090,32.715,34.180,12.207,10.254,0.000,0.000,0.000
484111.304,32.715,34.180,29.297,16.113,-149.414,0.000,0.000,0.000
484111.307,42.969,32.227,24.902,48.340,18.555,0.000,0.000,0.000
484111.311,29.785,29.785,24.902,47.363,190.430,0.000,0.000,0.000
484111.315,16.602,30.273,32.715,18.555,-64.453,0.000,0.000,0.000
484111.319,20.996,25.879,29.297,6.348,-244.629,0.000,0.000,0.000
484111.323,30.762,25.879,21.484,28.809,40.527,0.000,0.000,0.000
484111.327,23.926,23.926,21.973,45.898,238.770,0.000,0.000,0.000
484111.331,5.859,20.996,30.762,16.113,57.129,0.000,0.000,0.000
484111.335,8.301,26.367,35.156,-6.836,-187.012,0.000,0.000,0.000
484111.339,26.367,29.297,30.273,20.020,-81.543,0.000,0.000,0.000
484111.343,33.691,30.762,27.344,50.293,205.078,0.000,0.000,0.000
484111.347,22.461,34.668,22.949,32.227,152.344,0.000,0.000,0.000
484111.350,17.090,37.598,21.484,8.301,-158.203,0.000,0.000,0.000
484111.354,28.320,33.691,18.555,18.066,-186.523,0.000,0.000,0.000
484111.358,42.480,34.668,23.438,51.758,136.719,0.000,0.000,0.000
484111.362,39.551,40.039,34.180,52.734,196.777,0.000,0.000,0.000
484111.366,23.438,38.086,31.250,15.625,-125.000,0.000,0.000,0.000
484111.370,29.297,33.691,29.297,15.625,-226.562,0.000,0.000,0.000
484111.374,42.969,33.691,29.297,48.828,42.480,0.000,0.000,0.000
484111.378,38.086,36.621,24.414,55.176,237.793,0.000,0.000,0.000
484111.382,23.438,36.133,27.344,24.902,3.418,0.000,0.000,0.000
484111.386,23.438,32.715,27.344,6.836,-265.137,0.000,0.000,0.000
484111.389,40.039,32.715,23.926,34.180,-54.199,0.000,0.000,0.000
484111.393,44.922,31.738,26.367,54.199,280.762,0.000,0.000,0.000
484111.397,28.320,34.180,33.203,29.785,129.395,0.000,0.000,0.000
484111.401,27.344,36.133,38.574,13.184,-163.574,0.000,0.000,0.000
484111.405,43.945,34.668,35.645,34.668,-93.750,0.000,0.000,0.000
484111.409,49.805,36.621,33.203,60.059,192.871,0.000,0.000,0.000
484111.413,36.621,35.156,28.809,45.898,207.031,0.000,0.000,0.000
484111.417,20.996,29.785,27.344,17.578,-83.984,0.000,0.000,0.000
484111.421,29.297,24.902,29.785,23.926,-87.891,0.000,0.000,0.000
484111.425,42.969,30.273,28.809,53.223,191.895,0.000,0.000,0.000
484111.429,28.809,30.762,30.762,47.363,243.652,0.000,0.000,0.000
484111.432,9.277,28.320,33.203,12.207,-39.062,0.000,0.000,0.000
484111.436,20.996,31.738,39.062,8.789,-235.352,0.000,0.000,0.000
484111.440,34.668,30.762,37.109,37.598,32.227,0.000,0.000,0.000
484111.444,24.414,26.855,26.367,44.922,296.387,0.000,0.000,0.000
484111.448,10.254,25.879,27.832,20.508,84.473,0.000,0.000,0.000
484111.452,20.020,30.762,32.227,11.230,-169.434,0.000,0.000,0.000
484111.456,34.668,33.203,30.273,37.109,29.297,0.000,0.000,0.000
484111.460,39.062,32.227,28.809,59.570,315.430,0.000,0.000,0.000
484111.464,30.762,34.668,37.109,41.504,191.406,0.000,0.000,0.000
484111.468,26.367,34.180,42.969,18.066,-81.055,0.000,0.000,0.000
484111.472,36.621,34.668,37.109,30.762,-59.570,0.000,0.000,0.000
484111.475,38.574,34.180,35.156,54.199,237.793,0.000,0.000,0.000
484111.479,22.461,29.297,33.691,38.086,243.652,0.000,0.000,0.000
484111.483,15.625,31.250,32.715,8.789,-104.492,0.000,0.000,0.000
484111.487,23.438,34.180,27.832,13.184,-164.551,0.000,0.000,0.000
484111.491,29.297,34.668,23.926,39.551,151.855,0.000,0.000,0.000
484111.495,31.738,39.551,26.367,43.457,257.324,0.000,0.000,0.000
484111.499,30.273,41.992,36.133,26.855,-46.387,0.000,0.000,0.000
484111.503,27.832,37.109,44.434,20.508,-198.730,0.000,0.000,0.000
484111.507,24.902,27.344,34.668,31.250,33.691,0.000,0.000,0.000
484111.511,29.297,23.438,27.832,44.434,239.746,0.000,0.000,0.000
484111.514,25.879,29.785,37.598,30.762,83.984,0.000,0.000,0.000
484111.518,22.461,30.273,45.898,14.160,-78.613,0.000,0.000,0.000
484111.522,34.180,27.832,37.598,35.156,91.797,0.000,0.000,0.000
484111.526,42.480,29.785,36.621,59.570,337.891,0.000,0.000,0.000
484111.530,28.809,29.297,42.480,40.527,181.152,0.000,0.000,0.000
484111.534,21.484,30.273,42.969,17.578,-134.766,0.000,0.000,0.000
484111.538,34.180,29.785,39.551,27.344,-133.789,0.000,0.000,0.000
484111.542,41.992,27.832,33.203,53.711,160.156,0.000,0.000,0.000
484111.546,31.250,26.855,34.180,46.875,226.562,0.000,0.000,0.000
484111.550,18.555,25.879,34.180,12.695,-65.430,0.000,0.000,0.000
484111.554,35.645,28.320,36.133,18.555,-204.590,0.000,0.000,0.000
484111.557,51.758,29.785,36.621,53.223,48.828,0.000,0.000,0.000
484111.561,43.457,28.809,33.203,51.758,197.266,0.000,0.000,0.000
484111.565,26.367,28.320,38.086,20.020,-62.988,0.000,0.000,0.000
484111.569,33.691,30.273,41.992,15.625,-242.676,0.000,0.000,0.000
484111.573,50.781,30.762,35.645,45.410,-14.648,0.000,0.000,0.000
484111.577,45.410,27.832,30.273,61.523,240.234,0.000,0.000,0.000
484111.581,24.902,27.344,36.133,36.621,91.309,0.000,0.000,0.000
484111.585,23.926,30.762,38.086,11.719,-186.035,0.000,0.000,0.000
484111.589,40.039,36.621,37.598,30.273,-71.289,0.000,0.000,0.000
484111.593,37.109,34.180,30.273,53.223,237.793,0.000,0.000,0.000
484111.597,16.602,32.227,28.320,34.180,155.273,0.000,0.000,0.000
484111.600,16.113,34.180,35.156,9.766,-191.406,0.000,0.000,0.000
484111.604,32.227,31.738,38.574,22.949,-184.082,0.000,0.000,0.000
484111.608,37.109,32.715,35.645,49.805,187.500,0.000,0.000,0.000
484111.612,26.855,31.250,30.762,43.457,249.023,0.000,0.000,0.000
484111.616,19.043,31.250,34.180,15.625,-101.074,0.000,0.000,0.000
484111.620,25.391,32.715,38.086,18.066,-234.375,0.000,0.000,0.000
484111.624,32.227,28.809,28.809,46.387,71.777,0.000,0.000,0.000
484111.628,28.320,27.344,24.414,52.734,280.273,0.000,0.000,0.000
484111.632,18.555,29.297,33.691,29.297,-19.043,0.000,0.000,0.000
484111.636,26.855,31.738,39.551,20.020,-203.125,0.000,0.000,0.000
484111.639,37.109,31.738,34.668,45.898,95.215,0.000,0.000,0.000
484111.643,31.250,29.785,29.297,59.082,409.180,0.000,0.000,0.000
484111.647,24.414,32.715,33.691,39.062,245.117,0.000,0.000,0.000
484111.651,28.320,36.621,36.621,23.926,-72.266,0.000,0.000,0.000
484111.655,36.133,33.691,32.715,37.598,0.977,0.000,0.000,0.000
484111.659,42.480,28.320,30.273,61.523,241.699,0.000,0.000,0.000
484111.663,33.691,33.691,32.227,46.387,167.480,0.000,0.000,0.000
484111.667,27.344,39.062,37.598,20.020,-150.879,0.000,0.000,0.000
484111.671,34.668,31.738,39.062,27.832,-191.406,0.000,0.000,0.000
484111.675,43.457,33.691,36.621,56.152,139.160,0.000,0.000,0.000
484111.679,34.668,38.086,32.227,47.363,242.676,0.000,0.000,0.000
484111.682,13.672,29.297,31.738,14.160,-58.105,0.000,0.000,0.000
484111.686,22.949,25.879,35.156,14.648,-195.801,0.000,0.000,0.000
484111.690,36.621,28.809,31.250,42.969,30.762,0.000,0.000,0.000
484111.694,33.203,28.809,28.320,53.711,236.328,0.000,0.000,0.000
484111.698,19.531,30.762,37.109,29.785,41.504,0.000,0.000,0.000
484111.702,23.926,32.227,38.086,17.090,-231.934,0.000,0.000,0.000
484111.706,42.480,30.762,26.855,40.039,-43.457,0.000,0.000,0.000
484111.710,41.016,26.367,27.832,58.105,302.246,0.000,0.000,0.000
484111.714,27.344,30.762,38.086,40.039,170.898,0.000,0.000,0.000
484111.718,24.414,32.715,37.109,16.113,-156.250,0.000,0.000,0.000
484111.721,36.133,27.344,27.344,29.297,-155.762,0.000,0.000,0.000
484111.725,35.156,23.438,17.090,50.781,175.781,0.000,0.000,0.000
484111.729,17.090,24.902,23.438,39.551,216.797,0.000,0.000,0.000
484111.733,16.602,31.250,33.203,16.113,-123.047,0.000,0.000,0.000
484111.737,32.715,31.738,30.273,19.531,-209.961,0.000,0.000,0.000
484111.741,42.969,32.715,26.855,49.805,98.633,0.000,0.000,0.000
484111.745,40.039,35.645,30.273,50.293,242.676,0.000,0.000,0.000
484111.749,29.785,33.691,35.645,20.996,-81.055,0.000,0.000,0.000
484111.753,38.086,33.691,35.645,19.531,-286.621,0.000,0.000,0.000
484111.757,51.270,33.203,32.227,47.852,2.441,0.000,0.000,0.000
484111.761,40.039,29.297,31.250,56.152,282.715,0.000,0.000,0.000
484111.764,21.973,31.250,34.668,27.832,83.496,0.000,0.000,0.000
484111.768,25.879,32.715,38.574,9.766,-218.750,0.000,0.000,0.000
484111.772,28.320,30.273,30.273,24.414,-78.125,0.000,0.000,0.000
484111.776,25.391,26.855,27.832,44.922,234.863,0.000,0.000,0.000
484111.780,15.137,26.855,36.621,28.320,140.625,0.000,0.000,0.000
484111.784,10.742,29.785,37.598,-4.395,-173.340,0.000,0.000,0.000
484111.788,19.531,28.809,31.738,7.324,-150.391,0.000,0.000,0.000
484111.792,28.320,31.738,30.273,41.504,194.336,0.000,0.000,0.000
484111.796,18.555,30.762,30.273,31.738,217.773,0.000,0.000,0.000
484111.800,12.695,27.832,32.227,0.000,-125.000,0.000,0.000,0.000
484111.804,26.367,30.273,29.297,4.395,-201.660,0.000,0.000,0.000
484111.807,39.062,31.250,29.297,43.457,88.379,0.000,0.000,0.000
484111.811,36.133,29.297,29.297,44.922,193.359,0.000,0.000,0.000
484111.815,14.648,29.785,31.738,4.395,-69.336,0.000,0.000,0.000
484111.819,16.113,30.762,29.297,-4.883,-172.852,0.000,0.000,0.000
484111.823,33.203,27.344,22.461,22.461,106.934,0.000,0.000,0.000
484111.827,34.180,31.738,27.832,40.527,342.285,0.000,0.000,0.000
484111.831,21.973,35.156,32.715,17.578,184.570,0.000,0.000,0.000
484111.835,22.461,30.273,26.855,-0.977,-136.719,0.000,0.000,0.000
484111.839,35.156,28.320,23.438,22.461,-83.008,0.000,0.000,0.000
484111.843,39.062,28.809,26.367,49.805,209.473,0.000,0.000,0.000
484111.846,25.391,33.203,29.297,35.156,125.488,0.000,0.000,0.000
484111.850,15.137,36.133,26.855,3.418,-148.438,0.000,0.000,0.000
484111.854,28.809,37.109,26.855,14.160,-78.613,0.000,0.000,0.000
484111.858,35.156,36.133,26.855,42.969,228.027,0.000,0.000,0.000
484111.862,18.555,32.715,22.949,31.250,238.281,0.000,0.000,0.000
484111.866,8.301,32.227,21.973,2.930,-49.316,0.000,0.000,0.000
484111.870,26.367,35.156,26.367,12.695,-161.621,0.000,0.000,0.000
484111.874,38.086,34.180,28.809,43.457,163.086,0.000,0.000,0.000
484111.878,30.273,35.156,30.762,47.852,300.293,0.000,0.000,0.000
484111.882,16.602,39.062,29.785,19.043,-43.945,0.000,0.000,0.000
484111.886,20.508,39.551,26.367,6.836,-241.211,0.000,0.000,0.000
484111.889,33.691,36.621,28.809,33.203,-62.988,0.000,0.000,0.000
484111.893,36.133,32.227,26.367,45.898,169.922,0.000,0.000,0.000
484111.897,29.297,32.715,32.715,29.297,58.594,0.000,0.000,0.000
484111.901,32.227,36.133,36.621,11.230,-219.727,0.000,0.000,0.000
484111.905,37.598,32.715,31.250,23.926,-125.977,0.000,0.000,0.000
484111.909,40.039,35.156,28.809,50.781,212.891,0.000,0.000,0.000
484111.913,26.367,41.016,30.762,34.180,176.758,0.000,0.000,0.000
484111.917,14.648,37.598,37.109,4.883,-118.652,0.000,0.000,0.000
484111.921,26.367,33.203,37.598,15.625,-157.227,0.000,0.000,0.000
484111.925,26.855,31.738,26.855,41.504,146.484,0.000,0.000,0.000
484111.929,20.020,29.785,27.344,39.551,223.145,0.000,0.000,0.000
484111.932,18.066,31.250,32.715,12.695,-104.004,0.000,0.000,0.000
484111.936,26.367,33.203,26.855,8.301,-242.188,0.000,0.000,0.000
484111.940,41.016,34.180,23.438,38.574,72.754,0.000,0.000,0.000
484111.944,41.016,32.715,24.414,50.293,316.895,0.000,0.000,0.000
484111.948,28.320,29.297,30.762,32.227,63.965,0.000,0.000,0.000
484111.952,25.391,33.691,35.156,12.695,-182.617,0.000,0.000,0.000
484111.956,23.926,32.227,26.367,16.113,16.113,0.000,0.000,0.000
484111.960,29.297,29.297,23.926,38.574,264.648,0.000,0.000,0.000
484111.964,17.090,33.203,29.297,19.531,114.746,0.000,0.000,0.000
484111.968,7.812,37.598,31.738,-6.836,-141.602,0.000,0.000,0.000
484111.971,23.926,38.574,28.320,14.648,-62.500,0.000,0.000,0.000
484111.975,23.438,36.621,21.484,33.691,203.125,0.000,0.000,0.000
484111.979,14.648,39.062,23.438,21.973,234.863,0.000,0.000,0.000
484111.983,13.672,41.504,30.762,1.465,-20.020,0.000,0.000,0.000
484111.987,21.484,41.016,29.785,5.859,-161.133,0.000,0.000,0.000
484111.991,35.645,41.504,26.855,41.504,82.520,0.000,0.000,0.000
484111.995,29.297,36.621,25.879,40.039,231.934,0.000,0.000,0.000
484111.999,13.184,36.133,29.297,5.371,-22.949,0.000,0.000,0.000
484112.003,23.926,38.574,28.809,6.348,-197.266,0.000,0.000,0.000
484112.007,35.645,34.180,21.484,31.738,18.555,0.000,0.000,0.000
484112.011,27.832,30.762,18.066,40.527,231.445,0.000,0.000,0.000
484112.014,16.602,37.109,23.438,19.531,52.246,0.000,0.000,0.000
484112.018,26.367,36.133,26.855,8.301,-195.312,0.000,0.000,0.000
484112.022,43.945,29.785,26.855,34.668,-66.895,0.000,0.000,0.000
484112.026,48.828,34.180,26.367,57.617,277.344,0.000,0.000,0.000
484112.030,37.598,37.109,28.320,41.992,201.660,0.000,0.000,0.000
484112.034,32.227,33.203,34.180,17.578,-142.578,0.000,0.000,0.000
484112.038,41.992,31.250,35.156,30.273,-121.094,0.000,0.000,0.000
484112.042,49.316,35.156,34.668,61.035,188.965,0.000,0.000,0.000
484112.046,31.250,36.133,32.715,45.898,239.258,0.000,0.000,0.000
484112.050,14.648,33.691,34.180,10.254,-57.617,0.000,0.000,0.000
484112.054,32.227,32.227,32.227,11.719,-181.152,0.000,0.000,0.000
484112.057,36.621,30.273,23.438,38.574,64.941,0.000,0.000,0.000
484112.061,26.855,32.715,23.926,45.410,258.789,0.000,0.000,0.000
484112.065,21.484,37.598,31.738,22.461,69.824,0.000,0.000,0.000
484112.069,26.367,35.156,29.785,12.695,-99.121,0.000,0.000,0.000
484112.073,31.738,29.785,21.484,31.250,162.109,0.000,0.000,0.000
484112.077,32.715,31.250,25.391,51.270,379.883,0.000,0.000,0.000
484112.081,22.949,34.180,30.273,30.273,98.633,0.000,0.000,0.000
484112.085,16.602,25.879,27.344,0.977,-200.195,0.000,0.000,0.000
484112.089,37.109,22.461,27.344,24.902,-22.949,0.000,0.000,0.000
484112.093,39.551,27.832,22.949,50.781,331.055,0.000,0.000,0.000
484112.096,16.113,29.297,24.414,34.180,255.371,0.000,0.000,0.000
484112.100,21.973,32.227,30.762,15.625,-75.195,0.000,0.000,0.000
484112.104,32.227,32.715,27.344,22.949,-90.332,0.000,0.000,0.000
484112.108,33.691,25.391,27.832,48.828,214.355,0.000,0.000,0.000
484112.112,30.273,29.297,27.832,47.363,256.348,0.000,0.000,0.000
484112.116,18.555,32.715,23.438,15.137,-103.027,0.000,0.000,0.000
484112.120,24.902,27.832,21.973,10.742,-219.238,0.000,0.000,0.000
484112.124,40.039,26.367,27.344,48.340,55.176,0.000,0.000,0.000
484112.128,32.227,29.785,29.785,55.664,196.289,0.000,0.000,0.000
484112.132,19.043,35.156,35.645,24.902,-61.523,0.000,0.000,0.000
484112.136,30.273,34.668,40.039,17.090,-255.859,0.000,0.000,0.000
484112.139,45.410,32.227,34.180,44.922,-32.227,0.000,0.000,0.000
484112.143,42.480,31.250,34.668,61.523,204.590,0.000,0.000,0.000
484112.147,23.926,32.715,31.250,34.180,56.641,0.000,0.000,0.000
484112.151,20.996,33.203,31.250,11.230,-123.047,0.000,0.000,0.000
484112.155,37.598,31.250,37.109,32.227,-17.090,0.000,0.000,0.000
484112.159,48.340,31.250,32.715,59.082,232.910,0.000,0.000,0.000
484112.163,32.715,30.762,32.715,45.898,243.652,0.000,0.000,0.000
484112.167,26.367,31.738,39.062,20.020,-89.844,0.000,0.000,0.000
484112.171,41.016,35.645,34.180,26.855,-187.012,0.000,0.000,0.000
484112.175,45.410,34.180,27.832,56.152,131.348,0.000,0.000,0.000
484112.179,28.809,28.320,28.809,48.828,246.582,0.000,0.000,0.000
484112.182,15.625,27.832,35.645,17.578,-83.984,0.000,0.000,0.000
484112.186,32.227,30.762,34.668,13.672,-285.156,0.000,0.000,0.000
484112.190,40.039,27.832,27.344,35.156,-26.855,0.000,0.000,0.000
484112.194,35.645,30.273,26.367,47.852,233.398,0.000,0.000,0.000
484112.198,27.344,34.668,34.180,25.879,92.773,0.000,0.000,0.000
484112.202,27.832,35.156,38.086,14.648,-178.223,0.000,0.000,0.000
484112.206,40.039,30.762,26.367,41.992,-76.172,0.000,0.000,0.000
484112.210,36.621,30.273,20.996,53.223,207.031,0.000,0.000,0.000
484112.214,20.508,30.762,26.855,30.273,74.707,0.000,0.000,0.000
484112.218,22.461,29.297,29.785,10.254,-207.520,0.000,0.000,0.000
484112.221,38.574,31.738,30.273,25.391,-141.113,0.000,0.000,0.000
484112.225,48.828,33.203,33.203,56.641,166.992,0.000,0.000,0.000
484112.229,40.039,37.598,38.574,49.316,197.754,0.000,0.000,0.000
484112.233,21.484,34.668,38.086,18.066,-91.797,0.000,0.000,0.000
484112.237,20.996,25.879,29.785,18.066,-165.039,0.000,0.000,0.000
484112.241,30.273,26.855,25.391,48.340,145.996,0.000,0.000,0.000
484112.245,24.902,28.320,31.250,55.176,330.078,0.000,0.000,0.000
484112.249,16.113,29.785,38.086,27.344,49.805,0.000,0.000,0.000
484112.253,24.902,28.809,34.668,15.137,-210.938,0.000,0.000,0.000
484112.257,36.133,27.344,30.762,41.504,4.395,0.000,0.000,0.000
484112.261,34.180,24.902,29.785,52.246,237.793,0.000,0.000,0.000
484112.264,20.020,24.414,31.250,24.902,28.809,0.000,0.000,0.000
484112.268,18.555,28.320,29.297,5.859,-193.359,0.000,0.000,0.000
484112.272,37.109,30.762,25.391,31.250,-63.477,0.000,0.000,0.000
484112.276,41.992,30.273,20.996,53.711,175.293,0.000,0.000,0.000
484112.280,24.902,31.250,16.602,28.809,98.145,0.000,0.000,0.000
484112.284,23.438,29.297,23.926,3.418,-177.246,0.000,0.000,0.000
484112.288,38.086,26.367,24.902,16.602,-142.578,0.000,0.000,0.000
484112.292,41.016,28.320,20.508,46.875,167.969,0.000,0.000,0.000
484112.296,29.297,31.250,27.832,32.715,205.566,0.000,0.000,0.000
484112.300,21.484,35.156,33.691,1.953,-106.445,0.000,0.000,0.000
484112.303,30.273,34.668,34.180,13.184,-132.812,0.000,0.000,0.000
484112.307,36.133,25.391,27.832,40.527,176.758,0.000,0.000,0.000
484112.311,26.855,27.344,20.996,36.621,261.719,0.000,0.000,0.000
484112.315,9.766,29.785,25.391,9.766,-20.996,0.000,0.000,0.000
484112.319,19.531,28.809,33.203,9.277,-198.730,0.000,0.000,0.000
484112.323,36.133,29.297,30.762,37.598,45.898,0.000,0.000,0.000
484112.327,33.203,30.273,30.273,49.316,293.457,0.000,0.000,0.000
484112.331,15.137,28.320,38.574,26.855,102.051,0.000,0.000,0.000
484112.335,12.695,31.250,43.945,6.836,-211.914,0.000,0.000,0.000
484112.339,21.484,30.762,35.645,19.531,-88.379,0.000,0.000,0.000
484112.343,18.066,22.949,23.438,42.969,237.793,0.000,0.000,0.000
484112.346,4.883,21.973,24.902,30.762,165.527,0.000,0.000,0.000
484112.350,4.395,25.879,32.715,6.348,-160.645,0.000,0.000,0.000
484112.354,19.043,25.391,34.668,17.578,-142.578,0.000,0.000,0.000
484112.358,23.438,25.391,31.738,45.410,192.871,0.000,0.000,0.000
484112.362,18.066,32.227,41.504,43.457,228.516,0.000,0.000,0.000
484112.366,8.301,30.762,41.016,10.254,-79.590,0.000,0.000,0.000
484112.370,21.484,28.809,33.203,14.648,-190.918,0.000,0.000,0.000
484112.374,33.691,26.855,28.809,44.434,98.633,0.000,0.000,0.000
484112.378,27.832,30.273,25.391,41.992,260.742,0.000,0.000,0.000
484112.382,17.090,32.715,33.203,14.160,-25.879,0.000,0.000,0.000
484112.386,17.578,27.832,29.785,-1.953,-215.820,0.000,0.000,0.000
484112.389,30.273,30.762,22.949,22.949,59.570,0.000,0.000,0.000
484112.393,35.156,34.180,32.227,46.875,363.770,0.000,0.000,0.000
484112.397,19.043,32.227,36.621,23.926,196.777,0.000,0.000,0.000
484112.401,20.508,32.227,25.879,0.000,-93.262,0.000,0.000,0.000
484112.405,35.645,35.156,23.926,18.066,-0.977,0.000,0.000,0.000
484112.409,43.457,37.598,26.367,50.781,250.977,0.000,0.000,0.000
484112.413,36.133,38.574,32.715,43.457,212.891,0.000,0.000,0.000
484112.417,22.949,37.109,37.109,14.648,-83.008,0.000,0.000,0.000
484112.421,28.320,31.738,28.320,23.926,-147.949,0.000,0.000,0.000
484112.425,44.434,30.273,28.809,60.059,169.434,0.000,0.000,0.000
484112.428,39.551,32.227,41.992,57.617,226.562,0.000,0.000,0.000
484112.432,16.602,30.273,38.086,16.113,-104.492,0.000,0.000,0.000
484112.436,22.461,23.926,20.508,4.883,-177.734,0.000,0.000,0.000
484112.440,37.598,24.414,17.578,33.691,78.613,0.000,0.000,0.000
484112.444,29.297,30.762,21.484,40.039,244.141,0.000,0.000,0.000
484112.448,17.090,33.203,24.414,19.043,37.109,0.000,0.000,0.000
484112.452,23.926,33.203,28.809,16.602,-218.750,0.000,0.000,0.000
484112.456,32.715,31.250,25.879,41.016,-24.902,0.000,0.000,0.000
484112.460,37.109,33.203,25.391,63.477,258.301,0.000,0.000,0.000
484112.464,25.879,32.715,35.156,44.922,123.047,0.000,0.000,0.000
484112.468,23.438,30.762,37.598,22.949,-179.199,0.000,0.000,0.000
484112.471,41.504,30.762,36.621,38.086,-161.133,0.000,0.000,0.000
484112.475,44.922,29.785,34.180,57.129,159.668,0.000,0.000,0.000
484112.479,26.855,31.738,32.715,39.551,182.129,0.000,0.000,0.000
484112.483,18.555,32.715,35.156,8.301,-112.305,0.000,0.000,0.000
484112.487,31.250,29.785,36.621,12.207,-162.109,0.000,0.000,0.000
484112.491,40.039,31.738,31.738,44.434,131.836,0.000,0.000,0.000
484112.495,25.879,35.156,28.809,41.504,246.582,0.000,0.000,0.000
484112.499,12.695,31.738,37.109,10.742,-32.715,0.000,0.000,0.000
484112.503,26.367,28.320,34.668,6.348,-202.637,0.000,0.000,0.000
484112.507,37.598,27.344,24.414,33.691,30.273,0.000,0.000,0.000
484112.511,28.320,28.320,25.391,45.898,310.547,0.000,0.000,0.000
484112.514,16.113,32.227,34.180,24.414,133.301,0.000,0.000,0.000
484112.518,16.602,31.738,38.574,7.812,-165.527,0.000,0.000,0.000
484112.522,22.461,33.203,33.691,21.973,25.879,0.000,0.000,0.000
484112.526,26.367,34.180,30.273,47.852,249.023,0.000,0.000,0.000
484112.530,14.160,30.273,35.645,28.809,87.891,2.000,1.000,45.000
484112.534,9.277,28.809,37.598,0.000,-183.594,0.000,0.000,0.000
484112.538,22.949,27.344,35.156,11.719,-166.992,0.000,0.000,0.000
484112.542,29.297,25.391,35.156,38.086,155.273,0.000,0.000,0.000
484112.546,24.902,26.855,34.180,33.691,182.129,0.000,0.000,0.000
484112.550,13.672,25.391,31.250,5.371,-143.555,0.000,0.000,0.000
484112.553,22.949,22.461,28.809,7.324,-193.359,0.000,0.000,0.000
484112.557,45.410,24.414,28.809,45.410,131.836,0.000,0.000,0.000
484112.561,38.086,33.203,29.785,47.363,261.719,0.000,0.000,0.000
484112.565,21.973,36.621,36.133,18.066,-29.785,0.000,0.000,0.000
484112.569,27.344,34.180,36.133,11.719,-242.676,0.000,0.000,0.000
484112.573,37.598,31.738,26.855,35.156,-20.996,0.000,0.000,0.000
484112.577,33.203,30.273,20.996,47.852,236.816,0.000,0.000,0.000
484112.581,20.508,34.668,27.832,22.949,52.246,0.000,0.000,0.000
484112.585,20.020,31.738,32.715,5.859,-195.801,0.000,0.000,0.000
484112.589,39.551,31.738,32.715,33.691,-56.641,0.000,0.000,0.000
484112.593,44.922,33.203,29.785,55.664,215.332,0.000,0.000,0.000
484112.596,25.879,29.785,30.762,32.227,143.066,0.000,0.000,0.000
484112.600,18.066,33.203,34.668,11.230,-137.207,0.000,0.000,0.000
484112.604,38.574,31.738,34.668,28.320,-145.996,0.000,0.000,0.000
484112.608,49.316,30.762,29.785,57.617,163.574,0.000,0.000,0.000
484112.612,32.715,36.133,25.879,43.457,217.773,0.000,0.000,0.000
484112.616,19.531,33.203,26.367,12.695,-78.125,0.000,0.000,0.000
484112.620,26.367,27.832,27.832,16.113,-198.242,0.000,0.000,0.000
484112.624,35.645,30.273,24.902,44.922,64.453,0.000,0.000,0.000
484112.628,28.809,31.250,22.461,46.387,256.348,0.000,0.000,0.000
484112.632,18.066,30.273,33.691,16.602,-19.043,0.000,0.000,0.000
484112.636,20.996,29.785,33.691,5.371,-258.301,0.000,0.000,0.000
484112.639,32.227,29.785,30.762,36.621,-62.012,0.000,0.000,0.000
484112.643,33.203,31.738,32.227,54.688,202.148,0.000,0.000,0.000
484112.647,22.461,33.691,27.832,27.832,89.355,0.000,0.000,0.000
484112.651,26.367,35.156,29.785,13.672,-197.754,0.000,0.000,0.000
484112.655,34.180,31.250,25.879,30.273,-128.906,0.000,0.000,0.000
484112.659,34.668,32.227,25.879,53.223,166.504,0.000,0.000,0.000
484112.663,29.785,37.598,34.180,46.387,132.812,0.000,0.000,0.000
484112.667,23.926,33.203,35.645,18.555,-162.598,0.000,0.000,0.000
484112.671,33.203,27.832,35.156,24.414,-145.020,0.000,0.000,0.000
484112.675,35.645,27.344,32.715,52.246,147.461,0.000,0.000,0.000
484112.678,19.043,24.902,32.227,41.016,221.191,0.000,0.000,0.000
484112.682,7.812,25.391,33.691,8.301,-15.625,0.000,0.000,0.000
484112.686,14.648,26.855,28.320,6.348,-94.727,0.000,0.000,0.000
484112.690,24.902,26.855,21.973,35.156,156.250,0.000,0.000,0.000
484112.694,31.250,30.762,27.832,46.387,267.578,0.000,0.000,0.000
484112.698,21.973,36.621,34.180,16.113,-19.043,0.000,0.000,0.000
484112.702,21.973,32.227,30.273,-2.441,-246.094,0.000,0.000,0.000
484112.706,36.133,28.320,20.996,22.461,-60.059,0.000,0.000,0.000
484112.710,40.527,30.762,23.438,43.945,209.473,0.000,0.000,0.000
484112.714,27.832,32.227,35.156,21.484,90.332,0.000,0.000,0.000
484112.718,18.555,30.762,30.762,-5.859,-173.340,0.000,0.000,0.000
484112.721,34.180,33.691,28.809,17.578,-145.020,0.000,0.000,0.000
484112.725,42.480,35.156,31.250,46.387,141.113,0.000,0.000,0.000
484112.729,29.297,35.156,32.227,34.668,146.484,0.000,0.000,0.000
484112.733,19.531,36.133,33.203,3.418,-114.258,0.000,0.000,0.000
484112.737,27.832,27.832,25.879,2.930,-74.707,0.000,0.000,0.000
484112.741,35.645,23.438,19.531,36.621,277.832,0.000,0.000,0.000
484112.745,28.809,24.902,24.902,37.598,353.516,0.000,0.000,0.000
484112.749,16.113,25.391,31.250,6.348,20.996,0.000,0.000,0.000
484112.753,22.949,28.320,22.949,-1.953,-158.691,0.000,0.000,0.000
484112.757,38.574,27.344,22.949,27.344,3.906,0.000,0.000,0.000
484112.761,33.203,27.344,25.879,40.039,198.730,0.000,0.000,0.000
484112.764,19.531,33.203,26.367,15.137,23.926,0.000,0.000,0.000
484112.768,23.438,33.203,28.320,-1.465,-223.145,0.000,0.000,0.000
484112.772,28.320,24.902,19.531,15.625,-73.242,0.000,0.000,0.000
484112.776,30.273,25.391,17.578,39.062,232.910,0.000,0.000,0.000
484112.780,18.555,28.320,24.902,23.438,135.742,0.000,0.000,0.000
484112.784,12.695,26.855,27.832,3.418,-190.430,0.000,0.000,0.000
484112.788,31.738,29.297,23.926,22.949,-152.832,0.000,0.000,0.000
484112.792,42.480,34.180,28.320,55.664,159.668,0.000,0.000,0.000
484112.796,27.832,32.715,28.809,44.922,215.820,0.000,0.000,0.000
484112.800,20.020,28.320,27.832,14.160,-33.203,0.000,0.000,0.000
484112.803,28.809,25.879,31.250,19.043,-129.883,0.000,0.000,0.000
484112.807,34.180,28.809,32.715,48.340,138.672,0.000,0.000,0.000
484112.811,27.832,31.738,30.273,47.363,268.555,0.000,0.000,0.000
484112.815,13.184,28.809,28.320,12.207,-32.715,0.000,0.000,0.000
484112.819,14.160,26.855,28.320,-1.465,-211.914,0.000,0.000,0.000
484112.823,26.855,26.855,24.414,22.461,18.555,0.000,0.000,0.000
484112.827,25.879,30.762,23.438,38.574,228.027,0.000,0.000,0.000
484112.831,10.254,34.180,29.785,15.137,54.199,0.000,0.000,0.000
484112.835,15.137,30.762,32.227,-1.953,-189.453,0.000,0.000,0.000
484112.839,36.133,27.832,23.926,22.461,-42.969,0.000,0.000,0.000
484112.843,43.457,31.250,20.508,52.246,245.117,0.000,0.000,0.000
484112.846,36.621,33.691,27.344,41.504,129.883,0.000,0.000,0.000
484112.850,31.738,31.738,28.320,14.160,-176.758,0.000,0.000,0.000
484112.854,41.504,30.273,25.879,28.809,-115.234,0.000,0.000,0.000
484112.858,49.805,31.250,30.273,62.012,192.383,0.000,0.000,0.000
484112.862,39.551,38.086,35.156,52.734,162.598,0.000,0.000,0.000
484112.866,22.949,36.621,35.645,17.090,-142.578,0.000,0.000,0.000
484112.870,31.250,32.715,34.180,13.672,-221.191,0.000,0.000,0.000
484112.874,46.387,35.156,29.785,43.457,60.547,0.000,0.000,0.000
484112.878,34.180,35.645,24.414,45.898,225.586,0.000,0.000,0.000
484112.882,18.555,37.598,26.367,16.113,1.953,0.000,0.000,0.000
484112.885,27.832,34.180,21.484,2.930,-182.617,0.000,0.000,0.000
484112.889,44.922,36.621,24.902,31.738,-11.230,0.000,0.000,0.000
484112.893,51.758,42.480,28.809,50.781,177.246,0.000,0.000,0.000
484112.897,33.691,40.039,26.367,23.438,13.184,0.000,0.000,0.000
484112.901,27.832,34.180,25.879,0.488,-229.004,0.000,0.000,0.000
484112.905,45.898,34.180,28.809,26.855,-122.559,0.000,0.000,0.000
484112.909,51.758,36.133,33.691,56.641,245.605,0.000,0.000,0.000
484112.913,30.762,32.715,28.320,35.156,194.824,0.000,0.000,0.000
484112.917,19.043,28.320,25.391,7.812,-174.805,0.000,0.000,0.000
484112.921,36.621,26.367,25.879,19.043,-163.574,0.000,0.000,0.000
484112.925,46.875,31.738,26.855,48.340,195.312,0.000,0.000,0.000
484112.928,33.691,39.062,33.203,42.969,287.109,0.000,0.000,0.000
484112.932,19.043,34.668,29.297,8.301,-38.086,0.000,0.000,0.000
484112.936,34.668,30.762,28.809,10.742,-186.035,0.000,0.000,0.000
484112.940,43.945,29.785,27.832,40.527,80.078,0.000,0.000,0.000
484112.944,30.762,28.809,22.949,41.992,299.316,0.000,0.000,0.000
484112.948,16.602,32.715,29.297,15.625,94.238,0.000,0.000,0.000
484112.952,25.879,32.715,33.203,9.766,-125.000,0.000,0.000,0.000
484112.956,40.527,31.738,27.344,32.715,1.465,0.000,0.000,0.000
484112.960,41.016,35.645,29.785,47.852,203.613,0.000,0.000,0.000
484112.964,33.691,39.062,41.504,31.738,89.355,0.000,0.000,0.000
484112.968,28.809,40.039,38.086,8.789,-172.363,0.000,0.000,0.000
484112.971,31.738,34.180,27.832,18.066,-102.539,0.000,0.000,0.000
484112.975,35.156,29.297,22.949,40.527,186.035,0.000,0.000,0.000
484112.979,21.973,35.156,31.250,30.762,144.043,0.000,0.000,0.000
484112.983,18.555,36.133,38.574,6.348,-191.406,0.000,0.000,0.000
484112.987,33.203,35.645,28.320,11.719,-221.191,0.000,0.000,0.000
484112.991,35.645,34.180,28.320,42.969,122.559,0.000,0.000,0.000
484112.995,20.508,31.738,37.598,42.480,227.051,0.000,0.000,0.000
484112.999,8.789,33.203,40.039,14.160,-81.055,0.000,0.000,0.000
484113.003,16.113,30.762,40.039,9.277,-213.379,0.000,0.000,0.000
484113.007,29.297,27.832,39.062,42.480,62.500,0.000,0.000,0.000
484113.010,25.879,28.320,32.715,53.711,250.000,0.000,0.000,0.000
484113.014,8.789,33.691,34.180,23.438,55.664,0.000,0.000,0.000
484113.018,13.672,35.156,36.621,7.812,-166.992,0.000,0.000,0.000
484113.022,29.297,33.691,35.645,35.156,-24.902,0.000,0.000,0.000
484113.026,30.273,39.551,35.645,56.641,256.836,0.000,0.000,0.000
484113.030,18.066,40.527,36.621,29.785,154.785,0.000,0.000,0.000
484113.034,13.184,36.133,33.203,0.000,-164.551,0.000,0.000,0.000
484113.038,23.926,31.738,27.832,13.184,-111.816,0.000,0.000,0.000
484113.042,35.156,32.227,23.926,40.039,213.379,0.000,0.000,0.000
484113.046,27.832,36.133,27.344,29.785,226.562,0.000,0.000,0.000
484113.050,21.973,37.109,34.668,8.789,-53.711,0.000,0.000,0.000
484113.053,35.156,33.203,33.203,18.555,-144.531,0.000,0.000,0.000
484113.057,43.457,32.715,28.320,48.340,147.461,0.000,0.000,0.000
484113.061,34.180,35.156,25.879,49.805,297.363,0.000,0.000,0.000
484113.065,18.555,35.645,30.273,22.949,19.531,0.000,0.000,0.000
484113.069,23.926,36.133,30.273,11.719,-166.992,0.000,0.000,0.000
484113.073,44.922,37.109,22.461,37.598,45.410,0.000,0.000,0.000
484113.077,41.016,36.133,22.949,50.781,263.184,0.000,0.000,0.000
484113.081,16.113,33.203,29.785,20.508,79.590,0.000,0.000,0.000
484113.085,19.531,31.250,28.809,3.906,-197.754,0.000,0.000,0.000
484113.089,36.133,30.762,23.926,30.762,-73.242,0.000,0.000,0.000
484113.093,32.715,36.133,25.391,53.223,252.441,0.000,0.000,0.000
484113.096,16.113,35.645,28.320,32.227,191.406,0.000,0.000,0.000
484113.100,15.137,30.762,28.809,3.418,-185.547,0.000,0.000,0.000
484113.104,29.785,30.273,26.367,16.113,-178.711,0.000,0.000,0.000
484113.108,30.273,27.344,19.043,41.992,241.211,0.000,0.000,0.000
484113.112,14.648,27.832,20.996,28.320,237.793,0.000,0.000,0.000
484113.116,4.395,26.367,27.832,0.488,-122.559,0.000,0.000,0.000
484113.120,14.160,20.020,25.879,5.371,-198.730,0.000,0.000,0.000
484113.124,27.344,20.996,27.344,40.527,109.863,0.000,0.000,0.000
484113.128,26.367,28.320,33.203,45.410,291.016,0.000,0.000,0.000
484113.132,20.508,35.645,37.598,17.090,46.387,0.000,0.000,0.000
484113.135,28.320,36.133,36.133,10.742,-109.863,0.000,0.000,0.000
484113.139,34.180,34.180,27.344,35.156,111.328,0.000,0.000,0.000
484113.143,30.273,33.203,24.414,46.387,333.496,0.000,0.000,0.000
484113.147,18.555,33.203,30.762,22.461,150.879,0.000,0.000,0.000
484113.151,17.578,33.203,30.273,-0.488,-127.441,0.000,0.000,0.000
484113.155,32.715,36.621,28.320,21.973,16.602,0.000,0.000,0.000
484113.159,30.762,34.180,29.297,49.805,281.738,0.000,0.000,0.000
484113.163,15.137,29.785,36.133,32.227,96.191,0.000,0.000,0.000
484113.167,17.090,33.691,42.969,10.742,-231.445,0.000,0.000,0.000
484113.171,28.809,35.645,34.180,21.973,-202.148,0.000,0.000,0.000
484113.175,34.668,31.250,30.273,49.316,94.727,0.000,0.000,0.000
484113.178,24.902,29.297,36.133,40.039,205.566,0.000,0.000,0.000
484113.182,9.766,33.691,33.203,5.371,-67.871,0.000,0.000,0.000
484113.186,18.555,32.715,29.785,7.324,-229.492,0.000,0.000,0.000
484113.190,26.855,28.809,26.855,37.109,20.996,0.000,0.000,0.000
484113.194,19.043,29.297,24.902,41.504,217.773,0.000,0.000,0.000
484113.198,7.324,32.715,34.668,19.043,17.090,0.000,0.000,0.000
484113.202,14.648,34.180,43.945,10.254,-143.066,0.000,0.000,0.000
484113.206,30.273,32.715,37.598,36.133,54.199,0.000,0.000,0.000
484113.210,30.762,32.227,33.691,55.664,259.277,0.000,0.000,0.000
484113.214,12.695,30.273,34.668,24.902,56.641,0.000,0.000,0.000
484113.218,14.648,33.203,31.250,3.418,-261.230,0.000,0.000,0.000
484113.221,33.203,36.133,30.762,25.391,-165.039,0.000,0.000,0.000
484113.225,34.180,35.645,30.762,45.898,137.207,0.000,0.000,0.000
484113.229,15.137,35.156,28.809,27.344,120.117,0.000,0.000,0.000
484113.233,6.836,37.109,29.297,-2.441,-169.922,0.000,0.000,0.000
484113.237,24.414,39.551,29.785,6.348,-190.430,0.000,0.000,0.000
484113.241,31.738,38.086,28.809,36.133,164.062,0.000,0.000,0.000
484113.245,18.555,33.203,28.809,32.715,240.234,0.000,0.000,0.000
484113.249,9.766,31.738,33.691,5.859,-77.637,0.000,0.000,0.000
484113.253,20.996,34.180,36.133,3.906,-219.727,0.000,0.000,0.000
484113.257,32.715,35.156,33.203,36.133,28.320,0.000,0.000,0.000
484113.260,35.156,38.574,32.715,48.828,229.492,0.000,0.000,0.000
484113.264,31.250,41.504,34.668,25.879,20.508,0.000,0.000,0.000
484113.268,34.180,39.062,34.180,12.695,-220.215,0.000,0.000,0.000
484113.272,38.574,32.227,25.879,31.738,-69.824,0.000,0.000,0.000
484113.276,40.527,32.715,22.461,49.316,272.461,0.000,0.000,0.000
484113.280,29.297,35.156,29.785,28.320,165.527,0.000,0.000,0.000
484113.284,22.949,34.668,30.273,3.906,-168.457,0.000,0.000,0.000
484113.288,36.133,33.691,21.973,19.043,-166.016,0.000,0.000,0.000
484113.292,39.551,33.203,19.531,44.434,112.305,0.000,0.000,0.000
484113.296,29.297,34.180,25.391,36.133,142.090,0.000,0.000,0.000
484113.300,17.578,33.203,31.738,6.836,-161.621,0.000,0.000,0.000
484113.303,26.855,32.715,28.809,8.301,-215.820,0.000,0.000,0.000
484113.307,47.852,37.109,30.762,50.781,134.277,0.000,0.000,0.000
484113.311,43.457,34.180,31.250,52.734,215.820,0.000,0.000,0.000
484113.315,22.461,30.273,30.273,11.719,-68.848,0.000,0.000,0.000
484113.319,28.320,35.156,35.156,3.906,-143.066,0.000,0.000,0.000
484113.323,39.551,33.691,26.855,31.250,117.676,0.000,0.000,0.000
484113.327,39.062,32.715,19.043,44.922,314.453,0.000,0.000,0.000
484113.331,26.367,34.668,24.414,19.531,66.406,0.000,0.000,0.000
484113.335,25.879,36.621,31.738,5.371,-208.496,0.000,0.000,0.000
484113.339,32.715,33.691,27.832,24.902,-83.984,0.000,0.000,0.000
484113.342,37.109,31.738,24.414,44.434,173.828,0.000,0.000,0.000
484113.346,30.273,37.109,35.156,31.250,111.816,0.000,0.000,0.000
484113.350,22.461,37.598,37.109,2.930,-163.086,0.000,0.000,0.000
484113.354,36.133,35.156,25.879,15.137,-171.387,0.000,0.000,0.000
484113.358,42.969,34.180,23.926,46.387,199.219,0.000,0.000,0.000
484113.362,30.762,32.715,26.367,33.691,337.891,0.000,0.000,0.000
484113.366,17.578,31.738,29.297,3.906,42.480,0.000,0.000,0.000
484113.370,29.297,33.203,36.621,11.719,-92.773,0.000,0.000,0.000
484113.374,40.527,30.762,33.203,42.480,182.617,0.000,0.000,0.000
484113.378,31.738,29.785,31.738,41.992,334.473,0.000,0.000,0.000
484113.382,17.090,33.203,40.527,11.230,30.762,0.000,0.000,0.000
484113.385,26.367,32.227,42.969,5.371,-209.473,0.000,0.000,0.000
484113.389,41.016,30.273,38.574,33.691,-24.414,0.000,0.000,0.000
484113.393,38.086,30.762,31.250,49.316,197.754,0.000,0.000,0.000
484113.397,26.367,29.785,32.715,26.855,71.289,0.000,0.000,0.000
484113.401,27.832,28.809,29.785,8.301,-139.160,0.000,0.000,0.000
484113.405,39.062,31.250,27.344,28.809,-31.738,0.000,0.000,0.000
484113.409,41.016,31.738,24.414,49.805,224.121,0.000,0.000,0.000
484113.413,30.762,32.227,25.879,36.133,129.883,0.000,0.000,0.000
484113.417,26.855,35.645,37.109,16.113,-222.656,0.000,0.000,0.000
484113.421,39.551,33.691,36.133,26.855,-214.355,0.000,0.000,0.000
484113.425,43.945,31.738,28.320,56.641,141.113,0.000,0.000,0.000
484113.428,39.062,32.715,31.250,52.734,207.031,0.000,0.000,0.000
484113.432,33.203,32.715,36.621,22.949,-36.133,0.000,0.000,0.000
484113.436,40.527,32.227,36.133,19.531,-106.445,0.000,0.000,0.000
484113.440,50.781,32.227,31.738,46.875,169.434,0.000,0.000,0.000
484113.444,47.363,33.691,29.785,54.199,313.965,0.000,0.000,0.000
484113.448,38.574,36.133,38.086,30.273,27.832,0.000,0.000,0.000
484113.452,41.992,36.133,41.992,18.555,-224.609,0.000,0.000,0.000
484113.456,51.270,34.180,33.691,36.621,-34.668,0.000,0.000,0.000
484113.460,52.734,34.180,34.668,54.199,224.609,0.000,0.000,0.000
484113.464,38.086,38.086,42.480,35.156,44.922,0.000,0.000,0.000
484113.467,25.879,37.109,32.715,6.348,-256.348,0.000,0.000,0.000
484113.471,29.297,29.785,24.414,23.926,-123.535,0.000,0.000,0.000
484113.475,35.645,31.738,28.320,55.176,216.797,0.000,0.000,0.000
484113.479,28.320,35.645,34.668,41.504,173.828,0.000,0.000,0.000
484113.483,22.461,31.250,36.133,11.719,-142.578,0.000,0.000,0.000
484113.487,36.133,27.832,29.297,19.043,-171.875,0.000,0.000,0.000
484113.491,43.945,26.367,26.367,52.246,99.121,0.000,0.000,0.000
484113.495,38.574,21.484,31.250,51.270,224.121,0.000,0.000,0.000
484113.499,26.855,23.438,32.715,19.043,-12.207,0.000,0.000,0.000
484113.503,25.879,31.738,29.297,11.230,-211.426,0.000,0.000,0.000
484113.507,36.621,33.691,27.344,41.016,-10.254,0.000,0.000,0.000
484113.510,37.109,38.086,28.320,51.758,239.258,0.000,0.000,0.000
484113.514,16.113,40.039,32.227,19.531,26.855,0.000,0.000,0.000
484113.518,14.648,32.227,31.250,2.930,-182.129,0.000,0.000,0.000
484113.522,32.715,29.297,28.320,29.785,56.152,0.000,0.000,0.000
484113.526,41.504,32.227,32.227,54.199,327.637,0.000,0.000,0.000
484113.530,33.203,37.109,35.156,38.574,181.641,0.000,0.000,0.000
484113.534,31.250,38.574,38.574,15.137,-116.699,0.000,0.000,0.000
484113.538,42.480,35.645,35.156,29.785,-62.012,0.000,0.000,0.000
484113.542,39.062,34.180,20.996,54.199,259.766,0.000,0.000,0.000
484113.546,21.973,33.203,21.484,36.133,262.695,0.000,0.000,0.000
484113.550,18.066,35.645,36.133,10.742,-85.449,0.000,0.000,0.000
484113.553,30.762,37.598,33.691,13.672,-219.238,0.000,0.000,0.000
484113.557,33.691,31.250,20.508,34.668,71.777,0.000,0.000,0.000
484113.561,27.344,26.367,22.461,36.133,207.520,0.000,0.000,0.000
484113.565,21.484,31.250,26.855,8.789,-80.566,0.000,0.000,0.000
484113.569,31.250,30.762,27.344,0.488,-200.684,0.000,0.000,0.000
484113.573,44.434,29.297,29.785,29.785,47.852,0.000,0.000,0.000
484113.577,46.387,32.715,27.832,42.480,240.234,0.000,0.000,0.000
484113.581,28.320,35.645,29.297,16.113,12.695,0.000,0.000,0.000
484113.585,17.578,34.180,26.367,-0.488,-266.602,0.000,0.000,0.000
484113.589,30.762,32.227,25.391,27.832,-148.926,0.000,0.000,0.000
484113.592,33.691,34.668,31.250,51.270,216.309,0.000,0.000,0.000
484113.596,20.508,31.738,32.227,28.809,211.914,0.000,0.000,0.000
484113.600,14.160,25.391,27.344,0.488,-111.816,0.000,0.000,0.000
484113.604,24.414,21.973,21.484,10.742,-135.742,0.000,0.000,0.000
484113.608,32.715,25.391,21.973,46.387,122.070,0.000,0.000,0.000
484113.612,22.949,30.273,28.809,37.109,144.043,0.000,0.000,0.000
484113.616,9.277,31.738,31.738,-2.441,-117.188,0.000,0.000,0.000
484113.620,15.625,33.203,33.203,-0.488,-150.391,0.000,0.000,0.000
484113.624,34.180,33.203,34.668,39.062,104.980,0.000,0.000,0.000
484113.628,25.391,32.715,28.809,41.016,214.355,0.000,0.000,0.000
484113.632,9.277,31.250,32.227,9.766,-45.410,0.000,0.000,0.000
484113.635,20.996,27.344,37.598,7.324,-218.262,0.000,0.000,0.000
484113.639,32.227,26.367,31.738,33.203,25.391,0.000,0.000,0.000
484113.643,34.668,30.273,31.738,48.340,306.641,0.000,0.000,0.000
484113.647,20.508,29.785,32.715,17.090,163.086,0.000,0.000,0.000
484113.651,22.949,29.297,32.715,-4.395,-103.027,0.000,0.000,0.000
484113.655,39.062,33.203,28.809,20.508,20.020,0.000,0.000,0.000
484113.659,40.527,34.180,22.461,44.922,281.738,0.000,0.000,0.000
484113.663,29.297,34.668,24.414,27.832,183.105,0.000,0.000,0.000
484113.667,22.461,34.668,22.949,0.000,-158.691,0.000,0.000,0.000
484113.671,32.715,33.691,21.973,10.254,-183.105,0.000,0.000,0.000
484113.675,40.039,34.668,22.461,40.527,163.086,0.000,0.000,0.000
484113.678,31.250,34.180,21.973,32.227,243.652,0.000,0.000,0.000
484113.682,21.484,30.273,22.461,1.953,-84.473,0.000,0.000,0.000
484113.686,33.691,29.297,31.250,6.348,-173.828,0.000,0.000,0.000
484113.690,43.457,32.227,28.809,31.738,146.973,0.000,0.000,0.000
484113.694,29.785,31.738,19.043,28.809,301.270,0.000,0.000,0.000
484113.698,15.625,31.738,22.461,-0.977,-20.020,0.000,0.000,0.000
484113.702,21.484,29.785,24.902,-10.254,-254.883,0.000,0.000,0.000
484113.706,30.762,29.297,20.020,13.672,-47.852,0.000,0.000,0.000
484113.710,23.926,29.785,15.137,27.832,193.359,0.000,0.000,0.000
484113.714,13.672,30.273,23.438,11.719,62.500,0.000,0.000,0.000
484113.717,13.672,33.691,25.879,-5.371,-224.121,0.000,0.000,0.000
484113.721,20.508,32.227,20.508,8.789,-75.195,0.000,0.000,0.000
484113.725,27.832,31.250,22.461,35.156,320.312,0.000,0.000,0.000
484113.729,20.996,33.203,27.832,27.344,266.602,0.000,0.000,0.000
484113.733,18.066,29.785,30.273,0.977,-138.184,0.000,0.000,0.000
484113.737,29.297,23.926,28.320,7.812,-214.844,0.000,0.000,0.000
484113.741,40.527,27.344,30.762,43.945,110.840,0.000,0.000,0.000
484113.745,34.668,28.320,36.133,46.387,204.102,0.000,0.000,0.000
484113.749,20.996,27.832,33.203,15.625,-42.969,0.000,0.000,0.000
484113.753,28.809,28.809,27.832,12.207,-127.441,0.000,0.000,0.000
484113.757,38.086,26.367,24.414,40.039,166.016,0.000,0.000,0.000
484113.760,39.062,24.902,28.809,49.805,356.934,0.000,0.000,0.000
484113.764,25.391,27.344,30.273,24.902,83.496,0.000,0.000,0.000
484113.768,16.113,25.879,22.461,2.930,-149.414,0.000,0.000,0.000
484113.772,24.902,19.043,17.578,23.438,49.805,0.000,0.000,0.000
484113.776,27.832,17.090,21.484,44.434,329.102,0.000,0.000,0.000
484113.780,19.043,27.344,38.086,27.832,177.246,0.000,0.000,0.000
484113.784,15.137,33.203,38.574,6.348,-128.418,0.000,0.000,0.000
484113.788,20.020,29.785,22.949,11.719,-65.430,0.000,0.000,0.000
484113.792,26.367,31.250,20.508,35.645,203.125,0.000,0.000,0.000
484113.796,17.578,38.574,26.367,26.367,135.742,0.000,0.000,0.000
484113.800,10.742,36.621,31.738,-3.906,-211.914,0.000,0.000,0.000
484113.803,23.438,32.715,29.297,5.371,-270.508,0.000,0.000,0.000
484113.807,35.156,32.715,20.996,37.109,62.500,0.000,0.000,0.000
484113.811,28.809,32.227,23.926,40.527,174.316,0.000,0.000,0.000
484113.815,10.742,34.180,24.902,11.719,-111.328,0.000,0.000,0.000
484113.819,19.043,36.133,28.320,6.836,-222.168,0.000,0.000,0.000
484113.823,36.133,33.203,32.715,41.504,9.277,0.000,0.000,0.000
484113.827,31.738,33.691,32.227,50.293,173.340,0.000,0.000,0.000
484113.831,13.672,34.180,33.691,16.113,-16.602,0.000,0.000,0.000
484113.835,16.602,30.762,32.227,3.418,-264.160,0.000,0.000,0.000
484113.839,31.250,32.715,30.273,27.344,-104.004,0.000,0.000,0.000
484113.842,26.367,29.785,25.879,38.086,214.844,0.000,0.000,0.000
484113.846,10.742,25.879,29.785,18.555,134.766,0.000,0.000,0.000
484113.850,13.672,26.855,33.691,-3.906,-157.227,0.000,0.000,0.000
484113.854,32.715,26.367,31.250,8.789,-152.832,0.000,0.000,0.000
484113.858,38.574,24.902,31.250,40.039,166.504,0.000,0.000,0.000
484113.862,34.180,28.809,30.273,34.180,196.289,0.000,0.000,0.000
484113.866,23.926,28.809,27.344,0.000,-100.098,0.000,0.000,0.000
484113.870,30.273,24.902,31.738,2.930,-204.590,0.000,0.000,0.000
484113.874,40.527,28.809,30.762,34.668,83.984,0.000,0.000,0.000
484113.878,28.320,29.297,25.879,34.668,232.422,0.000,0.000,0.000
484113.882,14.648,26.367,28.320,0.977,-63.477,0.000,0.000,0.000
484113.885,20.508,25.391,27.832,-12.207,-231.445,0.000,0.000,0.000
484113.889,30.762,27.832,25.879,19.043,-11.230,0.000,0.000,0.000
484113.893,32.227,29.785,28.320,36.621,281.738,0.000,0.000,0.000
484113.897,21.973,28.320,29.785,14.160,115.234,0.000,0.000,0.000
484113.901,22.461,29.785,25.879,-3.906,-104.492,0.000,0.000,0.000
484113.905,36.133,30.762,21.484,14.648,73.730,0.000,0.000,0.000
484113.909,46.387,29.297,28.320,46.387,273.438,0.000,0.000,0.000
484113.913,37.109,31.250,30.273,34.180,171.387,0.000,0.000,0.000
484113.917,30.762,33.691,28.320,7.812,-159.668,0.000,0.000,0.000
484113.921,37.598,30.273,24.414,16.113,-177.246,0.000,0.000,0.000
484113.924,45.410,32.715,22.461,44.922,177.734,0.000,0.000,0.000
484113.928,36.621,37.598,31.738,39.551,245.605,0.000,0.000,0.000
484113.932,24.414,34.668,38.574,6.836,-79.102,0.000,0.000,0.000
484113.936,29.297,30.273,29.297,4.395,-162.598,0.000,0.000,0.000
484113.940,38.086,29.785,18.555,36.621,117.676,0.000,0.000,0.000
484113.944,38.086,33.203,26.367,47.852,246.582,0.000,0.000,0.000
484113.948,24.414,26.855,28.320,13.184,15.137,0.000,0.000,0.000
484113.952,33.203,31.250,23.926,4.395,-118.164,0.000,0.000,0.000
484113.956,41.992,37.109,23.926,34.668,47.852,0.000,0.000,0.000
484113.960,32.715,31.738,22.949,44.922,222.656,0.000,0.000,0.000
484113.964,20.020,30.273,32.715,23.926,47.363,0.000,0.000,0.000
484113.967,7.324,27.832,35.645,-1.953,-208.496,0.000,0.000,0.000
484113.971,15.625,24.414,29.297,12.695,-123.047,0.000,0.000,0.000
484113.975,21.973,23.926,25.879,38.574,141.602,0.000,0.000,0.000
484113.979,-0.488,25.391,21.973,16.602,151.855,0.000,0.000,0.000
484113.983,-4.883,25.391,21.484,-7.324,-169.434,0.000,0.000,0.000
484113.987,15.625,29.297,24.902,9.766,-219.238,0.000,0.000,0.000
484113.991,27.344,31.250,26.855,41.016,106.445,0.000,0.000,0.000
484113.995,18.066,28.320,29.297,35.645,154.785,0.000,0.000,0.000
484113.999,10.742,31.250,42.969,10.254,-160.156,0.000,0.000,0.000
484114.003,17.090,29.297,38.574,4.395,-237.305,0.000,0.000,0.000
484114.007,29.297,29.785,24.902,30.762,57.129,0.000,0.000,0.000
484114.010,28.809,32.715,30.762,46.875,237.793,0.000,0.000,0.000
484114.014,9.766,33.203,39.551,19.531,-15.137,0.000,0.000,0.000
484114.018,12.207,32.715,36.133,3.906,-239.746,0.000,0.000,0.000
484114.022,24.414,31.250,32.715,29.785,-45.898,0.000,0.000,0.000
484114.026,23.926,33.691,29.297,48.340,244.141,0.000,0.000,0.000
484114.030,13.184,34.668,29.785,24.902,96.680,0.000,0.000,0.000
484114.034,15.137,31.738,38.086,0.000,-192.383,0.000,0.000,0.000
484114.038,28.320,33.203,30.762,16.602,-91.797,0.000,0.000,0.000
484114.042,35.156,36.621,20.996,48.828,178.711,0.000,0.000,0.000
484114.046,25.879,38.086,26.855,38.086,183.105,0.000,0.000,0.000
484114.049,16.113,40.039,31.738,6.348,-109.863,4.000,1.000,45.000
484114.053,29.297,38.574,28.320,12.207,-167.969,0.000,0.000,0.000
484114.057,42.480,35.156,33.691,44.434,131.348,0.000,0.000,0.000
484114.061,35.645,31.738,31.250,41.992,242.676,0.000,0.000,0.000
484114.065,17.090,30.762,27.344,5.371,-23.438,0.000,0.000,0.000
484114.069,19.531,29.785,29.785,2.441,-127.930,0.000,0.000,0.000
484114.073,32.227,31.738,27.832,34.668,196.289,0.000,0.000,0.000
484114.077,30.762,35.645,29.785,45.898,322.754,0.000,0.000,0.000
484114.081,18.066,38.574,30.762,13.184,24.902,0.000,0.000,0.000
484114.085,18.066,38.574,29.297,-1.465,-190.918,0.000,0.000,0.000
484114.089,27.832,31.738,21.973,22.461,9.277,0.000,0.000,0.000
484114.092,32.227,31.738,18.555,44.922,344.238,0.000,0.000,0.000
484114.096,18.066,35.156,23.438,28.320,225.586,0.000,0.000,0.000
484114.100,12.695,35.156,29.297,4.395,-99.609,0.000,0.000,0.000
484114.104,35.156,35.156,31.250,26.367,-59.570,0.000,0.000,0.000
484114.108,47.363,40.039,28.809,57.129,216.309,0.000,0.000,0.000
484114.112,36.621,40.527,28.809,43.457,164.062,0.000,0.000,0.000
484114.116,27.344,35.645,29.785,12.695,-143.555,0.000,0.000,0.000
484114.120,36.133,32.715,27.344,15.137,-204.102,0.000,0.000,0.000
484114.124,42.480,30.273,25.879,43.457,83.984,0.000,0.000,0.000
484114.128,34.180,32.227,26.367,43.945,222.656,0.000,0.000,0.000
484114.132,24.414,37.598,31.250,17.578,-88.379,0.000,0.000,0.000
484114.135,30.762,35.645,33.203,14.648,-246.094,0.000,0.000,0.000
484114.139,43.457,31.738,31.738,40.039,6.836,0.000,0.000,0.000
484114.143,37.109,31.738,28.320,48.340,256.836,0.000,0.000,0.000
484114.147,27.832,31.738,27.832,25.879,82.031,0.000,0.000,0.000
484114.151,37.598,31.738,28.809,12.695,-219.727,0.000,0.000,0.000
484114.155,46.387,33.691,25.879,31.738,-101.562,0.000,0.000,0.000
484114.159,44.922,35.645,23.926,55.176,235.352,0.000,0.000,0.000
484114.163,33.203,36.133,31.250,40.527,181.152,0.000,0.000,0.000
484114.167,24.902,36.621,36.621,13.184,-165.527,0.000,0.000,0.000
484114.171,30.762,31.738,29.297,18.555,-176.270,0.000,0.000,0.000
484114.174,35.156,28.809,25.879,42.969,168.457,0.000,0.000,0.000
484114.178,24.902,30.273,26.855,39.551,194.824,0.000,0.000,0.000
484114.182,12.207,32.227,28.809,10.742,-120.117,0.000,0.000,0.000
484114.186,19.531,30.273,27.832,9.277,-175.781,0.000,0.000,0.000
484114.190,36.133,32.715,23.438,42.480,91.797,0.000,0.000,0.000
484114.194,34.180,37.598,24.414,50.293,280.762,0.000,0.000,0.000
484114.198,20.508,35.156,28.809,20.020,47.852,0.000,0.000,0.000
484114.202,29.297,32.227,29.785,8.301,-189.453,0.000,0.000,0.000
484114.206,35.156,29.785,26.855,30.273,37.598,0.000,0.000,0.000
484114.210,35.156,32.227,29.785,49.316,230.957,0.000,0.000,0.000
484114.214,29.297,36.621,39.551,27.832,65.430,0.000,0.000,0.000
484114.217,26.367,36.133,36.133,7.324,-126.465,0.000,0.000,0.000
484114.221,36.621,31.738,26.367,28.809,-6.836,0.000,0.000,0.000
484114.225,42.969,33.203,27.832,51.758,276.367,0.000,0.000,0.000
484114.229,30.762,38.086,28.320,36.621,193.848,0.000,0.000,0.000
484114.233,18.555,34.668,27.344,5.371,-162.598,0.000,0.000,0.000
484114.237,32.227,32.715,24.902,11.230,-175.781,0.000,0.000,0.000
484114.241,44.434,33.203,27.344,46.875,135.742,0.000,0.000,0.000
484114.245,33.691,28.809,34.668,49.316,190.430,0.000,0.000,0.000
484114.249,24.414,27.832,37.598,20.996,-49.805,0.000,0.000,0.000
484114.253,33.691,30.273,30.762,19.531,-161.621,0.000,0.000,0.000
484114.257,45.410,31.738,30.273,50.293,39.551,0.000,0.000,0.000
484114.260,40.039,33.203,31.738,52.734,236.328,0.000,0.000,0.000
484114.264,21.484,32.227,27.832,17.090,78.613,0.000,0.000,0.000
484114.268,24.902,31.738,30.762,6.836,-95.703,0.000,0.000,0.000
484114.272,41.504,30.273,34.180,36.133,49.316,0.000,0.000,0.000
484114.276,41.992,30.762,33.691,54.199,266.113,0.000,0.000,0.000
484114.280,21.973,32.715,36.621,25.879,94.727,0.000,0.000,0.000
484114.284,19.043,35.645,37.109,4.883,-214.844,0.000,0.000,0.000
484114.288,31.738,34.668,27.832,25.391,-129.883,0.000,0.000,0.000
484114.292,36.133,34.668,21.973,51.758,202.637,0.000,0.000,0.000
484114.296,28.809,36.621,29.297,35.645,194.336,0.000,0.000,0.000
484114.299,21.973,40.527,34.668,3.906,-140.137,0.000,0.000,0.000
484114.303,25.879,35.645,27.832,6.836,-204.590,0.000,0.000,0.000
484114.307,33.203,30.762,29.785,34.180,107.422,0.000,0.000,0.000
484114.311,27.832,36.621,34.668,38.086,255.371,0.000,0.000,0.000
484114.315,19.043,38.086,29.297,13.672,-46.875,0.000,0.000,0.000
484114.319,26.367,33.691,29.297,8.789,-270.508,0.000,0.000,0.000
484114.323,28.809,30.762,20.996,26.855,15.137,0.000,0.000,0.000
484114.327,27.832,34.180,18.555,39.062,240.234,0.000,0.000,0.000
484114.331,17.578,35.645,27.344,19.531,10.742,0.000,0.000,0.000
484114.335,23.438,35.645,32.227,6.348,-234.375,0.000,0.000,0.000
484114.339,40.527,36.621,32.227,32.715,-41.504,0.000,0.000,0.000
484114.342,41.016,36.133,30.762,53.223,316.895,0.000,0.000,0.000
484114.346,30.762,38.574,34.180,30.273,201.660,0.000,0.000,0.000
484114.350,25.391,40.039,34.180,4.883,-153.320,0.000,0.000,0.000
484114.354,33.203,37.109,33.203,22.461,-85.449,0.000,0.000,0.000
484114.358,41.016,37.109,30.762,55.176,217.773,0.000,0.000,0.000
484114.362,25.391,38.086,26.855,44.922,271.973,0.000,0.000,0.000
484114.366,19.531,39.551,31.738,18.066,4.395,0.000,0.000,0.000
484114.370,37.598,39.062,33.691,25.391,-77.637,0.000,0.000,0.000
484114.374,45.898,32.227,31.250,51.758,183.105,0.000,0.000,0.000
484114.378,41.016,32.227,32.227,51.758,273.438,0.000,0.000,0.000
484114.381,30.273,38.574,33.203,24.414,3.418,0.000,0.000,0.000
484114.385,37.109,39.062,32.715,19.531,-156.250,0.000,0.000,0.000
484114.389,50.293,36.621,30.762,48.828,75.684,0.000,0.000,0.000
484114.393,47.852,34.180,31.738,62.012,271.484,0.000,0.000,0.000
484114.397,24.414,32.227,30.762,24.902,74.219,0.000,0.000,0.000
484114.401,21.484,34.668,30.762,7.324,-147.461,0.000,0.000,0.000
484114.405,40.527,39.062,31.738,37.109,10.742,0.000,0.000,0.000
484114.409,38.574,34.180,28.320,55.664,263.672,0.000,0.000,0.000
484114.413,23.926,31.738,27.344,37.598,121.094,0.000,0.000,0.000
484114.417,20.508,33.691,28.809,17.090,-204.590,0.000,0.000,0.000
484114.421,30.762,33.203,22.949,29.785,-150.391,0.000,0.000,0.000
484114.424,35.156,35.156,21.973,58.105,180.664,0.000,0.000,0.000
484114.428,26.367,36.621,28.809,49.805,242.676,0.000,0.000,0.000
484114.432,16.602,38.086,34.668,19.043,-60.547,0.000,0.000,0.000
484114.436,26.367,33.691,29.297,15.137,-225.098,0.000,0.000,0.000
484114.440,33.691,28.809,23.926,39.062,100.586,0.000,0.000,0.000
484114.444,25.391,29.297,28.809,46.875,332.031,0.000,0.000,0.000
484114.448,16.602,33.203,34.180,22.461,65.430,0.000,0.000,0.000
484114.452,22.949,33.691,31.738,12.695,-225.586,0.000,0.000,0.000
484114.456,30.762,31.250,25.879,38.086,-93.750,0.000,0.000,0.000
484114.460,23.926,32.715,20.996,44.434,199.707,0.000,0.000,0.000
484114.464,12.695,36.133,29.297,18.066,90.820,0.000,0.000,0.000
484114.467,8.301,31.738,31.738,-0.488,-155.762,0.000,0.000,0.000
484114.471,11.719,24.414,20.508,14.160,-28.809,0.000,0.000,0.000
484114.475,22.949,26.855,21.484,42.969,217.285,0.000,0.000,0.000
484114.479,20.996,25.879,29.297,35.156,157.715,0.000,0.000,0.000
484114.483,23.438,30.273,37.109,14.160,-172.852,0.000,0.000,0.000
484114.487,31.738,35.645,35.156,25.879,-138.672,0.000,0.000,0.000
484114.491,32.227,28.809,24.902,56.641,252.441,0.000,0.000,0.000
484114.495,30.273,29.785,27.832,53.223,293.945,0.000,0.000,0.000
484114.499,16.602,29.297,33.203,19.531,24.414,0.000,0.000,0.000
484114.503,20.020,22.461,28.320,16.113,-99.121,0.000,0.000,0.000
484114.506,32.227,22.461,25.879,43.945,148.438,0.000,0.000,0.000
484114.510,28.809,26.367,32.715,49.316,329.590,0.000,0.000,0.000
484114.514,19.531,30.762,37.598,20.020,-1.953,0.000,0.000,0.000
484114.518,23.438,32.715,32.715,3.906,-277.832,0.000,0.000,0.000
484114.522,37.109,32.715,29.785,27.832,-83.008,0.000,0.000,0.000
484114.526,40.039,31.250,32.227,45.410,134.766,0.000,0.000,0.000
484114.530,20.996,29.785,31.738,19.043,-0.977,0.000,0.000,0.000
484114.534,14.648,30.762,32.715,-3.906,-227.051,0.000,0.000,0.000
484114.538,29.297,27.344,30.273,20.020,-120.605,0.000,0.000,0.000
484114.542,36.133,21.484,25.879,50.293,170.898,0.000,0.000,0.000
484114.546,16.602,19.531,28.320,26.855,148.926,0.000,0.000,0.000
484114.549,8.301,25.391,32.715,-1.953,-143.555,0.000,0.000,0.000
484114.553,28.809,33.691,34.668,15.625,-214.844,0.000,0.000,0.000
484114.557,37.109,32.227,30.273,43.945,144.531,0.000,0.000,0.000
484114.561,23.926,26.367,28.809,37.598,309.082,0.000,0.000,0.000
484114.565,8.789,26.855,30.273,4.395,-47.852,0.000,0.000,0.000
484114.569,20.020,29.297,28.809,2.441,-205.566,0.000,0.000,0.000
484114.573,34.668,29.785,28.320,38.086,70.312,0.000,0.000,0.000
484114.577,23.926,29.297,24.414,40.527,208.008,0.000,0.000,0.000
484114.581,11.719,31.738,27.344,9.766,-23.438,0.000,0.000,0.000
484114.585,20.996,35.156,29.785,0.977,-177.734,0.000,0.000,0.000
484114.589,27.832,29.785,24.414,20.508,-23.438,0.000,0.000,0.000
484114.592,21.973,22.461,20.996,37.598,212.891,0.000,0.000,0.000
484114.596,11.719,29.297,24.902,22.461,108.398,0.000,0.000,0.000
484114.600,9.766,32.227,32.227,-0.488,-207.031,0.000,0.000,0.000
484114.604,16.602,23.438,28.320,12.695,-149.414,0.000,0.000,0.000
484114.608,23.926,24.414,22.461,42.969,190.430,0.000,0.000,0.000
484114.612,20.996,29.297,30.762,36.133,192.871,0.000,0.000,0.000
484114.616,17.090,31.738,37.598,9.277,-149.414,0.000,0.000,0.000
484114.620,29.297,31.250,36.133,11.230,-229.980,0.000,0.000,0.000
484114.624,45.898,32.227,36.133,42.969,109.863,0.000,0.000,0.000
484114.628,44.922,36.133,32.227,46.387,252.930,0.000,0.000,0.000
484114.631,30.762,37.109,31.738,12.695,-72.266,0.000,0.000,0.000
484114.635,32.715,35.645,31.738,-0.977,-256.348,0.000,0.000,0.000
484114.639,42.480,31.738,26.367,23.926,5.371,0.000,0.000,0.000
484114.643,40.039,28.320,25.391,40.527,253.418,0.000,0.000,0.000
484114.647,29.785,29.297,32.715,20.996,12.695,0.000,0.000,0.000
484114.651,28.320,29.297,30.273,-1.465,-278.809,0.000,0.000,0.000
484114.655,37.109,30.762,25.879,21.484,-119.141,0.000,0.000,0.000
484114.659,40.039,33.691,29.785,50.293,197.266,0.000,0.000,0.000
484114.663,25.391,30.762,29.297,25.879,164.551,0.000,0.000,0.000
484114.667,23.438,29.785,31.738,1.465,-78.125,0.000,0.000,0.000
484114.671,35.156,30.762,28.809,18.066,-37.598,0.000,0.000,0.000
484114.674,37.598,29.297,22.949,46.387,261.719,0.000,0.000,0.000
484114.678,29.785,28.809,25.879,40.039,270.996,0.000,0.000,0.000
484114.682,9.277,28.320,25.879,1.465,-53.223,0.000,0.000,0.000
484114.686,14.160,25.391,23.438,1.465,-165.039,0.000,0.000,0.000
484114.690,34.668,28.320,26.855,40.039,62.988,0.000,0.000,0.000
484114.694,22.949,29.785,28.809,37.598,170.898,0.000,0.000,0.000
484114.698,7.812,28.320,28.320,5.859,-118.164,0.000,0.000,0.000
484114.702,17.090,29.785,29.297,-0.488,-299.805,0.000,0.000,0.000
484114.706,26.855,29.297,26.367,25.391,-44.434,0.000,0.000,0.000
484114.710,29.297,26.855,23.926,44.922,224.121,0.000,0.000,0.000
484114.714,16.113,26.367,30.762,27.832,34.180,0.000,0.000,0.000
484114.717,13.672,22.461,33.203,9.766,-283.203,0.000,0.000,0.000
484114.721,33.203,21.973,32.227,30.273,-184.570,0.000,0.000,0.000
484114.725,34.668,22.949,28.320,50.781,170.898,0.000,0.000,0.000
484114.729,12.207,21.973,27.344,29.297,224.609,0.000,0.000,0.000
484114.733,6.348,23.926,32.715,5.371,-45.898,0.000,0.000,0.000
484114.737,22.461,25.879,32.715,16.602,-66.895,0.000,0.000,0.000
484114.741,25.879,25.391,31.738,43.457,248.535,0.000,0.000,0.000
484114.745,18.066,23.926,31.738,42.480,298.340,0.000,0.000,0.000
484114.749,13.672,27.344,34.668,20.508,-5.371,0.000,0.000,0.000
484114.753,20.996,27.832,30.273,12.695,-155.762,0.000,0.000,0.000
484114.756,29.297,24.414,19.531,34.668,77.148,0.000,0.000,0.000
484114.760,26.855,26.367,22.461,45.898,268.555,0.000,0.000,0.000
484114.764,18.066,30.273,30.273,20.996,-22.949,0.000,0.000,0.000
484114.768,22.949,26.855,29.297,7.324,-276.855,0.000,0.000,0.000
484114.772,29.785,26.367,20.996,28.320,-43.945,0.000,0.000,0.000
484114.776,35.156,32.227,23.438,52.246,255.859,0.000,0.000,0.000
484114.780,27.344,34.180,34.668,36.621,107.910,0.000,0.000,0.000
484114.784,21.973,36.621,32.227,8.789,-229.492,0.000,0.000,0.000
484114.788,36.133,38.086,22.949,27.832,-134.277,0.000,0.000,0.000
484114.792,41.504,39.062,27.344,58.594,196.777,0.000,0.000,0.000
484114.796,25.391,35.156,32.715,40.039,178.711,0.000,0.000,0.000
484114.799,20.508,30.762,25.391,8.301,-122.070,0.000,0.000,0.000
484114.803,33.203,32.715,24.902,17.578,-156.738,0.000,0.000,0.000
484114.807,35.156,34.180,23.438,47.852,175.781,0.000,0.000,0.000
484114.811,34.180,35.645,31.250,52.246,258.789,0.000,0.000,0.000
484114.815,18.555,32.227,34.180,18.555,-50.781,0.000,0.000,0.000
484114.819,13.672,26.855,24.902,4.395,-156.738,0.000,0.000,0.000
484114.823,31.738,25.879,31.250,39.551,99.121,0.000,0.000,0.000
484114.827,29.785,31.738,35.645,52.246,261.719,0.000,0.000,0.000
484114.831,9.277,36.133,32.715,19.531,42.480,0.000,0.000,0.000
484114.835,20.020,34.180,30.762,8.789,-153.809,0.000,0.000,0.000
484114.839,40.039,32.715,30.762,34.180,20.020,0.000,0.000,0.000
484114.842,37.598,31.738,28.809,49.805,238.281,0.000,0.000,0.000
484114.846,22.949,29.785,28.809,26.855,108.887,0.000,0.000,0.000
484114.850,20.996,25.391,32.227,4.883,-152.344,0.000,0.000,0.000
484114.854,37.598,27.832,32.227,24.414,-98.633,0.000,0.000,0.000
484114.858,43.457,31.738,28.809,47.852,177.734,0.000,0.000,0.000
484114.862,30.762,34.668,31.250,36.621,164.551,0.000,0.000,0.000
484114.866,22.949,38.086,25.879,6.836,-71.777,0.000,0.000,0.000
484114.870,34.180,33.203,22.949,6.348,-144.043,0.000,0.000,0.000
484114.874,43.457,27.344,22.949,36.133,153.809,0.000,0.000,0.000
484114.878,34.180,31.250,18.066,39.551,275.391,0.000,0.000,0.000
484114.881,22.949,34.668,25.879,13.184,-63.477,0.000,0.000,0.000
484114.885,28.809,30.762,30.273,8.301,-168.457,0.000,0.000,0.000
484114.889,40.039,30.273,25.391,37.598,105.469,0.000,0.000,0.000
484114.893,37.109,31.250,29.785,54.199,295.410,0.000,0.000,0.000
484114.897,24.414,32.227,35.156,31.250,84.961,0.000,0.000,0.000
484114.901,31.738,33.691,30.762,14.160,-214.844,0.000,0.000,0.000
484114.905,49.316,37.598,29.785,41.016,-109.863,0.000,0.000,0.000
484114.909,44.922,41.016,27.832,59.082,201.660,0.000,0.000,0.000
484114.913,27.832,36.621,29.297,33.691,139.648,0.000,0.000,0.000
484114.917,31.250,31.250,30.762,9.277,-193.848,0.000,0.000,0.000
484114.921,41.992,29.297,25.391,21.973,-155.273,0.000,0.000,0.000
484114.924,43.457,31.738,24.414,50.781,203.125,0.000,0.000,0.000
484114.928,37.109,37.598,31.738,44.922,219.727,0.000,0.000,0.000
484114.932,30.762,36.621,41.016,19.043,-87.402,0.000,0.000,0.000
484114.936,40.039,34.180,35.156,18.555,-187.988,0.000,0.000,0.000
484114.940,47.852,35.156,25.879,46.387,103.027,0.000,0.000,0.000
484114.944,38.574,32.227,28.320,54.199,258.789,0.000,0.000,0.000
484114.948,25.391,37.598,34.668,33.203,-41.992,0.000,0.000,0.000
484114.952,30.273,40.039,34.668,20.020,-218.262,0.000,0.000,0.000
484114.956,35.156,27.344,27.344,36.621,96.191,0.000,0.000,0.000
484114.960,37.598,23.438,27.344,56.641,285.156,0.000,0.000,0.000
484114.963,29.297,29.785,36.133,36.621,-12.207,0.000,0.000,0.000
484114.967,20.996,33.203,35.156,9.766,-255.371,0.000,0.000,0.000
484114.971,30.273,31.250,29.785,27.344,-92.773,0.000,0.000,0.000
484114.975,33.691,28.809,26.855,49.316,201.172,0.000,0.000,0.000
484114.979,21.484,31.250,27.344,29.785,135.742,0.000,0.000,0.000
484114.983,17.090,35.645,30.273,6.348,-148.438,0.000,0.000,0.000
484114.987,30.762,35.645,32.715,20.508,-161.133,0.000,0.000,0.000
484114.991,36.621,32.227,28.320,48.340,145.996,0.000,0.000,0.000
484114.995,24.414,28.320,28.809,40.039,229.004,0.000,0.000,0.000
484114.999,15.137,31.250,37.598,14.648,-82.520,0.000,0.000,0.000
484115.003,22.949,32.715,30.273,11.719,-182.617,0.000,0.000,0.000
484115.006,40.039,30.762,25.391,40.039,48.340,0.000,0.000,0.000
484115.010,32.227,30.273,26.855,45.410,173.828,0.000,0.000,0.000
484115.014,16.113,30.273,24.414,15.137,-42.480,0.000,0.000,0.000
484115.018,29.785,31.250,29.297,7.812,-287.598,0.000,0.000,0.000
484115.022,39.062,28.320,30.762,35.156,-58.105,0.000,0.000,0.000
484115.026,37.598,27.344,29.297,53.711,236.816,0.000,0.000,0.000
484115.030,23.438,26.367,30.273,27.344,100.098,0.000,0.000,0.000
484115.034,21.484,26.367,36.133,4.883,-177.734,0.000,0.000,0.000
484115.038,36.621,28.320,38.086,26.367,-105.957,0.000,0.000,0.000
484115.042,38.086,21.973,29.785,49.805,206.055,0.000,0.000,0.000
484115.046,22.461,20.996,27.344,33.691,163.086,0.000,0.000,0.000
484115.049,17.578,26.367,32.227,11.230,-154.785,0.000,0.000,0.000
484115.053,35.156,33.691,33.203,20.020,-199.707,0.000,0.000,0.000
484115.057,40.039,33.691,29.785,43.457,79.102,0.000,0.000,0.000
484115.061,33.203,30.762,26.855,47.852,190.430,0.000,0.000,0.000
484115.065,25.391,33.203,29.785,22.949,-75.195,0.000,0.000,0.000
484115.069,28.320,28.809,31.738,20.020,-205.078,0.000,0.000,0.000
484115.073,40.527,22.949,29.297,48.340,104.004,0.000,0.000,0.000
484115.077,32.715,26.367,31.250,51.758,329.590,0.000,0.000,0.000
484115.081,12.695,27.832,32.715,23.926,60.059,0.000,0.000,0.000
484115.085,20.508,29.785,29.297,10.254,-204.590,0.000,0.000,0.000
484115.088,37.109,29.297,27.832,31.250,-8.789,0.000,0.000,0.000
484115.092,29.785,23.926,26.855,49.805,291.504,0.000,0.000,0.000
484115.096,20.996,24.902,28.320,33.203,129.395,0.000,0.000,0.000
484115.100,29.785,26.367,32.227,13.184,-221.191,0.000,0.000,0.000
484115.104,32.227,24.414,29.297,21.484,-115.234,0.000,0.000,0.000
484115.108,29.297,26.855,25.391,46.875,246.582,0.000,0.000,0.000
484115.112,22.461,28.320,28.809,35.156,248.047,0.000,0.000,0.000
484115.116,13.184,31.738,33.203,2.930,-74.219,0.000,0.000,0.000
484115.120,25.391,35.156,27.344,8.301,-159.668,0.000,0.000,0.000
484115.124,38.574,35.156,24.902,41.504,156.738,0.000,0.000,0.000
484115.128,26.367,34.180,24.902,41.016,282.715,0.000,0.000,0.000
484115.131,9.766,32.227,24.902,6.348,-43.457,0.000,0.000,0.000
484115.135,22.461,35.156,25.879,3.906,-219.727,0.000,0.000,0.000
484115.139,40.039,34.180,23.926,36.133,41.016,0.000,0.000,0.000
484115.143,37.598,30.762,24.414,49.316,260.254,0.000,0.000,0.000
484115.147,24.902,35.156,28.809,21.973,94.238,0.000,0.000,0.000
484115.151,28.320,35.156,31.250,5.859,-184.082,0.000,0.000,0.000
484115.155,36.133,30.762,26.367,28.809,-121.094,0.000,0.000,0.000
484115.159,34.668,26.367,28.809,43.457,208.496,0.000,0.000,0.000
484115.163,20.508,23.438,28.809,18.555,138.672,0.000,0.000,0.000
484115.167,12.695,26.367,24.902,-6.836,-164.551,0.000,0.000,0.000
484115.171,27.344,28.320,28.320,9.277,-44.434,0.000,0.000,0.000
484115.174,34.180,27.832,24.414,38.086,297.852,0.000,0.000,0.000
484115.178,18.555,31.738,22.461,27.344,289.551,0.000,0.000,0.000
484115.182,9.277,34.668,25.391,-1.465,-97.168,0.000,0.000,0.000
484115.186,23.438,34.668,24.414,3.906,-245.605,0.000,0.000,0.000
484115.190,30.273,33.691,22.461,30.762,65.918,0.000,0.000,0.000
484115.194,22.461,31.250,25.391,34.668,249.512,0.000,0.000,0.000
484115.198,11.719,29.785,28.809,10.742,0.488,0.000,0.000,0.000
484115.202,18.066,30.273,28.320,2.441,-192.383,0.000,0.000,0.000
484115.206,34.668,32.715,30.762,35.645,20.996,0.000,0.000,0.000
484115.210,34.180,32.715,25.391,50.781,237.793,0.000,0.000,0.000
484115.213,22.949,37.109,26.367,28.320,17.090,0.000,0.000,0.000
484115.217,21.973,41.504,29.785,6.348,-195.801,0.000,0.000,0.000
484115.221,28.809,37.109,20.996,21.973,-16.113,0.000,0.000,0.000
484115.225,29.785,35.645,19.531,50.781,257.324,0.000,0.000,0.000
484115.229,17.090,34.668,30.273,36.133,165.039,0.000,0.000,0.000
484115.233,13.672,33.203,38.574,6.348,-157.715,0.000,0.000,0.000
484115.237,21.484,31.738,39.062,14.160,-102.051,0.000,0.000,0.000
484115.241,32.715,28.809,28.320,46.387,281.738,0.000,0.000,0.000
484115.245,31.250,32.227,28.320,42.969,335.938,0.000,0.000,0.000
484115.249,20.996,37.598,36.621,12.695,2.441,0.000,0.000,0.000
484115.253,28.809,37.109,29.297,13.184,-93.262,0.000,0.000,0.000
484115.256,39.551,34.668,23.438,42.969,162.109,0.000,0.000,0.000
484115.260,31.738,37.109,29.785,46.875,309.570,0.000,0.000,0.000
484115.264,14.160,38.086,34.668,15.137,83.984,0.000,0.000,0.000
484115.268,16.602,37.598,33.203,-1.953,-169.434,0.000,0.000,0.000
484115.272,29.297,37.598,30.273,25.391,-49.316,0.000,0.000,0.000
484115.276,27.344,31.250,29.785,41.992,226.562,0.000,0.000,0.000
484115.280,14.648,32.715,35.156,18.555,47.363,0.000,0.000,0.000
484115.284,14.648,32.715,37.109,0.977,-263.672,0.000,0.000,0.000
484115.288,27.832,27.832,33.203,19.043,-70.801,0.000,0.000,0.000
484115.292,38.086,33.203,33.691,48.340,213.379,0.000,0.000,0.000
484115.296,20.020,31.738,31.738,27.832,104.980,0.000,0.000,0.000
484115.299,5.859,30.762,29.785,-2.441,-227.539,0.000,0.000,0.000
484115.303,21.484,31.738,27.344,12.695,-173.828,0.000,0.000,0.000
484115.307,32.227,32.227,27.832,42.480,210.938,0.000,0.000,0.000
484115.311,19.531,30.273,33.203,36.621,252.930,0.000,0.000,0.000
484115.315,7.324,25.391,31.738,5.371,-63.477,0.000,0.000,0.000
484115.319,21.484,26.855,31.738,6.836,-217.285,0.000,0.000,0.000
484115.323,31.250,26.855,34.180,37.109,14.648,0.000,0.000,0.000
484115.327,24.414,27.832,30.273,41.504,196.289,0.000,0.000,0.000
484115.331,10.254,29.785,27.832,14.160,-10.742,0.000,0.000,0.000
484115.335,13.184,24.414,34.180,0.488,-227.051,0.000,0.000,0.000
484115.338,30.762,23.926,34.668,26.367,-66.895,0.000,0.000,0.000
484115.342,34.668,29.785,27.344,48.340,183.105,0.000,0.000,0.000
484115.346,16.602,30.273,25.879,24.902,106.445,0.000,0.000,0.000
484115.350,18.066,27.832,30.762,6.348,-173.828,0.000,0.000,0.000
484115.354,36.133,29.297,32.227,25.391,-110.352,0.000,0.000,0.000
484115.358,34.668,32.227,28.320,45.898,242.676,0.000,0.000,0.000
484115.362,20.508,34.668,25.391,32.227,163.574,0.000,0.000,0.000
484115.366,8.301,34.668,27.832,1.465,-191.895,0.000,0.000,0.000
484115.370,18.555,32.227,27.344,7.324,-233.887,0.000,0.000,0.000
484115.374,27.832,30.273,19.531,36.133,66.895,0.000,0.000,0.000
484115.378,17.090,29.785,21.973,33.203,225.586,0.000,0.000,0.000
484115.381,11.719,32.227,29.785,9.766,-113.281,0.000,0.000,0.000
484115.385,17.578,30.762,25.391,2.441,-330.078,0.000,0.000,0.000
484115.389,28.320,27.344,20.508,28.809,-24.902,0.000,0.000,0.000
484115.393,28.809,24.414,25.879,46.387,228.027,0.000,0.000,0.000
484115.397,17.578,26.855,34.668,25.391,26.367,0.000,0.000,0.000
484115.401,24.902,34.668,38.574,16.602,-206.543,0.000,0.000,0.000
484115.405,36.133,32.227,33.691,35.645,-29.785,0.000,0.000,0.000
484115.409,46.875,33.203,32.227,61.523,269.531,0.000,0.000,0.000
484115.413,36.621,35.156,30.762,43.457,208.496,2.000,1.000,0.000
484115.417,24.902,34.668,28.320,10.742,-74.219,0.000,0.000,0.000
484115.421,36.133,35.645,29.297,24.414,-50.293,0.000,0.000,0.000
484115.424,41.992,35.156,26.855,50.293,238.770,0.000,0.000,0.000
484115.428,32.715,35.645,30.273,41.992,232.422,0.000,0.000,0.000
484115.432,20.996,38.086,35.156,10.742,-62.988,0.000,0.000,0.000
484115.436,27.344,37.598,31.250,11.230,-110.840,0.000,0.000,0.000
484115.440,36.621,33.691,25.879,42.480,142.090,0.000,0.000,0.000
484115.444,36.133,35.156,30.762,50.781,231.445,0.000,0.000,0.000
484115.448,27.344,35.156,32.227,19.043,-16.602,0.000,0.000,0.000
484115.452,31.738,31.738,26.367,7.812,-210.449,0.000,0.000,0.000
484115.456,45.898,34.180,24.902,40.039,48.340,0.000,0.000,0.000
484115.460,44.922,38.574,26.855,56.641,337.402,0.000,0.000,0.000
484115.463,29.785,37.109,33.203,32.227,146.484,0.000,0.000,0.000
484115.467,27.344,35.156,38.574,15.625,-144.043,0.000,0.000,0.000
484115.471,42.480,32.227,39.551,35.645,-63.477,0.000,0.000,0.000
484115.475,43.945,32.227,34.668,59.082,234.375,0.000,0.000,0.000
484115.479,24.414,35.156,36.133,42.969,200.195,0.000,0.000,0.000
484115.483,19.531,30.762,33.691,14.160,-144.043,0.000,0.000,0.000
484115.487,28.809,26.367,22.949,20.020,-175.781,0.000,0.000,0.000
484115.491,38.574,27.832,21.973,51.758,145.508,0.000,0.000,0.000
484115.495,33.691,29.785,26.855,51.758,179.199,0.000,0.000,0.000
484115.499,19.531,32.715,33.203,20.996,-166.504,0.000,0.000,0.000
484115.503,29.785,29.785,33.203,18.066,-242.188,0.000,0.000,0.000
484115.506,43.457,26.367,29.297,49.805,118.164,0.000,0.000,0.000
484115.510,34.668,30.273,31.250,51.758,308.105,0.000,0.000,0.000
484115.514,25.391,34.668,39.062,23.926,32.715,0.000,0.000,0.000
484115.518,35.645,37.109,39.551,16.602,-185.547,0.000,0.000,0.000
484115.522,42.969,34.180,26.367,36.621,14.648,0.000,0.000,0.000
484115.526,42.969,32.227,22.461,55.664,272.949,0.000,0.000,0.000
484115.530,30.762,35.645,34.180,35.645,122.070,0.000,0.000,0.000
484115.534,27.832,28.809,38.086,7.812,-192.871,0.000,0.000,0.000
484115.538,34.180,26.855,33.203,24.902,-133.301,0.000,0.000,0.000
484115.542,31.738,31.250,34.180,55.664,200.684,0.000,0.000,0.000
484115.545,21.973,33.203,37.598,40.039,202.637,0.000,0.000,0.000
484115.549,14.160,33.203,36.133,10.742,-83.984,0.000,0.000,0.000
484115.553,22.949,30.762,32.227,23.438,-138.184,0.000,0.000,0.000
484115.557,35.156,32.227,32.715,58.594,99.121,0.000,0.000,0.000
484115.561,25.391,30.762,35.645,51.270,135.742,0.000,0.000,0.000
484115.565,9.277,28.809,39.551,16.113,-157.227,0.000,0.000,0.000
484115.569,15.625,29.297,34.180,13.184,-233.887,0.000,0.000,0.000
484115.573,27.344,26.367,22.949,41.992,91.797,0.000,0.000,0.000
484115.577,22.949,24.414,25.879,48.340,314.941,0.000,0.000,0.000
484115.581,9.277,26.855,32.715,20.020,85.938,0.000,0.000,0.000
484115.585,17.578,26.855,33.203,9.277,-178.711,0.000,0.000,0.000
484115.588,34.180,28.320,35.156,35.645,-44.922,0.000,0.000,0.000
484115.592,35.156,30.273,32.715,53.711,226.074,0.000,0.000,0.000
484115.596,20.508,31.250,33.691,30.762,94.238,0.000,0.000,0.000
484115.600,11.230,29.297,31.738,3.906,-201.172,0.000,0.000,0.000
484115.604,22.461,23.926,23.926,20.508,-124.023,0.000,0.000,0.000
484115.608,32.227,25.879,25.879,47.852,158.203,0.000,0.000,0.000
484115.612,15.625,29.297,26.367,27.832,139.648,0.000,0.000,0.000
484115.616,4.883,29.785,23.926,-0.977,-151.367,0.000,0.000,0.000
484115.620,17.578,30.762,21.973,8.789,-213.867,0.000,0.000,0.000
484115.624,28.320,32.227,27.832,41.992,81.543,0.000,0.000,0.000
484115.628,20.508,34.180,27.832,35.156,220.215,0.000,0.000,0.000
484115.631,16.602,35.645,32.227,8.301,-60.059,0.000,0.000,0.000
484115.635,30.762,34.668,34.668,7.324,-220.703,0.000,0.000,0.000
484115.639,39.551,31.738,25.391,32.227,41.992,0.000,0.000,0.000
484115.643,36.621,37.598,27.344,47.852,249.512,0.000,0.000,0.000
484115.647,18.066,39.062,29.297,19.531,35.645,0.000,0.000,0.000
484115.651,19.043,34.668,26.855,1.465,-218.262,0.000,0.000,0.000
484115.655,33.203,36.621,23.926,21.973,-61.523,0.000,0.000,0.000
484115.659,33.203,34.180,22.461,39.062,252.441,0.000,0.000,0.000
484115.663,24.414,34.180,29.297,26.855,162.598,0.000,0.000,0.000
484115.667,28.809,40.039,40.039,10.254,-153.809,0.000,0.000,0.000
484115.670,41.504,36.133,33.691,20.508,-113.770,0.000,0.000,0.000
484115.674,44.922,34.668,22.949,49.316,233.887,0.000,0.000,0.000
484115.678,37.109,37.109,27.832,42.480,214.355,0.000,0.000,0.000
484115.682,24.414,34.180,30.273,6.836,-134.766,0.000,0.000,0.000
484115.686,32.227,29.297,27.344,11.230,-147.461,0.000,0.000,0.000
484115.690,42.480,27.344,25.879,45.898,208.008,0.000,0.000,0.000
484115.694,29.297,33.203,28.320,41.992,364.746,0.000,0.000,0.000
484115.698,14.160,35.645,35.645,8.789,-6.836,0.000,0.000,0.000
484115.702,23.926,34.180,28.809,-1.465,-258.301,0.000,0.000,0.000
484115.706,37.598,39.062,20.020,26.367,-12.695,0.000,0.000,0.000
484115.710,33.691,40.527,20.508,40.527,232.910,0.000,0.000,0.000
484115.713,21.973,38.574,24.902,15.625,8.789,0.000,0.000,0.000
484115.717,21.973,33.691,30.273,-1.953,-201.172,0.000,0.000,0.000
484115.721,26.367,26.367,28.320,16.602,51.270,0.000,0.000,0.000
484115.725,30.762,24.902,27.832,43.457,324.707,0.000,0.000,0.000
484115.729,16.602,24.902,34.180,29.785,264.648,0.000,0.000,0.000
484115.733,5.859,27.832,33.691,1.465,-4.883,0.000,0.000,0.000
484115.737,20.996,29.785,27.344,14.648,-29.785,0.000,0.000,0.000
484115.741,35.645,37.109,27.832,52.246,268.555,0.000,0.000,0.000
484115.745,33.691,43.457,33.691,49.805,291.016,0.000,0.000,0.000
484115.749,16.602,38.574,28.809,11.230,-54.688,0.000,0.000,0.000
484115.753,22.461,38.574,29.297,6.836,-105.957,0.000,0.000,0.000
484115.756,40.039,34.180,32.715,41.016,159.668,0.000,0.000,0.000
484115.760,35.645,32.227,31.250,44.922,273.926,0.000,0.000,0.000
484115.764,20.996,38.086,37.109,11.719,27.832,0.000,0.000,0.000
484115.768,29.785,37.598,39.551,-1.953,-226.074,0.000,0.000,0.000
484115.772,41.992,35.156,30.273,20.508,-85.938,0.000,0.000,0.000
484115.776,41.504,34.180,25.391,36.133,189.941,0.000,0.000,0.000
484115.780,25.391,35.645,28.809,9.766,58.594,0.000,0.000,0.000
484115.784,23.438,34.180,27.344,-12.207,-231.445,0.000,0.000,0.000
484115.788,36.133,28.809,21.484,9.766,-131.836,0.000,0.000,0.000
484115.792,34.180,26.367,19.531,35.645,141.602,0.000,0.000,0.000
484115.795,21.484,29.785,22.461,23.926,55.664,0.000,0.000,0.000
484115.799,20.508,34.180,27.344,4.883,-287.598,0.000,0.000,0.000
484115.803,32.715,30.762,28.809,15.137,-317.871,0.000,0.000,0.000
484115.807,39.062,29.785,25.879,42.480,52.734,0.000,0.000,0.000
484115.811,31.250,37.109,26.367,49.316,208.008,0.000,0.000,0.000
484115.815,27.832,41.016,35.645,26.855,-83.496,0.000,0.000,0.000
484115.819,30.273,32.715,33.691,13.672,-231.934,0.000,0.000,0.000
484115.823,34.180,28.809,21.973,38.086,67.383,0.000,0.000,0.000
484115.827,33.203,28.809,24.414,45.898,274.414,0.000,0.000,0.000
484115.831,18.066,25.391,29.297,14.160,40.039,0.000,0.000,0.000
484115.835,23.926,27.832,28.320,0.488,-215.820,0.000,0.000,0.000
484115.838,35.645,28.320,28.809,30.273,-33.691,0.000,0.000,0.000
484115.842,31.250,32.227,30.273,48.340,266.602,0.000,0.000,0.000
484115.846,24.414,39.062,33.203,27.344,113.281,0.000,0.000,0.000
484115.850,26.367,38.086,31.738,3.418,-225.098,0.000,0.000,0.000
484115.854,33.691,32.715,27.344,17.090,-81.543,0.000,0.000,0.000
484115.858,38.086,31.250,24.414,45.898,247.559,0.000,0.000,0.000
484115.862,26.855,32.715,21.484,29.785,170.898,0.000,0.000,0.000
484115.866,17.090,29.785,22.461,-0.488,-127.930,0.000,0.000,0.000
484115.870,23.926,28.320,22.949,2.441,-138.672,0.000,0.000,0.000
484115.874,34.180,30.273,23.438,35.156,174.805,0.000,0.000,0.000
484115.878,25.391,29.785,21.484,35.156,265.137,0.000,0.000,0.000
484115.881,7.324,29.297,23.926,0.488,-14.648,0.000,0.000,0.000
484115.885,16.113,32.715,23.926,0.000,-192.383,0.000,0.000,0.000
484115.889,30.762,33.203,20.996,29.785,25.391,0.000,0.000,0.000
484115.893,30.273,27.344,25.391,36.133,216.797,0.000,0.000,0.000
484115.897,17.090,26.855,27.344,10.254,20.508,0.000,0.000,0.000
484115.901,19.531,31.738,23.438,-0.977,-172.852,0.000,0.000,0.000
484115.905,31.250,28.320,20.508,21.973,9.277,0.000,0.000,0.000
484115.909,28.320,27.344,19.043,40.039,283.691,0.000,0.000,0.000
484115.913,12.695,30.762,19.043,19.043,184.082,0.000,0.000,0.000
484115.917,12.207,32.227,25.391,0.977,-158.691,0.000,0.000,0.000
484115.920,27.832,28.809,24.414,17.578,-166.992,0.000,0.000,0.000
484115.924,32.227,24.902,18.066,43.457,168.457,0.000,0.000,0.000
484115.928,21.973,29.785,20.020,33.203,222.656,0.000,0.000,0.000
484115.932,17.578,31.250,24.414,6.836,-137.695,0.000,0.000,0.000
484115.936,31.738,28.320,30.273,18.555,-231.934,0.000,0.000,0.000
484115.940,37.598,24.902,28.320,45.410,87.402,0.000,0.000,0.000
484115.944,26.855,22.949,28.809,46.875,241.211,0.000,0.000,0.000
484115.948,13.184,25.879,35.645,22.461,-3.906,0.000,0.000,0.000
484115.952,19.043,23.926,27.344,11.719,-185.547,0.000,0.000,0.000
484115.956,38.086,25.879,21.973,38.086,33.691,0.000,0.000,0.000
484115.960,34.180,29.297,22.949,46.387,265.137,0.000,0.000,0.000
484115.963,19.531,33.691,25.391,23.438,63.965,0.000,0.000,0.000
484115.967,20.508,34.180,28.809,8.789,-151.855,0.000,0.000,0.000
484115.971,35.156,36.133,27.344,34.180,20.508,0.000,0.000,0.000
484115.975,41.504,38.574,25.879,62.012,333.008,0.000,0.000,0.000
484115.979,26.855,36.133,35.645,42.969,252.441,0.000,0.000,0.000
484115.983,22.949,33.203,40.527,16.113,-99.609,0.000,0.000,0.000
484115.987,30.273,29.785,25.391,21.484,-90.332,0.000,0.000,0.000
484115.991,37.109,33.691,25.391,49.805,206.055,0.000,0.000,0.000
484115.995,25.391,34.668,25.879,39.062,222.656,0.000,0.000,0.000
484115.999,14.160,36.133,25.391,5.371,-98.633,0.000,0.000,0.000
484116.002,25.391,35.645,26.855,4.883,-156.738,0.000,0.000,0.000
484116.006,41.504,38.086,25.879,35.645,116.699,0.000,0.000,0.000
484116.010,40.039,41.504,32.227,43.457,256.348,0.000,0.000,0.000
484116.014,18.555,37.598,35.645,12.695,15.625,0.000,0.000,0.000
484116.018,20.508,28.320,32.227,-0.488,-214.844,0.000,0.000,0.000
484116.022,37.598,26.855,27.344,29.297,54.199,0.000,0.000,0.000
484116.026,41.016,32.227,32.715,48.340,344.727,0.000,0.000,0.000
484116.030,28.320,33.691,36.133,23.926,105.957,0.000,0.000,0.000
484116.034,25.879,38.574,35.645,4.395,-210.449,0.000,0.000,0.000
484116.038,37.598,37.109,30.762,23.926,-98.145,0.000,0.000,0.000
484116.042,48.828,34.668,31.738,53.711,211.914,0.000,0.000,0.000
484116.045,33.203,35.645,36.621,34.180,179.688,0.000,0.000,0.000
484116.049,20.996,32.715,37.598,1.465,-116.699,0.000,0.000,0.000
484116.053,37.109,34.180,39.062,15.137,-129.395,0.000,0.000,0.000
484116.057,36.621,32.715,38.574,44.922,206.543,0.000,0.000,0.000
484116.061,22.461,30.762,35.645,36.133,305.664,0.000,0.000,0.000
484116.065,14.160,32.715,34.668,3.906,24.902,0.000,0.000,0.000
484116.069,27.344,35.645,33.691,4.883,-87.891,0.000,0.000,0.000
484116.073,35.645,32.227,30.762,36.621,175.293,0.000,0.000,0.000
484116.077,25.391,33.691,33.203,44.922,320.801,0.000,0.000,0.000
484116.081,8.789,39.551,36.621,15.625,30.762,0.000,0.000,0.000
484116.085,17.090,36.133,36.621,2.930,-215.332,0.000,0.000,0.000
484116.088,31.250,31.250,34.180,31.738,-50.293,0.000,0.000,0.000
484116.092,30.762,35.645,33.691,50.293,225.586,0.000,0.000,0.000
484116.096,16.602,37.598,34.180,24.414,97.168,0.000,0.000,0.000
484116.100,15.137,32.715,28.809,0.977,-229.492,0.000,0.000,0.000
484116.104,32.227,29.785,24.902,18.066,-149.902,0.000,0.000,0.000
484116.108,36.133,28.809,22.461,41.504,241.699,0.000,0.000,0.000
484116.112,22.461,31.738,31.250,30.762,217.285,0.000,0.000,0.000
484116.116,15.137,35.645,44.922,7.812,-178.223,0.000,0.000,0.000
484116.120,23.438,31.250,39.551,15.625,-214.844,0.000,0.000,0.000
484116.124,27.832,22.949,29.297,43.457,143.555,0.000,0.000,0.000
484116.127,26.367,29.297,33.691,43.945,244.629,0.000,0.000,0.000
484116.131,14.648,34.180,36.621,15.137,-59.082,0.000,0.000,0.000
484116.135,20.508,32.227,32.715,8.301,-187.012,0.000,0.000,0.000
484116.139,36.621,35.156,27.832,41.016,70.312,0.000,0.000,0.000
484116.143,27.344,32.227,23.438,49.805,299.805,0.000,0.000,0.000
484116.147,15.137,29.297,31.250,14.160,83.008,0.000,0.000,0.000
484116.151,22.949,32.227,39.551,-1.953,-171.387,0.000,0.000,0.000
484116.155,32.227,28.809,33.203,20.996,81.055,0.000,0.000,0.000
484116.159,31.738,26.367,23.926,40.527,334.961,0.000,0.000,0.000
484116.163,18.066,30.762,28.320,22.461,141.602,0.000,0.000,0.000
484116.167,19.531,35.645,33.691,2.930,-175.293,0.000,0.000,0.000
484116.170,32.715,34.180,28.320,20.508,-127.441,0.000,0.000,0.000
484116.174,34.668,26.367,23.926,46.875,188.477,0.000,0.000,0.000
484116.178,29.297,31.250,32.715,37.109,181.641,0.000,0.000,0.000
484116.182,16.602,31.250,32.715,0.977,-172.363,0.000,0.000,0.000
484116.186,23.926,24.414,25.879,5.859,-227.051,0.000,0.000,0.000
484116.190,42.969,28.809,24.902,43.945,112.305,0.000,0.000,0.000
484116.194,36.133,29.785,21.973,42.969,226.074,0.000,0.000,0.000
484116.198,18.066,30.273,23.438,5.371,-26.855,0.000,0.000,0.000
484116.202,26.855,31.738,27.832,-0.977,-163.086,0.000,0.000,0.000
484116.206,39.062,29.297,23.438,31.250,69.824,0.000,0.000,0.000
484116.210,29.297,30.273,22.461,40.527,300.293,0.000,0.000,0.000
484116.213,12.207,33.691,30.762,14.160,107.422,0.000,0.000,0.000
484116.217,20.996,34.180,34.668,2.441,-236.816,0.000,0.000,0.000
484116.221,39.062,30.762,36.621,25.879,-151.367,0.000,0.000,0.000
484116.225,40.039,28.809,34.180,49.316,208.008,0.000,0.000,0.000
484116.229,24.902,27.344,29.297,36.133,157.227,0.000,0.000,0.000
484116.233,16.602,26.855,34.180,11.719,-221.191,0.000,0.000,0.000
484116.237,31.738,27.832,37.598,21.973,-208.496,0.000,0.000,0.000
484116.241,41.504,32.227,30.273,48.340,150.879,0.000,0.000,0.000
484116.245,31.250,36.621,28.320,40.527,166.992,0.000,0.000,0.000
484116.249,25.879,35.156,30.762,12.207,-109.863,0.000,0.000,0.000
484116.252,36.621,30.762,26.855,12.207,-100.098,0.000,0.000,0.000
484116.256,46.875,29.785,22.461,41.992,179.199,0.000,0.000,0.000
484116.260,49.316,30.273,33.691,52.734,238.281,0.000,0.000,0.000
484116.264,33.203,32.227,42.969,26.367,-65.430,0.000,0.000,0.000
484116.268,33.691,31.738,37.598,14.160,-257.812,0.000,0.000,0.000
484116.272,41.016,30.273,26.855,41.992,-41.504,0.000,0.000,0.000
484116.276,32.715,35.645,23.926,53.223,248.535,0.000,0.000,0.000
484116.280,19.043,33.691,30.762,26.855,118.164,0.000,0.000,0.000
484116.284,16.113,26.367,29.297,6.348,-200.195,0.000,0.000,0.000
484116.288,27.832,28.809,26.367,22.461,-85.449,0.000,0.000,0.000
484116.292,36.133,34.180,26.855,51.270,215.820,0.000,0.000,0.000
484116.295,24.414,35.156,27.832,37.109,130.371,0.000,0.000,0.000
484116.299,13.184,32.227,29.297,7.324,-133.789,0.000,0.000,0.000
484116.303,24.414,29.785,28.320,16.602,-165.039,0.000,0.000,0.000
484116.307,35.156,28.809,28.320,46.387,100.098,0.000,0.000,0.000
484116.311,33.203,32.715,30.273,43.457,181.152,0.000,0.000,0.000
484116.315,20.508,34.180,33.691,8.301,-117.188,0.000,0.000,0.000
484116.319,22.461,26.367,27.344,-3.906,-220.703,0.000,0.000,0.000
484116.323,37.109,26.367,22.949,32.715,62.500,0.000,0.000,0.000
484116.327,37.598,33.691,26.367,42.480,251.953,0.000,0.000,0.000
484116.331,23.926,39.062,32.715,7.324,37.109,0.000,0.000,0.000
484116.335,16.602,35.645,30.273,-3.906,-142.578,0.000,0.000,0.000
484116.338,26.855,29.297,23.438,22.949,67.383,0.000,0.000,0.000
484116.342,30.273,31.738,24.902,43.457,338.867,0.000,0.000,0.000
484116.346,17.090,38.086,27.832,20.996,173.340,0.000,0.000,0.000
484116.350,17.578,35.645,26.855,-5.859,-196.777,0.000,0.000,0.000
484116.354,32.227,31.738,27.832,15.137,-148.438,0.000,0.000,0.000
484116.358,34.180,31.738,28.320,38.086,136.719,0.000,0.000,0.000
484116.362,16.113,33.203,25.391,19.531,112.793,0.000,0.000,0.000
484116.366,14.160,36.621,30.762,1.465,-166.992,0.000,0.000,0.000
484116.370,30.762,36.133,31.738,12.695,-212.402,0.000,0.000,0.000
484116.374,33.203,31.250,18.555,36.621,49.316,0.000,0.000,0.000
484116.377,25.391,32.715,19.531,32.227,164.551,0.000,0.000,0.000
484116.381,17.578,36.133,31.738,7.324,-112.793,0.000,0.000,0.000
484116.385,26.855,37.109,30.762,7.324,-293.945,0.000,0.000,0.000
484116.389,34.668,31.250,18.066,34.180,25.879,0.000,0.000,0.000
484116.393,31.738,32.715,19.531,44.434,270.996,0.000,0.000,0.000
484116.397,14.160,36.621,30.273,15.625,19.531,0.000,0.000,0.000
484116.401,16.113,33.203,29.297,2.441,-219.238,0.000,0.000,0.000
484116.405,38.574,32.227,22.949,28.320,-63.477,0.000,0.000,0.000
484116.409,33.203,31.738,20.508,46.387,214.355,0.000,0.000,0.000
484116.413,11.230,29.785,26.367,25.879,130.859,0.000,0.000,0.000
484116.417,15.137,27.832,33.691,4.883,-173.340,0.000,0.000,0.000
484116.420,38.086,31.738,35.156,24.902,-148.926,0.000,0.000,0.000
484116.424,41.504,33.203,27.344,51.758,149.414,0.000,0.000,0.000
484116.428,22.949,26.367,27.344,34.180,208.496,0.000,0.000,0.000
484116.432,15.625,25.391,38.574,6.348,-27.832,0.000,0.000,0.000
484116.436,28.320,28.320,35.645,7.812,-101.074,0.000,0.000,0.000
484116.440,42.969,33.203,29.785,42.969,185.059,0.000,0.000,0.000
484116.444,37.598,36.133,34.668,54.199,315.430,0.000,0.000,0.000
484116.448,21.973,33.203,37.109,20.996,16.113,0.000,0.000,0.000
484116.452,21.973,30.273,24.902,7.324,-150.879,0.000,0.000,0.000
484116.456,30.762,31.250,22.461,34.668,108.887,0.000,0.000,0.000
484116.460,33.203,34.180,32.715,52.246,332.031,0.000,0.000,0.000
484116.463,17.578,30.762,36.133,28.320,118.652,0.000,0.000,0.000
484116.467,20.996,29.785,35.645,13.672,-203.125,0.000,0.000,0.000
484116.471,37.598,32.715,33.203,39.062,-90.820,0.000,0.000,0.000
484116.475,42.969,29.297,32.715,55.176,201.660,0.000,0.000,0.000
484116.479,28.320,26.855,32.715,34.668,85.938,0.000,0.000,0.000
484116.483,17.090,30.273,27.832,16.602,-141.113,0.000,0.000,0.000
484116.487,28.320,28.809,27.832,29.297,-87.402,0.000,0.000,0.000
484116.491,36.133,28.320,27.344,53.711,145.996,0.000,0.000,0.000
484116.495,28.809,31.738,29.297,47.852,170.898,0.000,0.000,0.000
484116.499,22.461,38.086,39.551,23.926,-192.383,0.000,0.000,0.000
484116.502,33.203,40.039,33.691,27.344,-280.273,0.000,0.000,0.000
484116.506,41.016,31.250,22.461,53.223,37.109,0.000,0.000,0.000
484116.510,32.227,27.344,21.973,50.781,166.992,0.000,0.000,0.000
484116.514,13.184,24.902,20.996,13.672,-73.730,0.000,0.000,0.000
484116.518,19.043,23.926,21.484,1.953,-239.746,0.000,0.000,0.000
484116.522,33.203,28.320,21.973,37.109,-18.066,0.000,0.000,0.000
484116.526,27.832,29.297,25.879,47.852,208.496,0.000,0.000,0.000
484116.530,9.766,27.832,26.367,16.602,72.754,0.000,0.000,0.000
484116.534,15.625,32.715,26.367,0.488,-123.535,0.000,0.000,0.000
484116.538,40.039,38.086,29.297,27.344,-2.930,0.000,0.000,0.000
484116.542,47.363,37.598,26.367,58.105,223.633,0.000,0.000,0.000
484116.545,30.762,38.086,20.020,36.621,160.156,0.000,0.000,0.000
484116.549,26.367,37.109,24.902,9.766,-186.523,0.000,0.000,0.000
484116.553,47.363,37.109,26.855,25.879,-223.633,0.000,0.000,0.000
484116.557,45.410,32.227,18.555,51.270,165.039,0.000,0.000,0.000
484116.561,28.320,31.738,21.484,46.387,286.133,0.000,0.000,0.000
484116.565,22.949,33.691,25.879,15.137,-32.715,0.000,0.000,0.000
484116.569,32.715,34.180,23.438,13.184,-166.016,0.000,0.000,0.000
484116.573,34.668,34.668,20.996,42.969,108.887,0.000,0.000,0.000
484116.577,27.832,30.273,25.879,51.758,262.695,0.000,0.000,0.000
484116.581,14.160,28.320,30.273,24.414,-2.930,0.000,0.000,0.000
484116.584,10.742,23.438,20.996,8.301,-240.234,0.000,0.000,0.000
484116.588,28.809,21.484,16.113,31.250,-29.297,0.000,0.000,0.000
484116.592,31.250,21.484,18.555,50.293,245.117,0.000,0.000,0.000
484116.596,16.113,22.461,18.555,25.391,65.430,0.000,0.000,0.000
484116.600,18.555,26.855,25.391,0.977,-281.250,0.000,0.000,0.000
484116.604,33.691,34.180,27.832,20.996,-186.035,0.000,0.000,0.000
484116.608,38.086,37.109,23.438,47.852,176.758,0.000,0.000,0.000
484116.612,22.949,35.156,29.785,35.645,177.246,0.000,0.000,0.000
484116.616,16.113,36.133,31.250,12.207,-71.777,0.000,0.000,0.000
484116.620,21.973,31.250,19.531,14.648,-140.625,0.000,0.000,0.000
484116.624,27.344,24.414,17.090,42.480,134.277,0.000,0.000,0.000
484116.627,20.508,23.926,22.949,41.504,269.043,0.000,0.000,0.000
484116.631,9.766,25.879,28.809,7.812,-61.035,0.000,0.000,0.000
484116.635,25.391,26.855,32.715,9.766,-223.633,0.000,0.000,0.000
484116.639,38.086,26.367,35.156,42.969,27.344,0.000,0.000,0.000
484116.643,30.762,23.926,33.691,49.805,184.082,0.000,0.000,0.000
484116.647,16.602,28.320,32.227,22.461,-9.277,0.000,0.000,0.000
484116.651,22.461,34.668,31.250,10.742,-217.773,0.000,0.000,0.000
484116.655,35.645,29.785,25.879,35.156,-74.707,0.000,0.000,0.000
484116.659,33.203,30.762,26.367,56.152,220.703,0.000,0.000,0.000
484116.663,20.996,34.668,30.273,36.133,146.973,0.000,0.000,0.000
484116.667,18.555,29.785,32.715,14.648,-154.785,0.000,0.000,0.000
484116.670,30.762,26.855,30.762,29.297,-90.820,0.000,0.000,0.000
484116.674,33.203,25.391,21.973,52.734,289.062,0.000,0.000,0.000
484116.678,20.020,25.879,22.461,37.109,293.945,0.000,0.000,0.000
484116.682,14.160,25.391,32.227,8.789,-37.598,0.000,0.000,0.000
484116.686,25.879,22.949,31.250,12.695,-98.633,0.000,0.000,0.000
484116.690,25.391,21.973,25.391,37.598,192.871,0.000,0.000,0.000
484116.694,17.090,30.273,31.250,41.016,256.836,0.000,0.000,0.000
484116.698,11.719,32.227,35.156,12.695,-65.918,0.000,0.000,0.000
484116.702,26.855,28.809,35.645,10.254,-231.934,0.000,0.000,0.000
484116.706,38.086,27.832,30.273,35.645,19.531,0.000,0.000,0.000
484116.709,31.738,31.738,26.855,45.898,274.902,0.000,0.000,0.000
484116.713,17.578,31.738,37.109,24.902,44.922,0.000,0.000,0.000
484116.717,14.160,27.832,34.180,3.906,-254.883,0.000,0.000,0.000
484116.721,25.879,30.273,24.414,18.555,-100.586,0.000,0.000,0.000
484116.725,27.344,32.227,25.391,41.992,229.004,0.000,0.000,0.000
484116.729,20.020,35.156,33.203,30.762,150.879,0.000,0.000,0.000
484116.733,20.508,39.062,38.086,6.348,-170.898,0.000,0.000,0.000
484116.737,24.902,33.203,27.344,14.648,-146.484,0.000,0.000,0.000
484116.741,29.297,29.785,20.996,45.410,183.594,0.000,0.000,0.000
484116.745,27.344,35.645,29.297,45.898,230.469,0.000,0.000,0.000
484116.749,15.137,33.691,31.250,13.184,-44.922,0.000,0.000,0.000
484116.752,17.090,28.809,21.973,2.930,-110.840,0.000,0.000,0.000
484116.756,33.691,31.738,20.020,32.715,144.531,0.000,0.000,0.000
484116.760,30.762,34.668,27.344,38.574,232.910,0.000,0.000,0.000
484116.764,18.066,39.062,34.180,9.766,-59.082,0.000,0.000,0.000
484116.768,21.973,41.504,32.227,1.465,-263.184,0.000,0.000,0.000
484116.772,38.574,41.016,31.250,35.645,-34.180,0.000,0.000,0.000
484116.776,37.109,36.133,29.297,52.734,211.426,0.000,0.000,0.000
484116.780,15.137,30.762,20.508,16.602,48.340,0.000,0.000,0.000
484116.784,14.160,27.344,17.090,-1.465,-146.484,0.000,0.000,0.000
484116.788,32.227,30.273,19.043,26.367,-14.648,0.000,0.000,0.000
484116.792,41.016,37.109,21.484,53.711,270.508,0.000,0.000,0.000
484116.795,28.809,39.062,20.996,35.645,211.426,0.000,0.000,0.000
484116.799,22.949,38.574,25.879,9.766,-103.027,0.000,0.000,0.000
484116.803,37.109,37.598,31.738,24.902,-108.398,0.000,0.000,0.000
484116.807,42.480,35.645,30.273,53.711,178.711,0.000,0.000,0.000
484116.811,32.715,32.227,28.320,47.363,225.098,0.000,0.000,0.000
484116.815,20.508,28.809,30.762,17.090,-43.945,0.000,0.000,0.000
484116.819,17.578,27.344,26.855,7.324,-203.613,0.000,0.000,0.000
484116.823,27.832,28.320,24.902,36.133,51.270,0.000,0.000,0.000
484116.827,24.902,31.738,29.297,45.898,237.305,0.000,0.000,0.000
484116.831,9.766,31.738,31.250,11.719,-74.707,0.000,0.000,0.000
484116.834,24.414,37.598,32.715,3.418,-269.043,0.000,0.000,0.000
484116.838,40.039,40.527,31.738,27.832,-74.219,0.000,0.000,0.000
484116.842,32.227,36.133,25.391,38.086,198.242,0.000,0.000,0.000
484116.846,21.484,40.527,32.227,22.461,89.844,0.000,0.000,0.000
484116.850,18.555,36.621,31.250,5.371,-199.707,0.000,0.000,0.000
484116.854,24.902,27.832,19.043,21.973,-73.730,0.000,0.000,0.000
484116.858,26.855,27.344,18.066,42.480,255.371,0.000,0.000,0.000
484116.862,14.648,32.227,27.344,31.250,209.961,0.000,0.000,0.000
484116.866,12.695,37.109,32.715,7.812,-122.559,0.000,0.000,0.000
484116.870,31.250,37.598,33.203,11.719,-132.812,0.000,0.000,0.000
484116.874,39.062,31.738,26.855,38.574,195.312,0.000,0.000,0.000
484116.877,24.902,29.297,21.973,35.645,262.207,0.000,0.000,0.000
484116.881,17.578,33.691,37.598,13.672,-109.375,0.000,0.000,0.000
484116.885,28.809,36.621,39.551,11.719,-246.582,0.000,0.000,0.000
484116.889,31.250,34.180,25.391,37.598,101.562,0.000,0.000,0.000
484116.893,30.762,31.738,24.414,51.270,269.043,0.000,0.000,0.000
484116.897,24.902,35.156,29.785,23.438,-25.391,0.000,0.000,0.000
484116.901,23.438,34.180,26.855,4.395,-241.211,0.000,0.000,0.000
484116.905,34.180,32.715,22.461,26.855,-24.902,0.000,0.000,0.000
484116.909,40.527,33.203,28.809,48.828,257.324,0.000,0.000,0.000
484116.913,32.227,31.738,31.738,26.855,135.254,0.000,0.000,0.000
484116.917,32.715,31.738,38.086,9.277,-170.410,0.000,0.000,0.000
484116.920,37.109,31.250,37.109,26.367,-66.406,0.000,0.000,0.000
484116.924,36.621,27.344,29.297,49.316,231.445,0.000,0.000,0.000
484116.928,33.203,30.762,32.715,40.527,161.133,0.000,0.000,0.000
484116.932,17.578,36.621,34.668,7.324,-154.297,0.000,0.000,0.000
484116.936,19.043,35.645,31.738,11.719,-199.219,0.000,0.000,0.000
484116.940,33.203,30.762,26.367,44.434,106.445,4.000,1.000,0.000
484116.944,24.414,26.855,27.344,42.969,209.473,0.000,0.000,0.000
484116.948,15.137,33.691,36.621,16.113,-57.129,0.000,0.000,0.000
484116.952,27.344,34.668,41.992,17.090,-209.961,0.000,0.000,0.000
484116.956,37.109,24.414,33.203,42.969,33.691,0.000,0.000,0.000
484116.959,29.785,21.973,21.973,44.922,240.234,0.000,0.000,0.000
484116.963,16.113,26.855,27.344,20.508,67.383,0.000,0.000,0.000
484116.967,17.578,28.320,30.273,6.836,-103.027,0.000,0.000,0.000
484116.971,34.180,29.297,31.250,33.203,51.758,0.000,0.000,0.000
484116.975,37.598,26.855,27.832,54.688,323.730,0.000,0.000,0.000
484116.979,12.695,27.832,22.461,26.855,190.430,0.000,0.000,0.000
484116.983,11.230,35.645,30.273,9.766,-138.184,0.000,0.000,0.000
484116.987,28.809,35.645,32.227,24.902,-117.676,0.000,0.000,0.000
484116.991,26.367,27.832,24.414,42.969,181.152,0.000,0.000,0.000
484116.995,11.719,24.414,20.996,33.691,217.773,0.000,0.000,0.000
484116.999,4.395,30.762,24.902,4.395,-126.953,0.000,0.000,0.000
484117.002,16.602,32.715,23.926,1.953,-213.867,0.000,0.000,0.000
484117.006,29.785,32.227,26.855,35.645,84.473,0.000,0.000,0.000
484117.010,21.973,31.250,28.320,36.621,238.281,0.000,0.000,0.000
484117.014,13.672,30.273,31.738,6.836,-11.719,0.000,0.000,0.000
484117.018,23.438,26.855,34.668,0.488,-225.586,0.000,0.000,0.000
484117.022,31.250,30.762,24.902,28.320,-46.875,0.000,0.000,0.000
484117.026,27.344,34.668,17.090,43.457,195.801,0.000,0.000,0.000
484117.030,15.137,34.180,20.508,17.090,46.875,0.000,0.000,0.000
484117.034,15.625,33.691,25.391,0.488,-223.145,0.000,0.000,0.000
484117.038,31.738,33.691,23.438,25.879,-101.562,0.000,0.000,0.000
484117.042,34.668,35.156,18.555,47.852,209.961,0.000,0.000,0.000
484117.045,22.949,31.250,24.414,31.738,136.230,0.000,0.000,0.000
484117.049,20.996,26.367,32.227,11.230,-226.074,0.000,0.000,0.000
484117.053,33.203,27.344,30.762,23.926,-214.355,0.000,0.000,0.000
484117.057,43.457,31.250,30.273,56.152,164.551,0.000,0.000,0.000
484117.061,32.715,32.227,34.180,51.270,175.781,0.000,0.000,0.000
484117.065,18.066,29.785,35.645,18.066,-177.734,0.000,0.000,0.000
484117.069,22.949,26.855,33.691,14.648,-267.090,0.000,0.000,0.000
484117.073,33.203,28.320,23.926,41.992,37.109,0.000,0.000,0.000
484117.077,27.832,30.762,22.949,42.969,249.023,0.000,0.000,0.000
484117.081,20.996,30.273,37.598,21.484,-3.906,0.000,0.000,0.000
484117.084,22.949,28.320,34.180,10.742,-228.027,0.000,0.000,0.000
484117.088,30.273,27.344,27.344,32.715,4.883,0.000,0.000,0.000
484117.092,32.715,31.738,33.691,55.176,287.598,0.000,0.000,0.000
484117.096,13.672,34.180,34.668,27.344,109.375,0.000,0.000,0.000
484117.100,7.324,29.785,31.250,-0.488,-181.641,0.000,0.000,0.000
484117.104,30.273,28.809,30.762,22.461,-124.023,0.000,0.000,0.000
484117.108,43.457,29.297,30.762,45.410,150.391,0.000,0.000,0.000
484117.112,26.855,28.320,29.785,26.855,148.926,0.000,0.000,0.000
484117.116,18.066,24.414,26.855,4.883,-123.047,0.000,0.000,0.000
484117.120,30.273,25.391,26.855,18.555,-86.426,0.000,0.000,0.000
484117.124,36.621,28.320,27.344,48.340,214.844,0.000,0.000,0.000
484117.127,28.809,28.320,30.273,43.945,254.395,0.000,0.000,0.000
484117.131,16.113,31.738,30.273,11.230,-32.227,0.000,0.000,0.000
484117.135,18.555,31.738,26.855,7.812,-151.367,0.000,0.000,0.000
484117.139,29.785,25.391,31.250,40.039,105.957,0.000,0.000,0.000
484117.143,23.438,20.508,29.297,42.480,270.508,0.000,0.000,0.000
484117.147,9.277,21.973,29.297,9.766,16.602,0.000,0.000,0.000
484117.151,24.414,23.438,34.668,2.441,-240.234,0.000,0.000,0.000
484117.155,41.504,20.996,32.227,31.738,-7.812,0.000,0.000,0.000
484117.159,37.109,23.438,32.227,49.316,333.984,0.000,0.000,0.000
484117.163,23.438,24.414,30.762,25.879,208.496,0.000,0.000,0.000
484117.166,27.832,25.879,34.180,7.324,-90.820,0.000,0.000,0.000
484117.170,41.016,28.809,32.227,21.484,-29.297,0.000,0.000,0.000
484117.174,37.109,25.879,20.996,42.480,242.188,0.000,0.000,0.000
484117.178,23.926,27.832,22.461,29.785,158.203,0.000,0.000,0.000
484117.182,16.113,30.762,25.391,-1.953,-201.660,0.000,0.000,0.000
484117.186,26.855,30.762,25.391,6.348,-227.051,0.000,0.000,0.000
484117.190,42.969,29.297,30.273,44.922,70.312,0.000,0.000,0.000
484117.194,33.203,26.367,31.738,44.922,132.812,0.000,0.000,0.000
484117.198,13.672,26.367,35.645,15.137,-132.812,0.000,0.000,0.000
484117.202,25.879,29.785,40.527,15.137,-265.625,0.000,0.000,0.000
484117.206,41.504,29.297,33.203,44.922,-30.762,0.000,0.000,0.000
484117.209,37.109,21.484,23.926,51.758,180.176,0.000,0.000,0.000
484117.213,27.832,21.973,26.855,22.461,-15.625,0.000,0.000,0.000
484117.217,28.809,25.391,27.344,7.812,-202.637,0.000,0.000,0.000
484117.221,35.645,28.320,28.809,35.156,0.000,0.000,0.000,0.000
484117.225,38.574,27.344,36.133,56.152,275.879,0.000,0.000,0.000
484117.229,26.367,26.855,33.691,30.273,135.254,0.000,0.000,0.000
484117.233,20.508,33.203,31.738,1.953,-193.848,0.000,0.000,0.000
484117.237,33.203,36.133,33.203,17.578,-116.699,0.000,0.000,0.000
484117.241,35.645,30.273,28.320,44.922,191.895,0.000,0.000,0.000
484117.245,20.020,23.438,27.832,32.715,159.180,0.000,0.000,0.000
484117.249,9.277,25.391,31.250,1.465,-144.531,0.000,0.000,0.000
484117.252,18.066,24.414,30.273,3.906,-176.758,0.000,0.000,0.000
484117.256,34.180,24.902,29.785,36.133,122.070,0.000,0.000,0.000
484117.260,29.785,29.785,29.297,41.504,238.281,0.000,0.000,0.000
484117.264,19.043,32.715,29.297,17.578,-27.344,0.000,0.000,0.000
484117.268,28.809,32.715,29.785,10.254,-193.359,0.000,0.000,0.000
484117.272,38.086,26.855,28.320,34.180,58.105,0.000,0.000,0.000
484117.276,41.504,26.367,25.879,49.316,278.320,0.000,0.000,0.000
484117.280,24.902,29.297,27.832,21.484,62.500,0.000,0.000,0.000
484117.284,23.926,30.273,33.203,5.371,-181.641,0.000,0.000,0.000
484117.288,40.039,30.762,31.738,30.762,-62.988,0.000,0.000,0.000
484117.291,41.016,28.320,27.344,47.852,231.934,0.000,0.000,0.000
484117.295,30.273,31.738,28.809,29.297,181.152,0.000,0.000,0.000
484117.299,34.180,36.621,33.691,10.742,-147.461,0.000,0.000,0.000
484117.303,46.387,33.691,36.133,21.484,-160.645,0.000,0.000,0.000
484117.307,39.551,27.344,28.809,41.504,165.527,0.000,0.000,0.000
484117.311,29.785,30.762,29.297,39.551,223.145,0.000,0.000,0.000
484117.315,14.648,33.691,30.273,11.230,-82.520,0.000,0.000,0.000
484117.319,17.578,33.203,32.715,7.324,-200.195,0.000,0.000,0.000
484117.323,30.273,33.203,32.227,39.062,60.547,0.000,0.000,0.000
484117.327,25.879,34.668,29.297,47.852,210.938,0.000,0.000,0.000
484117.331,19.531,39.551,36.621,22.461,10.254,0.000,0.000,0.000
484117.334,21.484,35.156,31.738,4.395,-150.391,0.000,0.000,0.000
484117.338,28.809,28.809,21.973,25.391,66.895,0.000,0.000,0.000
484117.342,35.645,30.762,24.414,49.805,280.762,0.000,0.000,0.000
484117.346,24.902,31.738,33.691,29.297,62.500,0.000,0.000,0.000
484117.350,20.508,31.250,31.250,2.441,-219.727,0.000,0.000,0.000
484117.354,35.156,35.645,24.902,24.902,-120.117,0.000,0.000,0.000
484117.358,36.133,33.691,23.926,50.293,172.363,0.000,0.000,0.000
484117.362,20.996,28.320,26.367,31.738,112.793,0.000,0.000,0.000
484117.366,16.602,32.715,27.344,6.836,-172.852,0.000,0.000,0.000
484117.370,31.738,33.691,24.414,19.043,-104.980,0.000,0.000,0.000
484117.374,34.668,31.250,15.137,47.852,233.887,0.000,0.000,0.000
484117.377,27.344,36.133,18.066,48.828,256.348,0.000,0.000,0.000
484117.381,18.555,36.133,24.902,16.602,-103.027,0.000,0.000,0.000
484117.385,27.832,35.156,22.949,12.695,-220.703,0.000,0.000,0.000
484117.389,48.828,41.992,21.484,49.316,33.203,0.000,0.000,0.000
484117.393,41.504,43.457,19.531,55.664,195.312,0.000,0.000,0.000
484117.397,26.855,39.551,21.973,23.926,-54.688,0.000,0.000,0.000
484117.401,32.227,38.574,23.438,12.695,-262.207,0.000,0.000,0.000
484117.405,44.434,33.691,24.902,41.016,-50.781,0.000,0.000,0.000
484117.409,49.805,31.250,28.809,61.035,221.191,0.000,0.000,0.000
484117.413,30.762,31.250,27.832,33.691,108.887,0.000,0.000,0.000
484117.416,21.484,31.738,30.273,10.742,-128.418,0.000,0.000,0.000
484117.420,30.762,26.367,27.832,26.855,-20.020,0.000,0.000,0.000
484117.424,33.691,23.926,22.949,51.270,250.000,0.000,0.000,0.000
484117.428,21.973,28.809,25.391,35.156,172.852,0.000,0.000,0.000
484117.432,16.602,27.344,29.785,9.277,-149.414,0.000,0.000,0.000
484117.436,38.574,30.273,33.203,19.043,-147.461,0.000,0.000,0.000
484117.440,47.852,34.668,31.738,42.969,169.434,0.000,0.000,0.000
484117.444,33.203,32.227,27.344,40.527,259.277,0.000,0.000,0.000
484117.448,26.855,32.715,30.762,17.090,-41.016,0.000,0.000,0.000
484117.452,41.504,33.691,32.715,15.137,-218.262,0.000,0.000,0.000
484117.456,49.805,34.180,29.297,43.945,27.832,0.000,0.000,0.000
484117.459,40.039,33.203,24.414,52.734,244.629,0.000,0.000,0.000
484117.463,26.367,37.109,29.297,25.879,67.871,0.000,0.000,0.000
484117.467,27.344,36.133,27.832,8.301,-160.645,0.000,0.000,0.000
484117.471,41.504,33.203,21.484,31.738,-18.066,0.000,0.000,0.000
484117.475,44.434,31.738,22.949,55.176,279.785,0.000,0.000,0.000
484117.479,29.785,29.297,32.715,37.598,133.301,0.000,0.000,0.000
484117.483,23.926,29.785,37.598,15.137,-191.895,0.000,0.000,0.000
484117.487,31.738,29.785,35.645,25.391,-130.859,0.000,0.000,0.000
484117.491,32.715,28.809,28.809,47.363,160.156,0.000,0.000,0.000
484117.495,21.973,32.715,25.391,39.062,174.316,0.000,0.000,0.000
484117.499,8.301,33.691,27.344,4.395,-105.957,0.000,0.000,0.000
484117.502,17.578,29.297,26.367,3.906,-166.992,0.000,0.000,0.000
484117.506,33.203,30.273,26.855,37.109,136.719,0.000,0.000,0.000
484117.510,27.832,31.738,31.250,41.992,252.930,0.000,0.000,0.000
484117.514,18.066,29.785,34.668,17.578,-18.066,0.000,0.000,0.000
484117.518,30.273,30.273,35.156,14.160,-148.438,0.000,0.000,0.000
484117.522,51.758,29.785,35.645,48.340,56.152,0.000,0.000,0.000
484117.526,51.270,26.855,32.227,63.477,285.645,0.000,0.000,0.000
484117.530,34.180,32.227,30.762,36.133,165.527,0.000,0.000,0.000
484117.534,30.762,38.086,29.785,17.090,-87.891,0.000,0.000,0.000
484117.538,44.434,36.133,26.855,37.598,22.461,0.000,0.000,0.000
484117.541,49.316,35.156,24.414,59.570,304.688,0.000,0.000,0.000
484117.545,26.855,33.691,27.344,31.738,215.820,0.000,0.000,0.000
484117.549,21.973,34.180,32.227,0.977,-89.355,0.000,0.000,0.000
484117.553,36.621,34.180,29.297,14.160,-90.820,0.000,0.000,0.000
484117.557,36.133,32.227,27.832,39.551,195.801,0.000,0.000,0.000
484117.561,25.391,36.621,33.691,31.250,203.613,0.000,0.000,0.000
484117.565,17.578,35.645,37.109,5.859,-137.207,0.000,0.000,0.000
484117.569,26.855,31.250,35.156,5.859,-258.301,0.000,0.000,0.000
484117.573,36.133,32.227,33.691,40.039,17.578,0.000,0.000,0.000
484117.577,28.809,33.691,35.645,48.828,211.426,0.000,0.000,0.000
484117.581,12.207,33.203,39.551,19.043,-50.781,0.000,0.000,0.000
484117.584,23.438,33.203,36.621,14.648,-229.004,0.000,0.000,0.000
484117.588,38.574,27.344,32.715,43.945,14.648,0.000,0.000,0.000
484117.592,31.250,27.832,36.133,59.570,231.934,0.000,0.000,0.000
484117.596,15.625,32.227,38.574,34.668,38.086,0.000,0.000,0.000
484117.600,22.949,30.762,37.598,12.207,-271.973,0.000,0.000,0.000
484117.604,40.527,30.762,38.086,34.180,-197.266,0.000,0.000,0.000
484117.608,39.062,28.320,37.109,60.059,121.582,0.000,0.000,0.000
484117.612,25.879,29.297,42.969,42.969,125.488,0.000,0.000,0.000
484117.616,21.484,31.738,46.875,15.137,-160.156,0.000,0.000,0.000
484117.620,33.691,30.273,41.504,25.879,-125.000,0.000,0.000,0.000
484117.623,37.598,30.273,34.180,50.781,259.766,0.000,0.000,0.000
484117.627,25.879,33.203,29.297,40.039,321.777,0.000,0.000,0.000
484117.631,20.996,35.645,28.320,11.719,-74.219,0.000,0.000,0.000
484117.635,30.762,35.156,26.367,11.719,-243.652,0.000,0.000,0.000
484117.639,37.598,36.621,20.020,38.086,56.641,0.000,0.000,0.000
484117.643,39.062,36.133,23.926,47.852,249.023,0.000,0.000,0.000
484117.647,29.297,39.551,29.297,23.926,-1.953,0.000,0.000,0.000
484117.651,35.156,37.598,26.367,11.719,-201.660,0.000,0.000,0.000
484117.655,49.805,33.691,24.902,37.598,35.645,0.000,0.000,0.000
484117.659,48.828,37.109,27.344,60.059,317.383,0.000,0.000,0.000
484117.663,29.297,36.621,37.598,37.109,190.430,0.000,0.000,0.000
484117.666,20.020,33.691,38.086,8.301,-102.539,0.000,0.000,0.000
484117.670,28.809,30.273,29.785,23.926,-18.066,0.000,0.000,0.000
484117.674,30.273,28.320,30.273,52.734,255.859,0.000,0.000,0.000
484117.678,18.555,33.691,29.297,32.227,138.672,0.000,0.000,0.000
484117.682,7.812,40.039,30.762,-3.418,-153.809,0.000,0.000,0.000
484117.686,13.184,33.203,26.367,-3.906,-157.715,0.000,0.000,0.000
484117.690,20.508,29.785,21.484,21.484,128.906,0.000,0.000,0.000
484117.694,16.113,37.109,32.227,24.414,236.328,0.000,0.000,0.000
484117.698,6.836,41.016,38.086,1.953,-16.113,0.000,0.000,0.000
484117.702,13.184,36.621,34.668,-3.906,-179.199,0.000,0.000,0.000
484117.706,22.461,32.227,25.879,22.461,59.082,0.000,0.000,0.000
484117.709,22.949,31.250,24.414,40.527,254.395,0.000,0.000,0.000
484117.713,14.160,32.715,36.621,22.461,6.348,0.000,0.000,0.000
484117.717,13.184,35.156,32.227,6.348,-219.238,0.000,0.000,0.000
484117.721,30.273,33.691,24.902,34.180,-100.098,0.000,0.000,0.000
484117.725,40.039,31.250,32.227,61.523,182.129,0.000,0.000,0.000
484117.729,27.832,37.598,33.691,39.551,142.090,0.000,0.000,0.000
484117.733,20.996,36.133,29.297,11.719,-172.852,0.000,0.000,0.000
484117.737,32.227,26.855,25.879,28.320,-119.141,0.000,0.000,0.000
484117.741,40.039,24.414,22.949,59.570,243.652,0.000,0.000,0.000
484117.745,26.855,24.902,26.855,46.875,224.121,0.000,0.000,0.000
484117.748,19.043,26.855,34.668,20.020,-140.137,0.000,0.000,0.000
484117.752,26.367,26.367,34.668,20.996,-195.801,0.000,0.000,0.000
484117.756,28.809,26.367,28.320,44.434,179.688,0.000,0.000,0.000
484117.760,27.344,33.691,34.180,48.340,318.848,0.000,0.000,0.000
484117.764,14.160,33.203,33.203,12.207,-33.691,0.000,0.000,0.000
484117.768,17.578,23.438,29.297,-0.488,-251.953,0.000,0.000,0.000
484117.772,28.809,25.391,32.715,31.738,-2.930,0.000,0.000,0.000
484117.776,26.367,33.203,32.715,44.922,234.375,0.000,0.000,0.000
484117.780,17.578,35.645,43.457,21.973,32.715,0.000,0.000,0.000
484117.784,22.949,36.621,43.457,7.812,-242.676,0.000,0.000,0.000
484117.788,34.668,37.109,28.809,24.902,-109.863,0.000,0.000,0.000
484117.791,33.691,35.156,26.367,42.969,195.312,0.000,0.000,0.000
484117.795,24.902,39.062,32.227,25.879,137.207,0.000,0.000,0.000
484117.799,30.762,42.480,35.645,5.371,-142.578,0.000,0.000,0.000
484117.803,44.434,34.668,29.297,21.973,-130.371,0.000,0.000,0.000
484117.807,51.758,35.645,32.715,59.570,187.988,0.000,0.000,0.000
484117.811,43.457,37.598,41.992,59.082,250.488,0.000,0.000,0.000
484117.815,26.367,34.180,36.621,21.973,-86.426,0.000,0.000,0.000
484117.819,31.250,35.645,33.691,16.113,-170.410,0.000,0.000,0.000
484117.823,42.969,34.180,32.715,46.875,171.387,0.000,0.000,0.000
484117.827,36.133,31.738,29.785,48.828,305.664,0.000,0.000,0.000
484117.831,20.996,28.809,33.203,15.137,-6.836,0.000,0.000,0.000
484117.834,24.414,26.855,30.762,6.836,-193.848,0.000,0.000,0.000
484117.838,32.715,23.438,27.832,33.691,29.297,0.000,0.000,0.000
484117.842,25.391,17.578,25.879,40.527,262.695,0.000,0.000,0.000
484117.846,11.719,22.461,29.297,18.066,83.496,0.000,0.000,0.000
484117.850,14.648,22.949,32.227,3.418,-163.086,0.000,0.000,0.000
484117.854,31.250,19.043,32.227,26.367,-15.137,0.000,0.000,0.000
484117.858,40.527,22.949,33.203,52.246,312.012,0.000,0.000,0.000
484117.862,22.461,21.973,26.855,27.344,250.488,0.000,0.000,0.000
484117.866,15.137,22.949,29.297,0.000,-101.074,0.000,0.000,0.000
484117.870,32.715,26.367,27.832,13.672,-92.773,0.000,0.000,0.000
484117.873,41.992,25.879,20.996,40.527,245.605,0.000,0.000,0.000
484117.877,31.250,23.926,24.902,30.273,314.941,0.000,0.000,0.000
484117.881,22.461,25.391,25.391,4.395,23.926,0.000,0.000,0.000
484117.885,29.785,26.855,21.484,7.812,-128.906,0.000,0.000,0.000
484117.889,41.992,28.809,23.438,41.504,84.961,0.000,0.000,0.000
484117.893,38.086,31.738,23.926,50.293,276.367,0.000,0.000,0.000
484117.897,20.996,32.715,23.438,17.578,40.527,0.000,0.000,0.000
484117.901,27.344,33.203,22.949,-0.977,-250.977,0.000,0.000,0.000
484117.905,41.992,34.180,24.902,26.367,-62.012,0.000,0.000,0.000
484117.909,34.668,32.715,24.902,39.551,227.051,0.000,0.000,0.000
484117.913,17.090,32.715,27.344,15.625,64.453,0.000,0.000,0.000
484117.916,18.555,31.250,34.180,-0.488,-259.277,0.000,0.000,0.000
484117.920,27.344,27.832,30.273,10.742,-138.184,0.000,0.000,0.000
484117.924,24.902,24.414,22.949,34.668,209.473,0.000,0.000,0.000
484117.928,13.672,26.367,29.785,30.273,157.715,0.000,0.000,0.000
484117.932,6.836,29.297,35.156,5.859,-147.461,0.000,0.000,0.000
484117.936,19.531,26.367,29.785,9.277,-210.449,0.000,0.000,0.000
484117.940,30.762,25.879,27.832,38.086,95.703,0.000,0.000,0.000
484117.944,27.344,28.320,38.086,45.898,167.969,0.000,0.000,0.000
484117.948,20.996,32.715,44.922,25.391,-138.184,0.000,0.000,0.000
484117.952,26.855,33.203,34.180,16.602,-280.762,0.000,0.000,0.000
484117.956,33.691,29.297,28.320,39.551,64.941,0.000,0.000,0.000
484117.959,31.738,32.227,37.598,54.199,332.520,0.000,0.000,0.000
484117.963,16.113,35.645,43.457,24.414,-24.414,0.000,0.000,0.000
484117.967,10.742,29.785,32.715,-1.465,-302.246,0.000,0.000,0.000
484117.971,20.020,25.879,25.879,22.949,-61.035,0.000,0.000,0.000
484117.975,22.949,29.785,26.855,44.922,251.465,0.000,0.000,0.000
484117.979,10.254,34.668,32.227,17.090,146.484,0.000,0.000,0.000
484117.983,7.324,32.715,35.645,-11.230,-120.117,0.000,0.000,0.000
484117.987,20.996,26.367,29.297,3.418,-81.543,0.000,0.000,0.000
484117.991,26.367,23.438,26.855,27.832,199.219,0.000,0.000,0.000
484117.995,20.020,24.414,31.250,17.578,182.129,0.000,0.000,0.000
484117.998,10.742,26.367,30.273,-10.742,-184.082,0.000,0.000,0.000
484118.002,15.137,26.367,27.344,-9.277,-223.633,0.000,0.000,0.000
484118.006,27.344,25.391,25.391,25.391,151.367,0.000,0.000,0.000
484118.010,21.973,25.391,24.902,29.785,291.504,0.000,0.000,0.000
484118.014,11.230,28.809,29.785,1.465,-22.949,0.000,0.000,0.000
484118.018,25.879,34.668,34.180,4.395,-208.496,0.000,0.000,0.000
484118.022,38.574,33.691,32.715,31.738,-3.418,0.000,0.000,0.000
484118.026,31.738,29.297,29.297,41.992,200.195,0.000,0.000,0.000
484118.030,23.926,33.691,33.691,28.320,71.777,0.000,0.000,0.000
484118.034,28.320,38.086,37.598,6.836,-148.926,0.000,0.000,0.000
484118.038,33.691,35.156,30.273,18.066,-49.316,0.000,0.000,0.000
484118.041,25.391,29.297,20.508,37.109,207.520,0.000,0.000,0.000
484118.045,6.348,24.902,25.391,15.137,125.000,0.000,0.000,0.000
484118.049,9.766,25.391,34.180,-2.441,-167.969,0.000,0.000,0.000
484118.053,30.273,24.414,35.156,20.020,-169.434,0.000,0.000,0.000
484118.057,30.762,23.438,31.250,46.875,154.785,0.000,0.000,0.000
484118.061,22.949,27.344,31.738,46.387,211.426,0.000,0.000,0.000
484118.065,16.602,32.715,40.039,24.902,-113.281,0.000,0.000,0.000
484118.069,18.555,28.320,35.156,18.066,-178.223,0.000,0.000,0.000
484118.073,31.738,25.879,31.738,52.246,126.465,0.000,0.000,0.000
484118.077,24.902,23.926,26.855,62.012,288.086,0.000,0.000,0.000
484118.081,6.348,22.461,22.949,26.367,67.383,0.000,0.000,0.000
484118.084,17.578,27.832,24.902,9.766,-169.922,0.000,0.000,0.000
484118.088,36.133,33.203,21.973,35.156,23.926,0.000,0.000,0.000
484118.092,32.715,36.133,22.461,51.758,306.641,0.000,0.000,0.000
484118.096,24.414,39.062,32.227,31.250,34.180,0.000,0.000,0.000
484118.100,24.414,37.109,32.715,5.371,-281.250,0.000,0.000,0.000
484118.104,32.227,33.203,30.762,22.949,-40.527,0.000,0.000,0.000
484118.108,38.574,31.250,33.691,56.152,271.484,0.000,0.000,0.000
484118.112,25.879,30.762,28.320,38.574,114.746,0.000,0.000,0.000
484118.116,20.996,32.715,24.414,7.812,-202.637,0.000,0.000,0.000
484118.120,33.691,31.250,25.391,18.066,-177.246,0.000,0.000,0.000
484118.123,43.945,29.785,25.879,50.293,175.293,0.000,0.000,0.000
484118.127,33.691,29.785,32.227,45.410,291.016,0.000,0.000,0.000
484118.131,21.973,34.180,41.016,17.578,-20.020,0.000,0.000,0.000
484118.135,31.250,33.691,33.691,20.020,-131.348,0.000,0.000,0.000
484118.139,39.551,30.273,28.320,49.805,127.930,0.000,0.000,0.000
484118.143,33.691,26.855,30.273,46.387,261.230,0.000,0.000,0.000
484118.147,18.555,27.832,24.414,12.207,-9.766,0.000,0.000,0.000
484118.151,21.973,31.250,20.996,9.766,-221.680,0.000,0.000,0.000
484118.155,36.133,28.809,19.043,43.457,-15.625,0.000,0.000,0.000
484118.159,36.621,30.273,16.602,59.570,241.211,0.000,0.000,0.000
484118.163,21.973,32.715,22.461,34.180,110.352,0.000,0.000,0.000
484118.166,14.160,28.809,25.391,13.672,-169.922,0.000,0.000,0.000
484118.170,26.367,26.367,18.555,26.855,-91.797,0.000,0.000,0.000
484118.174,33.691,27.344,18.066,49.316,200.684,0.000,0.000,0.000
484118.178,21.484,30.762,26.855,40.039,148.926,0.000,0.000,0.000
484118.182,16.113,31.250,30.273,13.672,-179.688,0.000,0.000,0.000
484118.186,32.715,30.762,28.809,24.902,-139.160,0.000,0.000,0.000
484118.190,43.457,34.668,25.391,55.664,227.539,0.000,0.000,0.000
484118.194,30.273,33.691,22.949,48.340,288.574,0.000,0.000,0.000
484118.198,16.602,30.762,26.855,17.090,-50.293,0.000,0.000,0.000
