timestamps,TP9,AF7,AF8,TP10,Right AUX,Frequency,Contrast,Orientation
502937.609,6.836,36.621,27.832,-27.832,32.227,0.000,0.000,0.000
502937.613,13.672,40.527,33.691,-26.367,21.973,0.000,0.000,0.000
502937.616,17.090,41.016,35.645,-34.180,20.508,0.000,0.000,0.000
502937.620,19.531,35.156,38.086,-35.156,19.043,0.000,0.000,0.000
502937.624,20.996,32.227,40.527,-27.344,25.879,0.000,0.000,0.000
502937.628,15.625,33.203,42.480,-20.996,36.133,0.000,0.000,0.000
502937.632,18.555,32.715,35.156,-23.926,24.902,0.000,0.000,0.000
502937.636,23.438,35.645,24.414,-29.785,14.648,0.000,0.000,0.000
502937.640,27.344,43.457,20.020,-22.461,11.230,0.000,0.000,0.000
502937.644,30.273,45.898,32.715,-13.184,18.555,0.000,0.000,0.000
502937.648,20.508,39.551,34.180,-18.066,21.973,0.000,0.000,0.000
502937.652,14.160,37.598,30.273,-19.043,27.344,0.000,0.000,0.000
502937.656,17.090,35.645,31.250,-7.812,28.320,0.000,0.000,0.000
502937.660,11.230,32.227,28.809,1.465,16.113,0.000,0.000,0.000
502937.664,16.602,36.133,32.227,-1.465,20.020,0.000,0.000,0.000
502937.667,25.879,33.203,42.480,-6.836,34.180,0.000,0.000,0.000
502937.671,22.949,31.738,43.945,-7.812,35.645,0.000,0.000,0.000
502937.675,14.648,33.691,40.039,-9.766,31.250,0.000,0.000,0.000
502937.679,16.113,30.762,41.016,-18.066,38.574,0.000,0.000,0.000
502937.683,20.020,29.785,35.645,-19.531,41.504,0.000,0.000,0.000
502937.687,21.484,35.156,33.691,-20.020,41.992,0.000,0.000,0.000
502937.691,14.648,39.551,40.527,-22.949,36.621,0.000,0.000,0.000
502937.695,6.348,27.832,37.109,-29.785,22.949,0.000,0.000,0.000
502937.699,10.254,19.043,31.250,-23.438,19.043,0.000,0.000,0.000
502937.703,18.066,27.344,28.320,-14.648,23.926,0.000,0.000,0.000
502937.707,17.090,36.133,26.367,-18.555,30.273,0.000,0.000,0.000
502937.711,14.648,38.574,25.391,-17.578,25.879,0.000,0.000,0.000
502937.715,18.066,37.109,17.090,-14.648,34.180,0.000,0.000,0.000
502937.718,17.090,25.391,14.648,-13.672,33.203,0.000,0.000,0.000
502937.722,16.113,18.066,27.344,-16.602,19.043,0.000,0.000,0.000
502937.726,8.789,19.531,34.668,-11.719,23.438,0.000,0.000,0.000
502937.730,3.906,19.531,25.879,-5.371,28.809,0.000,0.000,0.000
502937.734,12.207,20.996,21.484,-18.066,26.367,0.000,0.000,0.000
502937.738,20.508,20.508,28.320,-25.879,26.367,0.000,0.000,0.000
502937.742,10.254,24.414,37.598,-18.066,27.344,0.000,0.000,0.000
502937.746,7.812,27.832,38.574,-19.531,24.414,0.000,0.000,0.000
502937.750,17.578,30.273,35.156,-19.043,30.273,0.000,0.000,0.000
502937.754,21.973,41.992,27.344,-19.531,33.691,0.000,0.000,0.000
502937.758,16.113,42.480,15.625,-20.020,27.832,0.000,0.000,0.000
502937.762,8.789,40.039,11.719,-16.602,27.832,0.000,0.000,0.000
502937.766,16.602,45.410,8.301,-14.648,41.504,0.000,0.000,0.000
502937.769,20.996,49.316,7.324,-6.836,45.410,0.000,0.000,0.000
502937.773,10.742,45.898,11.719,-15.625,31.250,0.000,0.000,0.000
502937.777,4.883,47.852,24.902,-21.973,33.691,0.000,0.000,0.000
502937.781,11.230,46.875,35.156,-12.695,48.828,0.000,0.000,0.000
502937.785,12.695,37.598,35.645,-17.090,38.086,0.000,0.000,0.000
502937.789,10.254,42.480,34.180,-18.066,19.043,0.000,0.000,0.000
502937.793,14.648,55.176,29.785,-9.766,20.020,0.000,0.000,0.000
502937.797,25.879,54.688,31.250,-4.883,34.180,0.000,0.000,0.000
502937.801,17.578,48.340,35.156,-1.465,39.551,0.000,0.000,0.000
502937.805,9.277,48.828,32.227,-2.441,32.227,0.000,0.000,0.000
502937.809,8.789,48.828,33.691,-3.418,32.715,0.000,0.000,0.000
502937.813,12.695,59.570,37.109,8.301,31.250,0.000,0.000,0.000
502937.817,19.531,66.406,29.785,9.277,24.414,0.000,0.000,0.000
502937.820,19.531,60.059,27.344,-4.395,28.809,0.000,0.000,0.000
502937.824,13.672,53.711,24.902,-20.020,15.625,0.000,0.000,0.000
502937.828,13.672,51.758,20.020,-23.926,20.020,0.000,0.000,0.000
502937.832,30.273,53.711,29.785,-27.344,35.645,0.000,0.000,0.000
502937.836,28.320,43.945,27.832,-41.016,32.227,0.000,0.000,0.000
502937.840,16.113,36.133,28.809,-37.598,20.996,0.000,0.000,0.000
502937.844,14.648,41.504,35.645,-36.133,18.066,0.000,0.000,0.000
502937.848,14.648,39.062,32.227,-36.621,18.066,0.000,0.000,0.000
502937.852,21.973,44.434,39.551,-26.855,29.297,0.000,0.000,0.000
502937.856,24.902,49.805,35.156,-27.344,33.691,0.000,0.000,0.000
502937.860,16.602,38.574,25.391,-28.320,26.855,0.000,0.000,0.000
502937.864,12.207,39.062,33.203,-25.879,31.738,0.000,0.000,0.000
502937.868,16.113,42.480,33.203,-14.648,40.039,0.000,0.000,0.000
502937.871,17.090,36.133,24.902,-7.812,36.621,0.000,0.000,0.000
502937.875,10.742,32.227,17.578,-13.672,24.902,0.000,0.000,0.000
502937.879,8.789,30.762,23.926,-19.043,24.902,0.000,0.000,0.000
502937.883,16.113,29.297,35.156,-15.137,18.555,0.000,0.000,0.000
502937.887,20.508,32.715,35.645,-7.812,13.184,0.000,0.000,0.000
502937.891,18.555,28.809,30.762,-4.883,18.555,0.000,0.000,0.000
502937.895,14.160,23.438,24.414,-5.371,18.066,0.000,0.000,0.000
502937.899,14.160,23.438,14.160,-15.137,28.320,0.000,0.000,0.000
502937.903,17.090,25.879,15.625,-9.277,33.203,0.000,0.000,0.000
502937.907,21.484,31.250,20.020,-1.465,20.020,0.000,0.000,0.000
502937.911,19.043,32.715,16.602,-10.254,16.602,0.000,0.000,0.000
502937.915,17.090,33.203,13.184,-6.836,19.531,0.000,0.000,0.000
502937.919,23.438,33.203,12.207,-1.465,24.414,0.000,0.000,0.000
502937.922,19.531,28.809,20.996,-8.789,26.367,0.000,0.000,0.000
502937.926,4.395,25.879,26.855,-21.484,18.066,0.000,0.000,0.000
502937.930,1.953,36.133,22.461,-16.602,20.508,0.000,0.000,0.000
502937.934,20.020,43.945,20.508,-2.930,32.715,0.000,0.000,0.000
502937.938,19.043,41.992,20.020,-6.836,22.949,0.000,0.000,0.000
502937.942,3.418,36.133,14.648,-12.695,14.648,0.000,0.000,0.000
502937.946,2.441,33.203,20.020,-16.113,17.090,0.000,0.000,0.000
502937.950,7.812,40.527,30.273,-11.230,11.230,0.000,0.000,0.000
502937.954,10.254,42.480,34.668,-6.836,14.160,0.000,0.000,0.000
502937.958,11.719,39.551,37.109,-18.066,21.973,0.000,0.000,0.000
502937.962,4.883,38.086,34.180,-16.113,16.602,0.000,0.000,0.000
502937.966,5.371,34.180,31.250,-8.789,16.113,0.000,0.000,0.000
502937.970,10.742,31.738,29.297,-8.789,15.625,0.000,0.000,0.000
502937.973,14.160,31.738,26.367,-3.418,21.484,0.000,0.000,0.000
502937.977,15.625,31.738,21.484,2.930,26.367,0.000,0.000,0.000
502937.981,26.367,40.527,12.207,4.883,41.504,0.000,0.000,0.000
502937.985,25.879,40.527,9.766,13.184,46.875,0.000,0.000,0.000
502937.989,19.531,33.203,18.555,16.113,32.227,0.000,0.000,0.000
502937.993,14.160,35.645,29.297,6.836,26.855,0.000,0.000,0.000
502937.997,9.277,34.668,37.109,2.930,27.344,0.000,0.000,0.000
502938.001,18.066,35.156,38.574,6.348,33.203,0.000,0.000,0.000
502938.005,15.137,35.156,35.156,-3.418,28.320,0.000,0.000,0.000
502938.009,6.348,34.180,25.391,-17.090,19.043,0.000,0.000,0.000
502938.013,8.789,41.504,21.484,-2.930,31.250,0.000,0.000,0.000
502938.017,7.324,48.340,25.391,10.742,31.250,0.000,0.000,0.000
502938.021,6.836,45.410,27.344,1.953,12.695,0.000,0.000,0.000
502938.024,6.836,47.363,22.949,-4.883,19.043,0.000,0.000,0.000
502938.028,1.953,54.199,17.090,-5.859,26.367,0.000,0.000,0.000
502938.032,8.301,54.199,20.020,-3.906,33.691,0.000,0.000,0.000
502938.036,18.066,54.688,25.391,-1.953,44.922,0.000,0.000,0.000
502938.040,17.578,58.105,26.855,2.930,36.621,0.000,0.000,0.000
502938.044,11.719,55.664,25.391,0.977,25.879,0.000,0.000,0.000
502938.048,11.719,56.641,28.809,-2.930,37.109,0.000,0.000,0.000
502938.052,21.484,64.941,33.203,-1.465,51.270,0.000,0.000,0.000
502938.056,26.855,71.777,34.668,4.395,44.434,0.000,0.000,0.000
502938.060,27.832,78.613,40.527,8.789,36.621,0.000,0.000,0.000
502938.064,24.414,73.730,35.645,0.977,35.156,0.000,0.000,0.000
502938.068,24.902,68.359,23.438,3.906,36.133,0.000,0.000,0.000
502938.072,25.879,77.637,29.785,9.277,25.391,0.000,0.000,0.000
502938.075,19.043,75.684,38.086,1.953,22.461,0.000,0.000,0.000
502938.079,15.137,66.406,33.203,14.160,23.438,0.000,0.000,0.000
502938.083,16.113,66.895,34.180,24.902,19.043,0.000,0.000,0.000
502938.087,10.254,69.336,38.574,21.973,22.461,0.000,0.000,0.000
502938.091,0.977,64.453,37.598,15.625,23.438,0.000,0.000,0.000
502938.095,-0.977,61.035,37.598,15.137,28.809,0.000,0.000,0.000
502938.099,3.418,57.129,34.180,17.578,40.039,0.000,0.000,0.000
502938.103,11.230,52.246,26.367,26.367,45.410,0.000,0.000,0.000
502938.107,12.695,54.199,27.344,25.879,29.297,0.000,0.000,0.000
502938.111,3.906,57.129,26.855,20.508,21.973,0.000,0.000,0.000
502938.115,12.207,58.105,17.090,24.414,38.086,0.000,0.000,0.000
502938.119,18.066,59.082,13.184,14.648,36.133,0.000,0.000,0.000
502938.123,19.043,57.617,22.461,5.371,31.250,0.000,0.000,0.000
502938.126,24.414,61.523,36.133,10.254,35.156,0.000,0.000,0.000
502938.130,28.320,66.895,39.062,15.137,36.133,0.000,0.000,0.000
502938.134,37.109,67.871,36.133,21.484,39.062,0.000,0.000,0.000
502938.138,43.945,69.336,34.180,12.695,40.039,0.000,0.000,0.000
502938.142,37.109,67.871,32.715,6.348,43.945,0.000,0.000,0.000
502938.146,30.273,63.965,30.273,12.207,38.086,0.000,0.000,0.000
502938.150,39.062,72.266,35.645,23.926,43.945,0.000,0.000,0.000
502938.154,38.574,73.242,30.273,21.484,43.945,0.000,0.000,0.000
502938.158,19.531,59.082,15.137,-0.977,27.832,0.000,0.000,0.000
502938.162,7.812,54.199,20.020,-1.953,26.367,0.000,0.000,0.000
502938.166,12.207,54.199,26.855,-2.930,19.531,0.000,0.000,0.000
502938.170,21.973,57.129,32.715,-3.906,18.555,0.000,0.000,0.000
502938.174,14.648,55.664,34.180,1.953,24.902,0.000,0.000,0.000
502938.177,0.000,51.758,32.715,1.953,20.508,0.000,0.000,0.000
502938.181,1.465,56.641,30.273,1.953,20.020,0.000,0.000,0.000
502938.185,5.859,62.500,21.484,-4.883,30.273,0.000,0.000,0.000
502938.189,7.324,69.336,21.484,-7.324,33.203,0.000,0.000,0.000
502938.193,5.371,72.266,30.762,-6.836,36.621,0.000,0.000,0.000
502938.197,4.395,65.430,40.527,-4.883,32.227,0.000,0.000,0.000
502938.201,11.719,62.988,39.551,5.859,21.973,0.000,0.000,0.000
502938.205,15.625,63.477,26.367,11.230,31.738,0.000,0.000,0.000
502938.209,14.648,59.570,29.297,9.766,37.109,0.000,0.000,0.000
502938.213,16.113,62.012,40.039,10.742,35.156,0.000,0.000,0.000
502938.217,21.484,66.895,40.527,16.113,35.645,0.000,0.000,0.000
502938.221,25.879,67.871,45.410,21.484,39.062,0.000,0.000,0.000
502938.224,20.020,70.312,44.434,17.578,34.180,0.000,0.000,0.000
502938.228,10.254,67.383,38.574,11.719,28.809,0.000,0.000,0.000
502938.232,9.766,59.570,34.180,9.277,32.715,0.000,0.000,0.000
502938.236,11.230,52.246,32.715,16.113,36.133,0.000,0.000,0.000
502938.240,9.277,47.852,33.691,13.672,38.574,0.000,0.000,0.000
502938.244,5.371,52.734,30.273,4.883,41.016,0.000,0.000,0.000
502938.248,6.348,54.199,27.832,3.906,33.691,0.000,0.000,0.000
502938.252,12.207,49.316,28.320,4.395,36.133,0.000,0.000,0.000
502938.256,17.090,50.781,21.973,6.836,40.527,0.000,0.000,0.000
502938.260,12.695,54.688,17.090,3.418,41.016,0.000,0.000,0.000
502938.264,8.301,53.711,22.461,-2.930,40.527,0.000,0.000,0.000
502938.268,20.508,50.781,21.484,-0.488,54.688,0.000,0.000,0.000
502938.272,30.762,52.246,19.043,7.812,61.523,0.000,0.000,0.000
502938.275,29.785,52.734,31.738,13.184,45.898,0.000,0.000,0.000
502938.279,25.879,50.781,38.086,16.113,49.805,0.000,0.000,0.000
502938.283,26.367,50.293,39.062,19.531,60.059,0.000,0.000,0.000
502938.287,23.438,47.852,37.109,15.137,59.570,0.000,0.000,0.000
502938.291,16.602,49.805,35.156,14.160,45.410,0.000,0.000,0.000
502938.295,8.301,54.199,37.109,23.926,34.668,0.000,0.000,0.000
502938.299,-1.465,49.316,31.738,13.184,37.598,0.000,0.000,0.000
502938.303,0.000,49.316,30.762,7.324,36.621,0.000,0.000,0.000
502938.307,3.418,50.781,30.762,12.695,30.762,0.000,0.000,0.000
502938.311,0.000,46.875,24.414,15.137,42.480,0.000,0.000,0.000
502938.315,1.953,42.480,22.461,10.254,44.922,0.000,0.000,0.000
502938.319,11.719,47.363,23.926,1.465,25.879,0.000,0.000,0.000
502938.323,16.113,53.711,30.273,5.859,25.391,0.000,0.000,0.000
502938.326,12.695,54.199,25.879,11.719,27.832,0.000,0.000,0.000
502938.330,7.324,50.781,13.672,9.277,20.996,0.000,0.000,0.000
502938.334,13.672,46.875,15.625,16.113,21.484,0.000,0.000,0.000
502938.338,16.602,41.992,10.742,18.555,27.344,0.000,0.000,0.000
502938.342,6.836,41.992,11.230,8.301,15.625,0.000,0.000,0.000
502938.346,5.371,43.945,13.184,12.695,12.695,0.000,0.000,0.000
502938.350,9.766,43.457,11.230,32.227,20.020,0.000,0.000,0.000
502938.354,12.695,41.992,16.113,46.387,21.484,0.000,0.000,0.000
502938.358,19.043,40.527,17.090,51.270,29.785,0.000,0.000,0.000
502938.362,13.672,39.062,12.695,44.922,32.227,0.000,0.000,0.000
502938.366,11.230,39.062,19.043,30.762,29.297,0.000,0.000,0.000
502938.370,16.602,40.039,22.461,27.344,32.715,0.000,0.000,0.000
502938.374,12.207,32.715,22.949,17.090,28.320,0.000,0.000,0.000
502938.377,10.254,29.297,24.414,13.184,21.973,0.000,0.000,0.000
502938.381,9.277,37.598,27.832,23.438,20.020,0.000,0.000,0.000
502938.385,17.578,43.457,30.762,30.762,32.715,0.000,0.000,0.000
502938.389,25.391,49.316,28.320,27.832,32.227,0.000,0.000,0.000
502938.393,20.020,44.922,25.391,15.137,20.996,0.000,0.000,0.000
502938.397,20.020,41.504,33.691,16.113,22.949,0.000,0.000,0.000
502938.401,25.391,40.527,40.039,20.508,21.973,0.000,0.000,0.000
502938.405,24.414,37.598,33.203,6.348,20.020,0.000,0.000,0.000
502938.409,17.090,42.480,32.227,0.488,14.648,0.000,0.000,0.000
502938.413,14.160,39.062,21.973,13.184,15.625,0.000,0.000,0.000
502938.417,19.531,33.691,10.742,11.719,24.414,0.000,0.000,0.000
502938.421,23.926,44.922,26.855,10.254,29.785,0.000,0.000,0.000
502938.425,25.879,46.875,33.203,16.602,23.926,0.000,0.000,0.000
502938.428,12.207,39.062,28.320,33.691,25.391,0.000,0.000,0.000
502938.432,-10.254,42.480,30.762,51.758,24.414,0.000,0.000,0.000
502938.436,-11.230,47.852,31.250,66.406,12.695,0.000,0.000,0.000
502938.440,-6.836,48.340,37.109,73.242,12.207,0.000,0.000,0.000
502938.444,-11.719,46.387,46.387,76.172,17.578,0.000,0.000,0.000
502938.448,-13.184,39.062,42.969,75.195,22.461,0.000,0.000,0.000
502938.452,-11.230,36.621,36.133,75.684,24.902,0.000,0.000,0.000
502938.456,-16.602,33.691,36.621,72.754,23.438,0.000,0.000,0.000
502938.460,-18.555,30.273,37.598,63.477,17.578,0.000,0.000,0.000
502938.464,-14.648,38.086,38.086,68.848,11.230,0.000,0.000,0.000
502938.468,-13.184,37.598,36.621,73.242,13.184,0.000,0.000,0.000
502938.472,-11.719,24.902,33.691,70.312,13.184,0.000,0.000,0.000
502938.476,-5.859,28.320,28.320,77.148,20.996,0.000,0.000,0.000
502938.479,-2.930,37.598,22.949,73.730,25.879,0.000,0.000,0.000
502938.483,0.977,31.738,21.484,70.801,21.484,0.000,0.000,0.000
502938.487,2.441,26.367,32.227,74.707,14.648,0.000,0.000,0.000
502938.491,5.859,20.996,44.434,72.754,13.184,0.000,0.000,0.000
502938.495,8.789,18.555,40.527,83.496,19.043,0.000,0.000,0.000
502938.499,0.000,24.414,36.621,75.684,13.184,0.000,0.000,0.000
502938.503,-2.930,26.855,44.922,69.824,17.578,0.000,0.000,0.000
502938.507,-6.348,25.879,42.480,69.824,14.160,0.000,0.000,0.000
502938.511,-13.184,33.691,33.203,65.430,4.395,0.000,0.000,0.000
502938.515,-8.789,41.504,26.367,70.312,9.766,0.000,0.000,0.000
502938.519,-4.883,38.574,20.996,75.684,16.113,0.000,0.000,0.000
502938.523,-3.906,34.668,17.578,79.102,20.996,0.000,0.000,0.000
502938.527,-4.883,36.133,20.020,82.031,25.879,0.000,0.000,0.000
502938.530,-7.324,39.551,30.762,82.031,30.273,0.000,0.000,0.000
502938.534,-3.418,37.109,33.691,78.613,31.738,0.000,0.000,0.000
502938.538,-5.859,31.738,24.414,83.984,31.250,0.000,0.000,0.000
502938.542,-3.906,36.621,21.484,84.473,26.855,0.000,0.000,0.000
502938.546,-8.301,37.109,23.438,85.938,21.484,0.000,0.000,0.000
502938.550,-8.301,37.598,14.648,89.355,24.414,0.000,0.000,0.000
502938.554,-4.395,36.621,20.020,82.520,22.461,0.000,0.000,0.000
502938.558,-7.812,35.645,33.691,73.242,11.230,0.000,0.000,0.000
502938.562,-9.277,30.273,42.480,73.242,11.719,0.000,0.000,0.000
502938.566,-6.348,32.227,45.898,74.707,19.531,0.000,0.000,0.000
502938.570,-7.812,47.852,40.039,73.730,26.855,0.000,0.000,0.000
502938.574,-9.277,51.270,38.574,73.242,22.949,0.000,0.000,0.000
502938.578,-9.277,46.875,44.434,72.266,13.672,0.000,0.000,0.000
502938.581,-5.859,50.781,45.898,74.219,24.902,0.000,0.000,0.000
502938.585,-0.488,55.176,40.527,80.566,36.621,0.000,0.000,0.000
502938.589,-4.395,52.246,40.039,83.008,34.668,0.000,0.000,0.000
502938.593,-12.695,51.270,38.086,75.195,35.645,0.000,0.000,0.000
502938.597,-13.672,52.734,29.785,74.707,50.293,0.000,0.000,0.000
502938.601,-14.160,56.152,30.762,79.102,53.711,0.000,0.000,0.000
502938.605,-20.996,51.758,34.180,77.637,33.203,0.000,0.000,0.000
502938.609,-25.391,48.340,34.668,71.777,25.391,0.000,0.000,0.000
502938.613,-27.832,56.641,37.109,66.406,25.879,0.000,0.000,0.000
502938.617,-20.996,62.500,33.691,66.895,34.668,0.000,0.000,0.000
502938.621,-7.324,62.988,35.645,74.219,48.340,0.000,0.000,0.000
502938.625,-7.324,63.477,34.668,72.266,43.457,0.000,0.000,0.000
502938.629,-15.625,63.965,25.391,73.730,45.898,0.000,0.000,0.000
502938.632,-13.672,61.523,28.320,69.824,52.734,0.000,0.000,0.000
502938.636,-10.742,60.547,36.621,62.988,51.758,0.000,0.000,0.000
502938.640,-6.836,62.012,37.598,62.500,53.223,0.000,0.000,0.000
502938.644,-5.371,62.012,34.180,62.012,60.547,0.000,0.000,0.000
502938.648,-15.625,65.918,33.691,60.059,62.012,0.000,0.000,0.000
502938.652,-16.113,62.988,34.668,61.523,58.594,0.000,0.000,0.000
502938.656,-12.695,56.152,36.133,65.918,55.176,0.000,0.000,0.000
502938.660,-15.625,60.059,37.598,64.941,46.875,0.000,0.000,0.000
502938.664,-27.832,61.035,39.551,61.035,43.945,0.000,0.000,0.000
502938.668,-34.180,55.664,39.551,64.941,45.410,0.000,0.000,0.000
502938.672,-28.320,53.223,37.598,69.824,39.062,0.000,0.000,0.000
502938.676,-22.461,53.711,36.133,65.430,39.551,0.000,0.000,0.000
502938.680,-23.926,54.688,36.621,64.453,50.781,0.000,0.000,0.000
502938.683,-35.645,55.664,33.691,60.059,33.691,0.000,0.000,0.000
502938.687,-34.668,54.688,31.250,59.082,17.090,0.000,0.000,0.000
502938.691,-25.391,62.500,33.203,62.988,29.297,0.000,0.000,0.000
502938.695,-31.250,64.453,32.227,60.059,30.762,0.000,0.000,0.000
502938.699,-38.574,53.711,39.551,49.316,33.203,0.000,0.000,0.000
502938.703,-35.156,47.363,52.246,48.340,32.227,0.000,0.000,0.000
502938.707,-32.227,43.945,48.340,55.176,16.113,0.000,0.000,0.000
502938.711,-32.715,45.898,34.668,47.852,22.461,0.000,0.000,0.000
502938.715,-34.668,51.270,35.645,45.410,31.250,0.000,0.000,0.000
502938.719,-37.109,53.223,39.551,49.805,21.973,0.000,0.000,0.000
502938.723,-42.480,48.340,38.086,50.293,19.043,0.000,0.000,0.000
502938.727,-41.992,46.875,31.738,41.992,19.043,0.000,0.000,0.000
502938.731,-40.039,47.852,33.203,37.109,20.996,0.000,0.000,0.000
502938.734,-38.086,49.805,42.480,31.250,29.297,0.000,0.000,0.000
502938.738,-35.156,46.387,40.039,35.645,21.484,0.000,0.000,0.000
502938.742,-30.273,44.434,40.039,38.574,13.672,0.000,0.000,0.000
502938.746,-28.320,51.758,40.527,39.062,17.578,0.000,0.000,0.000
502938.750,-23.926,53.711,36.133,50.293,23.438,0.000,0.000,0.000
502938.754,-25.879,47.852,32.227,49.316,26.367,0.000,0.000,0.000
502938.758,-37.109,45.410,29.785,37.109,25.391,0.000,0.000,0.000
502938.762,-37.598,49.316,31.250,37.598,31.738,0.000,0.000,0.000
502938.766,-27.832,48.828,30.273,43.457,26.855,0.000,0.000,0.000
502938.770,-20.996,51.270,25.879,27.344,15.625,0.000,0.000,0.000
502938.774,-20.508,53.223,27.832,13.672,17.578,0.000,0.000,0.000
502938.778,-24.414,46.387,29.785,20.020,18.066,0.000,0.000,0.000
502938.782,-31.250,45.410,40.527,13.672,12.207,0.000,0.000,0.000
502938.785,-32.227,50.293,48.828,6.836,14.648,0.000,0.000,0.000
502938.789,-31.738,50.781,40.527,12.695,18.066,0.000,0.000,0.000
502938.793,-29.297,49.316,38.574,13.184,22.461,0.000,0.000,0.000
502938.797,-34.668,42.480,44.922,7.324,33.203,0.000,0.000,0.000
502938.801,-25.879,44.434,39.062,-1.465,31.738,0.000,0.000,0.000
502938.805,-5.859,50.293,29.297,1.465,36.621,0.000,0.000,0.000
502938.809,-11.719,44.434,21.484,-8.789,38.086,0.000,0.000,0.000
502938.813,-19.043,41.992,24.902,-21.973,33.203,0.000,0.000,0.000
502938.817,-26.855,46.875,40.527,-26.367,40.039,0.000,0.000,0.000
502938.821,-27.832,48.340,43.457,-30.273,42.969,0.000,0.000,0.000
502938.825,-26.855,48.340,41.992,-38.574,39.062,0.000,0.000,0.000
502938.829,-34.180,50.781,42.480,-43.457,41.992,0.000,0.000,0.000
502938.833,-38.086,49.805,36.621,-42.969,29.297,0.000,0.000,0.000
502938.836,-34.180,50.781,30.762,-43.457,23.438,0.000,0.000,0.000
502938.840,-32.227,55.664,25.391,-50.293,33.691,0.000,0.000,0.000
502938.844,-34.668,57.617,13.184,-46.875,29.785,0.000,0.000,0.000
502938.848,-39.551,56.152,14.648,-40.039,22.461,0.000,0.000,0.000
502938.852,-38.086,56.641,29.297,-35.156,20.508,0.000,0.000,0.000
502938.856,-37.109,54.199,27.832,-23.926,29.785,0.000,0.000,0.000
502938.860,-43.457,49.805,22.949,-27.832,37.109,0.000,0.000,0.000
502938.864,-47.363,53.711,21.973,-35.156,37.109,0.000,0.000,0.000
502938.868,-44.922,56.152,20.996,-27.832,34.668,0.000,0.000,0.000
502938.872,-42.969,51.758,27.344,-21.484,24.414,0.000,0.000,0.000
502938.876,-42.969,49.805,30.273,-15.625,25.391,0.000,0.000,0.000
502938.880,-40.039,45.410,32.715,-12.695,32.227,0.000,0.000,0.000
502938.884,-36.621,40.527,38.574,-14.160,26.367,0.000,0.000,0.000
502938.887,-30.762,37.598,35.645,-13.184,22.461,0.000,0.000,0.000
502938.891,-25.391,41.992,27.344,-13.184,23.926,0.000,0.000,0.000
502938.895,-29.297,49.805,24.902,-16.113,28.809,0.000,0.000,0.000
502938.899,-30.762,48.340,22.949,-20.508,26.367,0.000,0.000,0.000
502938.903,-22.461,46.875,22.949,-24.902,12.695,0.000,0.000,0.000
502938.907,-12.695,48.340,24.902,-23.926,16.602,0.000,0.000,0.000
502938.911,-5.371,44.922,30.762,-20.020,35.156,0.000,0.000,0.000
502938.915,-5.859,42.480,40.527,-24.414,37.109,0.000,0.000,0.000
502938.919,-6.348,41.504,36.133,-29.785,28.809,0.000,0.000,0.000
502938.923,-5.859,46.387,29.785,-23.438,26.855,0.000,0.000,0.000
502938.927,-6.836,49.805,28.809,-19.531,24.414,0.000,0.000,0.000
502938.931,-8.789,44.922,24.902,-25.391,30.762,0.000,0.000,0.000
502938.935,-10.742,38.086,22.461,-27.832,32.227,0.000,0.000,0.000
502938.938,-8.301,37.109,30.273,-14.160,29.785,0.000,0.000,0.000
502938.942,-4.395,41.016,37.598,-3.906,38.086,0.000,0.000,0.000
502938.946,-4.883,44.922,27.832,0.000,35.156,0.000,0.000,0.000
502938.950,-11.230,40.039,18.555,-1.953,34.668,0.000,0.000,0.000
502938.954,-8.301,31.738,22.949,-6.348,48.828,0.000,0.000,0.000
502938.958,2.441,37.109,37.598,-6.348,56.152,0.000,0.000,0.000
502938.962,7.812,44.922,49.316,10.254,54.199,0.000,0.000,0.000
502938.966,1.953,42.969,45.410,18.066,47.363,0.000,0.000,0.000
502938.970,-3.418,38.574,34.180,23.438,40.527,0.000,0.000,0.000
502938.974,-1.465,38.086,26.367,31.250,33.203,0.000,0.000,0.000
502938.978,-3.906,39.062,27.344,27.344,27.832,0.000,0.000,0.000
502938.982,-11.719,38.086,34.180,31.250,28.320,0.000,0.000,0.000
502938.986,-4.395,39.062,28.809,38.086,33.203,0.000,0.000,0.000
502938.989,0.977,36.621,22.949,47.363,34.668,0.000,0.000,0.000
502938.993,-9.766,37.598,31.250,55.664,40.527,0.000,0.000,0.000
502938.997,-23.438,40.039,34.180,61.035,46.875,0.000,0.000,0.000
502939.001,-27.832,39.551,28.809,65.430,44.922,0.000,0.000,0.000
502939.005,-24.902,39.062,32.227,72.266,51.270,0.000,0.000,0.000
502939.009,-35.156,40.527,37.598,69.824,34.668,0.000,0.000,0.000
502939.013,-43.945,42.480,37.109,61.523,12.695,0.000,0.000,0.000
502939.017,-41.016,43.945,36.133,62.012,21.973,0.000,0.000,0.000
502939.021,-39.551,43.945,32.715,63.965,23.926,0.000,0.000,0.000
502939.025,-40.039,40.527,28.809,60.059,24.902,0.000,0.000,0.000
502939.029,-38.574,39.062,28.809,62.988,31.250,0.000,0.000,0.000
502939.033,-37.598,44.922,30.762,75.195,40.527,0.000,0.000,0.000
502939.037,-39.062,45.898,29.785,65.918,51.270,0.000,0.000,0.000
502939.040,-34.668,42.480,28.320,56.152,46.875,0.000,0.000,0.000
502939.044,-30.762,45.898,31.250,57.129,40.039,0.000,0.000,0.000
502939.048,-34.180,42.969,28.320,47.363,38.086,0.000,0.000,0.000
502939.052,-37.109,33.203,24.414,36.133,25.879,0.000,0.000,0.000
502939.056,-36.133,29.297,27.832,41.016,26.367,0.000,0.000,0.000
502939.060,-33.203,32.227,34.668,49.805,25.879,0.000,0.000,0.000
502939.064,-38.574,32.715,40.527,47.852,19.531,0.000,0.000,0.000
502939.068,-32.715,31.738,36.621,49.316,29.297,0.000,0.000,0.000
502939.072,-27.344,28.809,27.344,50.781,31.738,0.000,0.000,0.000
502939.076,-27.344,31.250,29.785,43.945,29.297,0.000,0.000,0.000
502939.080,-22.949,30.273,38.086,33.203,31.738,0.000,0.000,0.000
502939.084,-30.273,22.461,27.832,18.066,25.391,0.000,0.000,0.000
502939.088,-32.227,19.531,19.531,19.043,23.926,0.000,0.000,0.000
502939.091,-27.832,21.484,26.367,34.180,33.203,0.000,0.000,0.000
502939.095,-27.832,21.973,34.668,39.062,27.832,0.000,0.000,0.000
502939.099,-35.645,17.090,38.574,44.434,20.508,0.000,0.000,0.000
502939.103,-33.691,22.949,34.180,47.852,29.297,0.000,0.000,0.000
502939.107,-30.273,30.273,28.809,47.363,22.461,0.000,0.000,0.000
502939.111,-30.273,20.020,30.762,46.875,24.414,0.000,0.000,0.000
502939.115,-33.203,13.672,32.715,44.922,26.855,0.000,0.000,0.000
502939.119,-34.668,12.207,36.621,41.992,9.277,0.000,0.000,0.000
502939.123,-30.762,17.090,38.086,41.992,14.160,0.000,0.000,0.000
502939.127,-28.809,27.832,34.668,34.180,29.297,0.000,0.000,0.000
502939.131,-30.762,21.484,29.785,13.184,27.344,0.000,0.000,0.000
502939.135,-27.344,13.672,28.320,2.441,22.461,0.000,0.000,0.000
502939.139,-21.973,15.137,23.438,12.207,24.902,0.000,0.000,0.000
502939.142,-11.230,26.855,27.832,19.531,34.180,0.000,0.000,0.000
502939.146,-10.742,31.250,36.133,15.137,33.691,0.000,0.000,0.000
502939.150,-20.996,24.414,23.926,5.371,21.973,0.000,0.000,0.000
502939.154,-21.484,21.484,19.531,4.883,32.715,0.000,0.000,0.000
502939.158,-20.996,18.066,26.367,20.996,40.527,0.000,0.000,0.000
502939.162,-22.461,22.461,31.738,23.926,20.996,0.000,0.000,0.000
502939.166,-22.461,28.809,39.551,28.320,20.020,0.000,0.000,0.000
502939.170,-20.020,24.902,39.551,37.109,30.762,0.000,0.000,0.000
502939.174,-17.090,19.531,33.691,31.738,27.344,0.000,0.000,0.000
502939.178,-5.859,23.438,34.668,41.016,31.250,0.000,0.000,0.000
502939.182,-9.277,25.391,23.438,47.363,32.227,0.000,0.000,0.000
502939.186,-13.672,19.531,27.832,50.293,34.668,0.000,0.000,0.000
502939.190,-5.371,22.461,42.480,45.410,42.480,0.000,0.000,0.000
502939.193,-10.254,28.809,39.551,26.367,32.715,0.000,0.000,0.000
502939.197,-22.949,31.250,41.016,20.996,17.090,0.000,0.000,0.000
502939.201,-21.484,31.738,45.898,27.832,20.996,0.000,0.000,0.000
502939.205,-16.113,27.832,36.621,44.434,27.344,0.000,0.000,0.000
502939.209,-19.531,24.902,32.715,49.805,18.555,0.000,0.000,0.000
502939.213,-18.066,24.414,40.039,53.711,24.414,0.000,0.000,0.000
502939.217,-9.766,24.902,33.691,67.383,34.668,0.000,0.000,0.000
502939.221,-4.395,21.973,32.715,66.895,30.762,0.000,0.000,0.000
502939.225,-8.301,17.578,36.621,61.035,18.066,0.000,0.000,0.000
502939.229,-17.090,20.020,41.504,60.547,5.371,0.000,0.000,0.000
502939.233,-23.926,26.855,48.340,59.570,-4.395,0.000,0.000,0.000
502939.237,-23.438,24.902,46.387,58.594,-12.207,0.000,0.000,0.000
502939.241,-17.090,25.879,42.480,65.918,-15.137,0.000,0.000,0.000
502939.244,-10.742,27.832,37.598,67.383,-13.672,0.000,0.000,0.000
502939.248,-14.648,25.879,32.715,68.848,0.977,0.000,0.000,0.000
502939.252,-17.578,25.879,32.715,71.289,4.883,0.000,0.000,0.000
502939.256,-9.766,33.203,36.133,74.219,13.672,0.000,0.000,0.000
502939.260,-5.859,41.016,29.785,75.684,26.855,0.000,0.000,0.000
502939.264,-5.859,41.992,23.438,72.266,34.180,0.000,0.000,0.000
502939.268,-6.836,36.621,36.133,76.172,45.898,0.000,0.000,0.000
502939.272,-8.301,35.645,45.898,74.219,52.734,0.000,0.000,0.000
502939.276,-6.348,38.086,44.434,72.266,52.246,2.000,1.000,45.000
502939.280,-10.742,35.156,41.016,62.500,47.852,0.000,0.000,0.000
502939.284,-18.066,33.203,32.227,58.594,47.363,0.000,0.000,0.000
502939.288,-12.695,32.227,24.902,62.988,46.387,0.000,0.000,0.000
502939.292,-6.348,31.250,29.785,63.477,45.410,0.000,0.000,0.000
502939.295,-2.441,33.203,37.598,66.895,43.945,0.000,0.000,0.000
502939.299,-4.395,36.133,42.969,68.848,42.480,0.000,0.000,0.000
502939.303,-5.371,38.086,41.016,66.895,48.828,0.000,0.000,0.000
502939.307,0.000,41.504,39.062,70.312,59.082,0.000,0.000,0.000
502939.311,2.930,44.434,34.180,66.406,56.641,0.000,0.000,0.000
502939.315,-6.348,38.086,29.785,57.129,39.062,0.000,0.000,0.000
502939.319,-14.648,29.785,36.133,55.664,35.156,0.000,0.000,0.000
502939.323,-9.766,27.832,41.992,59.570,34.180,0.000,0.000,0.000
502939.327,-12.207,31.738,40.527,58.594,31.250,0.000,0.000,0.000
502939.331,-20.508,32.227,35.645,51.270,35.645,0.000,0.000,0.000
502939.335,-20.508,36.133,33.691,51.270,38.574,0.000,0.000,0.000
502939.339,-11.230,41.504,33.203,55.664,32.227,0.000,0.000,0.000
502939.343,-7.812,44.434,30.762,58.105,32.715,0.000,0.000,0.000
502939.346,-16.113,43.945,25.391,54.199,36.133,0.000,0.000,0.000
502939.350,-16.113,40.039,16.602,52.734,42.969,0.000,0.000,0.000
502939.354,-5.859,37.109,15.625,60.059,46.387,0.000,0.000,0.000
502939.358,-3.418,39.551,28.320,64.941,50.293,0.000,0.000,0.000
502939.362,-5.371,45.410,37.109,64.453,58.105,0.000,0.000,0.000
502939.366,-13.672,50.293,37.109,60.547,40.039,0.000,0.000,0.000
502939.370,-17.090,48.828,37.598,64.453,38.574,0.000,0.000,0.000
502939.374,-12.207,42.480,39.062,69.336,42.969,0.000,0.000,0.000
502939.378,-15.625,47.363,34.668,59.082,31.738,0.000,0.000,0.000
502939.382,-25.391,51.758,34.180,50.293,21.973,0.000,0.000,0.000
502939.386,-34.180,42.480,36.133,50.293,14.648,0.000,0.000,0.000
502939.390,-30.762,37.109,34.668,52.246,19.531,0.000,0.000,0.000
502939.394,-22.461,39.551,34.668,54.199,18.066,0.000,0.000,0.000
502939.397,-20.508,40.527,34.668,56.152,26.367,0.000,0.000,0.000
502939.401,-23.438,44.434,35.645,62.500,36.621,0.000,0.000,0.000
502939.405,-20.020,43.457,28.320,60.059,27.344,0.000,0.000,0.000
502939.409,-10.254,40.527,22.461,61.035,26.367,0.000,0.000,0.000
502939.413,-11.719,42.480,24.414,61.523,32.227,0.000,0.000,0.000
502939.417,-19.531,44.434,29.785,55.664,32.715,0.000,0.000,0.000
502939.421,-19.043,45.410,36.133,60.547,38.086,0.000,0.000,0.000
502939.425,-19.043,45.410,35.645,55.664,30.762,0.000,0.000,0.000
502939.429,-24.902,42.969,35.156,45.898,13.672,0.000,0.000,0.000
502939.433,-35.156,41.992,28.809,39.062,23.438,0.000,0.000,0.000
502939.437,-38.086,45.898,24.414,29.785,19.531,0.000,0.000,0.000
502939.441,-32.715,49.316,29.785,37.109,14.648,0.000,0.000,0.000
502939.445,-28.809,47.852,37.598,42.969,15.625,0.000,0.000,0.000
502939.448,-25.879,49.805,37.598,44.434,9.277,0.000,0.000,0.000
502939.452,-25.391,56.152,32.227,44.922,11.230,0.000,0.000,0.000
502939.456,-19.531,59.082,31.738,42.969,14.160,0.000,0.000,0.000
502939.460,-12.207,58.105,29.785,47.363,19.043,0.000,0.000,0.000
502939.464,-14.648,57.617,30.762,44.434,18.066,0.000,0.000,0.000
502939.468,-20.020,57.617,39.062,41.504,7.812,0.000,0.000,0.000
502939.472,-13.672,55.176,40.039,46.387,13.184,0.000,0.000,0.000
502939.476,-12.207,51.270,37.109,46.387,14.160,0.000,0.000,0.000
502939.480,-16.113,49.316,38.086,40.039,7.812,0.000,0.000,0.000
502939.484,-13.672,48.828,32.227,45.898,16.113,0.000,0.000,0.000
502939.488,-10.254,48.340,25.879,49.805,25.391,0.000,0.000,0.000
502939.492,-9.766,43.945,30.273,48.340,24.902,0.000,0.000,0.000
502939.496,-2.930,40.527,33.691,51.270,29.785,0.000,0.000,0.000
502939.499,2.441,40.039,32.715,51.270,28.809,0.000,0.000,0.000
502939.503,0.977,43.457,34.180,54.199,23.926,0.000,0.000,0.000
502939.507,4.395,43.945,35.645,57.129,27.344,0.000,0.000,0.000
502939.511,9.277,42.969,29.297,53.223,25.879,0.000,0.000,0.000
502939.515,5.859,43.945,21.484,45.898,17.578,0.000,0.000,0.000
502939.519,0.977,43.457,24.902,42.969,10.742,0.000,0.000,0.000
502939.523,6.836,42.480,36.621,44.922,9.766,0.000,0.000,0.000
502939.527,8.301,36.621,37.109,44.434,0.000,0.000,0.000,0.000
502939.531,9.277,35.645,41.992,41.504,0.488,0.000,0.000,0.000
502939.535,12.207,40.527,46.875,36.133,10.742,0.000,0.000,0.000
502939.539,16.113,40.039,40.527,36.133,20.508,0.000,0.000,0.000
502939.543,26.855,39.551,36.621,41.016,20.508,0.000,0.000,0.000
502939.547,25.879,45.410,26.367,31.738,8.301,0.000,0.000,0.000
502939.550,21.484,46.875,23.926,34.668,16.113,0.000,0.000,0.000
502939.554,22.461,45.410,35.645,37.598,26.367,0.000,0.000,0.000
502939.558,18.555,43.457,45.898,37.598,26.855,0.000,0.000,0.000
502939.562,14.648,37.109,49.805,41.016,33.203,0.000,0.000,0.000
502939.566,27.832,37.109,41.504,44.922,38.086,0.000,0.000,0.000
502939.570,47.852,36.621,35.645,50.293,38.086,0.000,0.000,0.000
502939.574,56.152,37.598,41.992,51.758,36.621,0.000,0.000,0.000
502939.578,61.035,41.992,48.828,50.781,35.156,0.000,0.000,0.000
502939.582,56.641,34.180,48.828,43.457,32.227,0.000,0.000,0.000
502939.586,55.664,33.691,41.016,38.574,27.344,0.000,0.000,0.000
502939.590,62.988,36.133,35.156,39.062,25.391,0.000,0.000,0.000
502939.594,66.895,33.691,35.156,39.551,27.832,0.000,0.000,0.000
502939.598,67.383,33.691,41.504,37.598,35.645,0.000,0.000,0.000
502939.601,62.012,34.180,38.574,36.133,41.504,0.000,0.000,0.000
502939.605,62.500,34.668,30.762,35.156,39.062,0.000,0.000,0.000
502939.609,64.453,31.738,33.691,34.180,31.738,0.000,0.000,0.000
502939.613,78.125,32.715,40.527,32.227,30.273,0.000,0.000,0.000
502939.617,76.172,31.738,43.945,31.250,27.832,0.000,0.000,0.000
502939.621,56.641,26.855,44.922,28.320,19.531,0.000,0.000,0.000
502939.625,53.711,27.832,43.457,27.344,10.254,0.000,0.000,0.000
502939.629,58.105,28.809,43.457,33.691,3.418,0.000,0.000,0.000
502939.633,52.734,25.391,42.480,34.180,7.812,0.000,0.000,0.000
502939.637,39.551,23.926,40.527,31.738,21.973,0.000,0.000,0.000
502939.641,43.945,26.367,34.668,36.621,31.250,0.000,0.000,0.000
502939.645,50.293,31.738,23.438,41.016,36.133,0.000,0.000,0.000
502939.649,47.852,35.645,26.367,43.457,43.457,0.000,0.000,0.000
502939.652,37.598,31.738,39.551,41.504,46.387,0.000,0.000,0.000
502939.656,33.203,28.320,44.922,42.969,43.457,0.000,0.000,0.000
502939.660,35.645,28.809,40.527,41.992,41.992,0.000,0.000,0.000
502939.664,37.109,33.203,35.156,32.227,35.645,0.000,0.000,0.000
502939.668,31.738,32.715,37.109,31.250,24.414,0.000,0.000,0.000
502939.672,31.250,33.203,28.320,28.809,25.879,0.000,0.000,0.000
502939.676,35.645,34.180,16.113,31.250,35.156,0.000,0.000,0.000
502939.680,32.227,31.738,28.320,28.320,30.762,0.000,0.000,0.000
502939.684,24.902,32.715,44.434,21.484,9.766,0.000,0.000,0.000
502939.688,22.461,31.738,51.270,21.484,0.977,0.000,0.000,0.000
502939.692,24.414,25.391,49.805,22.949,4.395,0.000,0.000,0.000
502939.696,25.391,22.949,46.875,21.973,0.488,0.000,0.000,0.000
502939.700,20.508,26.855,37.109,23.438,4.883,0.000,0.000,0.000
502939.703,14.648,28.320,24.414,24.902,9.766,0.000,0.000,0.000
502939.707,16.113,24.902,27.832,22.461,5.371,0.000,0.000,0.000
502939.711,20.508,25.391,35.645,25.391,9.766,0.000,0.000,0.000
502939.715,22.461,25.391,34.668,22.949,10.254,0.000,0.000,0.000
502939.719,18.555,23.438,30.273,24.902,15.625,0.000,0.000,0.000
502939.723,21.973,23.438,31.250,32.715,29.297,0.000,0.000,0.000
502939.727,24.902,26.367,32.715,30.273,33.203,0.000,0.000,0.000
502939.731,23.926,26.367,31.738,26.367,27.832,0.000,0.000,0.000
502939.735,29.785,24.902,35.645,27.344,23.926,0.000,0.000,0.000
502939.739,29.785,20.508,38.086,30.762,27.344,0.000,0.000,0.000
502939.743,28.320,20.020,34.668,32.227,35.156,0.000,0.000,0.000
502939.747,27.832,24.902,28.320,27.344,31.250,0.000,0.000,0.000
502939.751,19.531,26.367,26.367,25.879,26.367,0.000,0.000,0.000
502939.754,18.555,24.902,32.227,30.273,20.020,0.000,0.000,0.000
502939.758,23.926,22.949,33.203,33.203,16.113,0.000,0.000,0.000
502939.762,28.809,23.438,34.180,33.691,32.227,0.000,0.000,0.000
502939.766,21.484,25.879,38.086,32.715,37.598,0.000,0.000,0.000
502939.770,20.996,26.367,32.227,34.668,37.598,0.000,0.000,0.000
502939.774,28.809,26.367,28.320,40.039,29.785,0.000,0.000,0.000
502939.778,27.344,26.367,31.250,39.551,14.648,0.000,0.000,0.000
502939.782,23.438,29.297,24.414,35.645,20.996,0.000,0.000,0.000
502939.786,24.902,35.156,16.113,41.504,27.344,0.000,0.000,0.000
502939.790,26.855,32.227,20.508,38.086,22.461,0.000,0.000,0.000
502939.794,25.879,29.297,32.227,36.621,21.484,0.000,0.000,0.000
502939.798,21.484,32.227,39.551,37.598,26.367,0.000,0.000,0.000
502939.802,20.996,35.156,38.086,36.621,30.762,0.000,0.000,0.000
502939.805,23.438,38.086,37.598,36.621,26.855,0.000,0.000,0.000
502939.809,18.555,34.668,36.621,35.156,23.438,0.000,0.000,0.000
502939.813,16.113,34.180,36.133,33.203,26.855,0.000,0.000,0.000
502939.817,13.184,33.691,36.133,23.926,27.832,0.000,0.000,0.000
502939.821,15.137,32.227,34.668,21.484,22.949,0.000,0.000,0.000
502939.825,21.484,33.691,32.227,26.855,23.438,0.000,0.000,0.000
502939.829,18.555,31.738,31.250,21.973,25.879,0.000,0.000,0.000
502939.833,19.531,34.180,28.320,15.625,25.879,0.000,0.000,0.000
502939.837,19.531,33.691,24.902,16.113,18.555,0.000,0.000,0.000
502939.841,14.648,32.715,24.902,14.648,10.742,0.000,0.000,0.000
502939.845,14.648,37.598,26.855,19.043,11.719,0.000,0.000,0.000
502939.849,11.719,37.598,29.297,20.020,12.695,0.000,0.000,0.000
502939.853,4.395,33.691,32.715,19.531,15.625,0.000,0.000,0.000
502939.856,8.789,33.203,33.203,18.555,16.602,0.000,0.000,0.000
502939.860,19.043,39.062,36.133,21.973,27.832,0.000,0.000,0.000
502939.864,21.484,41.016,36.133,26.855,37.598,0.000,0.000,0.000
502939.868,20.020,37.598,34.668,19.531,12.207,0.000,0.000,0.000
502939.872,12.695,38.574,27.832,17.090,-1.465,0.000,0.000,0.000
502939.876,11.230,39.551,13.672,23.926,13.184,0.000,0.000,0.000
502939.880,17.578,40.039,17.090,19.531,21.973,0.000,0.000,0.000
502939.884,14.648,41.504,32.227,24.902,31.250,0.000,0.000,0.000
502939.888,12.695,41.016,39.551,31.738,36.133,0.000,0.000,0.000
502939.892,18.555,38.574,41.992,32.715,38.086,0.000,0.000,0.000
502939.896,17.578,32.715,38.086,26.855,33.691,0.000,0.000,0.000
502939.900,15.625,31.738,38.574,24.902,30.762,0.000,0.000,0.000
502939.904,17.578,34.180,31.250,28.809,33.691,0.000,0.000,0.000
502939.907,14.648,34.180,23.926,25.879,28.320,0.000,0.000,0.000
502939.911,19.043,38.574,37.598,34.668,32.715,0.000,0.000,0.000
502939.915,24.902,37.598,45.898,31.738,34.668,0.000,0.000,0.000
502939.919,9.277,30.762,39.551,18.555,39.551,0.000,0.000,0.000
502939.923,6.836,30.762,34.180,23.438,38.574,0.000,0.000,0.000
502939.927,12.207,34.180,30.762,32.227,16.602,0.000,0.000,0.000
502939.931,10.742,35.156,27.344,27.832,8.789,0.000,0.000,0.000
502939.935,12.207,35.156,31.250,22.949,11.719,0.000,0.000,0.000
502939.939,12.695,34.668,41.504,26.855,20.020,0.000,0.000,0.000
502939.943,27.344,36.133,43.945,35.156,26.855,0.000,0.000,0.000
502939.947,19.531,34.668,35.645,32.227,21.973,0.000,0.000,0.000
502939.951,0.977,31.738,33.203,30.273,23.926,0.000,0.000,0.000
502939.955,6.348,29.297,30.762,36.621,33.691,0.000,0.000,0.000
502939.958,10.742,35.156,30.273,29.785,34.180,0.000,0.000,0.000
502939.962,17.090,39.551,32.715,20.508,26.855,0.000,0.000,0.000
502939.966,20.020,36.621,33.203,27.344,20.020,0.000,0.000,0.000
502939.970,26.367,41.016,37.109,33.691,29.785,0.000,0.000,0.000
502939.974,29.297,42.969,38.086,34.668,41.016,0.000,0.000,0.000
502939.978,23.926,40.039,40.039,38.086,40.039,0.000,0.000,0.000
502939.982,20.508,38.574,43.945,35.645,39.551,0.000,0.000,0.000
502939.986,15.625,35.156,40.527,31.250,43.457,0.000,0.000,0.000
502939.990,21.484,35.156,36.133,32.227,38.574,0.000,0.000,0.000
502939.994,28.320,35.645,41.016,41.016,30.762,0.000,0.000,0.000
502939.998,22.949,33.691,42.480,38.574,37.109,0.000,0.000,0.000
502940.002,18.066,33.691,36.133,35.156,40.527,0.000,0.000,0.000
502940.006,12.695,30.762,34.668,40.527,22.461,0.000,0.000,0.000
502940.009,11.719,28.320,35.156,42.480,14.648,0.000,0.000,0.000
502940.013,13.184,29.785,20.020,36.621,28.320,0.000,0.000,0.000
502940.017,10.254,27.344,18.066,30.762,28.320,0.000,0.000,0.000
502940.021,5.859,24.902,33.203,24.414,11.719,0.000,0.000,0.000
502940.025,7.324,31.738,40.039,20.020,4.395,0.000,0.000,0.000
502940.029,4.395,30.762,37.598,13.672,4.395,0.000,0.000,0.000
502940.033,0.488,25.391,34.668,6.348,6.836,0.000,0.000,0.000
502940.037,-8.789,25.391,34.668,2.441,5.371,0.000,0.000,0.000
502940.041,-11.230,24.902,32.715,1.953,12.695,0.000,0.000,0.000
502940.045,-1.953,28.809,33.203,7.324,12.695,0.000,0.000,0.000
502940.049,-5.859,30.762,32.227,8.301,12.207,0.000,0.000,0.000
502940.053,-6.348,28.809,31.738,4.883,14.648,0.000,0.000,0.000
502940.057,-6.348,26.855,28.809,6.348,10.254,0.000,0.000,0.000
502940.060,-14.160,24.414,27.344,13.184,14.160,0.000,0.000,0.000
502940.064,-13.184,23.438,31.738,7.324,15.625,0.000,0.000,0.000
502940.068,-15.137,25.391,30.273,-1.465,18.066,0.000,0.000,0.000
502940.072,-13.184,26.855,26.367,5.859,23.438,0.000,0.000,0.000
502940.076,-5.859,28.809,26.367,10.742,37.598,0.000,0.000,0.000
502940.080,-8.789,27.832,27.344,11.230,37.598,0.000,0.000,0.000
502940.084,-13.184,26.367,34.180,12.695,14.648,0.000,0.000,0.000
502940.088,-14.160,28.809,36.621,2.930,5.371,0.000,0.000,0.000
502940.092,-8.789,31.738,32.715,-1.953,9.277,0.000,0.000,0.000
502940.096,-4.883,31.250,32.715,4.883,1.953,0.000,0.000,0.000
502940.100,-14.160,31.738,30.273,-0.977,-0.977,0.000,0.000,0.000
502940.104,-20.020,33.203,29.297,-2.441,6.836,0.000,0.000,0.000
502940.108,-14.648,31.738,41.504,3.418,20.508,0.000,0.000,0.000
502940.111,-12.207,28.809,49.805,-0.977,18.066,0.000,0.000,0.000
502940.115,-8.789,29.297,48.340,-1.465,-4.395,0.000,0.000,0.000
502940.119,-12.207,32.227,49.316,0.977,-1.953,0.000,0.000,0.000
502940.123,-16.602,27.344,42.969,5.859,12.207,0.000,0.000,0.000
502940.127,-17.578,23.926,38.574,12.695,7.324,0.000,0.000,0.000
502940.131,-11.719,26.367,43.457,17.578,-0.977,0.000,0.000,0.000
502940.135,-3.418,34.180,42.969,16.602,2.441,0.000,0.000,0.000
502940.139,-5.859,40.039,36.133,15.137,0.977,0.000,0.000,0.000
502940.143,-5.371,32.715,41.016,19.531,12.207,0.000,0.000,0.000
502940.147,-1.953,27.832,52.734,21.973,16.602,0.000,0.000,0.000
502940.151,-4.883,27.344,57.617,20.996,5.371,0.000,0.000,0.000
502940.155,-10.254,27.832,56.641,21.484,14.648,0.000,0.000,0.000
502940.158,-7.324,29.297,52.246,29.297,18.066,0.000,0.000,0.000
502940.162,-5.371,28.320,51.270,28.320,7.812,0.000,0.000,0.000
502940.166,-7.324,31.250,50.781,23.438,4.395,0.000,0.000,0.000
502940.170,-8.301,31.738,47.852,24.414,3.418,0.000,0.000,0.000
502940.174,-7.324,33.203,46.387,26.855,6.348,0.000,0.000,0.000
502940.178,-5.371,31.250,43.945,24.902,7.324,0.000,0.000,0.000
502940.182,-1.953,28.320,43.457,13.184,6.348,0.000,0.000,0.000
502940.186,-2.930,33.691,33.691,13.672,8.789,0.000,0.000,0.000
502940.190,-3.906,36.133,19.531,13.184,8.789,0.000,0.000,0.000
502940.194,-0.977,31.738,18.066,7.324,7.324,0.000,0.000,0.000
502940.198,-2.930,31.738,23.438,4.883,13.672,0.000,0.000,0.000
502940.202,-2.930,31.738,32.715,7.324,14.160,0.000,0.000,0.000
502940.206,-0.977,32.227,30.762,15.137,11.230,0.000,0.000,0.000
502940.209,-1.465,29.297,21.973,18.066,12.695,0.000,0.000,0.000
502940.213,6.348,28.320,22.461,20.508,-1.465,0.000,0.000,0.000
502940.217,2.930,32.227,26.855,24.414,-0.977,0.000,0.000,0.000
502940.221,-1.953,34.668,28.320,25.391,12.695,0.000,0.000,0.000
502940.225,0.000,35.156,25.391,24.414,6.348,0.000,0.000,0.000
502940.229,-2.930,30.273,18.066,21.973,9.766,0.000,0.000,0.000
502940.233,0.000,32.715,21.973,25.879,21.973,0.000,0.000,0.000
502940.237,-6.348,34.668,27.832,24.902,10.254,0.000,0.000,0.000
502940.241,-4.883,29.785,23.438,24.902,4.883,0.000,0.000,0.000
502940.245,3.418,25.391,16.602,27.832,13.672,0.000,0.000,0.000
502940.249,8.301,28.809,20.020,24.414,14.648,0.000,0.000,0.000
502940.253,9.277,32.227,22.461,28.809,17.578,0.000,0.000,0.000
502940.257,-5.371,27.344,26.367,30.762,28.809,0.000,0.000,0.000
502940.260,-12.207,24.902,31.250,25.879,19.531,0.000,0.000,0.000
502940.264,-6.836,27.344,31.738,30.273,10.254,0.000,0.000,0.000
502940.268,-5.859,28.320,36.133,32.227,30.273,0.000,0.000,0.000
502940.272,-7.812,25.879,28.809,28.809,32.227,0.000,0.000,0.000
502940.276,-1.953,26.367,18.555,39.062,14.648,0.000,0.000,0.000
502940.280,-2.930,22.949,26.855,41.504,13.672,0.000,0.000,0.000
502940.284,-13.672,11.230,32.715,29.297,20.508,0.000,0.000,0.000
502940.288,-17.090,8.789,29.297,18.555,16.602,0.000,0.000,0.000
502940.292,-13.184,7.324,26.855,16.113,17.578,0.000,0.000,0.000
502940.296,-12.207,2.441,22.461,23.926,35.156,0.000,0.000,0.000
502940.300,-10.254,-1.465,20.508,22.461,32.715,0.000,0.000,0.000
502940.304,-4.883,-7.812,20.996,20.508,18.066,0.000,0.000,0.000
502940.308,1.953,-17.090,21.484,23.438,21.973,0.000,0.000,0.000
502940.311,12.695,-26.855,20.996,17.090,33.203,0.000,0.000,0.000
502940.315,13.672,-16.113,19.043,18.066,36.621,0.000,0.000,0.000
502940.319,6.836,-2.930,18.066,20.020,36.133,0.000,0.000,0.000
502940.323,3.418,-0.488,18.555,20.020,31.738,0.000,0.000,0.000
502940.327,9.277,13.672,21.973,29.297,30.762,0.000,0.000,0.000
502940.331,11.719,22.461,21.973,35.645,29.297,0.000,0.000,0.000
502940.335,9.766,21.484,18.066,25.391,15.625,0.000,0.000,0.000
502940.339,9.766,29.297,21.484,16.602,5.371,0.000,0.000,0.000
502940.343,14.160,36.133,18.555,18.555,0.977,0.000,0.000,0.000
502940.347,17.578,36.133,-0.488,11.230,-13.672,0.000,0.000,0.000
502940.351,20.508,40.039,-13.184,4.395,-17.090,0.000,0.000,0.000
502940.355,20.508,39.551,3.906,8.789,-15.137,0.000,0.000,0.000
502940.359,22.461,39.551,27.344,4.883,-12.695,0.000,0.000,0.000
502940.362,31.250,41.504,30.762,3.906,-2.441,0.000,0.000,0.000
502940.366,42.969,44.922,23.926,6.836,9.277,0.000,0.000,0.000
502940.370,41.992,48.340,18.555,6.836,-0.488,0.000,0.000,0.000
502940.374,35.645,44.922,20.996,3.418,-12.695,0.000,0.000,0.000
502940.378,39.551,42.969,27.344,2.930,-5.859,0.000,0.000,0.000
502940.382,37.598,41.504,27.832,4.883,-6.348,0.000,0.000,0.000
502940.386,34.180,40.527,25.391,8.789,-7.812,0.000,0.000,0.000
502940.390,28.320,40.039,23.438,12.695,-1.953,0.000,0.000,0.000
502940.394,29.297,44.922,23.438,9.766,-1.465,0.000,0.000,0.000
502940.398,36.133,46.387,22.461,9.277,1.465,0.000,0.000,0.000
502940.402,40.527,43.945,17.090,7.812,9.766,0.000,0.000,0.000
502940.406,35.156,41.504,16.113,10.742,7.324,0.000,0.000,0.000
502940.410,25.391,42.480,22.461,14.648,6.348,0.000,0.000,0.000
502940.413,31.738,42.969,27.832,21.484,10.254,0.000,0.000,0.000
502940.417,38.574,41.016,29.297,17.578,5.371,0.000,0.000,0.000
502940.421,29.785,42.480,27.832,9.277,-11.230,0.000,0.000,0.000
502940.425,32.227,44.922,21.973,16.113,-19.043,0.000,0.000,0.000
502940.429,42.480,43.457,20.996,19.043,-12.207,0.000,0.000,0.000
502940.433,27.344,39.062,23.438,13.184,-11.230,0.000,0.000,0.000
502940.437,12.695,39.062,23.438,18.066,-10.742,0.000,0.000,0.000
502940.441,13.184,35.645,25.391,21.973,9.766,0.000,0.000,0.000
502940.445,14.160,32.715,24.902,23.438,25.391,0.000,0.000,0.000
502940.449,20.996,36.133,22.461,25.879,0.000,0.000,0.000,0.000
502940.453,18.066,29.785,22.949,20.996,-19.043,0.000,0.000,0.000
502940.457,16.602,24.902,26.367,20.508,-13.672,0.000,0.000,0.000
502940.461,32.227,27.344,30.273,25.391,-16.602,0.000,0.000,0.000
502940.464,39.062,33.691,32.227,33.691,-19.043,0.000,0.000,0.000
502940.468,34.668,32.715,30.273,29.297,-16.602,0.000,0.000,0.000
502940.472,41.016,27.344,31.738,26.855,-9.766,0.000,0.000,0.000
502940.476,53.223,29.297,31.738,29.785,-5.371,0.000,0.000,0.000
502940.480,58.105,32.715,28.320,25.879,-3.418,0.000,0.000,0.000
502940.484,51.270,33.203,30.273,21.973,3.418,0.000,0.000,0.000
502940.488,46.387,31.738,34.180,24.902,5.859,0.000,0.000,0.000
502940.492,51.270,30.273,39.062,26.367,-4.395,0.000,0.000,0.000
502940.496,54.199,28.320,39.551,24.414,-4.883,0.000,0.000,0.000
502940.500,53.711,25.879,37.109,19.043,7.324,0.000,0.000,0.000
502940.504,47.852,25.391,37.109,17.578,3.418,0.000,0.000,0.000
502940.508,42.969,28.320,35.645,20.996,0.977,0.000,0.000,0.000
502940.512,43.945,25.879,26.855,20.020,7.812,0.000,0.000,0.000
502940.515,44.434,24.414,19.043,20.996,11.230,0.000,0.000,0.000
502940.519,43.945,28.320,22.949,25.879,18.066,0.000,0.000,0.000
502940.523,45.410,24.414,30.762,24.902,21.973,0.000,0.000,0.000
502940.527,43.945,22.949,42.480,18.066,23.926,0.000,0.000,0.000
502940.531,41.016,25.879,50.293,13.184,24.414,0.000,0.000,0.000
502940.535,37.598,23.926,49.805,8.789,18.066,0.000,0.000,0.000
502940.539,36.621,23.926,47.852,7.812,11.230,0.000,0.000,0.000
502940.543,40.527,26.855,46.387,10.742,9.277,0.000,0.000,0.000
502940.547,42.969,27.344,47.852,15.625,11.719,0.000,0.000,0.000
502940.551,38.086,27.344,45.898,15.137,10.742,0.000,0.000,0.000
502940.555,25.391,28.320,41.016,12.207,10.254,0.000,0.000,0.000
502940.559,24.414,29.297,34.668,12.695,20.020,0.000,0.000,0.000
502940.563,28.809,26.367,29.785,6.836,20.508,0.000,0.000,0.000
502940.566,32.227,25.879,33.203,4.395,16.602,0.000,0.000,0.000
502940.570,28.320,30.762,36.621,5.859,27.344,0.000,0.000,0.000
502940.574,24.414,27.832,34.668,0.488,37.109,0.000,0.000,0.000
502940.578,32.227,23.438,34.180,4.883,31.738,0.000,0.000,0.000
502940.582,38.574,26.855,34.180,9.766,32.227,0.000,0.000,0.000
502940.586,34.668,29.785,27.832,9.277,33.691,0.000,0.000,0.000
502940.590,26.367,29.297,28.809,9.766,22.461,0.000,0.000,0.000
502940.594,34.668,28.320,33.203,10.742,24.902,0.000,0.000,0.000
502940.598,33.203,28.809,31.250,17.578,26.367,0.000,0.000,0.000
502940.602,23.926,28.320,33.691,18.066,20.020,0.000,0.000,0.000
502940.606,23.926,22.461,39.062,17.578,33.691,0.000,0.000,0.000
502940.610,27.832,23.438,42.969,18.555,39.551,0.000,0.000,0.000
502940.614,32.227,27.344,40.527,15.137,27.344,0.000,0.000,0.000
502940.617,35.645,26.855,37.598,14.160,20.020,0.000,0.000,0.000
502940.621,30.762,28.320,32.715,19.531,18.066,0.000,0.000,0.000
502940.625,32.715,28.320,25.391,25.391,26.855,0.000,0.000,0.000
502940.629,38.574,29.297,27.832,20.020,23.926,0.000,0.000,0.000
502940.633,33.203,29.785,35.156,15.137,25.391,0.000,0.000,0.000
502940.637,33.203,28.320,40.039,19.043,40.039,0.000,0.000,0.000
502940.641,35.156,27.832,37.598,22.461,41.992,0.000,0.000,0.000
502940.645,40.527,31.250,32.227,25.879,44.434,0.000,0.000,0.000
502940.649,46.387,35.645,29.297,27.344,39.551,0.000,0.000,0.000
502940.653,48.340,37.109,27.832,26.367,28.320,0.000,0.000,0.000
502940.657,42.480,34.180,30.762,28.809,34.668,0.000,0.000,0.000
502940.661,37.598,31.738,33.203,25.879,27.832,0.000,0.000,0.000
502940.665,41.992,29.785,34.180,25.879,15.625,0.000,0.000,0.000
502940.668,45.898,25.879,33.203,28.809,29.297,0.000,0.000,0.000
502940.672,44.922,27.344,24.414,30.762,34.668,0.000,0.000,0.000
502940.676,44.922,34.668,24.902,26.367,38.086,0.000,0.000,0.000
502940.680,47.852,36.621,33.203,24.414,41.992,0.000,0.000,0.000
502940.684,50.293,30.273,32.227,30.762,42.480,0.000,0.000,0.000
502940.688,41.992,33.691,22.461,34.180,46.387,0.000,0.000,0.000
502940.692,38.086,39.062,27.832,27.344,43.457,0.000,0.000,0.000
502940.696,42.969,36.621,41.504,24.902,33.203,0.000,0.000,0.000
502940.700,40.039,33.691,45.410,30.762,37.598,0.000,0.000,0.000
502940.704,36.621,33.203,45.410,28.320,53.711,0.000,0.000,0.000
502940.708,35.156,33.691,44.922,28.320,39.551,0.000,0.000,0.000
502940.712,36.621,33.691,41.504,34.180,25.391,0.000,0.000,0.000
502940.716,38.574,32.715,38.574,36.133,30.762,0.000,0.000,0.000
502940.719,36.621,37.109,36.621,31.250,34.180,0.000,0.000,0.000
502940.723,33.691,36.133,35.645,29.785,36.133,0.000,0.000,0.000
502940.727,30.762,30.273,33.203,37.109,32.227,0.000,0.000,0.000
502940.731,27.832,29.785,36.133,38.574,31.250,0.000,0.000,0.000
502940.735,30.762,31.250,46.875,26.855,27.344,0.000,0.000,0.000
502940.739,28.320,29.785,48.340,24.414,26.855,0.000,0.000,0.000
502940.743,25.879,33.203,38.574,24.902,32.227,0.000,0.000,0.000
502940.747,26.855,36.133,35.645,27.344,29.297,0.000,0.000,0.000
502940.751,24.902,32.227,38.574,26.855,16.602,0.000,0.000,0.000
502940.755,21.484,32.227,36.621,20.508,7.324,0.000,0.000,0.000
502940.759,20.996,36.133,29.785,23.438,15.625,0.000,0.000,0.000
502940.763,21.484,36.133,26.367,27.832,8.301,0.000,0.000,0.000
502940.767,24.902,29.785,30.273,26.367,-2.441,0.000,0.000,0.000
502940.770,20.996,22.949,37.598,23.438,1.465,0.000,0.000,0.000
502940.774,15.625,22.461,40.527,23.926,0.000,0.000,0.000,0.000
502940.778,21.973,23.926,38.574,26.367,-4.883,0.000,0.000,0.000
502940.782,22.461,22.461,39.551,29.297,-14.160,0.000,0.000,0.000
502940.786,22.949,25.391,43.945,25.879,-15.137,0.000,0.000,0.000
502940.790,25.879,24.902,46.387,24.414,-6.348,0.000,0.000,0.000
502940.794,24.414,20.996,43.945,29.297,0.000,0.000,0.000,0.000
502940.798,21.484,20.508,39.062,33.203,-5.371,0.000,0.000,0.000
502940.802,21.484,20.996,37.598,33.691,-9.766,0.000,0.000,0.000
502940.806,20.020,21.484,33.203,31.738,-12.207,0.000,0.000,0.000
502940.810,18.066,24.414,27.832,26.855,-11.230,4.000,1.000,45.000
502940.814,19.531,22.461,30.762,25.391,-20.508,0.000,0.000,0.000
502940.818,22.949,16.113,43.457,23.926,-29.785,0.000,0.000,0.000
502940.821,19.043,19.043,49.316,23.438,-26.855,0.000,0.000,0.000
502940.825,13.184,22.461,45.410,20.996,-30.273,0.000,0.000,0.000
502940.829,20.996,22.461,40.527,21.973,-29.785,0.000,0.000,0.000
502940.833,25.879,26.367,28.320,25.391,-24.902,0.000,0.000,0.000
502940.837,18.555,28.809,29.785,22.461,-23.926,0.000,0.000,0.000
502940.841,16.602,26.855,45.410,16.113,-20.020,0.000,0.000,0.000
502940.845,18.066,25.391,46.387,21.484,-11.719,0.000,0.000,0.000
502940.849,20.996,23.926,45.898,25.879,-7.812,0.000,0.000,0.000
502940.853,18.066,21.973,46.387,15.137,-10.254,0.000,0.000,0.000
502940.857,13.184,19.531,45.898,18.555,-9.766,0.000,0.000,0.000
502940.861,13.184,19.043,44.434,23.926,0.488,0.000,0.000,0.000
502940.865,15.137,23.438,42.480,21.973,16.113,0.000,0.000,0.000
502940.869,13.672,21.973,43.457,19.531,11.719,0.000,0.000,0.000
502940.872,16.602,23.926,41.992,17.578,-4.395,0.000,0.000,0.000
502940.876,14.648,28.320,40.527,12.695,-8.789,0.000,0.000,0.000
502940.880,10.742,27.344,45.898,16.113,-4.883,0.000,0.000,0.000
502940.884,17.578,27.832,48.340,15.625,2.930,0.000,0.000,0.000
502940.888,17.578,28.809,41.504,4.883,7.324,0.000,0.000,0.000
502940.892,17.578,31.738,36.621,-1.465,10.742,0.000,0.000,0.000
502940.896,22.461,29.297,39.551,0.488,19.043,0.000,0.000,0.000
502940.900,24.414,27.344,43.457,9.766,16.113,0.000,0.000,0.000
502940.904,22.949,27.344,42.480,9.766,11.230,0.000,0.000,0.000
502940.908,17.090,23.926,35.156,2.441,3.906,0.000,0.000,0.000
502940.912,15.625,27.832,26.367,0.000,0.488,0.000,0.000,0.000
502940.916,20.996,33.203,32.715,7.324,13.184,0.000,0.000,0.000
502940.920,16.113,31.250,44.434,8.301,16.602,0.000,0.000,0.000
502940.923,10.742,31.738,47.363,5.859,12.207,0.000,0.000,0.000
502940.927,14.160,33.691,47.852,5.371,5.371,0.000,0.000,0.000
502940.931,20.020,32.227,45.410,4.395,8.789,0.000,0.000,0.000
502940.935,25.391,37.109,37.598,-4.883,7.324,0.000,0.000,0.000
502940.939,22.949,34.180,32.227,-13.184,-5.859,0.000,0.000,0.000
502940.943,23.438,26.855,40.039,-12.207,2.441,0.000,0.000,0.000
502940.947,22.461,27.832,40.039,-19.531,6.348,0.000,0.000,0.000
502940.951,19.531,26.855,38.086,-31.250,1.465,0.000,0.000,0.000
502940.955,20.508,27.832,38.574,-31.738,2.930,0.000,0.000,0.000
502940.959,15.625,28.320,29.785,-32.227,-2.930,0.000,0.000,0.000
502940.963,16.113,30.762,30.273,-37.598,-5.371,0.000,0.000,0.000
502940.967,22.461,30.762,40.039,-34.180,-2.930,0.000,0.000,0.000
502940.971,28.320,29.785,44.922,-21.973,4.883,0.000,0.000,0.000
502940.974,21.484,27.344,42.480,-23.438,1.465,0.000,0.000,0.000
502940.978,19.531,26.367,40.039,-30.762,-3.418,0.000,0.000,0.000
502940.982,25.879,26.855,40.527,-25.879,4.395,0.000,0.000,0.000
502940.986,23.926,24.902,35.156,-26.855,5.371,0.000,0.000,0.000
502940.990,18.066,25.391,31.250,-27.344,7.324,0.000,0.000,0.000
502940.994,18.555,27.344,36.133,-20.996,13.672,0.000,0.000,0.000
502940.998,23.926,23.926,41.016,-19.043,19.043,0.000,0.000,0.000
502941.002,26.855,23.926,42.480,-21.973,17.090,0.000,0.000,0.000
502941.006,18.555,29.785,34.668,-14.648,12.207,0.000,0.000,0.000
502941.010,16.113,25.879,26.855,-9.277,8.301,0.000,0.000,0.000
502941.014,26.367,22.949,34.180,-4.883,10.742,0.000,0.000,0.000
502941.018,29.297,29.785,44.922,0.000,22.461,0.000,0.000,0.000
502941.022,20.020,27.832,41.016,-6.348,24.414,0.000,0.000,0.000
502941.025,14.160,19.531,37.109,-11.230,15.625,0.000,0.000,0.000
502941.029,21.484,16.602,39.551,-4.883,14.160,0.000,0.000,0.000
502941.033,26.855,23.438,38.086,2.441,21.973,0.000,0.000,0.000
502941.037,23.926,29.297,33.203,-3.418,26.367,0.000,0.000,0.000
502941.041,22.461,32.715,32.715,-7.324,23.926,0.000,0.000,0.000
502941.045,27.344,31.738,33.691,-5.371,23.438,0.000,0.000,0.000
502941.049,30.273,24.902,28.809,-4.883,33.691,0.000,0.000,0.000
502941.053,31.250,25.879,27.832,-4.395,35.156,0.000,0.000,0.000
502941.057,24.414,25.391,21.484,-0.488,35.156,0.000,0.000,0.000
502941.061,22.461,23.926,20.508,1.953,37.109,0.000,0.000,0.000
502941.065,28.320,29.785,34.180,5.371,39.551,0.000,0.000,0.000
502941.069,26.367,27.832,39.551,11.719,39.062,0.000,0.000,0.000
502941.073,24.902,24.902,35.645,20.020,32.227,0.000,0.000,0.000
502941.076,29.297,29.785,33.691,22.949,42.480,0.000,0.000,0.000
502941.080,34.180,29.297,36.133,27.344,44.434,0.000,0.000,0.000
502941.084,38.086,30.273,38.574,35.156,39.062,0.000,0.000,0.000
502941.088,40.527,35.156,34.180,32.227,41.504,0.000,0.000,0.000
502941.092,39.551,35.156,29.785,29.785,42.480,0.000,0.000,0.000
502941.096,30.273,32.227,35.645,34.180,43.457,0.000,0.000,0.000
502941.100,24.902,30.273,38.574,39.551,52.246,0.000,0.000,0.000
502941.104,28.809,32.715,35.156,38.574,57.617,0.000,0.000,0.000
502941.108,22.949,29.785,34.668,36.621,52.734,0.000,0.000,0.000
502941.112,21.484,27.344,39.551,38.574,42.969,0.000,0.000,0.000
502941.116,24.902,29.297,38.086,38.086,37.598,0.000,0.000,0.000
502941.120,25.391,27.832,31.738,39.062,45.898,0.000,0.000,0.000
502941.124,18.555,29.785,20.020,36.621,45.898,0.000,0.000,0.000
502941.127,12.695,31.738,10.254,33.691,38.086,0.000,0.000,0.000
502941.131,18.555,34.668,25.391,39.062,43.457,0.000,0.000,0.000
502941.135,24.414,38.086,41.992,41.504,51.758,0.000,0.000,0.000
502941.139,23.438,32.715,40.527,43.945,49.805,0.000,0.000,0.000
502941.143,20.020,24.414,39.062,44.434,44.434,0.000,0.000,0.000
502941.147,22.949,26.367,48.340,47.852,35.156,0.000,0.000,0.000
502941.151,25.391,29.785,46.387,53.223,34.180,0.000,0.000,0.000
502941.155,17.090,27.344,32.227,39.551,33.203,0.000,0.000,0.000
502941.159,6.348,26.855,26.855,31.250,29.297,0.000,0.000,0.000
502941.163,6.836,29.785,30.273,32.227,30.762,0.000,0.000,0.000
502941.167,11.230,34.180,40.039,39.062,38.574,0.000,0.000,0.000
502941.171,6.348,33.691,41.504,33.691,39.062,0.000,0.000,0.000
502941.175,-3.418,29.785,40.527,21.973,28.809,0.000,0.000,0.000
502941.178,0.488,29.297,43.945,27.344,27.344,0.000,0.000,0.000
502941.182,9.766,29.785,42.480,33.691,30.762,0.000,0.000,0.000
502941.186,11.230,29.785,37.598,31.250,32.715,0.000,0.000,0.000
502941.190,8.789,33.691,30.762,28.320,37.598,0.000,0.000,0.000
502941.194,8.301,32.715,30.762,32.715,45.898,0.000,0.000,0.000
502941.198,11.230,30.762,39.551,35.156,47.852,0.000,0.000,0.000
502941.202,16.602,32.715,39.062,36.133,43.945,0.000,0.000,0.000
502941.206,17.578,34.180,33.691,37.598,43.945,0.000,0.000,0.000
502941.210,15.625,35.645,36.621,36.133,40.527,0.000,0.000,0.000
502941.214,19.531,33.691,36.621,33.691,41.016,0.000,0.000,0.000
502941.218,24.902,32.227,33.203,26.855,49.805,0.000,0.000,0.000
502941.222,21.973,35.645,32.227,20.996,44.434,0.000,0.000,0.000
502941.226,15.137,36.133,35.156,21.484,42.969,0.000,0.000,0.000
502941.229,24.902,35.645,37.109,17.090,55.664,0.000,0.000,0.000
502941.233,31.250,35.645,31.738,9.766,53.711,0.000,0.000,0.000
502941.237,21.484,35.156,21.484,13.184,50.781,0.000,0.000,0.000
502941.241,16.602,33.203,24.902,22.461,58.105,0.000,0.000,0.000
502941.245,21.973,31.250,37.598,29.297,64.941,0.000,0.000,0.000
502941.249,25.879,38.574,38.574,35.645,72.266,0.000,0.000,0.000
502941.253,24.414,40.527,35.156,38.574,65.430,0.000,0.000,0.000
502941.257,17.578,34.668,33.691,39.551,54.688,0.000,0.000,0.000
502941.261,16.602,38.086,39.062,44.922,50.293,0.000,0.000,0.000
502941.265,10.742,41.992,46.387,43.457,48.828,0.000,0.000,0.000
502941.269,10.254,41.016,43.945,42.969,42.480,0.000,0.000,0.000
502941.273,17.578,41.992,39.551,46.387,42.969,0.000,0.000,0.000
502941.277,9.277,37.109,33.203,41.504,61.035,0.000,0.000,0.000
502941.280,9.766,35.645,32.227,40.039,56.641,0.000,0.000,0.000
502941.284,14.160,37.598,36.621,43.457,41.504,0.000,0.000,0.000
502941.288,14.160,35.645,36.621,43.457,41.992,0.000,0.000,0.000
502941.292,10.254,31.738,33.203,35.156,44.434,0.000,0.000,0.000
502941.296,16.113,30.762,29.297,32.227,44.922,0.000,0.000,0.000
502941.300,23.926,30.273,33.691,48.340,41.992,0.000,0.000,0.000
502941.304,21.973,28.320,36.621,37.109,41.992,0.000,0.000,0.000
502941.308,25.391,34.180,41.016,19.043,47.363,0.000,0.000,0.000
502941.312,25.879,37.598,43.457,20.508,48.828,0.000,0.000,0.000
502941.316,24.902,28.320,36.133,16.602,53.711,0.000,0.000,0.000
502941.320,24.902,26.367,30.273,19.531,61.035,0.000,0.000,0.000
502941.324,23.926,32.227,31.250,27.344,49.316,0.000,0.000,0.000
502941.328,26.367,36.133,31.738,26.367,46.875,0.000,0.000,0.000
502941.331,17.090,36.133,25.879,19.043,45.898,0.000,0.000,0.000
502941.335,11.230,38.574,26.367,13.184,41.504,0.000,0.000,0.000
502941.339,6.348,40.527,34.668,4.395,41.016,0.000,0.000,0.000
502941.343,-3.906,40.527,31.250,1.953,43.457,0.000,0.000,0.000
502941.347,1.465,41.992,24.902,13.184,47.363,0.000,0.000,0.000
502941.351,5.859,38.574,29.297,18.555,43.457,0.000,0.000,0.000
502941.355,3.418,39.551,35.645,10.742,42.969,0.000,0.000,0.000
502941.359,3.906,41.016,38.086,18.555,52.246,0.000,0.000,0.000
502941.363,4.883,34.668,32.227,26.855,53.711,0.000,0.000,0.000
502941.367,2.930,32.227,25.879,29.297,43.457,0.000,0.000,0.000
502941.371,-0.977,34.180,24.902,27.832,41.016,0.000,0.000,0.000
502941.375,-5.859,35.156,35.156,27.344,44.922,0.000,0.000,0.000
502941.379,-6.348,30.762,45.410,34.668,45.898,0.000,0.000,0.000
502941.382,-6.836,30.762,45.898,29.297,44.434,0.000,0.000,0.000
502941.386,-5.859,32.227,39.062,19.043,41.504,0.000,0.000,0.000
502941.390,-2.441,34.180,36.133,20.508,37.598,0.000,0.000,0.000
502941.394,-5.371,36.133,30.762,23.926,41.016,0.000,0.000,0.000
502941.398,-0.488,27.832,20.508,29.785,41.016,0.000,0.000,0.000
502941.402,9.766,29.297,20.020,29.297,37.598,0.000,0.000,0.000
502941.406,14.648,35.156,31.250,25.391,29.785,0.000,0.000,0.000
502941.410,10.254,34.668,43.457,29.297,40.527,0.000,0.000,0.000
502941.414,11.230,29.785,38.086,32.227,42.969,0.000,0.000,0.000
502941.418,26.367,30.273,24.902,37.109,31.738,0.000,0.000,0.000
502941.422,33.691,32.227,34.180,40.039,31.250,0.000,0.000,0.000
502941.426,30.273,28.320,42.480,37.109,33.203,0.000,0.000,0.000
502941.430,33.691,31.250,38.574,36.133,44.922,0.000,0.000,0.000
502941.433,33.203,35.156,35.156,37.598,44.922,0.000,0.000,0.000
502941.437,22.949,31.738,33.203,36.621,33.203,0.000,0.000,0.000
502941.441,18.066,27.832,34.668,35.645,34.180,0.000,0.000,0.000
502941.445,19.043,26.855,31.250,35.645,34.668,0.000,0.000,0.000
502941.449,27.344,30.273,24.414,37.109,32.227,0.000,0.000,0.000
502941.453,32.227,33.203,21.973,41.504,41.504,0.000,0.000,0.000
502941.457,31.738,30.762,23.438,48.340,39.551,0.000,0.000,0.000
502941.461,27.344,27.344,28.320,42.480,31.250,0.000,0.000,0.000
502941.465,28.809,27.344,39.062,33.203,33.691,0.000,0.000,0.000
502941.469,31.738,28.809,47.852,34.180,35.156,0.000,0.000,0.000
502941.473,27.832,24.414,49.316,30.762,31.250,0.000,0.000,0.000
502941.477,20.996,23.438,43.945,35.645,29.297,0.000,0.000,0.000
502941.481,19.043,30.273,31.738,41.504,31.250,0.000,0.000,0.000
502941.484,16.602,32.715,29.297,45.898,34.668,0.000,0.000,0.000
502941.488,9.766,25.879,37.598,42.480,29.297,0.000,0.000,0.000
502941.492,0.488,26.855,31.738,34.180,27.344,0.000,0.000,0.000
502941.496,-3.906,30.762,28.320,41.016,30.273,0.000,0.000,0.000
502941.500,-0.977,26.367,32.715,40.039,25.879,0.000,0.000,0.000
502941.504,-0.977,28.320,35.645,35.645,22.461,0.000,0.000,0.000
502941.508,-4.883,29.297,38.086,36.133,20.508,0.000,0.000,0.000
502941.512,-2.441,26.367,37.598,35.156,26.855,0.000,0.000,0.000
502941.516,4.883,26.855,32.227,38.086,25.391,0.000,0.000,0.000
502941.520,8.301,23.438,22.949,41.992,21.484,0.000,0.000,0.000
502941.524,4.883,22.949,26.855,41.504,22.461,0.000,0.000,0.000
502941.528,2.930,27.832,30.273,41.016,16.602,0.000,0.000,0.000
502941.532,8.789,26.367,27.832,45.898,19.531,0.000,0.000,0.000
502941.535,12.695,24.414,33.203,44.434,16.602,0.000,0.000,0.000
502941.539,12.695,28.320,38.086,36.133,2.930,0.000,0.000,0.000
502941.543,5.371,28.809,41.992,33.691,5.371,0.000,0.000,0.000
502941.547,2.930,25.391,40.527,38.086,-3.418,0.000,0.000,0.000
502941.551,6.348,29.785,37.109,38.086,-16.602,0.000,0.000,0.000
502941.555,0.488,31.250,30.273,31.738,-20.508,0.000,0.000,0.000
502941.559,0.000,29.297,25.391,35.645,-20.020,0.000,0.000,0.000
502941.563,5.371,28.320,25.391,38.574,-19.531,0.000,0.000,0.000
502941.567,12.695,30.273,28.809,40.039,-20.020,0.000,0.000,0.000
502941.571,15.625,31.250,28.809,44.434,-19.531,0.000,0.000,0.000
502941.575,7.324,28.320,25.391,38.574,-27.832,0.000,0.000,0.000
502941.579,2.441,26.855,31.738,34.180,-36.133,0.000,0.000,0.000
502941.583,11.230,27.832,40.039,43.457,-29.785,0.000,0.000,0.000
502941.586,5.859,26.367,39.551,43.457,-26.855,0.000,0.000,0.000
502941.590,-7.812,29.297,38.086,35.156,-30.273,0.000,0.000,0.000
502941.594,-7.812,30.273,41.992,40.039,-24.902,0.000,0.000,0.000
502941.598,1.465,27.832,45.898,43.945,-16.602,0.000,0.000,0.000
502941.602,4.883,28.809,41.992,39.551,-18.066,0.000,0.000,0.000
502941.606,10.742,30.273,36.621,37.598,-22.949,0.000,0.000,0.000
502941.610,13.184,32.227,38.574,37.598,-29.785,0.000,0.000,0.000
502941.614,11.230,34.668,42.480,35.156,-30.273,0.000,0.000,0.000
502941.618,18.066,31.738,42.969,39.062,-23.438,0.000,0.000,0.000
502941.622,20.996,29.297,33.203,40.527,-21.973,0.000,0.000,0.000
502941.626,16.113,31.738,24.902,41.504,-30.273,0.000,0.000,0.000
502941.630,18.066,30.762,19.531,41.016,-46.387,0.000,0.000,0.000
502941.634,20.996,27.344,24.414,46.875,-52.246,0.000,0.000,0.000
502941.637,20.508,28.320,36.621,51.758,-49.805,0.000,0.000,0.000
502941.641,17.578,32.715,39.551,35.645,-48.828,0.000,0.000,0.000
502941.645,17.090,31.250,39.062,27.344,-45.898,0.000,0.000,0.000
502941.649,17.578,31.250,39.551,31.738,-56.152,0.000,0.000,0.000
502941.653,19.043,32.227,38.086,30.762,-65.430,0.000,0.000,0.000
502941.657,18.066,29.785,32.227,31.250,-53.223,0.000,0.000,0.000
502941.661,8.789,27.344,27.832,34.180,-54.688,0.000,0.000,0.000
502941.665,13.672,27.832,28.809,32.715,-64.453,0.000,0.000,0.000
502941.669,24.414,28.809,31.250,38.086,-55.176,0.000,0.000,0.000
502941.673,23.438,28.809,31.738,41.992,-53.223,0.000,0.000,0.000
502941.677,18.555,26.367,27.832,48.828,-59.082,0.000,0.000,0.000
502941.681,18.066,23.438,27.832,47.363,-62.012,0.000,0.000,0.000
502941.685,19.531,28.809,31.738,28.320,-62.988,0.000,0.000,0.000
502941.688,21.484,29.297,31.250,23.926,-57.129,0.000,0.000,0.000
502941.692,19.043,22.949,32.715,32.715,-47.363,0.000,0.000,0.000
502941.696,10.742,24.414,38.574,37.109,-57.617,0.000,0.000,0.000
502941.700,7.324,25.879,34.668,35.156,-70.312,0.000,0.000,0.000
502941.704,9.766,23.926,22.461,35.156,-69.336,0.000,0.000,0.000
502941.708,8.301,25.391,26.855,34.668,-73.242,0.000,0.000,0.000
502941.712,6.836,28.809,34.180,32.715,-68.359,0.000,0.000,0.000
502941.716,12.695,30.273,36.133,27.832,-67.383,0.000,0.000,0.000
502941.720,9.277,29.297,39.062,25.391,-74.219,0.000,0.000,0.000
502941.724,4.395,25.391,37.598,23.926,-77.148,0.000,0.000,0.000
502941.728,6.348,21.973,40.527,23.438,-73.730,0.000,0.000,0.000
502941.732,10.742,24.902,42.969,24.414,-70.312,0.000,0.000,0.000
502941.736,11.719,31.738,41.504,31.738,-70.312,0.000,0.000,0.000
502941.739,14.160,34.180,41.016,29.785,-72.754,0.000,0.000,0.000
502941.743,7.324,27.344,36.621,19.043,-74.707,0.000,0.000,0.000
502941.747,0.488,19.043,30.762,19.531,-74.707,0.000,0.000,0.000
502941.751,2.441,20.996,28.320,24.414,-66.895,0.000,0.000,0.000
502941.755,2.441,24.902,29.785,25.391,-60.547,0.000,0.000,0.000
502941.759,3.418,28.320,38.574,28.320,-63.477,0.000,0.000,0.000
502941.763,-4.395,25.879,39.062,24.414,-62.012,0.000,0.000,0.000
502941.767,-2.930,21.484,31.250,22.461,-59.570,0.000,0.000,0.000
502941.771,3.418,21.973,33.203,26.855,-49.805,0.000,0.000,0.000
502941.775,3.418,24.902,43.945,22.461,-37.109,0.000,0.000,0.000
502941.779,2.441,26.367,45.898,23.926,-38.574,0.000,0.000,0.000
502941.783,6.836,24.902,41.016,25.391,-36.133,0.000,0.000,0.000
502941.787,9.277,25.879,36.621,25.879,-30.273,0.000,0.000,0.000
502941.790,8.301,23.926,36.133,30.762,-21.973,0.000,0.000,0.000
502941.794,1.465,22.949,36.621,30.273,-14.648,0.000,0.000,0.000
502941.798,-5.371,24.414,35.645,25.391,-7.324,0.000,0.000,0.000
502941.802,-1.953,26.855,36.133,26.855,0.488,0.000,0.000,0.000
502941.806,5.859,26.367,32.227,28.809,-3.906,0.000,0.000,0.000
502941.810,0.000,25.391,30.273,25.879,-10.254,0.000,0.000,0.000
502941.814,-14.648,29.297,29.785,20.020,-15.137,0.000,0.000,0.000
502941.818,-16.602,29.297,24.902,21.484,-9.277,0.000,0.000,0.000
502941.822,-11.719,27.832,26.367,21.484,-12.207,0.000,0.000,0.000
502941.826,-8.789,31.250,29.785,18.555,-7.812,0.000,0.000,0.000
502941.830,-4.395,26.855,29.297,21.973,4.883,0.000,0.000,0.000
502941.834,2.441,24.902,33.691,20.508,1.953,0.000,0.000,0.000
502941.838,7.324,27.344,39.551,23.438,12.695,0.000,0.000,0.000
502941.841,12.207,28.320,36.621,30.762,26.855,0.000,0.000,0.000
502941.845,11.719,24.414,31.738,27.344,34.668,0.000,0.000,0.000
502941.849,13.184,20.020,35.156,24.902,39.062,0.000,0.000,0.000
502941.853,13.184,23.438,40.527,25.391,33.691,0.000,0.000,0.000
502941.857,8.789,25.391,41.016,26.855,36.621,0.000,0.000,0.000
502941.861,9.277,25.391,38.574,30.762,44.922,0.000,0.000,0.000
502941.865,11.230,26.855,39.062,29.297,52.246,0.000,0.000,0.000
502941.869,12.695,29.785,34.668,30.762,48.340,0.000,0.000,0.000
502941.873,16.113,33.203,30.762,29.297,41.504,0.000,0.000,0.000
502941.877,16.602,37.109,34.180,22.949,44.922,0.000,0.000,0.000
502941.881,9.277,31.738,37.109,21.484,44.434,0.000,0.000,0.000
502941.885,10.254,26.367,39.062,21.484,53.711,0.000,0.000,0.000
502941.889,8.301,25.391,33.203,22.949,59.082,0.000,0.000,0.000
502941.892,0.000,22.949,19.043,18.555,42.480,0.000,0.000,0.000
502941.896,-6.836,23.926,19.531,11.719,39.062,0.000,0.000,0.000
502941.900,-2.930,26.367,31.250,9.766,40.527,0.000,0.000,0.000
502941.904,5.859,28.320,40.527,12.695,43.457,0.000,0.000,0.000
502941.908,2.930,27.832,43.945,15.137,45.410,0.000,0.000,0.000
502941.912,-0.977,24.902,39.062,10.742,43.945,0.000,0.000,0.000
502941.916,3.418,25.879,35.156,11.719,51.758,0.000,0.000,0.000
502941.920,7.812,26.367,35.645,20.508,63.477,0.000,0.000,0.000
502941.924,6.836,27.832,33.203,22.949,56.152,0.000,0.000,0.000
502941.928,6.348,28.809,29.297,20.508,48.340,0.000,0.000,0.000
502941.932,7.324,32.227,30.273,22.949,54.199,0.000,0.000,0.000
502941.936,4.883,33.203,36.133,27.832,60.547,0.000,0.000,0.000
502941.940,2.930,29.785,39.551,28.320,74.707,0.000,0.000,0.000
502941.943,-1.465,28.320,38.574,24.902,71.777,0.000,0.000,0.000
502941.947,-1.953,28.809,39.551,21.973,57.129,0.000,0.000,0.000
502941.951,5.859,31.250,38.086,27.832,62.500,0.000,0.000,0.000
502941.955,5.859,32.715,34.180,32.227,72.266,0.000,0.000,0.000
502941.959,-3.906,29.297,32.715,23.926,64.453,0.000,0.000,0.000
502941.963,-8.301,25.391,31.250,19.043,64.941,0.000,0.000,0.000
502941.967,-3.418,23.438,25.879,17.090,64.941,0.000,0.000,0.000
502941.971,-4.395,20.508,20.996,16.602,44.922,0.000,0.000,0.000
502941.975,-0.488,24.414,19.531,20.508,47.363,0.000,0.000,0.000
502941.979,0.977,29.785,20.508,23.438,57.129,0.000,0.000,0.000
502941.983,2.441,32.227,30.273,22.461,58.594,0.000,0.000,0.000
502941.987,15.625,35.645,38.574,19.043,62.988,0.000,0.000,0.000
502941.991,14.160,34.668,37.598,18.066,60.059,0.000,0.000,0.000
502941.994,0.977,31.250,36.621,15.625,63.965,0.000,0.000,0.000
502941.998,4.883,30.762,36.133,17.090,61.035,0.000,0.000,0.000
502942.002,10.254,31.738,30.762,25.879,54.199,0.000,0.000,0.000
502942.006,8.789,30.273,33.691,27.344,56.641,0.000,0.000,0.000
502942.010,5.859,28.320,38.574,22.949,58.594,0.000,0.000,0.000
502942.014,0.488,26.367,37.598,19.531,62.988,0.000,0.000,0.000
502942.018,-1.953,25.391,40.039,20.020,67.871,0.000,0.000,0.000
502942.022,-0.977,27.832,40.039,25.391,59.082,0.000,0.000,0.000
502942.026,4.883,27.344,39.551,26.855,55.176,0.000,0.000,0.000
502942.030,2.930,26.367,39.062,23.438,60.059,0.000,0.000,0.000
502942.034,9.277,30.273,35.645,23.926,72.754,0.000,0.000,0.000
502942.038,21.973,30.273,23.926,28.320,68.848,0.000,0.000,0.000
502942.042,26.367,33.203,23.926,23.926,60.059,0.000,0.000,0.000
502942.045,29.297,33.203,37.109,18.555,68.848,0.000,0.000,0.000
502942.049,31.250,28.320,40.039,20.508,66.406,0.000,0.000,0.000
502942.053,34.668,30.273,38.086,22.949,63.477,0.000,0.000,0.000
502942.057,34.668,32.227,35.156,26.367,68.848,0.000,0.000,0.000
502942.061,32.227,29.785,27.832,24.902,62.500,0.000,0.000,0.000
502942.065,36.621,28.809,31.250,21.973,66.406,0.000,0.000,0.000
502942.069,41.016,27.344,41.992,25.391,66.406,0.000,0.000,0.000
502942.073,41.504,26.367,47.852,37.598,61.035,0.000,0.000,0.000
502942.077,39.062,26.855,45.410,35.645,69.336,0.000,0.000,0.000
502942.081,35.645,28.320,40.527,26.367,65.430,0.000,0.000,0.000
502942.085,36.621,28.320,41.016,27.832,56.641,0.000,0.000,0.000
502942.089,44.434,24.902,39.062,26.855,55.664,0.000,0.000,0.000
502942.092,44.922,25.391,35.156,22.461,53.711,0.000,0.000,0.000
502942.096,30.273,25.879,33.203,23.926,58.105,0.000,0.000,0.000
502942.100,31.738,23.926,36.621,26.855,63.965,0.000,0.000,0.000
502942.104,39.551,21.973,39.551,27.344,55.176,0.000,0.000,0.000
502942.108,38.574,20.996,37.109,28.809,46.875,0.000,0.000,0.000
502942.112,26.855,23.438,39.062,23.438,37.109,0.000,0.000,0.000
502942.116,24.902,26.367,48.828,28.320,24.414,0.000,0.000,0.000
502942.120,30.762,21.484,50.781,35.156,18.066,0.000,0.000,0.000
502942.124,31.738,20.508,43.945,36.133,16.602,0.000,0.000,0.000
502942.128,31.250,28.809,44.434,36.133,30.762,0.000,0.000,0.000
502942.132,29.297,32.715,44.922,36.621,56.641,0.000,0.000,0.000
502942.136,28.809,27.832,38.086,36.621,63.965,0.000,0.000,0.000
502942.140,30.273,27.344,35.156,39.551,69.824,0.000,0.000,0.000
502942.143,25.391,24.902,28.809,31.250,79.590,0.000,0.000,0.000
502942.147,20.996,25.391,30.762,34.668,71.289,0.000,0.000,0.000
502942.151,22.949,23.438,44.922,31.250,72.266,2.000,1.000,0.000
502942.155,24.414,19.531,49.316,22.461,82.031,0.000,0.000,0.000
502942.159,25.879,20.508,49.316,31.250,87.891,0.000,0.000,0.000
502942.163,20.508,23.926,53.711,21.973,87.402,0.000,0.000,0.000
502942.167,27.344,26.855,55.176,27.832,84.473,0.000,0.000,0.000
502942.171,31.738,28.320,49.805,38.574,80.078,0.000,0.000,0.000
502942.175,31.738,27.344,45.410,29.297,72.266,0.000,0.000,0.000
502942.179,27.344,26.855,47.363,17.090,65.918,0.000,0.000,0.000
502942.183,11.719,27.344,48.340,-1.953,62.988,0.000,0.000,0.000
502942.187,10.742,26.367,48.340,15.137,63.965,0.000,0.000,0.000
502942.191,20.020,26.367,53.711,30.273,59.082,0.000,0.000,0.000
502942.194,17.090,26.855,51.758,8.301,47.852,0.000,0.000,0.000
502942.198,11.719,27.344,44.922,0.977,37.598,0.000,0.000,0.000
502942.202,15.137,31.738,40.527,8.789,37.109,0.000,0.000,0.000
502942.206,15.137,33.203,41.504,13.672,41.992,0.000,0.000,0.000
502942.210,9.766,24.414,40.527,12.695,30.762,0.000,0.000,0.000
502942.214,5.859,22.949,41.992,8.789,21.484,0.000,0.000,0.000
502942.218,13.184,22.949,47.852,15.137,26.367,0.000,0.000,0.000
502942.222,15.625,24.902,48.828,20.508,41.016,0.000,0.000,0.000
502942.226,11.719,30.762,41.992,16.602,36.621,0.000,0.000,0.000
502942.230,12.695,31.738,40.039,14.648,19.531,0.000,0.000,0.000
502942.234,20.508,32.715,41.016,5.859,31.738,0.000,0.000,0.000
502942.238,25.879,34.180,36.621,12.207,43.457,0.000,0.000,0.000
502942.242,29.785,36.133,40.039,24.902,40.039,0.000,0.000,0.000
502942.245,26.367,41.016,48.340,20.020,45.410,0.000,0.000,0.000
502942.249,24.902,33.203,49.316,15.137,44.922,0.000,0.000,0.000
502942.253,25.879,23.438,48.828,18.555,45.410,0.000,0.000,0.000
502942.257,14.648,25.879,46.875,22.949,55.176,0.000,0.000,0.000
502942.261,8.789,29.297,41.992,20.996,44.922,0.000,0.000,0.000
502942.265,12.207,31.250,41.992,19.531,34.668,0.000,0.000,0.000
502942.269,18.555,29.297,39.062,23.926,42.969,0.000,0.000,0.000
502942.273,18.555,30.762,33.203,19.531,26.855,0.000,0.000,0.000
502942.277,15.625,31.250,29.785,17.578,22.949,0.000,0.000,0.000
502942.281,13.184,29.785,37.598,13.672,33.691,0.000,0.000,0.000
502942.285,12.695,29.297,47.852,7.812,31.738,0.000,0.000,0.000
502942.289,10.742,30.273,50.781,15.137,30.273,0.000,0.000,0.000
502942.293,9.766,31.738,52.246,26.367,33.691,0.000,0.000,0.000
502942.296,16.602,33.691,51.758,22.461,33.691,0.000,0.000,0.000
502942.300,22.949,34.668,40.039,7.324,36.133,0.000,0.000,0.000
502942.304,23.926,32.715,28.320,13.184,41.992,0.000,0.000,0.000
502942.308,29.297,34.180,26.367,14.160,42.969,0.000,0.000,0.000
502942.312,26.367,29.785,32.227,8.789,39.551,0.000,0.000,0.000
502942.316,23.926,25.879,34.668,5.859,39.062,0.000,0.000,0.000
502942.320,23.926,25.391,28.809,2.441,41.016,0.000,0.000,0.000
502942.324,26.855,22.949,36.621,9.766,33.203,0.000,0.000,0.000
502942.328,24.902,22.461,44.434,18.066,26.855,0.000,0.000,0.000
502942.332,19.531,28.809,44.922,16.113,32.715,0.000,0.000,0.000
502942.336,18.555,24.902,43.457,12.695,41.992,0.000,0.000,0.000
502942.340,17.578,15.137,36.133,13.184,35.645,0.000,0.000,0.000
502942.344,16.113,22.949,36.133,19.043,30.273,0.000,0.000,0.000
502942.347,19.043,23.926,35.645,22.949,38.086,0.000,0.000,0.000
502942.351,23.438,24.414,24.902,20.020,30.762,0.000,0.000,0.000
502942.355,30.762,31.250,26.367,20.020,35.645,0.000,0.000,0.000
502942.359,35.156,31.250,39.551,20.020,54.199,0.000,0.000,0.000
502942.363,22.461,27.832,44.922,11.230,53.711,0.000,0.000,0.000
502942.367,14.160,24.414,46.387,7.812,42.969,0.000,0.000,0.000
502942.371,19.043,22.949,43.457,14.160,35.156,0.000,0.000,0.000
502942.375,23.438,23.926,39.062,20.020,27.832,0.000,0.000,0.000
502942.379,16.113,23.926,39.551,10.254,25.879,0.000,0.000,0.000
502942.383,15.625,22.949,37.109,12.695,38.574,0.000,0.000,0.000
502942.387,27.832,23.438,38.086,23.438,35.645,0.000,0.000,0.000
502942.391,31.738,21.973,40.527,23.926,32.715,0.000,0.000,0.000
502942.395,27.832,20.508,34.180,18.066,41.016,0.000,0.000,0.000
502942.398,26.855,20.996,32.227,12.695,41.016,0.000,0.000,0.000
502942.402,28.809,25.391,31.738,20.020,46.875,0.000,0.000,0.000
502942.406,27.832,28.320,33.691,23.926,45.898,0.000,0.000,0.000
502942.410,25.391,24.414,36.133,20.996,38.574,0.000,0.000,0.000
502942.414,17.578,27.344,35.156,14.160,39.062,0.000,0.000,0.000
502942.418,14.160,28.809,41.504,9.277,40.039,0.000,0.000,0.000
502942.422,22.949,24.902,46.387,13.672,40.039,0.000,0.000,0.000
502942.426,25.879,26.855,41.016,17.578,40.527,0.000,0.000,0.000
502942.430,20.508,24.414,37.109,13.672,44.922,0.000,0.000,0.000
502942.434,23.926,29.297,37.598,8.789,48.340,0.000,0.000,0.000
502942.438,22.949,33.203,37.109,7.812,39.062,0.000,0.000,0.000
502942.442,20.996,30.762,41.016,8.789,30.762,0.000,0.000,0.000
502942.446,20.508,31.250,40.527,7.324,29.297,0.000,0.000,0.000
502942.449,16.113,30.762,32.715,1.465,28.320,0.000,0.000,0.000
502942.453,17.090,31.250,32.715,0.000,38.086,0.000,0.000,0.000
502942.457,15.137,27.832,35.156,5.859,40.039,0.000,0.000,0.000
502942.461,11.230,26.367,35.156,4.395,31.738,0.000,0.000,0.000
502942.465,5.859,22.949,37.598,1.953,32.227,0.000,0.000,0.000
502942.469,7.324,23.926,38.574,2.930,41.992,0.000,0.000,0.000
502942.473,11.230,25.879,36.621,2.930,40.039,0.000,0.000,0.000
502942.477,13.184,21.484,34.668,6.348,35.156,0.000,0.000,0.000
502942.481,21.484,20.508,34.180,10.742,43.945,0.000,0.000,0.000
502942.485,30.762,22.949,32.715,12.207,39.551,0.000,0.000,0.000
502942.489,32.715,25.879,34.180,18.066,37.598,0.000,0.000,0.000
502942.493,33.691,27.832,39.062,25.391,52.734,0.000,0.000,0.000
502942.497,29.297,26.367,35.645,18.555,46.875,0.000,0.000,0.000
502942.500,23.926,23.438,28.320,12.695,39.062,0.000,0.000,0.000
502942.504,25.879,24.902,32.715,20.996,29.785,0.000,0.000,0.000
502942.508,26.855,29.297,38.574,23.438,25.879,0.000,0.000,0.000
502942.512,21.973,29.297,36.133,17.090,26.367,0.000,0.000,0.000
502942.516,19.043,28.320,38.574,14.648,23.926,0.000,0.000,0.000
502942.520,25.879,28.809,45.898,16.602,32.227,0.000,0.000,0.000
502942.524,26.367,28.320,44.434,17.090,30.762,0.000,0.000,0.000
502942.528,25.879,30.762,32.715,20.508,36.133,0.000,0.000,0.000
502942.532,22.949,32.227,26.855,14.160,41.504,0.000,0.000,0.000
502942.536,23.438,33.203,34.180,15.137,39.551,0.000,0.000,0.000
502942.540,24.414,31.250,41.504,23.438,33.691,0.000,0.000,0.000
502942.544,18.555,28.809,42.969,20.508,21.484,0.000,0.000,0.000
502942.548,24.414,29.785,41.504,21.484,25.879,0.000,0.000,0.000
502942.551,23.438,32.227,43.945,18.066,31.250,0.000,0.000,0.000
502942.555,18.555,34.668,46.875,25.391,31.250,0.000,0.000,0.000
502942.559,23.438,33.203,43.457,33.203,35.645,0.000,0.000,0.000
502942.563,21.973,35.645,35.645,25.391,37.598,0.000,0.000,0.000
502942.567,24.414,38.574,33.203,21.973,36.621,0.000,0.000,0.000
502942.571,24.414,35.645,40.039,22.461,33.203,0.000,0.000,0.000
502942.575,23.438,38.086,39.551,25.879,33.203,0.000,0.000,0.000
502942.579,25.391,40.039,33.691,26.367,31.738,0.000,0.000,0.000
502942.583,24.414,38.574,35.645,20.996,29.785,0.000,0.000,0.000
502942.587,31.738,40.527,42.480,22.949,42.480,0.000,0.000,0.000
502942.591,35.645,40.039,45.898,24.902,43.457,0.000,0.000,0.000
502942.595,27.832,35.645,44.434,20.996,33.203,0.000,0.000,0.000
502942.599,23.926,37.109,38.574,20.508,37.109,0.000,0.000,0.000
502942.602,28.320,39.062,27.832,23.926,28.809,0.000,0.000,0.000
502942.606,27.832,36.621,31.738,17.090,23.926,0.000,0.000,0.000
502942.610,25.879,35.645,41.504,12.207,37.109,0.000,0.000,0.000
502942.614,21.484,30.273,44.434,5.859,24.902,0.000,0.000,0.000
502942.618,21.973,27.344,41.992,-4.395,10.254,0.000,0.000,0.000
502942.622,21.973,31.250,37.109,3.418,30.273,0.000,0.000,0.000
502942.626,21.484,36.621,38.574,10.742,39.551,0.000,0.000,0.000
502942.630,19.043,36.621,36.133,11.230,25.391,0.000,0.000,0.000
502942.634,15.137,35.156,41.016,12.207,24.902,0.000,0.000,0.000
502942.638,22.949,38.574,49.805,17.090,25.879,0.000,0.000,0.000
502942.642,28.809,39.062,37.109,20.508,25.391,0.000,0.000,0.000
502942.646,25.391,36.621,27.832,17.578,24.902,0.000,0.000,0.000
502942.650,20.020,35.645,28.320,15.625,30.273,0.000,0.000,0.000
502942.653,24.902,41.992,32.227,18.066,39.551,0.000,0.000,0.000
502942.657,33.203,41.992,43.945,26.367,38.574,0.000,0.000,0.000
502942.661,32.227,36.133,45.898,25.879,35.156,0.000,0.000,0.000
502942.665,29.297,36.621,46.875,26.367,41.992,0.000,0.000,0.000
502942.669,32.715,37.598,48.828,26.367,48.828,0.000,0.000,0.000
502942.673,35.156,37.598,44.922,20.996,49.805,0.000,0.000,0.000
502942.677,34.668,39.062,40.039,26.367,49.805,0.000,0.000,0.000
502942.681,27.344,39.062,36.133,29.785,51.758,0.000,0.000,0.000
502942.685,26.367,38.574,36.621,33.203,46.387,0.000,0.000,0.000
502942.689,27.832,34.180,34.180,36.133,39.551,0.000,0.000,0.000
502942.693,28.320,27.832,32.715,28.320,35.645,0.000,0.000,0.000
502942.697,24.414,25.391,39.062,25.879,32.715,0.000,0.000,0.000
502942.701,26.855,27.344,41.992,34.180,40.039,0.000,0.000,0.000
502942.704,35.645,32.227,36.621,43.945,50.293,0.000,0.000,0.000
502942.708,26.367,33.691,28.320,44.922,49.805,0.000,0.000,0.000
502942.712,19.531,32.227,31.738,38.574,38.574,0.000,0.000,0.000
502942.716,22.461,30.273,34.668,38.574,37.598,0.000,0.000,0.000
502942.720,26.367,33.203,32.715,39.062,46.387,0.000,0.000,0.000
502942.724,34.180,36.133,38.086,37.598,51.270,0.000,0.000,0.000
502942.728,36.621,31.738,36.621,40.527,61.523,0.000,0.000,0.000
502942.732,31.738,31.250,33.691,40.039,68.848,0.000,0.000,0.000
502942.736,37.109,32.715,41.992,36.621,62.500,0.000,0.000,0.000
502942.740,40.039,33.203,46.875,47.363,70.312,0.000,0.000,0.000
502942.744,36.621,32.715,42.480,44.922,64.941,0.000,0.000,0.000
502942.748,34.180,34.668,35.156,44.922,46.875,0.000,0.000,0.000
502942.752,29.297,31.738,34.668,38.574,46.387,0.000,0.000,0.000
502942.755,28.320,30.762,35.645,23.438,46.387,0.000,0.000,0.000
502942.759,27.344,29.297,31.738,32.227,50.781,0.000,0.000,0.000
502942.763,20.508,22.461,30.762,32.227,49.316,0.000,0.000,0.000
502942.767,14.160,29.297,33.691,28.320,48.340,0.000,0.000,0.000
502942.771,15.625,30.273,35.645,27.832,47.852,0.000,0.000,0.000
502942.775,14.648,27.344,30.762,27.832,35.156,0.000,0.000,0.000
502942.779,11.230,30.273,23.438,25.391,22.949,0.000,0.000,0.000
502942.783,13.184,22.949,21.484,20.996,20.020,0.000,0.000,0.000
502942.787,15.625,16.602,31.250,20.996,22.461,0.000,0.000,0.000
502942.791,13.184,18.555,41.504,21.973,22.461,0.000,0.000,0.000
502942.795,16.113,20.508,43.945,18.066,31.250,0.000,0.000,0.000
502942.799,15.625,16.602,43.945,19.531,33.203,0.000,0.000,0.000
502942.803,16.602,16.602,36.621,26.855,39.551,0.000,0.000,0.000
502942.806,24.414,19.043,28.320,32.715,63.965,0.000,0.000,0.000
502942.810,27.344,17.090,27.344,28.320,63.477,0.000,0.000,0.000
502942.814,26.855,16.602,31.738,23.438,57.617,0.000,0.000,0.000
502942.818,26.855,16.602,35.156,25.879,59.082,0.000,0.000,0.000
502942.822,27.344,15.625,37.598,24.902,58.594,0.000,0.000,0.000
502942.826,25.879,19.531,37.109,22.949,51.270,0.000,0.000,0.000
502942.830,19.531,19.043,33.203,20.020,30.762,0.000,0.000,0.000
502942.834,17.090,14.160,33.691,21.484,38.086,0.000,0.000,0.000
502942.838,27.832,14.160,28.320,22.949,41.992,0.000,0.000,0.000
502942.842,32.715,18.066,24.902,25.879,45.410,0.000,0.000,0.000
502942.846,18.555,12.695,34.180,23.926,48.340,0.000,0.000,0.000
502942.850,13.672,10.254,37.109,11.719,34.668,0.000,0.000,0.000
502942.854,20.020,12.695,36.621,15.137,28.320,0.000,0.000,0.000
502942.857,22.949,15.625,43.457,25.391,32.715,0.000,0.000,0.000
502942.861,18.555,14.160,42.480,22.461,27.832,0.000,0.000,0.000
502942.865,13.184,8.301,39.551,15.137,20.508,0.000,0.000,0.000
502942.869,14.648,8.789,31.738,9.277,19.531,0.000,0.000,0.000
502942.873,9.766,9.277,24.902,0.977,15.137,0.000,0.000,0.000
502942.877,9.277,5.371,32.227,0.977,12.695,0.000,0.000,0.000
502942.881,10.742,4.883,40.039,2.930,8.789,0.000,0.000,0.000
502942.885,14.648,7.812,41.992,3.418,16.113,0.000,0.000,0.000
502942.889,27.344,10.254,41.016,1.953,24.414,0.000,0.000,0.000
502942.893,38.086,14.648,40.527,13.672,10.254,0.000,0.000,0.000
502942.897,40.527,14.648,39.062,17.090,5.371,0.000,0.000,0.000
502942.901,35.645,9.277,36.621,3.418,20.996,0.000,0.000,0.000
502942.905,39.551,7.812,35.156,10.254,40.527,0.000,0.000,0.000
502942.908,43.945,13.672,38.086,21.973,55.664,0.000,0.000,0.000
502942.912,38.086,15.137,27.344,22.949,50.293,0.000,0.000,0.000
502942.916,31.250,14.160,20.996,19.043,35.645,0.000,0.000,0.000
502942.920,26.855,11.719,30.762,16.113,30.273,0.000,0.000,0.000
502942.924,23.926,8.301,30.273,12.207,26.855,0.000,0.000,0.000
502942.928,21.484,13.672,33.203,7.324,22.461,0.000,0.000,0.000
502942.932,17.090,15.625,33.691,1.465,15.137,0.000,0.000,0.000
502942.936,16.602,10.742,30.273,7.324,20.508,0.000,0.000,0.000
502942.940,20.020,9.766,30.762,11.230,18.555,0.000,0.000,0.000
502942.944,17.578,11.719,33.691,0.000,0.488,0.000,0.000,0.000
502942.948,13.184,11.719,34.180,-9.277,-2.930,0.000,0.000,0.000
502942.952,14.648,9.277,31.250,-7.324,6.348,0.000,0.000,0.000
502942.956,17.090,6.836,32.715,-1.953,4.395,0.000,0.000,0.000
502942.959,14.160,4.395,34.180,10.742,0.000,0.000,0.000,0.000
502942.963,14.648,1.465,33.691,16.113,-9.766,0.000,0.000,0.000
502942.967,16.602,2.441,29.297,5.859,-26.855,0.000,0.000,0.000
502942.971,20.020,9.766,21.973,11.230,-23.438,0.000,0.000,0.000
502942.975,30.762,13.672,24.414,25.391,-19.043,0.000,0.000,0.000
502942.979,32.227,16.113,31.738,24.414,-16.602,0.000,0.000,0.000
502942.983,23.438,19.531,33.691,6.836,-27.344,0.000,0.000,0.000
502942.987,24.902,20.508,37.109,0.488,-32.715,0.000,0.000,0.000
502942.991,24.414,12.695,41.504,1.465,-28.809,0.000,0.000,0.000
502942.995,20.996,10.742,39.062,0.000,-41.016,0.000,0.000,0.000
502942.999,23.926,16.602,38.086,2.930,-40.039,0.000,0.000,0.000
502943.003,25.879,12.207,34.180,-2.930,-29.297,0.000,0.000,0.000
502943.007,24.902,8.789,26.367,-5.859,-36.133,0.000,0.000,0.000
502943.010,24.414,11.230,29.297,1.465,-43.457,0.000,0.000,0.000
502943.014,22.461,10.742,24.902,0.488,-36.133,0.000,0.000,0.000
502943.018,14.648,7.812,20.020,-4.883,-36.621,0.000,0.000,0.000
502943.022,15.625,9.766,29.785,-5.859,-39.551,0.000,0.000,0.000
502943.026,19.043,7.324,34.180,-6.348,-43.945,0.000,0.000,0.000
502943.030,13.672,6.348,34.668,-8.789,-49.805,0.000,0.000,0.000
502943.034,11.719,10.742,39.062,-4.395,-50.293,0.000,0.000,0.000
502943.038,13.672,10.742,34.668,2.441,-51.270,0.000,0.000,0.000
502943.042,11.719,13.184,23.926,3.418,-60.547,0.000,0.000,0.000
502943.046,14.160,18.555,20.996,6.836,-62.500,0.000,0.000,0.000
502943.050,18.555,15.625,23.438,-2.930,-49.316,0.000,0.000,0.000
502943.054,17.578,11.719,27.344,-12.207,-41.504,0.000,0.000,0.000
502943.058,13.184,11.719,27.832,-6.348,-49.805,0.000,0.000,0.000
502943.061,17.090,7.812,30.273,0.977,-56.641,0.000,0.000,0.000
502943.065,12.695,7.812,37.598,0.977,-57.129,0.000,0.000,0.000
502943.069,8.301,9.766,43.945,0.488,-60.059,0.000,0.000,0.000
502943.073,11.719,8.301,35.645,-1.465,-58.105,0.000,0.000,0.000
502943.077,14.160,10.254,25.879,-3.418,-51.270,0.000,0.000,0.000
502943.081,20.508,11.230,32.227,-1.465,-48.828,0.000,0.000,0.000
502943.085,26.367,8.301,33.203,-9.277,-39.551,0.000,0.000,0.000
502943.089,37.598,9.766,30.273,-11.230,-24.414,0.000,0.000,0.000
502943.093,45.410,9.766,30.273,-5.371,-17.578,0.000,0.000,0.000
502943.097,42.480,9.277,29.297,-5.371,-26.367,0.000,0.000,0.000
502943.101,45.898,9.277,28.320,-4.883,-32.715,0.000,0.000,0.000
502943.105,52.246,10.254,31.250,-0.488,-29.785,0.000,0.000,0.000
502943.109,44.922,13.672,33.691,0.488,-31.250,0.000,0.000,0.000
502943.112,39.551,12.207,35.645,-0.488,-23.926,0.000,0.000,0.000
502943.116,42.480,12.207,34.180,2.441,-19.043,0.000,0.000,0.000
502943.120,43.457,12.695,31.250,5.859,-20.508,0.000,0.000,0.000
502943.124,37.109,9.766,35.156,11.230,-20.996,0.000,0.000,0.000
502943.128,33.691,9.766,41.992,13.672,-5.371,0.000,0.000,0.000
502943.132,34.668,7.812,44.922,6.348,-7.324,0.000,0.000,0.000
502943.136,26.855,6.348,39.551,-6.836,-30.273,0.000,0.000,0.000
502943.140,22.949,6.348,35.645,-3.418,-23.438,0.000,0.000,0.000
502943.144,27.832,5.859,38.574,12.207,-11.719,0.000,0.000,0.000
502943.148,32.227,7.324,45.410,16.602,-5.859,0.000,0.000,0.000
502943.152,34.180,5.859,43.457,7.324,11.719,0.000,0.000,0.000
502943.156,40.039,4.883,41.992,5.859,20.996,0.000,0.000,0.000
502943.160,47.363,4.395,45.410,11.230,22.949,0.000,0.000,0.000
502943.163,44.922,6.348,38.086,16.113,28.809,0.000,0.000,0.000
502943.167,35.156,7.324,39.062,17.578,22.461,0.000,0.000,0.000
502943.171,34.668,8.789,50.781,16.602,21.973,0.000,0.000,0.000
502943.175,36.133,9.766,51.270,20.508,34.668,0.000,0.000,0.000
502943.179,33.203,11.719,45.898,19.531,38.574,0.000,0.000,0.000
502943.183,27.832,12.695,36.133,20.996,32.227,0.000,0.000,0.000
502943.187,22.461,11.230,31.250,25.391,36.621,0.000,0.000,0.000
502943.191,24.414,9.766,42.480,25.391,43.945,0.000,0.000,0.000
502943.195,27.344,12.207,43.457,25.391,49.805,0.000,0.000,0.000
502943.199,27.344,15.625,34.180,28.320,50.781,0.000,0.000,0.000
502943.203,28.809,15.625,30.762,26.367,40.527,0.000,0.000,0.000
502943.207,25.879,11.719,36.621,25.879,33.203,0.000,0.000,0.000
502943.211,21.973,11.719,44.922,32.227,32.715,0.000,0.000,0.000
502943.214,17.578,12.207,47.852,22.949,45.898,0.000,0.000,0.000
502943.218,17.578,12.207,46.875,16.113,38.574,0.000,0.000,0.000
502943.222,23.438,12.695,46.387,17.090,28.809,0.000,0.000,0.000
502943.226,24.902,10.254,46.875,12.207,38.574,0.000,0.000,0.000
502943.230,26.367,8.789,47.363,12.695,41.504,0.000,0.000,0.000
502943.234,25.879,10.742,42.480,18.555,46.875,0.000,0.000,0.000
502943.238,27.832,13.184,37.109,19.043,43.945,0.000,0.000,0.000
502943.242,32.715,15.137,38.086,16.602,39.551,0.000,0.000,0.000
502943.246,31.250,13.672,36.133,14.648,34.668,0.000,0.000,0.000
502943.250,27.344,14.160,31.250,13.184,31.738,0.000,0.000,0.000
502943.254,28.320,13.184,36.621,11.230,34.668,0.000,0.000,0.000
502943.258,31.250,11.230,36.621,9.277,39.062,0.000,0.000,0.000
502943.262,32.715,17.090,31.738,17.578,45.410,0.000,0.000,0.000
502943.265,28.320,21.484,35.645,24.902,50.293,0.000,0.000,0.000
502943.269,25.879,22.949,39.062,19.043,51.270,0.000,0.000,0.000
502943.273,32.227,26.367,42.480,22.461,54.199,0.000,0.000,0.000
502943.277,31.738,23.438,34.180,25.879,50.781,0.000,0.000,0.000
502943.281,25.879,18.066,31.738,23.438,37.598,0.000,0.000,0.000
502943.285,18.555,18.066,41.016,14.160,42.969,0.000,0.000,0.000
502943.289,21.973,16.113,45.410,9.766,50.781,0.000,0.000,0.000
502943.293,28.809,11.230,46.387,26.367,50.293,0.000,0.000,0.000
502943.297,23.926,9.277,45.410,29.297,48.828,0.000,0.000,0.000
502943.301,19.043,9.277,40.527,27.344,61.035,0.000,0.000,0.000
502943.305,18.066,10.254,37.598,23.926,62.012,0.000,0.000,0.000
502943.309,17.578,11.230,38.574,27.344,48.828,0.000,0.000,0.000
502943.313,18.066,8.789,37.598,30.762,50.781,0.000,0.000,0.000
502943.316,12.695,10.742,38.574,19.531,51.270,0.000,0.000,0.000
502943.320,14.648,15.137,38.574,21.484,57.129,0.000,0.000,0.000
502943.324,22.949,13.184,35.156,27.832,67.383,0.000,0.000,0.000
502943.328,18.066,12.207,41.016,35.645,70.312,0.000,0.000,0.000
502943.332,1.465,11.719,43.457,41.992,66.406,0.000,0.000,0.000
502943.336,-5.859,15.625,39.062,32.227,60.547,0.000,0.000,0.000
502943.340,-3.906,14.648,36.621,18.555,44.922,0.000,0.000,0.000
502943.344,-9.277,9.766,35.156,27.344,36.133,0.000,0.000,0.000
502943.348,-15.625,13.184,42.480,31.738,47.363,0.000,0.000,0.000
502943.352,-24.414,16.113,45.898,23.926,36.133,0.000,0.000,0.000
502943.356,-25.391,14.160,43.457,23.438,24.902,0.000,0.000,0.000
502943.360,-20.996,10.254,40.527,34.668,32.715,0.000,0.000,0.000
502943.364,-25.391,8.301,36.133,29.785,41.504,0.000,0.000,0.000
502943.367,-35.645,9.277,34.668,20.508,38.086,0.000,0.000,0.000
502943.371,-30.762,10.254,36.621,27.832,30.762,0.000,0.000,0.000
502943.375,-24.902,9.277,40.039,29.785,31.250,0.000,0.000,0.000
502943.379,-21.973,9.277,39.551,28.320,19.043,0.000,0.000,0.000
502943.383,-16.602,10.254,32.715,26.855,15.625,0.000,0.000,0.000
502943.387,-11.230,6.836,35.156,10.254,22.461,0.000,0.000,0.000
502943.391,0.977,6.836,36.133,13.184,22.461,0.000,0.000,0.000
502943.395,9.766,12.695,36.621,30.273,27.344,0.000,0.000,0.000
502943.399,9.766,14.648,39.062,33.203,35.645,0.000,0.000,0.000
502943.403,9.277,10.742,37.598,27.832,37.598,0.000,0.000,0.000
502943.407,18.555,11.230,37.109,31.738,37.109,0.000,0.000,0.000
502943.411,22.949,13.672,33.691,43.457,36.133,0.000,0.000,0.000
502943.415,20.508,12.207,25.879,41.016,30.273,0.000,0.000,0.000
502943.418,19.043,17.578,29.297,28.320,32.715,0.000,0.000,0.000
502943.422,19.043,19.531,36.133,31.738,36.133,0.000,0.000,0.000
502943.426,23.438,14.160,41.016,44.434,35.156,0.000,0.000,0.000
502943.430,32.715,14.648,43.457,43.945,36.621,0.000,0.000,0.000
502943.434,25.879,20.020,38.574,30.273,32.227,0.000,0.000,0.000
502943.438,19.043,17.090,34.668,23.926,31.738,0.000,0.000,0.000
502943.442,31.250,14.648,36.621,31.738,37.109,0.000,0.000,0.000
502943.446,29.785,16.113,36.621,31.738,35.645,0.000,0.000,0.000
502943.450,20.020,15.625,30.762,30.273,33.203,0.000,0.000,0.000
502943.454,24.414,15.137,30.762,28.809,29.785,0.000,0.000,0.000
502943.458,29.297,15.625,33.203,26.855,21.973,0.000,0.000,0.000
502943.462,29.297,16.602,30.762,28.809,22.949,0.000,0.000,0.000
502943.466,32.227,19.531,34.180,30.273,33.203,0.000,0.000,0.000
502943.469,31.250,19.043,41.504,23.438,51.758,0.000,0.000,0.000
502943.473,32.227,18.066,42.969,19.043,58.594,0.000,0.000,0.000
502943.477,34.668,19.531,33.203,20.020,33.691,0.000,0.000,0.000
502943.481,33.691,17.578,25.879,18.555,9.277,0.000,0.000,0.000
502943.485,33.203,18.066,33.203,17.090,20.508,0.000,0.000,0.000
502943.489,38.086,18.066,33.691,22.461,28.320,0.000,0.000,0.000
502943.493,47.852,20.508,30.273,30.762,19.531,0.000,0.000,0.000
502943.497,49.316,20.508,36.621,36.133,23.438,0.000,0.000,0.000
502943.501,34.668,19.531,32.227,29.785,41.504,0.000,0.000,0.000
502943.505,31.738,18.555,34.180,17.578,42.969,0.000,0.000,0.000
502943.509,39.551,14.160,38.086,14.160,28.809,0.000,0.000,0.000
502943.513,39.551,15.137,37.109,21.973,33.691,0.000,0.000,0.000
502943.517,39.551,16.113,39.062,24.902,43.945,0.000,0.000,0.000
502943.520,37.598,16.113,39.062,20.020,34.668,0.000,0.000,0.000
502943.524,37.109,16.602,37.598,17.090,32.715,0.000,0.000,0.000
502943.528,41.504,11.230,39.062,20.508,39.062,0.000,0.000,0.000
502943.532,43.457,12.207,43.457,27.344,40.039,0.000,0.000,0.000
502943.536,36.133,15.625,44.434,24.902,49.316,0.000,0.000,0.000
502943.540,36.133,15.137,33.691,14.160,50.781,0.000,0.000,0.000
502943.544,41.992,13.184,21.973,19.531,34.180,0.000,0.000,0.000
502943.548,41.016,12.207,30.273,21.484,33.203,0.000,0.000,0.000
502943.552,40.527,15.625,43.457,9.766,39.551,0.000,0.000,0.000
502943.556,45.898,18.066,46.875,17.090,46.875,0.000,0.000,0.000
502943.560,53.711,18.066,45.410,24.414,51.270,0.000,0.000,0.000
502943.564,52.246,17.578,40.527,16.113,44.434,0.000,0.000,0.000
502943.568,44.434,20.020,39.062,15.137,43.457,0.000,0.000,0.000
502943.571,47.852,24.414,38.574,20.996,57.129,0.000,0.000,0.000
502943.575,51.270,21.973,29.297,25.391,56.152,0.000,0.000,0.000
502943.579,52.734,23.438,23.438,25.391,40.527,0.000,0.000,0.000
502943.583,49.316,25.391,26.367,16.113,35.156,0.000,0.000,0.000
502943.587,42.969,21.973,29.297,7.812,41.016,0.000,0.000,0.000
502943.591,52.246,24.414,37.598,7.324,52.734,0.000,0.000,0.000
502943.595,57.129,25.879,39.062,12.207,45.410,0.000,0.000,0.000
502943.599,50.781,31.250,37.598,17.578,41.992,0.000,0.000,0.000
502943.603,47.852,26.367,40.039,17.090,37.598,0.000,0.000,0.000
502943.607,50.293,20.508,37.109,7.324,27.344,0.000,0.000,0.000
502943.611,44.434,28.320,37.598,5.371,24.902,0.000,0.000,0.000
502943.615,33.691,28.809,35.645,8.301,23.926,0.000,0.000,0.000
502943.619,28.320,24.414,32.715,1.465,29.785,0.000,0.000,0.000
502943.622,29.297,25.391,37.109,-2.930,30.273,0.000,0.000,0.000
502943.626,34.180,26.855,43.457,7.812,36.133,0.000,0.000,0.000
502943.630,33.203,22.461,44.434,15.137,41.992,0.000,0.000,0.000
502943.634,28.809,22.949,38.574,0.977,48.340,0.000,0.000,0.000
502943.638,29.785,25.879,37.598,-15.137,57.129,0.000,0.000,0.000
502943.642,29.297,24.414,37.109,-17.090,51.758,0.000,0.000,0.000
502943.646,27.832,25.391,33.691,-16.602,53.711,0.000,0.000,0.000
502943.650,23.438,23.438,34.180,-22.461,48.828,0.000,0.000,0.000
502943.654,13.184,21.973,35.156,-22.461,39.551,0.000,0.000,0.000
502943.658,16.113,25.879,36.621,-22.461,42.480,0.000,0.000,0.000
502943.662,19.043,23.438,40.527,-29.297,35.645,0.000,0.000,0.000
502943.666,16.602,24.902,41.016,-39.062,18.066,0.000,0.000,0.000
502943.670,13.672,29.297,37.109,-42.969,6.348,0.000,0.000,0.000
502943.673,14.160,20.020,23.926,-44.922,8.301,0.000,0.000,0.000
502943.677,12.695,17.090,21.973,-52.246,13.184,4.000,1.000,0.000
502943.681,9.766,25.391,38.574,-55.176,6.836,0.000,0.000,0.000
502943.685,8.301,25.879,45.410,-52.246,8.301,0.000,0.000,0.000
502943.689,13.672,24.902,39.551,-41.504,23.926,0.000,0.000,0.000
502943.693,18.066,22.949,32.715,-30.273,27.344,0.000,0.000,0.000
502943.697,22.461,24.414,28.809,-20.508,25.879,0.000,0.000,0.000
502943.701,28.320,28.320,24.902,-18.555,33.691,0.000,0.000,0.000
502943.705,18.555,26.855,27.344,-21.973,43.457,0.000,0.000,0.000
502943.709,20.996,26.855,35.645,-13.672,46.875,0.000,0.000,0.000
502943.713,32.715,29.785,40.039,-0.977,43.945,0.000,0.000,0.000
502943.717,26.367,27.832,37.598,-3.906,41.504,0.000,0.000,0.000
502943.721,20.996,24.902,35.645,-3.418,47.852,0.000,0.000,0.000
502943.724,23.926,20.996,34.180,-4.395,48.828,0.000,0.000,0.000
502943.728,26.855,18.066,35.156,-8.301,38.574,0.000,0.000,0.000
502943.732,30.762,17.090,35.645,0.000,29.297,0.000,0.000,0.000
502943.736,30.273,20.508,36.621,1.953,30.273,0.000,0.000,0.000
502943.740,30.273,25.391,36.621,-3.906,37.598,0.000,0.000,0.000
502943.744,31.738,23.926,34.180,-4.395,48.828,0.000,0.000,0.000
502943.748,33.203,23.438,32.227,-1.953,53.711,0.000,0.000,0.000
502943.752,31.738,23.926,28.320,-4.883,55.664,0.000,0.000,0.000
502943.756,29.297,24.414,24.902,-2.441,59.570,0.000,0.000,0.000
502943.760,34.180,22.949,31.250,1.465,62.500,0.000,0.000,0.000
502943.764,37.109,23.438,38.574,-2.441,57.129,0.000,0.000,0.000
502943.768,32.227,26.855,41.504,-1.953,50.293,0.000,0.000,0.000
502943.772,26.367,24.902,41.016,-0.977,54.688,0.000,0.000,0.000
502943.775,26.855,22.949,35.156,-2.930,53.711,0.000,0.000,0.000
502943.779,33.691,24.902,35.156,0.000,47.363,0.000,0.000,0.000
502943.783,31.250,25.879,37.109,-0.488,42.480,0.000,0.000,0.000
502943.787,20.020,24.902,36.621,-11.719,42.969,0.000,0.000,0.000
502943.791,23.438,25.391,37.598,-10.254,45.410,0.000,0.000,0.000
502943.795,23.438,27.832,35.645,0.488,37.598,0.000,0.000,0.000
502943.799,15.625,23.438,38.086,8.789,36.133,0.000,0.000,0.000
502943.803,15.137,13.184,41.992,9.766,53.711,0.000,0.000,0.000
502943.807,19.043,24.902,34.668,-4.395,57.129,0.000,0.000,0.000
502943.811,23.926,39.062,26.367,-1.465,40.039,0.000,0.000,0.000
502943.815,22.949,31.250,29.297,3.906,35.645,0.000,0.000,0.000
502943.819,12.695,23.438,34.668,-3.418,35.156,0.000,0.000,0.000
502943.823,10.254,24.414,34.668,-1.465,27.344,0.000,0.000,0.000
502943.826,13.184,24.902,34.180,-1.465,25.391,0.000,0.000,0.000
502943.830,14.160,22.949,26.367,5.859,38.086,0.000,0.000,0.000
502943.834,13.184,25.879,18.555,10.254,45.898,0.000,0.000,0.000
502943.838,15.137,26.367,27.344,7.324,45.410,0.000,0.000,0.000
502943.842,20.508,25.879,36.621,6.348,43.945,0.000,0.000,0.000
502943.846,20.020,26.367,41.504,6.348,33.691,0.000,0.000,0.000
502943.850,24.902,27.344,42.480,9.766,35.156,0.000,0.000,0.000
502943.854,21.484,25.879,39.062,0.000,40.527,0.000,0.000,0.000
502943.858,20.508,22.461,36.621,-0.488,38.086,0.000,0.000,0.000
502943.862,26.367,23.438,39.551,14.160,36.621,0.000,0.000,0.000
502943.866,29.297,26.855,43.945,19.043,39.062,0.000,0.000,0.000
502943.870,24.414,26.855,40.039,10.742,37.598,0.000,0.000,0.000
502943.874,21.484,20.996,38.086,2.930,27.344,0.000,0.000,0.000
502943.877,18.555,19.531,36.133,10.254,23.438,0.000,0.000,0.000
502943.881,17.090,22.461,27.344,9.766,23.926,0.000,0.000,0.000
502943.885,17.090,25.879,32.227,8.301,22.949,0.000,0.000,0.000
502943.889,13.672,27.832,42.969,5.859,26.367,0.000,0.000,0.000
502943.893,22.949,28.809,43.945,12.695,30.273,0.000,0.000,0.000
502943.897,30.762,27.344,44.922,30.762,27.832,0.000,0.000,0.000
502943.901,29.785,25.391,45.410,21.973,26.367,0.000,0.000,0.000
502943.905,23.438,28.320,44.434,11.719,26.855,0.000,0.000,0.000
502943.909,23.438,26.367,43.945,16.602,28.320,0.000,0.000,0.000
502943.913,25.879,24.902,37.598,11.719,26.855,0.000,0.000,0.000
502943.917,22.949,25.391,34.180,11.719,20.508,0.000,0.000,0.000
502943.921,20.508,24.902,39.551,13.184,17.578,0.000,0.000,0.000
502943.925,18.066,24.902,41.504,7.812,21.484,0.000,0.000,0.000
502943.928,19.531,22.949,43.457,16.602,27.344,0.000,0.000,0.000
502943.932,19.531,23.926,42.969,20.508,33.203,0.000,0.000,0.000
502943.936,15.625,28.809,39.551,16.602,28.320,0.000,0.000,0.000
502943.940,16.602,31.250,40.527,7.812,14.648,0.000,0.000,0.000
502943.944,19.043,31.738,42.969,6.348,16.113,0.000,0.000,0.000
502943.948,16.602,28.809,40.527,7.812,12.207,0.000,0.000,0.000
502943.952,17.090,31.250,38.574,9.766,13.184,0.000,0.000,0.000
502943.956,18.555,30.273,34.180,5.371,17.090,0.000,0.000,0.000
502943.960,24.902,31.738,32.227,-8.789,13.672,0.000,0.000,0.000
502943.964,27.344,37.109,40.527,1.953,18.555,0.000,0.000,0.000
502943.968,20.996,34.668,44.434,12.695,24.414,0.000,0.000,0.000
502943.972,18.066,35.156,38.574,3.906,20.020,0.000,0.000,0.000
502943.976,22.461,35.156,31.250,4.395,15.137,0.000,0.000,0.000
502943.979,25.391,31.738,26.367,3.906,18.066,0.000,0.000,0.000
502943.983,30.762,32.227,26.855,5.859,22.949,0.000,0.000,0.000
502943.987,26.367,33.691,34.180,9.277,28.809,0.000,0.000,0.000
502943.991,25.879,32.227,34.668,7.324,31.738,0.000,0.000,0.000
502943.995,27.832,27.344,26.855,14.648,27.832,0.000,0.000,0.000
502943.999,23.438,31.738,32.715,9.766,25.879,0.000,0.000,0.000
502944.003,25.879,35.645,44.434,9.277,27.832,0.000,0.000,0.000
502944.007,24.414,32.715,41.016,11.719,20.996,0.000,0.000,0.000
502944.011,25.879,34.668,28.320,22.461,26.367,0.000,0.000,0.000
502944.015,40.527,37.109,28.320,33.203,39.062,0.000,0.000,0.000
502944.019,22.949,28.320,40.527,10.254,21.484,0.000,0.000,0.000
502944.023,0.488,25.879,50.781,-7.324,9.277,0.000,0.000,0.000
502944.026,17.578,24.414,53.711,17.578,24.902,0.000,0.000,0.000
502944.030,19.043,20.020,48.340,23.438,24.902,0.000,0.000,0.000
502944.034,11.719,22.461,40.039,5.371,15.137,0.000,0.000,0.000
502944.038,9.277,24.414,40.039,7.324,15.137,0.000,0.000,0.000
502944.042,10.254,22.949,42.969,8.789,15.137,0.000,0.000,0.000
502944.046,16.113,22.461,35.156,13.672,17.090,0.000,0.000,0.000
502944.050,20.508,23.926,33.203,14.160,26.855,0.000,0.000,0.000
502944.054,13.672,22.461,36.133,7.324,31.738,0.000,0.000,0.000
502944.058,14.160,21.973,28.320,8.789,26.855,0.000,0.000,0.000
502944.062,20.996,17.578,29.785,19.531,24.902,0.000,0.000,0.000
502944.066,17.578,13.184,35.156,18.066,31.250,0.000,0.000,0.000
502944.070,16.113,11.230,32.715,9.766,37.598,0.000,0.000,0.000
502944.074,20.996,12.695,31.738,9.277,41.016,0.000,0.000,0.000
502944.077,27.344,16.113,34.668,17.090,38.086,0.000,0.000,0.000
502944.081,20.508,17.090,40.039,25.391,38.574,0.000,0.000,0.000
502944.085,20.508,19.531,40.527,29.785,38.086,0.000,0.000,0.000
502944.089,23.926,20.508,38.086,27.832,39.551,0.000,0.000,0.000
502944.093,26.855,21.973,35.156,14.648,38.574,0.000,0.000,0.000
502944.097,26.855,21.484,36.621,13.672,35.645,0.000,0.000,0.000
502944.101,20.020,18.066,39.062,20.020,34.668,0.000,0.000,0.000
502944.105,19.531,16.113,40.527,16.602,44.434,0.000,0.000,0.000
502944.109,24.414,17.090,45.898,13.184,45.898,0.000,0.000,0.000
502944.113,23.926,14.648,41.504,14.648,32.715,0.000,0.000,0.000
502944.117,22.949,11.230,37.109,18.066,35.645,0.000,0.000,0.000
502944.121,14.160,9.766,40.039,18.066,33.203,0.000,0.000,0.000
502944.125,11.719,9.766,41.504,20.020,31.738,0.000,0.000,0.000
502944.128,17.090,11.719,42.480,18.066,42.969,0.000,0.000,0.000
502944.132,19.531,14.648,39.551,9.277,40.527,0.000,0.000,0.000
502944.136,18.555,11.230,37.598,12.207,34.668,0.000,0.000,0.000
502944.140,20.020,8.789,38.086,19.043,43.457,0.000,0.000,0.000
502944.144,25.391,14.160,36.133,21.484,44.922,0.000,0.000,0.000
502944.148,25.879,24.414,31.250,11.230,32.715,0.000,0.000,0.000
502944.152,23.438,32.227,26.367,0.488,29.297,0.000,0.000,0.000
502944.156,14.648,31.738,28.809,-1.953,21.484,0.000,0.000,0.000
502944.160,14.648,25.391,32.227,-5.371,14.160,0.000,0.000,0.000
502944.164,23.438,24.902,29.297,3.906,25.391,0.000,0.000,0.000
502944.168,25.391,27.832,28.809,10.742,28.320,0.000,0.000,0.000
502944.172,21.484,26.855,27.832,3.906,28.809,0.000,0.000,0.000
502944.176,23.438,27.832,24.902,5.859,23.926,0.000,0.000,0.000
502944.179,24.902,28.809,20.508,6.836,22.949,0.000,0.000,0.000
502944.183,29.785,26.367,24.414,15.137,35.156,0.000,0.000,0.000
502944.187,27.832,25.879,32.715,9.766,41.016,0.000,0.000,0.000
502944.191,23.438,28.809,37.109,0.488,38.086,0.000,0.000,0.000
502944.195,31.738,26.367,29.785,7.812,35.156,0.000,0.000,0.000
502944.199,35.645,24.902,26.367,17.090,34.668,0.000,0.000,0.000
502944.203,29.785,25.391,32.227,11.719,38.574,0.000,0.000,0.000
502944.207,29.297,23.438,33.691,7.324,39.551,0.000,0.000,0.000
502944.211,34.668,23.926,30.762,20.508,36.133,0.000,0.000,0.000
502944.215,37.109,26.367,26.855,24.414,46.387,0.000,0.000,0.000
502944.219,35.156,28.320,24.414,19.531,51.270,0.000,0.000,0.000
502944.223,24.414,27.832,20.996,10.742,47.852,0.000,0.000,0.000
502944.227,25.879,25.879,24.414,9.277,53.711,0.000,0.000,0.000
502944.230,34.180,28.320,30.273,20.996,45.410,0.000,0.000,0.000
502944.234,29.785,30.273,31.250,20.508,40.039,0.000,0.000,0.000
502944.238,22.949,27.344,31.250,14.160,40.039,0.000,0.000,0.000
502944.242,24.414,24.902,28.320,8.301,43.457,0.000,0.000,0.000
502944.246,26.855,23.926,23.438,10.742,52.246,0.000,0.000,0.000
502944.250,27.344,25.879,20.996,14.160,50.293,0.000,0.000,0.000
502944.254,25.391,26.855,20.996,6.348,37.598,0.000,0.000,0.000
502944.258,24.902,25.879,20.508,8.301,34.180,0.000,0.000,0.000
502944.262,29.785,25.879,24.902,16.113,33.203,0.000,0.000,0.000
502944.266,35.645,27.344,27.344,17.090,30.762,0.000,0.000,0.000
502944.270,30.762,25.879,27.344,14.648,28.809,0.000,0.000,0.000
502944.274,23.926,22.949,27.344,13.184,26.367,0.000,0.000,0.000
502944.278,29.297,24.414,24.902,10.254,29.297,0.000,0.000,0.000
502944.281,28.809,25.879,28.320,13.672,31.738,0.000,0.000,0.000
502944.285,27.344,26.367,32.227,21.973,33.203,0.000,0.000,0.000
502944.289,21.973,26.367,28.320,8.301,30.762,0.000,0.000,0.000
502944.293,25.391,27.344,28.809,8.789,31.738,0.000,0.000,0.000
502944.297,30.762,26.367,28.809,21.973,46.387,0.000,0.000,0.000
502944.301,33.203,25.879,23.926,20.508,48.340,0.000,0.000,0.000
502944.305,32.227,26.367,22.949,11.230,34.180,0.000,0.000,0.000
502944.309,27.344,25.391,26.367,6.348,39.062,0.000,0.000,0.000
502944.313,37.109,25.879,27.832,1.953,46.875,0.000,0.000,0.000
502944.317,35.645,24.902,29.297,-8.301,41.016,0.000,0.000,0.000
502944.321,18.066,20.996,25.879,-9.766,38.086,0.000,0.000,0.000
502944.325,20.508,21.484,19.043,-2.441,33.203,0.000,0.000,0.000
502944.329,27.344,24.902,19.531,6.348,24.902,0.000,0.000,0.000
502944.332,26.855,24.902,25.879,-7.812,23.926,0.000,0.000,0.000
502944.336,29.785,23.438,32.227,-16.113,26.367,0.000,0.000,0.000
502944.340,27.832,23.926,32.715,-14.648,33.691,0.000,0.000,0.000
502944.344,29.297,22.461,33.203,-18.555,39.551,0.000,0.000,0.000
502944.348,40.527,21.973,32.715,-6.348,32.227,0.000,0.000,0.000
502944.352,37.598,19.531,29.297,-14.648,28.320,0.000,0.000,0.000
502944.356,23.926,16.602,25.391,-32.715,28.809,0.000,0.000,0.000
502944.360,23.926,18.066,25.879,-26.367,28.809,0.000,0.000,0.000
502944.364,28.320,22.461,22.461,-28.320,28.809,0.000,0.000,0.000
502944.368,35.645,29.785,17.090,-33.203,37.109,0.000,0.000,0.000
502944.372,36.621,31.738,19.531,-32.715,39.062,0.000,0.000,0.000
502944.376,34.668,25.391,26.855,-41.504,43.457,0.000,0.000,0.000
502944.380,42.969,22.949,26.855,-39.062,41.992,0.000,0.000,0.000
502944.383,43.457,22.949,21.973,-35.645,42.969,0.000,0.000,0.000
502944.387,43.457,19.043,24.902,-43.457,48.828,0.000,0.000,0.000
502944.391,41.992,17.578,28.809,-42.480,49.316,0.000,0.000,0.000
502944.395,45.410,15.625,22.949,-33.691,49.805,0.000,0.000,0.000
502944.399,46.387,12.207,22.461,-24.414,52.246,0.000,0.000,0.000
502944.403,38.574,12.207,24.902,-19.531,59.082,0.000,0.000,0.000
502944.407,37.109,12.207,21.973,-11.719,63.477,0.000,0.000,0.000
502944.411,42.969,13.672,29.297,-9.766,49.316,0.000,0.000,0.000
502944.415,41.016,14.648,34.180,-19.043,40.527,0.000,0.000,0.000
502944.419,38.086,13.184,29.785,-11.719,39.551,0.000,0.000,0.000
502944.423,37.598,11.719,25.879,-3.906,28.809,0.000,0.000,0.000
502944.427,35.645,9.766,23.438,0.977,34.180,0.000,0.000,0.000
502944.431,36.621,11.719,20.020,11.230,36.621,0.000,0.000,0.000
502944.434,40.039,10.742,18.066,19.531,33.203,0.000,0.000,0.000
502944.438,34.180,12.207,17.578,28.809,36.133,0.000,0.000,0.000
502944.442,37.598,15.137,20.996,24.902,41.992,0.000,0.000,0.000
502944.446,40.039,11.719,22.461,14.160,44.434,0.000,0.000,0.000
502944.450,42.969,4.883,24.902,26.855,40.039,0.000,0.000,0.000
502944.454,44.434,6.348,30.273,25.879,34.180,0.000,0.000,0.000
502944.458,33.203,11.230,26.367,7.812,23.438,0.000,0.000,0.000
502944.462,38.574,9.277,13.184,18.066,23.438,0.000,0.000,0.000
502944.466,45.410,10.254,13.184,19.043,34.668,0.000,0.000,0.000
502944.470,43.945,7.324,20.996,7.812,33.203,0.000,0.000,0.000
502944.474,39.551,5.371,23.438,7.812,29.297,0.000,0.000,0.000
502944.478,34.180,5.859,24.414,8.789,29.297,0.000,0.000,0.000
502944.482,30.762,3.418,24.414,4.883,26.367,0.000,0.000,0.000
502944.485,28.809,0.000,22.949,7.812,24.414,0.000,0.000,0.000
502944.489,25.391,0.000,19.043,2.930,18.555,0.000,0.000,0.000
502944.493,22.949,1.953,17.578,-5.371,11.230,0.000,0.000,0.000
502944.497,25.879,0.488,20.020,3.906,10.254,0.000,0.000,0.000
502944.501,28.320,-0.488,19.531,12.207,21.973,0.000,0.000,0.000
502944.505,32.227,-1.465,18.555,10.254,32.227,0.000,0.000,0.000
502944.509,26.367,0.488,19.043,12.695,31.250,0.000,0.000,0.000
502944.513,16.602,-2.441,17.090,21.484,27.832,0.000,0.000,0.000
502944.517,20.508,-4.883,18.555,20.996,23.926,0.000,0.000,0.000
502944.521,22.949,-2.441,21.973,26.367,30.762,0.000,0.000,0.000
502944.525,20.020,0.488,21.973,31.738,29.297,0.000,0.000,0.000
502944.529,24.414,-2.441,23.926,31.250,18.555,0.000,0.000,0.000
502944.533,21.973,-10.742,26.367,38.086,18.555,0.000,0.000,0.000
502944.536,14.648,-11.719,24.902,42.969,20.508,0.000,0.000,0.000
502944.540,8.789,-12.695,25.391,32.227,11.719,0.000,0.000,0.000
502944.544,7.324,-12.695,20.508,31.738,3.906,0.000,0.000,0.000
502944.548,14.648,-15.137,7.812,45.898,11.719,0.000,0.000,0.000
502944.552,15.137,-18.555,8.789,49.316,16.113,0.000,0.000,0.000
502944.556,7.324,-18.555,14.160,41.016,17.578,0.000,0.000,0.000
502944.560,12.207,-18.555,21.484,43.457,14.160,0.000,0.000,0.000
502944.564,22.949,-20.020,23.438,44.434,14.160,0.000,0.000,0.000
502944.568,21.484,-21.973,20.020,41.016,14.160,0.000,0.000,0.000
502944.572,16.113,-21.484,17.090,41.504,15.137,0.000,0.000,0.000
502944.576,16.602,-23.926,17.090,39.551,20.020,0.000,0.000,0.000
502944.580,18.555,-27.832,16.602,39.551,14.160,0.000,0.000,0.000
502944.584,27.344,-24.902,19.531,39.551,17.578,0.000,0.000,0.000
502944.587,18.555,-26.367,19.043,42.969,22.461,0.000,0.000,0.000
502944.591,8.301,-27.344,4.883,47.363,34.180,0.000,0.000,0.000
502944.595,19.043,-23.926,-0.488,42.969,41.992,0.000,0.000,0.000
502944.599,22.949,-25.879,6.348,43.945,29.785,0.000,0.000,0.000
502944.603,23.438,-24.414,16.602,54.199,23.438,0.000,0.000,0.000
502944.607,24.414,-19.043,23.926,47.852,27.344,0.000,0.000,0.000
502944.611,26.855,-20.996,23.438,44.922,21.973,0.000,0.000,0.000
502944.615,29.785,-17.090,19.043,39.062,18.555,0.000,0.000,0.000
502944.619,29.297,-12.695,16.113,32.715,20.508,0.000,0.000,0.000
502944.623,25.879,-13.184,15.625,35.156,21.484,0.000,0.000,0.000
502944.627,28.320,-12.207,14.648,41.504,35.645,0.000,0.000,0.000
502944.631,35.645,-10.742,13.184,47.852,26.855,0.000,0.000,0.000
502944.635,24.902,-10.742,13.184,54.688,15.137,0.000,0.000,0.000
502944.638,20.508,-11.719,19.531,50.781,22.949,0.000,0.000,0.000
502944.642,27.344,-9.766,24.902,37.598,23.926,0.000,0.000,0.000
502944.646,30.762,-9.277,26.855,37.109,27.344,0.000,0.000,0.000
502944.650,30.762,-10.742,29.297,46.387,25.391,0.000,0.000,0.000
502944.654,28.320,-9.766,25.879,42.480,18.066,0.000,0.000,0.000
502944.658,27.344,-9.277,18.066,33.691,20.508,0.000,0.000,0.000
502944.662,32.227,-8.789,14.160,38.574,25.391,0.000,0.000,0.000
502944.666,33.691,-13.672,15.137,41.992,32.227,0.000,0.000,0.000
502944.670,32.715,-19.531,17.090,39.551,28.320,0.000,0.000,0.000
502944.674,21.973,-16.113,20.020,40.039,24.414,0.000,0.000,0.000
502944.678,19.531,-14.160,18.066,36.133,34.668,0.000,0.000,0.000
502944.682,26.367,-13.184,20.508,41.016,43.945,0.000,0.000,0.000
502944.686,25.879,-12.695,23.926,47.363,37.109,0.000,0.000,0.000
502944.689,28.320,-12.695,19.043,25.391,33.203,0.000,0.000,0.000
502944.693,26.367,-15.137,10.742,-0.488,33.691,0.000,0.000,0.000
502944.697,20.996,-19.043,9.766,-3.906,33.691,0.000,0.000,0.000
502944.701,29.297,-17.578,11.719,5.859,37.598,0.000,0.000,0.000
502944.705,29.297,-11.719,7.812,0.488,30.273,0.000,0.000,0.000
502944.709,32.715,-8.789,-1.465,-1.465,35.156,0.000,0.000,0.000
502944.713,35.156,-10.254,-3.906,11.719,47.852,0.000,0.000,0.000
502944.717,31.250,-12.695,-2.441,21.973,28.320,0.000,0.000,0.000
502944.721,38.086,-13.672,-6.836,24.414,10.254,0.000,0.000,0.000
502944.725,31.738,-13.184,-5.859,23.926,17.578,0.000,0.000,0.000
502944.729,22.461,-13.672,1.465,26.367,25.879,0.000,0.000,0.000
502944.733,20.996,-12.695,-0.488,24.902,20.996,0.000,0.000,0.000
502944.737,24.902,-12.695,-3.906,27.344,13.184,0.000,0.000,0.000
502944.740,21.973,-18.066,0.488,18.066,8.301,0.000,0.000,0.000
502944.744,20.508,-20.508,0.000,11.719,14.160,0.000,0.000,0.000
502944.748,18.555,-20.508,-1.953,24.414,20.020,0.000,0.000,0.000
502944.752,15.137,-21.973,0.977,35.645,23.926,0.000,0.000,0.000
502944.756,14.648,-20.508,2.441,32.227,36.133,0.000,0.000,0.000
502944.760,17.090,-19.531,0.000,20.996,34.180,0.000,0.000,0.000
502944.764,20.996,-19.531,2.441,18.066,26.367,0.000,0.000,0.000
502944.768,25.879,-15.625,4.883,20.020,37.109,0.000,0.000,0.000
502944.772,31.250,-12.695,3.906,22.949,44.434,0.000,0.000,0.000
502944.776,31.738,-13.184,6.836,16.113,50.781,0.000,0.000,0.000
502944.780,25.879,-17.578,3.906,0.977,47.852,0.000,0.000,0.000
502944.784,31.250,-20.020,-0.977,-0.488,45.898,0.000,0.000,0.000
502944.788,32.227,-20.508,0.000,-1.465,49.316,0.000,0.000,0.000
502944.791,25.879,-21.484,4.883,-6.836,48.340,0.000,0.000,0.000
502944.795,26.367,-21.484,9.277,-9.277,43.945,0.000,0.000,0.000
502944.799,24.414,-20.020,13.184,-9.277,35.645,0.000,0.000,0.000
502944.803,19.043,-27.344,13.672,-12.695,30.273,0.000,0.000,0.000
502944.807,15.625,-32.227,16.602,-8.789,30.273,0.000,0.000,0.000
502944.811,19.531,-23.926,18.555,-0.488,35.156,0.000,0.000,0.000
502944.815,21.973,-22.461,11.230,-6.348,39.062,0.000,0.000,0.000
502944.819,13.672,-24.902,8.789,-10.254,43.457,0.000,0.000,0.000
502944.823,11.230,-19.531,15.137,-16.113,37.598,0.000,0.000,0.000
502944.827,19.531,-11.719,11.230,-18.555,22.949,0.000,0.000,0.000
502944.831,20.020,-10.254,5.371,-15.137,27.832,0.000,0.000,0.000
502944.835,10.742,-13.672,8.301,-19.043,35.156,0.000,0.000,0.000
502944.839,8.789,-20.508,11.230,-25.879,25.391,0.000,0.000,0.000
502944.842,10.742,-25.391,11.230,-21.484,25.391,0.000,0.000,0.000
502944.846,20.020,-25.391,8.301,-16.113,40.527,0.000,0.000,0.000
502944.850,32.715,-22.949,9.766,-4.883,43.945,0.000,0.000,0.000
502944.854,33.203,-19.531,14.160,4.395,39.551,0.000,0.000,0.000
502944.858,21.484,-14.648,16.113,-17.090,45.898,0.000,0.000,0.000
502944.862,19.043,-15.137,13.184,-24.902,51.758,0.000,0.000,0.000
502944.866,28.809,-16.113,13.184,-5.371,49.805,0.000,0.000,0.000
502944.870,35.645,-12.207,20.020,2.930,55.176,0.000,0.000,0.000
502944.874,29.297,-12.207,17.090,-6.348,62.012,0.000,0.000,0.000
502944.878,26.367,-13.184,8.789,-7.812,62.012,0.000,0.000,0.000
502944.882,27.344,-12.695,4.883,-6.348,56.641,0.000,0.000,0.000
502944.886,20.020,-14.160,1.953,-13.184,41.992,0.000,0.000,0.000
502944.890,8.789,-17.578,0.488,-19.531,41.016,0.000,0.000,0.000
502944.893,10.254,-21.973,1.465,-14.160,47.363,0.000,0.000,0.000
502944.897,10.742,-20.020,-1.953,-6.836,46.387,0.000,0.000,0.000
502944.901,12.207,-15.137,-6.348,-12.695,44.922,0.000,0.000,0.000
502944.905,18.555,-11.719,-3.418,-18.555,50.781,0.000,0.000,0.000
502944.909,21.973,-15.137,-6.348,-12.695,50.293,0.000,0.000,0.000
502944.913,29.297,-16.602,-8.301,-3.418,49.316,0.000,0.000,0.000
502944.917,31.738,-11.719,-4.883,5.371,46.387,0.000,0.000,0.000
502944.921,25.879,-11.230,-3.418,3.906,28.809,0.000,0.000,0.000
502944.925,20.996,-4.883,0.000,0.488,32.715,0.000,0.000,0.000
502944.929,23.926,0.000,4.883,3.418,45.410,0.000,0.000,0.000
502944.933,26.367,-3.418,-0.977,3.906,39.062,0.000,0.000,0.000
502944.937,26.855,-0.977,-8.789,18.555,35.156,0.000,0.000,0.000
502944.941,26.855,8.301,-10.742,27.832,42.969,0.000,0.000,0.000
502944.944,26.367,14.648,-5.859,15.137,44.922,0.000,0.000,0.000
502944.948,35.156,15.137,0.977,12.695,39.062,0.000,0.000,0.000
502944.952,41.504,17.090,0.977,23.438,47.852,0.000,0.000,0.000
502944.956,32.227,18.555,-0.488,20.020,56.641,0.000,0.000,0.000
