timestamps,TP9,AF7,AF8,TP10,Right AUX,Frequency,Contrast,Orientation
486324.342,94.238,32.227,34.668,63.477,268.066,0.000,0.000,0.000
486324.346,-15.625,29.297,34.668,-14.160,88.379,0.000,0.000,0.000
486324.350,-64.941,29.297,33.203,-48.828,-75.684,0.000,0.000,0.000
486324.354,30.762,27.832,33.691,16.113,31.250,0.000,0.000,0.000
486324.358,94.238,26.855,31.250,68.848,209.961,0.000,0.000,0.000
486324.362,18.555,31.250,33.203,8.789,96.680,0.000,0.000,0.000
486324.366,-71.289,28.809,32.715,-44.922,-113.281,0.000,0.000,0.000
486324.370,2.930,26.367,22.949,-0.977,-49.316,0.000,0.000,0.000
486324.374,108.887,27.344,22.461,69.336,154.297,0.000,0.000,0.000
486324.378,60.059,25.879,20.020,41.016,180.176,0.000,0.000,0.000
486324.382,-50.293,30.762,23.926,-40.527,-27.344,0.000,0.000,0.000
486324.385,-28.320,28.320,27.344,-25.879,-128.418,0.000,0.000,0.000
486324.389,76.172,26.367,26.855,49.805,104.004,0.000,0.000,0.000
486324.393,85.938,31.738,28.809,49.805,225.586,0.000,0.000,0.000
486324.397,-27.344,29.785,30.762,-24.414,-6.348,0.000,0.000,0.000
486324.401,-57.129,31.250,28.809,-40.527,-122.070,0.000,0.000,0.000
486324.405,49.805,32.715,25.391,31.738,119.629,0.000,0.000,0.000
486324.409,96.680,33.203,24.902,66.406,260.742,0.000,0.000,0.000
486324.413,-6.348,31.738,28.809,-3.418,33.203,0.000,0.000,0.000
486324.417,-56.641,31.250,31.738,-41.992,-132.812,0.000,0.000,0.000
486324.421,43.457,26.855,25.879,14.648,38.574,0.000,0.000,0.000
486324.425,120.605,29.785,29.297,70.801,315.918,0.000,0.000,0.000
486324.428,34.180,36.133,34.180,29.785,197.754,0.000,0.000,0.000
486324.432,-65.430,29.297,29.785,-34.668,-104.004,0.000,0.000,0.000
486324.436,-9.766,26.367,25.391,-3.906,-123.047,0.000,0.000,0.000
486324.440,97.168,28.809,25.879,70.801,78.613,0.000,0.000,0.000
486324.444,76.660,29.297,28.320,51.270,104.980,0.000,0.000,0.000
486324.448,-46.875,29.785,27.344,-33.203,-119.629,0.000,0.000,0.000
486324.452,-30.273,30.762,24.902,-33.203,-164.062,0.000,0.000,0.000
486324.456,69.824,29.785,23.438,44.922,66.406,0.000,0.000,0.000
486324.460,79.102,34.180,25.879,59.082,226.562,0.000,0.000,0.000
486324.464,-27.344,35.156,27.832,-17.090,70.801,0.000,0.000,0.000
486324.467,-49.805,34.668,26.367,-39.062,-82.520,0.000,0.000,0.000
486324.471,59.570,33.691,23.438,28.320,105.469,0.000,0.000,0.000
486324.475,106.934,34.668,29.297,74.219,268.066,0.000,0.000,0.000
486324.479,13.184,36.621,34.180,13.672,84.473,0.000,0.000,0.000
486324.483,-66.895,29.785,30.762,-48.828,-99.121,0.000,0.000,0.000
486324.487,5.859,23.926,34.180,2.930,47.363,0.000,0.000,0.000
486324.491,101.074,28.809,36.133,70.801,252.441,0.000,0.000,0.000
486324.495,42.969,33.203,35.645,22.461,178.711,0.000,0.000,0.000
486324.499,-66.406,29.785,34.668,-41.992,-24.414,0.000,0.000,0.000
486324.503,-7.324,33.691,36.133,3.418,-1.465,0.000,0.000,0.000
486324.507,111.328,36.133,34.668,80.078,172.363,0.000,0.000,0.000
486324.510,86.914,29.297,31.738,56.641,162.109,0.000,0.000,0.000
486324.514,-33.691,31.738,33.691,-7.324,-56.641,0.000,0.000,0.000
486324.518,-43.945,31.250,26.855,-20.996,-166.992,0.000,0.000,0.000
486324.522,54.688,24.414,23.926,28.809,8.789,0.000,0.000,0.000
486324.526,81.055,25.391,27.344,54.688,148.438,0.000,0.000,0.000
486324.530,-35.645,29.297,27.344,-20.020,5.371,0.000,0.000,0.000
486324.534,-76.172,29.297,26.367,-50.781,-144.531,0.000,0.000,0.000
486324.538,34.668,28.320,28.320,27.832,-69.824,0.000,0.000,0.000
486324.542,101.562,28.809,26.855,71.777,128.418,0.000,0.000,0.000
486324.546,11.719,29.297,26.367,-5.371,91.309,0.000,0.000,0.000
486324.550,-61.035,30.762,33.691,-53.711,-121.582,0.000,0.000,0.000
486324.553,26.855,27.832,29.785,-2.930,-54.199,0.000,0.000,0.000
486324.557,111.328,30.762,24.414,57.129,194.824,0.000,0.000,0.000
486324.561,46.387,31.250,28.320,20.020,184.570,0.000,0.000,0.000
486324.565,-55.176,30.273,29.785,-46.875,-29.297,0.000,0.000,0.000
486324.569,-14.648,35.645,23.438,-29.297,-37.109,0.000,0.000,0.000
486324.573,92.773,37.109,23.438,41.016,195.801,0.000,0.000,0.000
486324.577,91.797,38.086,25.879,39.062,230.957,0.000,0.000,0.000
486324.581,-35.156,41.016,23.438,-39.062,-41.016,0.000,0.000,0.000
486324.585,-52.734,35.156,20.020,-52.734,-124.512,0.000,0.000,0.000
486324.589,64.941,31.250,24.902,22.461,76.660,0.000,0.000,0.000
486324.592,111.816,31.738,25.391,50.293,171.387,0.000,0.000,0.000
486324.596,-2.930,29.297,25.879,-19.531,-30.273,0.000,0.000,0.000
486324.600,-57.129,35.156,34.180,-47.852,-185.059,0.000,0.000,0.000
486324.604,36.621,34.180,27.344,8.789,-35.645,0.000,0.000,0.000
486324.608,103.027,30.273,23.926,58.105,165.527,0.000,0.000,0.000
486324.612,24.902,36.621,29.785,1.465,93.262,0.000,0.000,0.000
486324.616,-74.219,37.109,28.809,-76.172,-85.449,0.000,0.000,0.000
486324.620,-17.090,32.227,21.973,-31.250,-36.621,0.000,0.000,0.000
486324.624,86.426,30.762,18.555,47.852,173.340,0.000,0.000,0.000
486324.628,51.270,38.574,24.902,15.137,182.129,0.000,0.000,0.000
486324.632,-62.012,37.598,30.273,-63.477,-82.031,0.000,0.000,0.000
486324.635,-32.715,32.715,28.809,-50.781,-131.836,0.000,0.000,0.000
486324.639,71.777,29.785,27.344,27.832,108.887,0.000,0.000,0.000
486324.643,76.172,31.250,35.645,38.086,186.523,0.000,0.000,0.000
486324.647,-35.645,36.621,36.621,-35.156,34.180,0.000,0.000,0.000
486324.651,-53.711,34.668,25.879,-56.152,-36.133,0.000,0.000,0.000
486324.655,53.223,30.273,25.391,20.508,132.324,0.000,0.000,0.000
486324.659,95.703,33.203,30.273,59.082,265.625,0.000,0.000,0.000
486324.663,-7.812,34.180,29.297,-15.137,84.473,0.000,0.000,0.000
486324.667,-58.594,31.738,26.367,-57.129,-138.184,0.000,0.000,0.000
486324.671,37.598,34.180,20.020,9.766,-64.941,0.000,0.000,0.000
486324.675,109.375,32.227,18.066,64.941,133.789,0.000,0.000,0.000
486324.678,45.410,34.180,24.414,15.625,73.730,0.000,0.000,0.000
486324.682,-52.734,36.621,31.738,-42.969,-121.582,0.000,0.000,0.000
486324.686,-12.695,30.762,30.273,-7.812,-82.520,0.000,0.000,0.000
486324.690,92.285,25.391,27.832,54.688,132.812,0.000,0.000,0.000
486324.694,60.059,30.273,32.715,32.227,144.531,0.000,0.000,0.000
486324.698,-72.266,37.109,34.668,-41.992,-95.215,0.000,0.000,0.000
486324.702,-49.316,31.250,31.738,-41.016,-210.449,0.000,0.000,0.000
486324.706,66.406,22.461,24.902,32.715,20.996,0.000,0.000,0.000
486324.710,81.543,23.926,23.438,45.898,226.074,0.000,0.000,0.000
486324.714,-23.438,28.320,31.250,-20.020,67.383,0.000,0.000,0.000
486324.717,-45.898,27.832,33.203,-40.039,-78.613,0.000,0.000,0.000
486324.721,61.035,28.809,30.762,31.738,71.289,0.000,0.000,0.000
486324.725,104.004,31.250,26.367,75.195,253.418,0.000,0.000,0.000
486324.729,10.254,34.668,28.320,9.277,161.133,0.000,0.000,0.000
486324.733,-56.152,35.645,29.785,-43.945,-37.598,0.000,0.000,0.000
486324.737,27.344,37.109,27.832,6.836,-50.781,0.000,0.000,0.000
486324.741,107.422,34.668,20.508,55.664,98.633,0.000,0.000,0.000
486324.745,49.316,37.109,23.926,12.695,104.980,0.000,0.000,0.000
486324.749,-47.363,42.480,31.250,-53.223,-92.285,0.000,0.000,0.000
486324.753,-9.277,32.715,22.949,-43.457,-105.957,0.000,0.000,0.000
486324.757,77.637,26.367,21.973,32.227,129.395,0.000,0.000,0.000
486324.760,58.594,25.879,25.879,28.320,143.555,0.000,0.000,0.000
486324.764,-54.199,26.855,27.832,-43.945,-66.895,0.000,0.000,0.000
486324.768,-33.203,33.203,29.297,-48.340,-139.160,0.000,0.000,0.000
486324.772,83.496,33.203,26.367,33.691,22.461,0.000,0.000,0.000
486324.776,89.844,31.738,24.414,56.641,112.305,0.000,0.000,0.000
486324.780,-23.438,34.668,24.902,-19.531,-69.336,0.000,0.000,0.000
486324.784,-52.734,31.250,26.855,-48.828,-229.980,0.000,0.000,0.000
486324.788,42.969,30.762,32.715,13.672,-104.492,0.000,0.000,0.000
486324.792,92.285,33.203,28.809,59.082,105.957,0.000,0.000,0.000
486324.796,16.602,33.203,26.855,-0.488,-4.883,0.000,0.000,0.000
486324.800,-71.777,26.855,27.344,-58.594,-180.176,0.000,0.000,0.000
486324.803,5.859,28.809,28.809,-3.906,-100.098,0.000,0.000,0.000
486324.807,104.004,38.086,31.738,71.289,96.191,0.000,0.000,0.000
486324.811,52.734,31.250,32.715,34.180,111.328,0.000,0.000,0.000
486324.815,-40.527,32.227,31.250,-43.457,-49.316,0.000,0.000,0.000
486324.819,-11.719,36.621,26.855,-23.438,-50.781,0.000,0.000,0.000
486324.823,84.473,31.738,28.320,50.781,157.715,0.000,0.000,0.000
486324.827,81.543,36.621,35.645,46.387,260.742,0.000,0.000,0.000
486324.831,-35.156,38.574,36.621,-20.020,58.594,0.000,0.000,0.000
486324.835,-26.367,39.062,33.691,-31.250,-93.750,0.000,0.000,0.000
486324.839,97.656,41.504,31.738,40.039,44.434,0.000,0.000,0.000
486324.842,108.398,38.574,26.367,53.711,216.797,0.000,0.000,0.000
486324.846,-12.207,32.715,26.367,-22.949,71.289,0.000,0.000,0.000
486324.850,-72.754,31.250,30.273,-62.012,-172.852,0.000,0.000,0.000
486324.854,12.695,39.062,29.785,-5.371,-60.547,0.000,0.000,0.000
486324.858,82.520,33.203,26.855,50.781,220.703,0.000,0.000,0.000
486324.862,16.113,24.902,29.297,-0.977,188.477,0.000,0.000,0.000
486324.866,-74.219,30.762,32.715,-62.500,-72.266,0.000,0.000,0.000
486324.870,-14.160,29.297,31.250,-17.578,-63.965,0.000,0.000,0.000
486324.874,94.727,37.598,29.785,61.035,180.176,0.000,0.000,0.000
486324.878,61.523,38.086,33.203,29.785,166.016,0.000,0.000,0.000
486324.882,-67.383,30.762,41.016,-46.875,-66.406,0.000,0.000,0.000
486324.885,-49.316,27.344,38.574,-40.527,-158.691,0.000,0.000,0.000
486324.889,60.059,22.461,36.133,35.645,-11.230,0.000,0.000,0.000
486324.893,59.082,25.879,37.598,56.641,83.984,0.000,0.000,0.000
486324.897,-45.898,28.320,34.668,-23.926,-126.465,0.000,0.000,0.000
486324.901,-53.223,23.438,31.738,-58.594,-228.027,0.000,0.000,0.000
486324.905,43.457,14.648,36.621,20.508,-45.410,0.000,0.000,0.000
486324.909,90.820,27.344,41.504,69.824,112.793,0.000,0.000,0.000
486324.913,-7.324,39.062,39.062,4.395,-0.977,0.000,0.000,0.000
486324.917,-72.266,25.391,35.156,-52.734,-156.250,0.000,0.000,0.000
486324.921,29.785,20.508,32.227,2.930,-21.484,0.000,0.000,0.000
486324.924,99.609,22.461,36.621,72.266,190.918,0.000,0.000,0.000
486324.928,27.344,23.438,42.969,24.902,94.727,0.000,0.000,0.000
486324.932,-77.148,22.949,39.062,-40.527,-158.691,0.000,0.000,0.000
486324.936,-21.484,23.926,33.203,-10.254,-117.676,0.000,0.000,0.000
486324.940,104.492,31.738,37.598,73.730,126.465,0.000,0.000,0.000
486324.944,74.707,39.062,40.527,59.082,171.875,0.000,0.000,0.000
486324.948,-55.664,36.133,35.645,-34.668,-23.438,0.000,0.000,0.000
486324.952,-40.527,32.227,33.203,-35.156,-99.121,0.000,0.000,0.000
486324.956,67.383,30.762,34.668,43.457,53.711,0.000,0.000,0.000
486324.960,81.055,25.879,37.109,56.152,156.738,0.000,0.000,0.000
486324.964,-28.809,26.367,41.016,-13.184,-20.020,0.000,0.000,0.000
486324.967,-70.801,28.809,33.203,-38.086,-180.176,0.000,0.000,0.000
486324.971,50.293,29.297,29.297,32.715,-42.480,0.000,0.000,0.000
486324.975,119.141,32.227,30.273,73.730,130.859,0.000,0.000,0.000
486324.979,9.766,39.062,32.715,12.695,30.762,0.000,0.000,0.000
486324.983,-77.148,39.062,36.621,-43.457,-171.387,0.000,0.000,0.000
486324.987,6.836,31.738,30.273,1.953,-83.008,0.000,0.000,0.000
486324.991,97.168,33.691,25.879,72.266,160.156,0.000,0.000,0.000
486324.995,29.785,32.227,27.832,28.809,112.793,0.000,0.000,0.000
486324.999,-62.012,29.297,30.762,-43.457,-130.859,0.000,0.000,0.000
486325.003,-5.371,38.086,33.203,-12.207,-115.723,0.000,0.000,0.000
486325.007,94.238,44.434,31.738,62.012,99.121,0.000,0.000,0.000
486325.010,74.707,32.227,25.391,45.410,155.273,0.000,0.000,0.000
486325.014,-47.363,26.367,31.250,-29.297,-83.984,0.000,0.000,0.000
486325.018,-46.387,31.738,34.668,-25.391,-201.660,0.000,0.000,0.000
486325.022,66.895,32.715,29.297,51.270,12.207,0.000,0.000,0.000
486325.026,83.496,37.109,28.320,58.594,145.996,0.000,0.000,0.000
486325.030,-20.508,40.527,26.855,-13.184,-14.160,0.000,0.000,0.000
486325.034,-55.176,38.574,28.809,-42.480,-185.547,0.000,0.000,0.000
486325.038,22.949,38.574,24.414,13.184,-10.742,0.000,0.000,0.000
486325.042,94.238,39.551,21.973,62.500,235.840,0.000,0.000,0.000
486325.046,22.949,36.621,24.902,6.348,106.934,0.000,0.000,0.000
486325.049,-64.453,35.156,26.367,-48.340,-132.324,0.000,0.000,0.000
486325.053,6.836,32.715,30.273,6.348,-71.289,0.000,0.000,0.000
486325.057,100.586,33.203,35.156,79.590,177.246,0.000,0.000,0.000
486325.061,49.316,38.086,34.180,40.527,179.688,0.000,0.000,0.000
486325.065,-49.805,39.062,29.785,-39.062,-30.762,0.000,0.000,0.000
486325.069,-0.977,39.062,31.738,-14.648,-83.984,0.000,0.000,0.000
486325.073,85.938,33.203,35.156,63.965,75.684,0.000,0.000,0.000
486325.077,68.359,33.203,37.109,61.035,157.227,0.000,0.000,0.000
486325.081,-39.551,35.645,35.645,-20.508,-46.387,0.000,0.000,0.000
486325.085,-50.293,27.344,32.227,-34.180,-170.898,0.000,0.000,0.000
486325.089,54.199,30.762,29.785,44.922,61.523,0.000,0.000,0.000
486325.092,101.074,37.598,35.156,73.242,258.301,0.000,0.000,0.000
486325.096,3.418,39.062,38.574,6.836,65.918,0.000,0.000,0.000
486325.100,-59.082,37.109,26.855,-45.898,-111.328,0.000,0.000,0.000
486325.104,32.227,37.109,23.438,11.230,12.695,0.000,0.000,0.000
486325.108,129.395,39.062,26.367,70.312,197.754,0.000,0.000,0.000
486325.112,56.152,34.180,27.832,20.020,75.684,0.000,0.000,0.000
486325.116,-62.988,36.133,34.180,-41.016,-168.945,0.000,0.000,0.000
486325.120,-1.953,37.109,35.156,0.000,-122.559,0.000,0.000,0.000
486325.124,94.727,31.250,26.367,73.730,51.270,0.000,0.000,0.000
486325.128,51.270,30.762,26.367,48.340,61.523,0.000,0.000,0.000
486325.132,-50.781,34.180,34.668,-27.344,-100.098,0.000,0.000,0.000
486325.135,-21.484,36.621,35.156,-17.090,-190.430,0.000,0.000,0.000
486325.139,88.867,37.109,28.320,51.270,9.766,0.000,0.000,0.000
486325.143,98.145,37.109,23.438,57.617,156.250,0.000,0.000,0.000
486325.147,-15.137,39.551,26.855,-11.230,-44.434,0.000,0.000,0.000
486325.151,-36.621,38.086,25.879,-33.691,-191.895,0.000,0.000,0.000
486325.155,52.734,35.156,25.879,51.758,4.883,0.000,0.000,0.000
486325.159,100.098,41.504,29.297,90.332,203.125,0.000,0.000,0.000
486325.163,0.000,37.598,28.320,15.625,75.195,0.000,0.000,0.000
486325.167,-55.176,33.203,28.320,-30.273,-115.234,0.000,0.000,0.000
486325.171,38.574,33.691,26.855,22.949,-53.223,0.000,0.000,0.000
486325.174,117.676,30.273,25.391,75.195,157.715,0.000,0.000,0.000
486325.178,48.828,38.086,26.855,22.461,170.410,0.000,0.000,0.000
486325.182,-65.918,41.992,27.832,-40.039,-83.496,0.000,0.000,0.000
486325.186,-14.160,38.574,32.227,7.324,-177.734,0.000,0.000,0.000
486325.190,94.727,41.016,33.203,87.402,70.312,0.000,0.000,0.000
486325.194,79.102,42.480,29.297,67.383,186.523,0.000,0.000,0.000
486325.198,-41.992,36.133,31.738,-21.484,12.207,0.000,0.000,0.000
486325.202,-31.738,37.598,32.715,-20.508,-99.121,0.000,0.000,0.000
486325.206,81.055,45.410,32.227,70.312,36.621,0.000,0.000,0.000
486325.210,91.797,47.363,36.621,82.031,165.527,0.000,0.000,0.000
486325.214,-23.438,41.992,32.715,-9.277,25.391,0.000,0.000,0.000
486325.217,-61.035,38.574,28.320,-47.852,-138.184,0.000,0.000,0.000
486325.221,36.621,37.109,25.879,25.879,-20.020,0.000,0.000,0.000
486325.225,95.703,35.156,25.391,83.008,148.438,0.000,0.000,0.000
486325.229,21.973,38.086,26.855,14.160,70.801,0.000,0.000,0.000
486325.233,-50.781,36.133,30.273,-45.898,-62.988,0.000,0.000,0.000
486325.237,8.789,31.738,29.785,4.395,-1.465,0.000,0.000,0.000
486325.241,91.309,34.180,25.391,69.336,166.992,0.000,0.000,0.000
486325.245,47.363,39.551,29.785,30.273,124.023,0.000,0.000,0.000
486325.249,-63.477,38.574,31.738,-47.852,-89.355,0.000,0.000,0.000
486325.253,-34.668,33.691,27.832,-19.531,-125.977,0.000,0.000,0.000
486325.257,87.891,32.715,27.832,59.082,41.992,0.000,0.000,0.000
486325.260,68.848,31.250,27.832,41.992,111.328,0.000,0.000,0.000
486325.264,-74.707,31.250,30.762,-40.039,-78.125,0.000,0.000,0.000
486325.268,-60.059,33.203,25.879,-43.457,-259.766,0.000,0.000,0.000
486325.272,58.105,32.227,23.926,36.133,-97.656,0.000,0.000,0.000
486325.276,86.914,35.156,28.809,58.594,75.684,0.000,0.000,0.000
486325.280,-23.438,41.016,30.762,-11.719,-75.195,0.000,0.000,0.000
486325.284,-75.195,38.086,27.832,-44.434,-215.820,0.000,0.000,0.000
486325.288,30.273,32.227,25.391,21.484,-97.656,0.000,0.000,0.000
486325.292,102.051,30.762,26.855,66.406,110.840,0.000,0.000,0.000
486325.296,20.020,33.691,32.227,1.465,7.324,0.000,0.000,0.000
486325.299,-78.613,30.762,36.133,-43.457,-235.840,0.000,0.000,0.000
486325.303,-2.930,27.344,33.203,9.766,-176.758,0.000,0.000,0.000
486325.307,98.145,31.738,30.762,70.801,46.875,0.000,0.000,0.000
486325.311,44.434,30.273,27.832,30.273,31.250,0.000,0.000,0.000
486325.315,-55.176,32.227,26.367,-39.062,-222.168,0.000,0.000,0.000
486325.319,-21.973,35.645,26.367,-18.066,-282.715,0.000,0.000,0.000
486325.323,79.102,34.668,23.926,54.199,-5.859,0.000,0.000,0.000
486325.327,80.566,39.062,25.391,47.852,102.051,0.000,0.000,0.000
486325.331,-37.109,36.133,29.785,-19.043,-121.582,0.000,0.000,0.000
486325.335,-42.969,32.715,30.273,-26.367,-186.035,0.000,0.000,0.000
486325.339,65.918,39.062,30.273,42.969,22.461,0.000,0.000,0.000
486325.342,97.168,42.969,33.203,76.172,175.781,0.000,0.000,0.000
486325.346,-1.953,38.086,29.785,3.418,10.254,0.000,0.000,0.000
486325.350,-58.105,29.785,25.391,-46.387,-201.172,0.000,0.000,0.000
486325.354,37.109,32.227,22.949,9.277,-84.473,0.000,0.000,0.000
486325.358,110.352,34.180,24.414,73.730,170.410,0.000,0.000,0.000
486325.362,22.461,34.180,27.344,20.020,122.559,0.000,0.000,0.000
486325.366,-72.266,35.156,27.344,-48.340,-85.449,0.000,0.000,0.000
486325.370,3.906,34.180,21.973,-7.324,-54.688,0.000,0.000,0.000
486325.374,105.957,35.156,22.461,66.895,159.180,0.000,0.000,0.000
486325.378,69.824,38.086,23.438,44.434,190.430,0.000,0.000,0.000
486325.381,-46.875,37.598,24.414,-21.973,-24.414,0.000,0.000,0.000
486325.385,-29.297,35.156,29.297,-1.953,-100.098,0.000,0.000,0.000
486325.389,92.773,31.250,25.879,73.242,106.445,0.000,0.000,0.000
486325.393,139.160,28.320,31.250,89.355,270.020,0.000,0.000,0.000
486325.397,81.543,28.809,36.133,34.180,182.617,0.000,0.000,0.000
486325.401,93.750,28.320,26.855,23.438,172.852,0.000,0.000,0.000
486325.405,210.938,28.809,21.973,102.539,419.922,0.000,0.000,0.000
486325.409,256.836,34.180,28.320,144.531,633.789,0.000,0.000,0.000
486325.413,135.254,37.109,32.715,68.359,524.414,0.000,0.000,0.000
486325.417,45.898,29.297,30.762,13.184,277.832,0.000,0.000,0.000
486325.421,117.676,31.250,26.855,65.430,310.059,0.000,0.000,0.000
486325.424,180.176,33.691,22.949,109.863,521.484,0.000,0.000,0.000
486325.428,108.398,30.762,27.832,56.152,451.660,0.000,0.000,0.000
486325.432,1.465,34.180,33.203,-6.836,194.824,0.000,0.000,0.000
486325.436,36.133,32.227,29.297,20.996,135.742,0.000,0.000,0.000
486325.440,122.559,29.297,26.367,89.844,379.395,0.000,0.000,0.000
486325.444,93.750,34.180,33.203,76.660,437.012,0.000,0.000,0.000
486325.448,-31.250,35.156,33.691,-0.977,182.129,0.000,0.000,0.000
486325.452,-25.879,35.156,34.668,4.395,47.852,0.000,0.000,0.000
486325.456,82.031,35.156,31.738,79.590,220.215,0.000,0.000,0.000
486325.460,94.238,36.133,28.320,80.566,391.602,0.000,0.000,0.000
486325.464,-8.789,35.645,29.785,0.977,202.637,0.000,0.000,0.000
486325.467,-43.457,33.691,27.344,-28.809,14.160,0.000,0.000,0.000
486325.471,43.945,31.250,27.832,37.598,149.902,0.000,0.000,0.000
486325.475,91.309,27.832,27.832,82.031,333.008,0.000,0.000,0.000
486325.479,6.348,28.320,28.809,17.090,198.730,0.000,0.000,0.000
486325.483,-72.266,33.691,31.738,-39.062,-68.359,0.000,0.000,0.000
486325.487,-0.977,33.203,31.738,7.812,12.695,0.000,0.000,0.000
486325.491,85.938,23.438,26.367,67.383,259.766,0.000,0.000,0.000
486325.495,30.273,26.855,24.902,27.344,226.562,0.000,0.000,0.000
486325.499,-76.660,28.320,28.809,-38.574,-21.973,0.000,0.000,0.000
486325.503,-44.922,24.902,27.344,-14.648,-58.594,0.000,0.000,0.000
486325.506,56.152,25.879,23.438,52.734,176.270,0.000,0.000,0.000
486325.510,49.316,29.785,26.367,44.434,236.816,0.000,0.000,0.000
486325.514,-57.129,32.715,30.273,-30.762,30.273,0.000,0.000,0.000
486325.518,-58.594,35.156,27.832,-34.668,-73.242,0.000,0.000,0.000
486325.522,42.480,37.598,27.344,45.898,101.562,0.000,0.000,0.000
486325.526,71.777,32.227,26.367,62.500,234.375,0.000,0.000,0.000
486325.530,-19.043,35.645,27.832,-16.602,71.289,0.000,0.000,0.000
486325.534,-68.359,32.715,25.391,-50.781,-103.516,0.000,0.000,0.000
486325.538,9.277,26.367,19.531,13.184,16.602,0.000,0.000,0.000
486325.542,94.238,30.273,24.414,68.359,203.125,0.000,0.000,0.000
486325.546,23.438,29.785,28.320,11.719,98.145,0.000,0.000,0.000
486325.549,-83.496,27.344,23.438,-51.270,-107.422,0.000,0.000,0.000
486325.553,-9.766,31.250,27.832,1.953,-41.992,0.000,0.000,0.000
486325.557,87.891,36.621,27.344,70.801,214.844,0.000,0.000,0.000
486325.561,32.715,34.668,26.855,36.133,227.051,0.000,0.000,0.000
486325.565,-79.102,33.203,32.227,-30.762,19.043,0.000,0.000,0.000
486325.569,-40.527,35.645,27.344,-16.113,-35.645,0.000,0.000,0.000
486325.573,68.848,33.691,23.438,56.641,187.500,0.000,0.000,0.000
486325.577,65.430,31.738,29.297,57.129,319.824,0.000,0.000,0.000
486325.581,-39.551,34.180,32.227,-17.578,104.980,0.000,0.000,0.000
486325.585,-59.082,31.250,29.785,-33.203,-112.305,0.000,0.000,0.000
486325.589,42.480,29.297,29.297,34.668,-10.742,0.000,0.000,0.000
486325.592,93.262,26.855,25.391,64.453,178.711,0.000,0.000,0.000
486325.596,-5.859,26.367,24.902,-0.977,28.320,0.000,0.000,0.000
486325.600,-69.336,27.344,23.926,-44.922,-166.992,0.000,0.000,0.000
486325.604,13.184,29.297,22.461,8.789,-27.832,0.000,0.000,0.000
486325.608,82.520,32.715,21.973,59.570,147.949,0.000,0.000,0.000
486325.612,14.160,29.297,24.902,8.301,78.125,0.000,0.000,0.000
486325.616,-75.684,35.156,31.738,-44.434,-79.102,0.000,0.000,0.000
486325.620,-16.113,40.039,32.715,-6.348,-27.832,0.000,0.000,0.000
486325.624,79.102,31.250,27.344,56.641,178.711,0.000,0.000,0.000
486325.628,47.852,23.438,22.949,29.785,191.406,0.000,0.000,0.000
486325.631,-54.688,31.250,28.809,-36.621,-6.836,0.000,0.000,0.000
486325.635,-47.363,31.738,23.438,-28.320,-99.609,0.000,0.000,0.000
486325.639,50.293,19.043,21.484,41.016,56.641,0.000,0.000,0.000
486325.643,84.961,17.090,27.832,53.711,164.551,0.000,0.000,0.000
486325.647,-30.762,21.484,27.832,-18.555,-29.297,0.000,0.000,0.000
486325.651,-75.195,22.949,24.902,-36.133,-190.430,0.000,0.000,0.000
486325.655,24.414,23.926,19.043,31.738,-30.762,0.000,0.000,0.000
486325.659,72.754,20.996,17.578,62.012,142.578,0.000,0.000,0.000
486325.663,-15.625,20.020,23.926,0.977,29.297,0.000,0.000,0.000
486325.667,-81.543,24.902,27.832,-38.086,-163.086,0.000,0.000,0.000
486325.671,1.465,25.879,22.949,11.230,-123.047,0.000,0.000,0.000
486325.674,87.891,24.902,26.855,69.824,104.004,0.000,0.000,0.000
486325.678,33.203,24.414,30.762,31.738,63.965,0.000,0.000,0.000
486325.682,-56.152,29.297,30.762,-39.551,-152.344,0.000,0.000,0.000
486325.686,-9.766,30.273,32.227,-7.812,-122.070,0.000,0.000,0.000
486325.690,75.684,27.344,29.297,73.730,103.516,0.000,0.000,0.000
486325.694,54.199,32.715,27.832,56.152,134.766,0.000,0.000,0.000
486325.698,-45.898,30.762,29.785,-23.438,-71.777,0.000,0.000,0.000
486325.702,-46.875,23.438,26.855,-27.344,-137.695,0.000,0.000,0.000
486325.706,59.082,25.879,26.367,48.340,25.391,0.000,0.000,0.000
486325.710,92.285,33.203,28.320,70.312,170.898,0.000,0.000,0.000
486325.714,-21.973,34.668,28.809,-9.766,42.969,0.000,0.000,0.000
486325.717,-59.082,33.203,30.273,-35.645,-113.281,0.000,0.000,0.000
486325.721,49.805,35.645,28.320,29.785,-30.762,0.000,0.000,0.000
486325.725,109.375,33.203,26.367,64.941,138.184,0.000,0.000,0.000
486325.729,14.648,31.738,27.344,3.418,33.691,0.000,0.000,0.000
486325.733,-61.035,34.668,31.250,-43.945,-192.383,0.000,0.000,0.000
486325.737,13.672,32.715,25.879,5.371,-122.559,0.000,0.000,0.000
486325.741,87.891,26.855,20.508,62.500,120.605,0.000,0.000,0.000
486325.745,36.621,27.832,27.344,22.949,153.809,0.000,0.000,0.000
486325.749,-63.477,29.785,28.320,-42.969,-79.590,0.000,0.000,0.000
486325.753,-36.133,28.809,22.461,-19.531,-154.785,0.000,0.000,0.000
486325.756,62.500,30.762,26.367,53.711,94.238,0.000,0.000,0.000
486325.760,61.035,33.203,30.273,46.387,145.996,0.000,0.000,0.000
486325.764,-49.805,29.785,23.438,-29.785,-65.918,0.000,0.000,0.000
486325.768,-62.500,26.855,22.461,-33.203,-138.184,0.000,0.000,0.000
486325.772,55.664,29.785,25.391,45.898,24.414,0.000,0.000,0.000
486325.776,84.473,27.832,22.949,65.918,150.391,0.000,0.000,0.000
486325.780,-24.902,28.809,25.391,-5.371,-24.902,0.000,0.000,0.000
486325.784,-53.711,36.133,28.809,-30.273,-170.410,0.000,0.000,0.000
486325.788,40.527,29.297,23.438,30.273,-52.246,0.000,0.000,0.000
486325.792,105.957,25.391,28.320,83.984,147.461,0.000,0.000,0.000
486325.796,32.715,31.738,32.715,35.156,50.781,0.000,0.000,0.000
486325.799,-62.012,30.762,29.297,-36.133,-210.938,0.000,0.000,0.000
486325.803,-7.812,25.879,24.414,-13.184,-118.652,0.000,0.000,0.000
486325.807,92.773,27.832,25.879,60.059,170.410,0.000,0.000,0.000
486325.811,57.617,32.227,28.320,41.992,185.547,0.000,0.000,0.000
486325.815,-49.805,33.203,29.297,-22.461,-44.434,0.000,0.000,0.000
486325.819,-31.738,28.320,30.273,-14.160,-103.516,0.000,0.000,0.000
486325.823,69.824,24.414,28.320,51.270,92.285,0.000,0.000,0.000
486325.827,87.891,26.367,30.273,56.641,194.824,0.000,0.000,0.000
486325.831,-29.785,33.203,31.738,-18.066,24.902,0.000,0.000,0.000
486325.835,-60.059,28.320,28.809,-43.457,-58.594,0.000,0.000,0.000
486325.839,41.016,20.996,24.902,22.461,118.652,0.000,0.000,0.000
486325.842,93.750,25.879,28.320,56.152,250.000,0.000,0.000,0.000
486325.846,-1.953,30.273,31.738,-12.695,86.426,0.000,0.000,0.000
486325.850,-70.312,28.809,32.715,-52.246,-115.723,0.000,0.000,0.000
486325.854,19.531,27.832,36.621,9.766,-41.504,0.000,0.000,0.000
486325.858,108.887,31.250,37.109,63.477,138.184,0.000,0.000,0.000
486325.862,43.457,28.320,35.156,12.207,18.066,0.000,0.000,0.000
486325.866,-69.336,29.297,32.227,-47.852,-167.480,0.000,0.000,0.000
486325.870,-19.531,30.762,26.855,-6.836,-76.660,0.000,0.000,0.000
486325.874,83.984,23.438,26.367,71.289,143.555,2.000,1.000,45.000
486325.878,63.477,29.785,25.879,35.156,180.664,0.000,0.000,0.000
486325.881,-49.316,32.227,30.273,-40.039,-33.691,0.000,0.000,0.000
486325.885,-40.527,28.809,30.273,-23.438,-204.590,0.000,0.000,0.000
486325.889,79.102,29.297,26.855,46.875,-46.875,0.000,0.000,0.000
486325.893,95.703,32.715,31.738,55.664,142.090,0.000,0.000,0.000
486325.897,-20.020,35.156,36.133,-18.066,-26.855,0.000,0.000,0.000
486325.901,-49.805,34.180,36.621,-39.551,-171.875,0.000,0.000,0.000
486325.905,46.387,31.738,33.691,31.738,-9.766,0.000,0.000,0.000
486325.909,97.168,34.180,32.227,73.730,141.602,0.000,0.000,0.000
486325.913,6.348,33.691,33.691,12.695,-7.812,0.000,0.000,0.000
486325.917,-64.453,33.203,38.086,-27.832,-216.309,0.000,0.000,0.000
486325.921,23.438,28.809,35.156,19.043,-114.258,0.000,0.000,0.000
486325.924,106.934,20.996,32.227,69.824,159.668,0.000,0.000,0.000
486325.928,45.898,30.273,37.598,33.203,127.441,0.000,0.000,0.000
486325.932,-55.664,33.203,37.598,-32.227,-166.016,0.000,0.000,0.000
486325.936,-17.578,33.691,38.086,-7.812,-200.684,0.000,0.000,0.000
486325.940,86.914,41.016,40.527,64.941,61.523,0.000,0.000,0.000
486325.944,63.477,39.062,33.203,46.387,174.805,0.000,0.000,0.000
486325.948,-58.594,33.203,29.297,-26.855,11.719,0.000,0.000,0.000
486325.952,-57.129,27.344,29.785,-26.367,-86.914,0.000,0.000,0.000
486325.956,57.129,27.344,32.715,46.875,52.246,0.000,0.000,0.000
486325.960,91.309,32.715,33.203,69.824,123.047,0.000,0.000,0.000
486325.963,-20.020,31.738,32.227,-10.742,-120.117,0.000,0.000,0.000
486325.967,-60.547,26.855,30.762,-46.387,-270.020,0.000,0.000,0.000
486325.971,51.270,31.738,36.621,29.785,-66.406,0.000,0.000,0.000
486325.975,111.328,35.156,35.645,76.660,128.418,0.000,0.000,0.000
486325.979,6.836,24.414,28.320,10.254,-10.742,0.000,0.000,0.000
486325.983,-75.684,31.738,27.832,-41.504,-218.262,0.000,0.000,0.000
486325.987,8.301,35.645,29.785,1.953,-100.098,0.000,0.000,0.000
486325.991,89.844,29.785,33.203,60.547,180.664,0.000,0.000,0.000
486325.995,38.086,30.273,29.297,26.855,166.504,0.000,0.000,0.000
486325.999,-61.523,24.902,27.344,-39.062,-59.570,0.000,0.000,0.000
486326.003,-18.066,27.832,30.273,-11.719,-118.164,0.000,0.000,0.000
486326.006,101.074,30.762,25.391,63.477,28.320,0.000,0.000,0.000
486326.010,95.703,31.250,25.391,53.223,100.586,0.000,0.000,0.000
486326.014,-40.527,36.133,29.297,-35.156,-79.590,0.000,0.000,0.000
486326.018,-57.129,31.250,24.902,-43.457,-193.359,0.000,0.000,0.000
486326.022,51.270,23.438,27.344,41.504,3.906,0.000,0.000,0.000
486326.026,89.844,25.391,28.320,69.824,197.754,0.000,0.000,0.000
486326.030,-5.859,31.738,25.391,-4.395,28.809,0.000,0.000,0.000
486326.034,-58.594,31.250,25.391,-42.969,-169.922,0.000,0.000,0.000
486326.038,32.715,32.715,27.832,27.832,-73.242,0.000,0.000,0.000
486326.042,106.445,39.062,27.344,76.660,121.582,0.000,0.000,0.000
486326.046,33.691,42.480,26.367,10.254,83.496,0.000,0.000,0.000
486326.049,-55.176,33.203,24.902,-43.457,-69.824,0.000,0.000,0.000
486326.053,3.418,28.809,23.926,-0.488,8.301,0.000,0.000,0.000
486326.057,83.008,32.227,20.996,59.570,247.559,0.000,0.000,0.000
486326.061,40.039,33.203,20.020,28.809,213.379,0.000,0.000,0.000
486326.065,-57.617,34.180,27.832,-38.086,-66.895,0.000,0.000,0.000
486326.069,-39.551,29.785,23.438,-25.391,-105.957,0.000,0.000,0.000
486326.073,59.082,27.344,17.578,33.203,160.645,0.000,0.000,0.000
486326.077,69.336,30.273,24.902,40.527,275.879,0.000,0.000,0.000
486326.081,-36.621,33.691,28.320,-21.484,60.547,0.000,0.000,0.000
486326.085,-50.293,32.227,22.949,-41.504,-93.750,0.000,0.000,0.000
486326.088,58.594,30.273,17.578,35.156,84.473,0.000,0.000,0.000
486326.092,110.352,32.227,23.438,75.195,229.980,0.000,0.000,0.000
486326.096,15.137,42.480,33.203,12.207,1.465,0.000,0.000,0.000
486326.100,-56.152,35.645,23.926,-34.180,-231.934,0.000,0.000,0.000
486326.104,20.996,29.297,20.996,14.648,-121.094,0.000,0.000,0.000
486326.108,96.680,36.133,31.250,71.777,104.492,0.000,0.000,0.000
486326.112,31.250,34.668,32.715,20.996,55.664,0.000,0.000,0.000
486326.116,-60.547,38.574,29.785,-40.527,-174.805,0.000,0.000,0.000
486326.120,-8.301,35.156,24.414,-5.859,-155.273,0.000,0.000,0.000
486326.124,88.379,30.273,20.996,61.523,93.750,0.000,0.000,0.000
486326.128,73.730,35.645,21.484,46.875,109.863,0.000,0.000,0.000
486326.131,-31.738,38.086,28.320,-24.414,-117.676,0.000,0.000,0.000
486326.135,-23.438,39.551,29.297,-23.926,-207.031,0.000,0.000,0.000
486326.139,81.055,40.039,28.320,54.688,-21.484,0.000,0.000,0.000
486326.143,92.285,38.086,29.785,69.336,106.934,0.000,0.000,0.000
486326.147,-15.625,37.598,33.203,-12.207,-46.875,0.000,0.000,0.000
486326.151,-52.246,31.738,31.250,-44.922,-188.965,0.000,0.000,0.000
486326.155,40.039,26.855,21.973,22.949,-39.062,0.000,0.000,0.000
486326.159,99.121,27.344,23.926,69.336,146.484,0.000,0.000,0.000
486326.163,1.953,28.809,22.949,2.441,31.738,0.000,0.000,0.000
486326.167,-76.660,30.273,21.973,-46.387,-149.902,0.000,0.000,0.000
486326.171,8.301,31.250,21.973,4.883,-106.934,0.000,0.000,0.000
486326.174,102.051,28.809,24.414,66.895,116.699,0.000,0.000,0.000
486326.178,50.293,37.598,38.086,34.180,143.066,0.000,0.000,0.000
486326.182,-53.711,38.086,37.109,-33.203,-25.391,0.000,0.000,0.000
486326.186,-19.043,23.438,23.438,-15.625,-109.375,0.000,0.000,0.000
486326.190,80.078,24.414,22.949,60.059,40.527,0.000,0.000,0.000
486326.194,69.824,26.855,27.344,47.363,130.859,0.000,0.000,0.000
486326.198,-41.992,30.273,24.414,-30.762,-67.383,0.000,0.000,0.000
486326.202,-41.504,33.203,25.391,-30.762,-130.371,0.000,0.000,0.000
486326.206,63.965,34.668,28.320,47.852,84.961,0.000,0.000,0.000
486326.210,88.867,37.598,22.949,59.570,250.488,0.000,0.000,0.000
486326.213,-5.859,38.086,29.297,-16.602,120.117,0.000,0.000,0.000
486326.217,-51.758,35.645,28.809,-43.457,-73.730,0.000,0.000,0.000
486326.221,41.016,31.250,21.484,19.043,-40.527,0.000,0.000,0.000
486326.225,103.027,32.715,28.320,60.547,105.469,0.000,0.000,0.000
486326.229,11.719,39.551,33.691,4.395,32.227,0.000,0.000,0.000
486326.233,-72.266,39.062,31.250,-50.293,-179.199,0.000,0.000,0.000
486326.237,-6.836,32.715,29.297,-3.418,-164.551,0.000,0.000,0.000
486326.241,91.309,40.039,29.785,62.012,56.152,0.000,0.000,0.000
486326.245,56.152,46.875,32.227,26.367,41.992,0.000,0.000,0.000
486326.249,-51.758,35.156,32.227,-44.922,-211.426,0.000,0.000,0.000
486326.253,-28.809,26.855,26.367,-27.344,-243.164,0.000,0.000,0.000
486326.256,78.125,30.273,22.461,55.664,-0.488,0.000,0.000,0.000
486326.260,80.078,32.715,25.879,53.223,76.660,0.000,0.000,0.000
486326.264,-38.086,32.715,28.809,-25.391,-101.074,0.000,0.000,0.000
486326.268,-54.199,32.715,28.320,-43.945,-192.871,0.000,0.000,0.000
486326.272,55.176,34.180,28.809,29.297,2.930,0.000,0.000,0.000
486326.276,94.727,38.086,33.203,70.801,262.695,0.000,0.000,0.000
486326.280,-15.625,38.574,34.668,-1.953,79.102,0.000,0.000,0.000
486326.284,-71.777,27.344,32.227,-46.387,-210.938,0.000,0.000,0.000
486326.288,13.184,22.949,31.250,15.137,-60.547,0.000,0.000,0.000
486326.292,79.590,24.902,26.855,60.059,169.434,0.000,0.000,0.000
486326.296,7.324,24.902,28.809,6.836,98.633,0.000,0.000,0.000
486326.299,-79.590,30.762,31.738,-50.293,-22.461,0.000,0.000,0.000
486326.303,-10.742,32.715,28.809,-5.859,2.441,0.000,0.000,0.000
486326.307,89.355,27.344,25.391,63.965,161.621,0.000,0.000,0.000
486326.311,49.805,25.879,25.391,31.738,160.156,0.000,0.000,0.000
486326.315,-57.129,31.738,34.668,-32.715,-77.148,0.000,0.000,0.000
486326.319,-27.832,33.203,41.016,-18.555,-190.430,0.000,0.000,0.000
486326.323,75.684,27.832,31.738,47.363,-5.859,0.000,0.000,0.000
486326.327,78.125,29.297,25.391,46.875,122.070,0.000,0.000,0.000
486326.331,-29.297,34.180,28.809,-22.949,-46.387,0.000,0.000,0.000
486326.335,-48.828,35.645,24.902,-38.574,-193.359,0.000,0.000,0.000
486326.338,50.293,39.551,24.414,30.762,-46.875,0.000,0.000,0.000
486326.342,98.633,39.551,27.344,63.477,193.848,0.000,0.000,0.000
486326.346,0.977,31.738,27.344,-5.859,112.305,0.000,0.000,0.000
486326.350,-61.035,27.832,30.762,-41.992,-121.582,0.000,0.000,0.000
486326.354,26.855,26.367,29.297,17.578,-73.730,0.000,0.000,0.000
486326.358,106.445,28.320,32.715,69.824,135.254,0.000,0.000,0.000
486326.362,43.457,35.156,36.621,24.414,110.840,0.000,0.000,0.000
486326.366,-58.105,31.738,29.785,-45.898,-47.363,0.000,0.000,0.000
486326.370,-1.465,27.344,26.855,-8.789,-50.781,0.000,0.000,0.000
486326.374,98.145,32.227,31.250,76.660,155.762,0.000,0.000,0.000
486326.378,67.383,33.691,30.762,52.734,229.492,0.000,0.000,0.000
486326.381,-39.551,34.180,31.250,-18.066,-49.316,0.000,0.000,0.000
486326.385,-33.203,34.668,29.785,-18.555,-215.820,0.000,0.000,0.000
486326.389,67.383,29.785,27.344,51.758,8.789,0.000,0.000,0.000
486326.393,90.332,29.785,32.715,69.336,150.879,0.000,0.000,0.000
486326.397,-35.156,28.320,26.855,-11.230,-20.020,0.000,0.000,0.000
486326.401,-76.172,25.391,27.344,-39.551,-165.039,0.000,0.000,0.000
486326.405,29.785,28.320,27.344,20.020,1.953,0.000,0.000,0.000
486326.409,95.703,27.832,24.414,58.594,248.535,0.000,0.000,0.000
486326.413,15.137,33.203,26.855,7.324,144.531,0.000,0.000,0.000
486326.417,-62.500,35.156,27.344,-38.574,-60.059,0.000,0.000,0.000
486326.420,9.277,28.320,26.855,11.230,56.152,0.000,0.000,0.000
486326.424,101.562,30.762,29.297,75.195,260.254,0.000,0.000,0.000
486326.428,54.199,31.738,36.133,38.086,191.895,0.000,0.000,0.000
486326.432,-41.992,28.809,36.133,-30.273,-83.008,0.000,0.000,0.000
486326.436,-16.602,26.367,27.832,-11.719,-161.133,0.000,0.000,0.000
486326.440,69.336,24.414,26.367,63.965,31.250,0.000,0.000,0.000
486326.444,64.941,28.320,31.738,50.293,115.234,0.000,0.000,0.000
486326.448,-44.922,40.527,36.133,-28.320,-45.410,0.000,0.000,0.000
486326.452,-52.246,45.410,29.297,-28.809,-84.473,0.000,0.000,0.000
486326.456,60.547,38.086,22.949,37.598,121.582,0.000,0.000,0.000
486326.460,103.027,38.086,24.902,54.688,260.254,0.000,0.000,0.000
486326.463,-4.883,34.180,25.879,-15.137,123.047,0.000,0.000,0.000
486326.467,-43.945,29.785,32.715,-35.156,-83.496,0.000,0.000,0.000
486326.471,48.340,31.250,33.203,39.551,-66.406,0.000,0.000,0.000
486326.475,97.656,27.832,23.926,74.707,90.820,0.000,0.000,0.000
486326.479,14.648,28.809,26.855,10.254,23.438,0.000,0.000,0.000
486326.483,-64.941,35.156,31.738,-43.945,-183.594,0.000,0.000,0.000
486326.487,6.348,30.273,26.367,-3.418,-142.578,0.000,0.000,0.000
486326.491,99.609,28.320,26.367,67.383,51.270,0.000,0.000,0.000
486326.495,53.223,32.227,28.320,30.762,35.156,0.000,0.000,0.000
486326.499,-45.410,32.715,29.297,-36.133,-138.184,0.000,0.000,0.000
486326.503,-6.836,35.645,31.738,-13.672,-156.738,0.000,0.000,0.000
486326.506,86.914,30.273,27.344,54.688,42.480,0.000,0.000,0.000
486326.510,79.590,25.391,27.344,54.688,122.559,0.000,0.000,0.000
486326.514,-34.180,29.297,32.715,-9.766,-39.551,0.000,0.000,0.000
486326.518,-49.316,27.832,29.785,-16.602,-102.539,0.000,0.000,0.000
486326.522,50.781,26.855,28.320,46.875,63.477,0.000,0.000,0.000
486326.526,91.797,33.691,30.762,68.359,215.332,0.000,0.000,0.000
486326.530,-6.836,36.133,32.715,-2.441,60.059,0.000,0.000,0.000
486326.534,-61.523,28.809,33.203,-41.992,-145.020,0.000,0.000,0.000
486326.538,25.391,23.926,28.809,10.254,-31.250,0.000,0.000,0.000
486326.542,98.633,27.832,26.855,64.941,181.152,0.000,0.000,0.000
486326.545,34.668,38.086,27.344,24.414,52.734,0.000,0.000,0.000
486326.549,-51.758,34.668,21.973,-41.992,-185.059,0.000,0.000,0.000
486326.553,-3.906,24.902,20.020,-13.184,-176.270,0.000,0.000,0.000
486326.557,87.891,24.414,25.391,72.754,26.367,0.000,0.000,0.000
486326.561,59.570,30.762,30.273,55.664,69.824,0.000,0.000,0.000
486326.565,-54.688,34.180,31.738,-31.738,-170.410,0.000,0.000,0.000
486326.569,-38.086,30.273,29.297,-23.438,-258.789,0.000,0.000,0.000
486326.573,80.078,31.250,29.297,57.129,-21.484,0.000,0.000,0.000
486326.577,95.215,32.227,32.227,64.453,130.371,0.000,0.000,0.000
486326.581,-22.461,32.227,35.156,-9.766,-62.988,0.000,0.000,0.000
486326.585,-50.781,29.785,31.250,-30.762,-185.059,0.000,0.000,0.000
486326.588,54.688,28.320,22.949,41.992,0.000,0.000,0.000,0.000
486326.592,104.492,29.785,25.391,75.195,159.668,0.000,0.000,0.000
486326.596,17.578,35.156,32.715,6.836,14.160,0.000,0.000,0.000
486326.600,-50.293,41.016,30.762,-38.574,-183.105,0.000,0.000,0.000
486326.604,23.438,38.574,27.832,22.949,-119.141,0.000,0.000,0.000
486326.608,113.770,40.039,29.297,81.543,106.445,0.000,0.000,0.000
486326.612,61.035,42.969,34.668,31.250,83.496,0.000,0.000,0.000
486326.616,-46.875,41.992,35.156,-30.762,-153.809,0.000,0.000,0.000
486326.620,-11.230,35.156,31.250,-1.953,-145.020,0.000,0.000,0.000
486326.624,85.449,31.250,30.762,66.406,78.613,0.000,0.000,0.000
486326.628,68.848,32.715,30.273,45.898,155.762,0.000,0.000,0.000
486326.631,-47.363,40.039,31.738,-27.344,49.805,0.000,0.000,0.000
486326.635,-40.527,44.434,34.180,-20.020,-62.988,0.000,0.000,0.000
486326.639,78.613,39.062,36.621,58.105,34.180,0.000,0.000,0.000
486326.643,98.633,41.992,36.621,70.312,152.832,0.000,0.000,0.000
486326.647,-14.648,41.504,31.738,-8.789,-50.293,0.000,0.000,0.000
486326.651,-50.781,34.668,32.227,-32.715,-207.031,0.000,0.000,0.000
486326.655,52.246,40.039,36.621,37.109,-40.527,0.000,0.000,0.000
486326.659,104.980,40.527,30.273,71.777,153.320,0.000,0.000,0.000
486326.663,4.395,36.133,29.297,8.301,54.688,0.000,0.000,0.000
486326.667,-68.359,37.598,33.691,-38.086,-164.551,0.000,0.000,0.000
486326.670,13.184,34.668,30.273,8.789,-82.031,0.000,0.000,0.000
486326.674,88.379,36.133,28.809,65.918,192.871,0.000,0.000,0.000
486326.678,26.855,37.109,27.832,26.855,92.773,0.000,0.000,0.000
486326.682,-71.777,35.156,27.832,-40.039,-184.082,0.000,0.000,0.000
486326.686,-36.621,32.715,27.344,-19.531,-149.902,0.000,0.000,0.000
486326.690,71.289,27.832,29.297,53.711,91.797,0.000,0.000,0.000
486326.694,68.848,34.668,37.109,55.664,145.020,0.000,0.000,0.000
486326.698,-45.410,41.504,35.645,-21.484,-56.641,0.000,0.000,0.000
486326.702,-45.410,34.180,29.297,-29.297,-123.047,0.000,0.000,0.000
486326.706,61.523,29.785,29.297,49.316,69.336,0.000,0.000,0.000
486326.710,89.355,32.715,32.227,75.195,185.059,0.000,0.000,0.000
486326.713,-4.883,39.551,34.668,4.883,-34.180,0.000,0.000,0.000
486326.717,-48.340,38.086,28.320,-39.062,-218.262,0.000,0.000,0.000
486326.721,31.250,23.926,23.926,26.855,-27.344,0.000,0.000,0.000
486326.725,100.586,24.414,29.297,83.008,192.871,0.000,0.000,0.000
486326.729,25.391,34.668,35.645,20.996,72.266,0.000,0.000,0.000
486326.733,-77.637,36.133,29.785,-41.992,-100.098,0.000,0.000,0.000
486326.737,-13.672,30.762,22.461,-2.441,-52.734,0.000,0.000,0.000
486326.741,91.309,30.762,27.344,62.988,106.934,0.000,0.000,0.000
486326.745,39.551,36.621,34.180,30.273,129.395,0.000,0.000,0.000
486326.749,-67.383,30.762,33.691,-35.156,-68.359,0.000,0.000,0.000
486326.753,-19.531,29.297,29.297,-15.625,-121.582,0.000,0.000,0.000
486326.756,81.055,31.738,30.762,56.152,109.375,0.000,0.000,0.000
486326.760,75.684,32.227,28.320,50.781,237.793,0.000,0.000,0.000
486326.764,-42.480,31.250,25.391,-24.414,91.309,0.000,0.000,0.000
486326.768,-62.500,27.832,23.926,-31.250,-61.035,0.000,0.000,0.000
486326.772,53.223,30.273,24.902,41.504,90.332,0.000,0.000,0.000
486326.776,93.750,32.715,28.320,64.453,257.812,0.000,0.000,0.000
486326.780,-16.602,31.738,26.367,-9.277,100.098,0.000,0.000,0.000
486326.784,-61.523,29.297,29.785,-41.992,-115.234,0.000,0.000,0.000
486326.788,28.320,29.785,30.273,17.578,-58.105,0.000,0.000,0.000
486326.792,91.309,36.621,30.273,58.105,163.086,0.000,0.000,0.000
486326.795,22.461,38.086,32.227,2.441,114.258,0.000,0.000,0.000
486326.799,-57.129,37.598,34.180,-42.969,-119.629,0.000,0.000,0.000
486326.803,6.836,36.133,29.785,-0.977,-100.098,0.000,0.000,0.000
486326.807,94.238,28.809,24.902,64.453,154.785,0.000,0.000,0.000
486326.811,59.570,31.250,28.320,40.039,178.223,0.000,0.000,0.000
486326.815,-47.363,33.691,26.367,-34.668,-39.551,0.000,0.000,0.000
486326.819,-39.551,31.738,27.344,-26.855,-66.406,0.000,0.000,0.000
486326.823,64.941,32.715,27.832,45.410,81.543,0.000,0.000,0.000
486326.827,83.496,37.109,33.691,56.641,148.926,0.000,0.000,0.000
486326.831,-23.926,37.109,42.480,-14.160,4.395,0.000,0.000,0.000
486326.835,-49.316,30.273,36.621,-33.691,-106.445,0.000,0.000,0.000
486326.838,42.969,29.785,30.762,38.574,41.016,0.000,0.000,0.000
486326.842,95.703,30.762,32.715,74.219,160.156,0.000,0.000,0.000
486326.846,6.836,32.715,29.297,7.812,21.973,0.000,0.000,0.000
486326.850,-57.129,33.203,25.879,-38.086,-111.816,0.000,0.000,0.000
486326.854,27.344,30.273,24.902,8.301,-39.551,0.000,0.000,0.000
486326.858,94.238,31.738,21.484,66.406,162.109,0.000,0.000,0.000
486326.862,34.668,34.668,26.855,31.250,97.656,0.000,0.000,0.000
486326.866,-58.594,35.645,34.668,-33.203,-138.184,0.000,0.000,0.000
486326.870,-17.578,30.273,34.180,-7.324,-107.422,0.000,0.000,0.000
486326.874,86.426,25.391,32.227,56.641,120.605,0.000,0.000,0.000
486326.878,72.266,28.320,30.762,32.227,154.297,0.000,0.000,0.000
486326.881,-41.016,33.203,29.785,-39.062,-73.242,0.000,0.000,0.000
486326.885,-39.062,34.668,27.344,-33.203,-192.871,0.000,0.000,0.000
486326.889,60.059,30.762,23.926,39.062,-35.156,0.000,0.000,0.000
486326.893,83.984,30.762,25.879,55.664,114.258,0.000,0.000,0.000
486326.897,-17.578,37.598,29.785,-14.160,-32.227,0.000,0.000,0.000
486326.901,-67.383,31.738,27.344,-40.039,-152.344,0.000,0.000,0.000
486326.905,31.738,26.367,30.273,32.715,32.227,0.000,0.000,0.000
486326.909,99.609,27.344,35.156,77.148,163.574,0.000,0.000,0.000
486326.913,5.371,24.414,36.621,9.277,-2.930,0.000,0.000,0.000
486326.917,-65.918,24.902,33.691,-43.457,-217.773,0.000,0.000,0.000
486326.920,27.832,30.762,29.785,9.766,-174.316,0.000,0.000,0.000
486326.924,115.723,35.645,37.598,85.449,53.711,0.000,0.000,0.000
486326.928,51.270,33.691,40.039,45.410,92.773,0.000,0.000,0.000
486326.932,-57.617,31.250,35.156,-23.926,-119.141,0.000,0.000,0.000
486326.936,-21.484,30.762,32.715,5.371,-170.898,0.000,0.000,0.000
486326.940,88.379,32.715,28.320,67.871,44.434,0.000,0.000,0.000
486326.944,86.914,36.621,34.668,58.594,70.312,0.000,0.000,0.000
486326.948,-29.785,34.668,40.039,-14.648,-127.930,0.000,0.000,0.000
486326.952,-36.621,32.715,32.227,-25.391,-150.879,0.000,0.000,0.000
486326.956,64.453,30.762,25.879,44.922,-5.371,0.000,0.000,0.000
486326.960,98.145,27.832,26.855,68.848,125.977,0.000,0.000,0.000
486326.963,3.906,33.203,32.227,0.977,52.734,0.000,0.000,0.000
486326.967,-46.875,32.715,30.273,-34.668,-62.012,0.000,0.000,0.000
486326.971,45.898,32.715,27.832,31.738,54.199,0.000,0.000,0.000
486326.975,106.934,35.156,32.715,84.961,202.148,0.000,0.000,0.000
486326.979,26.855,35.645,33.691,28.809,92.285,0.000,0.000,0.000
486326.983,-50.293,41.504,41.016,-26.855,-110.840,0.000,0.000,0.000
486326.987,7.324,40.039,38.086,14.648,-56.152,0.000,0.000,0.000
486326.991,92.773,33.203,27.344,76.172,216.797,0.000,0.000,0.000
486326.995,63.477,30.762,31.250,47.852,193.848,0.000,0.000,0.000
486326.999,-46.875,30.762,34.180,-27.344,-63.477,0.000,0.000,0.000
486327.002,-30.273,28.809,31.250,-22.949,-96.191,0.000,0.000,0.000
486327.006,75.195,30.273,27.344,54.199,60.059,0.000,0.000,0.000
486327.010,89.355,34.668,31.738,63.477,134.277,0.000,0.000,0.000
486327.014,-21.484,37.598,37.109,-8.789,-75.684,0.000,0.000,0.000
486327.018,-47.852,38.086,33.203,-23.926,-215.820,0.000,0.000,0.000
486327.022,53.223,33.691,27.832,45.410,-11.719,0.000,0.000,0.000
486327.026,98.633,31.738,27.344,74.219,185.059,0.000,0.000,0.000
486327.030,6.836,34.668,31.738,10.742,59.082,0.000,0.000,0.000
486327.034,-55.664,31.738,30.273,-35.156,-124.023,0.000,0.000,0.000
486327.038,18.066,26.367,31.738,16.602,-13.672,0.000,0.000,0.000
486327.042,92.773,24.902,34.668,75.684,138.672,0.000,0.000,0.000
486327.045,27.832,28.809,34.668,25.391,-3.418,0.000,0.000,0.000
486327.049,-68.848,28.320,32.227,-37.109,-216.309,0.000,0.000,0.000
486327.053,-12.695,20.996,27.832,2.930,-151.367,0.000,0.000,0.000
486327.057,90.332,23.438,26.855,71.777,97.656,0.000,0.000,0.000
486327.061,63.965,33.203,27.832,48.828,98.633,0.000,0.000,0.000
486327.065,-51.758,30.762,29.297,-27.832,-138.672,0.000,0.000,0.000
486327.069,-38.574,27.344,28.320,-20.996,-215.332,0.000,0.000,0.000
486327.073,75.195,30.762,26.855,52.734,16.113,0.000,0.000,0.000
486327.077,85.449,31.738,32.715,60.547,216.309,0.000,0.000,0.000
486327.081,-27.344,33.203,35.645,-6.348,51.270,0.000,0.000,0.000
486327.085,-47.852,33.691,32.227,-27.344,-134.277,0.000,0.000,0.000
486327.088,61.523,34.668,33.691,39.551,-4.883,0.000,0.000,0.000
486327.092,113.281,32.227,32.227,74.219,181.152,0.000,0.000,0.000
486327.096,19.043,31.738,32.227,13.672,58.105,0.000,0.000,0.000
486327.100,-47.852,31.738,37.109,-24.902,-184.082,0.000,0.000,0.000
486327.104,22.949,27.832,35.156,25.391,-96.680,0.000,0.000,0.000
486327.108,85.938,26.367,26.367,78.125,146.973,0.000,0.000,0.000
486327.112,29.297,27.344,30.273,38.574,66.406,0.000,0.000,0.000
486327.116,-61.035,28.809,36.621,-26.367,-151.855,0.000,0.000,0.000
486327.120,-29.297,29.297,29.785,-2.441,-155.762,0.000,0.000,0.000
486327.124,75.684,29.785,29.297,66.895,30.762,0.000,0.000,0.000
486327.127,72.754,32.227,34.180,52.734,75.195,0.000,0.000,0.000
486327.131,-35.645,36.133,35.645,-6.836,-136.230,0.000,0.000,0.000
486327.135,-31.738,37.109,33.203,-12.207,-246.094,0.000,0.000,0.000
486327.139,68.359,35.645,29.297,48.340,-47.852,0.000,0.000,0.000
486327.143,92.773,34.668,26.367,60.547,136.230,0.000,0.000,0.000
486327.147,-9.766,34.180,24.414,-22.949,-59.082,0.000,0.000,0.000
486327.151,-54.688,33.203,28.809,-41.016,-236.816,0.000,0.000,0.000
486327.155,38.574,32.227,28.809,32.715,-53.711,0.000,0.000,0.000
486327.159,104.492,33.691,23.438,74.219,155.762,0.000,0.000,0.000
486327.163,17.578,36.133,24.902,10.742,67.871,0.000,0.000,0.000
486327.167,-64.941,35.156,27.344,-41.504,-169.434,0.000,0.000,0.000
486327.170,-1.953,38.086,24.902,5.859,-77.148,0.000,0.000,0.000
486327.174,83.008,35.156,23.438,65.430,188.965,0.000,0.000,0.000
486327.178,33.691,26.367,21.484,20.996,83.496,0.000,0.000,0.000
486327.182,-71.777,22.949,21.484,-54.199,-137.207,0.000,0.000,0.000
486327.186,-33.203,22.949,25.391,-27.344,-122.070,0.000,0.000,0.000
486327.190,76.172,24.902,28.320,53.711,108.887,0.000,0.000,0.000
486327.194,61.523,25.879,26.367,42.480,191.406,0.000,0.000,0.000
486327.198,-51.270,26.855,32.227,-30.273,-20.508,0.000,0.000,0.000
486327.202,-53.223,24.902,29.785,-34.668,-62.988,0.000,0.000,0.000
486327.206,51.270,24.414,22.461,33.691,169.922,0.000,0.000,0.000
486327.210,94.727,28.809,24.414,56.152,247.559,0.000,0.000,0.000
486327.213,-20.508,28.809,23.438,-22.461,30.762,0.000,0.000,0.000
486327.217,-85.938,24.902,20.020,-60.547,-150.391,0.000,0.000,0.000
486327.221,12.207,25.391,19.531,8.789,-36.133,0.000,0.000,0.000
486327.225,85.449,26.367,24.902,61.035,182.617,0.000,0.000,0.000
486327.229,17.578,31.250,31.250,7.324,115.234,0.000,0.000,0.000
486327.233,-63.477,32.227,27.344,-44.434,-121.582,0.000,0.000,0.000
486327.237,5.859,34.180,24.414,2.441,-133.789,0.000,0.000,0.000
486327.241,103.027,38.574,27.832,69.336,97.168,0.000,0.000,0.000
486327.245,63.477,38.574,29.785,38.086,126.953,0.000,0.000,0.000
486327.249,-43.457,39.062,28.809,-36.133,-96.680,0.000,0.000,0.000
486327.252,-26.855,35.156,25.391,-22.461,-141.113,0.000,0.000,0.000
486327.256,66.895,33.691,21.484,50.293,90.332,0.000,0.000,0.000
486327.260,81.543,34.668,25.879,50.781,190.918,0.000,0.000,0.000
486327.264,-27.344,36.621,31.738,-16.113,-10.254,0.000,0.000,0.000
486327.268,-64.453,37.109,29.785,-25.391,-80.078,0.000,0.000,0.000
486327.272,41.016,35.645,29.297,48.828,110.840,0.000,0.000,0.000
486327.276,91.309,36.133,28.320,73.242,264.648,0.000,0.000,0.000
486327.280,5.859,32.227,28.809,2.930,114.258,0.000,0.000,0.000
486327.284,-58.105,27.832,25.879,-39.062,-185.059,0.000,0.000,0.000
486327.288,13.184,27.344,20.996,10.254,-92.773,0.000,0.000,0.000
486327.292,94.727,31.738,24.902,66.895,146.973,0.000,0.000,0.000
486327.295,32.715,35.156,28.809,26.367,27.344,0.000,0.000,0.000
486327.299,-57.129,35.156,27.832,-38.574,-187.012,0.000,0.000,0.000
486327.303,0.000,34.180,21.973,-13.184,-155.762,0.000,0.000,0.000
486327.307,100.586,36.621,23.438,63.965,71.777,0.000,0.000,0.000
486327.311,72.266,42.480,31.250,41.504,117.676,0.000,0.000,0.000
486327.315,-35.645,41.992,27.832,-34.180,-119.629,0.000,0.000,0.000
486327.319,-23.438,39.062,26.367,-26.855,-155.273,0.000,0.000,0.000
486327.323,80.566,40.039,27.344,39.551,99.121,0.000,0.000,0.000
486327.327,101.562,41.504,26.367,49.805,188.965,0.000,0.000,0.000
486327.331,-17.578,42.480,28.320,-25.879,-21.973,0.000,0.000,0.000
486327.335,-51.758,41.992,31.250,-46.387,-147.949,0.000,0.000,0.000
486327.338,51.270,40.527,32.227,32.227,17.578,0.000,0.000,0.000
486327.342,98.633,28.809,28.809,68.359,216.309,0.000,0.000,0.000
486327.346,20.020,27.832,29.785,9.766,92.773,0.000,0.000,0.000
486327.350,-50.781,29.785,26.367,-39.062,-140.137,0.000,0.000,0.000
486327.354,14.648,26.855,24.902,11.719,-71.777,0.000,0.000,0.000
486327.358,104.980,31.738,30.273,73.242,190.918,0.000,0.000,0.000
486327.362,37.109,31.738,29.785,24.414,138.672,0.000,0.000,0.000
486327.366,-72.266,26.855,29.297,-44.922,-87.402,0.000,0.000,0.000
486327.370,-21.484,25.391,25.879,-20.020,-51.758,0.000,0.000,0.000
486327.374,82.520,20.020,21.484,49.805,118.164,0.000,0.000,0.000
486327.377,67.871,20.996,24.902,29.297,160.156,0.000,0.000,0.000
486327.381,-37.598,28.320,29.297,-41.504,-18.066,0.000,0.000,0.000
486327.385,-37.109,30.273,22.949,-38.086,-147.949,0.000,0.000,0.000
486327.389,54.688,32.227,24.414,34.180,41.504,0.000,0.000,0.000
486327.393,81.055,34.180,27.344,49.316,175.293,4.000,1.000,45.000
486327.397,-24.414,35.156,30.273,-25.879,-17.578,0.000,0.000,0.000
486327.401,-69.336,33.203,30.273,-46.387,-141.113,0.000,0.000,0.000
486327.405,37.109,30.273,26.367,22.461,-2.441,0.000,0.000,0.000
486327.409,100.586,27.344,28.809,71.777,140.625,0.000,0.000,0.000
486327.413,10.742,31.738,28.809,17.090,17.090,0.000,0.000,0.000
486327.417,-69.336,30.762,29.297,-50.293,-175.781,0.000,0.000,0.000
486327.420,-7.812,20.020,30.273,-9.277,-100.098,0.000,0.000,0.000
486327.424,76.172,23.438,26.367,51.270,150.391,0.000,0.000,0.000
486327.428,45.410,34.668,29.297,20.996,119.629,0.000,0.000,0.000
486327.432,-51.270,36.133,36.621,-39.062,-118.164,0.000,0.000,0.000
486327.436,-17.578,31.738,32.715,-26.367,-114.258,0.000,0.000,0.000
486327.440,70.801,25.879,29.785,51.270,139.648,0.000,0.000,0.000
486327.444,60.059,24.414,30.762,54.199,215.332,0.000,0.000,0.000
486327.448,-43.945,32.715,34.180,-21.973,-7.812,0.000,0.000,0.000
486327.452,-59.082,31.738,36.133,-32.227,-126.953,0.000,0.000,0.000
486327.456,37.109,22.461,30.762,38.574,61.523,0.000,0.000,0.000
486327.460,79.102,24.902,28.320,62.988,208.984,0.000,0.000,0.000
486327.463,-12.207,29.785,32.715,-5.371,0.977,0.000,0.000,0.000
486327.467,-51.758,34.180,30.762,-39.551,-169.434,0.000,0.000,0.000
486327.471,39.062,35.156,27.344,19.531,17.090,0.000,0.000,0.000
486327.475,104.980,28.809,26.367,72.266,260.742,0.000,0.000,0.000
486327.479,40.527,28.320,26.855,22.461,213.867,0.000,0.000,0.000
486327.483,-46.387,31.738,26.367,-38.086,4.883,0.000,0.000,0.000
486327.487,3.418,30.762,23.926,0.977,14.648,0.000,0.000,0.000
486327.491,96.191,28.320,22.949,77.148,225.098,0.000,0.000,0.000
486327.495,66.406,30.273,30.273,50.293,217.773,0.000,0.000,0.000
486327.499,-48.340,32.227,33.203,-30.762,10.742,0.000,0.000,0.000
486327.502,-27.832,32.227,29.297,-14.160,-68.848,0.000,0.000,0.000
486327.506,81.543,32.715,32.227,62.012,102.051,0.000,0.000,0.000
486327.510,85.449,33.691,33.691,55.176,179.199,0.000,0.000,0.000
486327.514,-27.832,32.227,30.762,-23.926,-73.730,0.000,0.000,0.000
486327.518,-49.805,30.273,31.250,-29.785,-247.070,0.000,0.000,0.000
486327.522,43.457,35.156,28.809,37.109,-45.898,0.000,0.000,0.000
486327.526,81.543,33.203,23.926,52.734,211.426,0.000,0.000,0.000
486327.530,-9.277,32.227,24.902,-13.184,102.539,0.000,0.000,0.000
486327.534,-65.430,33.203,26.855,-47.363,-98.633,0.000,0.000,0.000
486327.538,13.184,32.715,29.785,13.672,-45.410,0.000,0.000,0.000
486327.542,90.820,32.227,28.809,67.871,117.188,0.000,0.000,0.000
486327.545,40.527,33.691,31.738,26.855,38.086,0.000,0.000,0.000
486327.549,-45.410,32.227,36.621,-31.250,-168.945,0.000,0.000,0.000
486327.553,10.742,31.738,32.227,-0.977,-178.223,0.000,0.000,0.000
486327.557,94.238,28.809,25.391,66.895,49.316,0.000,0.000,0.000
486327.561,56.641,25.391,26.367,45.898,121.582,0.000,0.000,0.000
486327.565,-54.199,34.668,32.227,-22.949,-169.922,0.000,0.000,0.000
486327.569,-40.039,34.668,32.715,-15.137,-223.145,0.000,0.000,0.000
486327.573,61.523,27.344,30.273,51.270,36.621,0.000,0.000,0.000
486327.577,79.590,31.738,33.203,65.430,140.625,0.000,0.000,0.000
486327.581,-24.414,33.691,38.086,2.441,-58.105,0.000,0.000,0.000
486327.584,-63.477,29.785,35.645,-27.344,-217.773,0.000,0.000,0.000
486327.588,38.086,29.785,27.832,27.344,-8.301,0.000,0.000,0.000
486327.592,100.586,28.320,27.344,60.059,235.840,0.000,0.000,0.000
486327.596,20.020,34.180,34.668,7.324,133.789,0.000,0.000,0.000
486327.600,-57.129,37.598,34.180,-38.086,-77.148,0.000,0.000,0.000
486327.604,12.207,26.855,23.438,6.836,-15.137,0.000,0.000,0.000
486327.608,99.609,27.344,26.855,79.102,225.586,0.000,0.000,0.000
486327.612,49.316,31.738,31.250,38.086,146.484,0.000,0.000,0.000
486327.616,-49.805,31.738,30.273,-41.992,-90.332,0.000,0.000,0.000
486327.620,-18.555,30.273,22.949,-16.113,-20.508,0.000,0.000,0.000
486327.624,78.125,30.762,25.391,62.500,175.781,0.000,0.000,0.000
486327.627,72.754,35.156,34.180,50.293,150.391,0.000,0.000,0.000
486327.631,-41.992,34.180,32.715,-28.320,-108.887,0.000,0.000,0.000
486327.635,-48.340,30.273,25.391,-34.668,-218.750,0.000,0.000,0.000
486327.639,67.383,28.320,21.484,45.410,-0.977,0.000,0.000,0.000
486327.643,106.934,30.273,25.391,69.336,141.602,0.000,0.000,0.000
486327.647,-0.488,32.227,30.273,1.465,-25.879,0.000,0.000,0.000
486327.651,-45.898,32.227,29.297,-29.785,-205.566,0.000,0.000,0.000
486327.655,43.457,32.715,25.879,35.645,-130.371,0.000,0.000,0.000
486327.659,103.027,29.785,23.438,84.473,16.602,0.000,0.000,0.000
486327.663,28.809,33.203,23.926,25.391,-40.527,0.000,0.000,0.000
486327.667,-48.828,33.203,24.902,-40.039,-193.848,0.000,0.000,0.000
486327.670,14.648,29.297,26.367,3.418,-146.973,0.000,0.000,0.000
486327.674,101.074,31.738,26.367,77.148,116.699,0.000,0.000,0.000
486327.678,70.312,36.621,29.297,37.598,158.203,0.000,0.000,0.000
486327.682,-32.227,35.156,26.855,-30.762,-89.355,0.000,0.000,0.000
486327.686,-19.531,26.367,20.020,-4.883,-150.391,0.000,0.000,0.000
486327.690,82.520,34.668,24.414,65.918,45.410,0.000,0.000,0.000
486327.694,91.309,39.062,30.273,62.500,96.680,0.000,0.000,0.000
486327.698,-34.668,27.344,31.250,-17.090,-113.770,0.000,0.000,0.000
486327.702,-59.570,25.391,27.832,-24.902,-168.457,0.000,0.000,0.000
486327.706,60.059,27.832,26.855,52.734,42.969,0.000,0.000,0.000
486327.709,99.121,27.344,27.832,70.312,157.227,0.000,0.000,0.000
486327.713,0.000,29.785,22.461,-0.977,41.504,0.000,0.000,0.000
486327.717,-60.059,32.227,20.508,-35.156,-63.477,0.000,0.000,0.000
486327.721,25.391,31.250,22.461,24.902,74.707,0.000,0.000,0.000
486327.725,104.492,34.180,24.902,74.219,217.285,0.000,0.000,0.000
486327.729,22.461,39.062,23.926,22.949,77.637,0.000,0.000,0.000
486327.733,-61.035,35.645,24.414,-38.086,-138.672,0.000,0.000,0.000
486327.737,10.254,33.691,25.879,4.395,-103.516,0.000,0.000,0.000
486327.741,103.516,33.691,28.809,73.242,94.727,0.000,0.000,0.000
486327.745,67.383,35.156,31.738,42.480,87.402,0.000,0.000,0.000
486327.749,-40.527,37.109,29.785,-22.949,-102.539,0.000,0.000,0.000
486327.752,-23.926,35.645,23.926,-19.531,-121.582,0.000,0.000,0.000
486327.756,78.613,36.621,23.926,54.688,66.406,0.000,0.000,0.000
486327.760,83.008,39.062,28.320,60.547,147.949,0.000,0.000,0.000
486327.764,-10.254,40.039,33.691,-23.926,-37.109,0.000,0.000,0.000
486327.768,-30.273,39.551,31.250,-42.969,-147.461,0.000,0.000,0.000
486327.772,48.340,31.738,20.996,24.414,14.648,0.000,0.000,0.000
486327.776,95.215,25.879,24.902,69.824,164.551,0.000,0.000,0.000
486327.780,-2.441,29.785,30.273,12.207,27.344,0.000,0.000,0.000
486327.784,-70.801,28.320,30.762,-30.762,-133.301,0.000,0.000,0.000
486327.788,20.020,31.250,33.203,24.414,-20.996,0.000,0.000,0.000
486327.792,101.562,34.180,33.203,76.172,188.965,0.000,0.000,0.000
486327.795,36.133,36.621,32.715,29.297,108.887,0.000,0.000,0.000
486327.799,-53.711,38.574,33.691,-36.621,-115.723,0.000,0.000,0.000
486327.803,-2.441,30.762,31.738,-3.906,-101.562,0.000,0.000,0.000
486327.807,93.262,29.785,31.738,68.359,183.594,0.000,0.000,0.000
486327.811,74.707,35.156,35.156,47.852,178.223,0.000,0.000,0.000
486327.815,-42.969,32.227,30.762,-26.367,-90.332,0.000,0.000,0.000
486327.819,-31.250,26.855,29.297,-17.090,-120.605,0.000,0.000,0.000
486327.823,82.520,31.738,28.320,62.500,78.125,0.000,0.000,0.000
486327.827,96.191,36.133,25.879,71.777,193.359,0.000,0.000,0.000
486327.831,-6.348,36.133,25.879,0.000,-14.160,0.000,0.000,0.000
486327.834,-34.180,38.574,25.391,-25.879,-186.523,0.000,0.000,0.000
486327.838,52.734,36.621,23.438,38.574,-44.922,0.000,0.000,0.000
486327.842,101.562,30.273,22.949,70.801,129.883,0.000,0.000,0.000
486327.846,20.020,32.715,30.762,4.883,27.344,0.000,0.000,0.000
486327.850,-52.734,33.691,33.691,-40.527,-184.082,0.000,0.000,0.000
486327.854,13.184,28.320,30.762,11.230,-134.277,0.000,0.000,0.000
486327.858,85.938,28.320,28.809,66.895,134.277,0.000,0.000,0.000
486327.862,38.086,36.621,29.785,29.785,172.852,0.000,0.000,0.000
486327.866,-46.875,40.527,27.832,-39.551,-9.766,0.000,0.000,0.000
486327.870,-13.184,27.832,21.973,-17.578,-77.148,0.000,0.000,0.000
486327.874,74.219,23.926,26.367,62.500,96.191,0.000,0.000,0.000
486327.877,63.477,34.180,28.809,47.363,153.320,0.000,0.000,0.000
486327.881,-51.270,32.715,28.809,-30.273,-112.305,0.000,0.000,0.000
486327.885,-46.387,24.414,27.832,-36.133,-221.680,0.000,0.000,0.000
486327.889,68.359,26.367,24.414,37.109,-11.719,0.000,0.000,0.000
486327.893,96.191,29.785,26.367,60.547,162.598,0.000,0.000,0.000
486327.897,-14.160,33.691,28.320,-9.766,5.859,0.000,0.000,0.000
486327.901,-58.105,35.645,26.367,-39.551,-160.645,0.000,0.000,0.000
486327.905,45.410,35.645,26.855,28.809,-12.207,0.000,0.000,0.000
486327.909,102.539,32.715,26.367,71.777,133.301,0.000,0.000,0.000
486327.913,14.160,26.855,27.832,8.789,7.324,0.000,0.000,0.000
486327.917,-68.359,31.250,26.367,-45.898,-146.973,0.000,0.000,0.000
486327.920,1.465,35.645,25.391,2.930,-52.246,0.000,0.000,0.000
486327.924,94.238,30.762,26.367,72.754,145.020,0.000,0.000,0.000
486327.928,60.059,34.668,31.738,40.039,103.516,0.000,0.000,0.000
486327.932,-47.852,34.668,31.738,-37.109,-136.719,0.000,0.000,0.000
486327.936,-23.438,31.738,27.832,-23.438,-145.996,0.000,0.000,0.000
486327.940,89.355,36.621,30.273,59.082,116.211,0.000,0.000,0.000
486327.944,89.844,37.598,25.391,54.199,190.918,0.000,0.000,0.000
486327.948,-27.832,30.273,23.926,-23.438,-54.688,0.000,0.000,0.000
486327.952,-44.922,25.879,27.832,-28.809,-143.555,0.000,0.000,0.000
486327.956,55.176,27.344,27.832,42.480,56.641,0.000,0.000,0.000
486327.959,89.355,27.832,30.762,68.848,163.574,0.000,0.000,0.000
486327.963,-12.695,31.250,36.133,-1.953,-7.812,0.000,0.000,0.000
486327.967,-67.871,32.715,37.109,-38.574,-187.500,0.000,0.000,0.000
486327.971,40.039,31.738,37.598,35.645,-87.402,0.000,0.000,0.000
486327.975,123.535,36.621,37.598,94.238,149.414,0.000,0.000,0.000
486327.979,26.855,32.715,30.762,27.832,123.047,0.000,0.000,0.000
486327.983,-70.801,25.391,29.297,-42.480,-123.047,0.000,0.000,0.000
486327.987,-14.160,25.391,31.250,-2.930,-184.082,0.000,0.000,0.000
486327.991,79.590,26.855,28.320,65.918,36.621,0.000,0.000,0.000
486327.995,42.480,30.273,26.855,37.109,92.285,0.000,0.000,0.000
486327.999,-62.988,37.598,32.227,-36.621,-113.281,0.000,0.000,0.000
486328.002,-35.645,41.992,34.180,-25.391,-173.340,0.000,0.000,0.000
486328.006,71.777,35.645,32.227,52.246,10.254,0.000,0.000,0.000
486328.010,75.684,30.273,33.203,57.617,105.469,0.000,0.000,0.000
486328.014,-34.668,31.250,33.691,-18.555,-77.148,0.000,0.000,0.000
486328.018,-49.805,30.762,33.691,-37.598,-107.910,0.000,0.000,0.000
486328.022,50.781,28.809,27.832,30.273,60.059,0.000,0.000,0.000
486328.026,93.262,31.250,28.320,63.477,154.785,0.000,0.000,0.000
486328.030,4.883,38.574,34.668,1.465,21.484,0.000,0.000,0.000
486328.034,-50.293,35.645,31.250,-48.340,-188.965,0.000,0.000,0.000
486328.038,12.695,28.320,20.996,-1.465,-78.125,0.000,0.000,0.000
486328.041,81.543,30.273,20.996,58.105,215.820,0.000,0.000,0.000
486328.045,23.926,34.668,30.273,18.555,224.121,0.000,0.000,0.000
486328.049,-72.754,30.273,28.320,-46.387,-54.199,0.000,0.000,0.000
486328.053,-27.344,26.855,23.926,-23.926,-108.398,0.000,0.000,0.000
486328.057,83.008,27.344,26.367,56.641,112.305,0.000,0.000,0.000
486328.061,70.312,36.621,33.203,43.457,120.117,0.000,0.000,0.000
486328.065,-55.664,39.551,33.691,-37.109,-83.008,0.000,0.000,0.000
486328.069,-43.945,26.855,24.414,-33.203,-129.395,0.000,0.000,0.000
486328.073,72.754,28.809,25.879,41.992,71.289,0.000,0.000,0.000
486328.077,86.426,32.715,27.344,60.547,189.941,0.000,0.000,0.000
486328.081,-19.043,30.273,28.809,-6.348,9.277,0.000,0.000,0.000
486328.084,-58.594,25.879,28.320,-35.156,-130.859,0.000,0.000,0.000
486328.088,34.180,23.438,25.391,31.738,25.391,0.000,0.000,0.000
486328.092,99.609,28.809,29.785,79.590,212.891,0.000,0.000,0.000
486328.096,13.184,29.297,33.691,17.090,98.145,0.000,0.000,0.000
486328.100,-51.270,31.738,32.227,-37.109,-95.215,0.000,0.000,0.000
486328.104,31.738,28.320,30.762,14.160,-57.129,0.000,0.000,0.000
486328.108,96.680,23.926,33.691,73.730,157.715,0.000,0.000,0.000
486328.112,39.551,31.738,32.715,31.250,179.199,0.000,0.000,0.000
486328.116,-56.152,34.668,36.621,-33.691,-19.043,0.000,0.000,0.000
486328.120,-20.508,31.738,41.504,-2.441,-10.742,0.000,0.000,0.000
486328.124,82.520,27.832,34.668,69.824,182.129,0.000,0.000,0.000
486328.127,78.613,32.715,32.227,56.641,256.348,0.000,0.000,0.000
486328.131,-36.621,31.738,38.574,-15.137,75.195,0.000,0.000,0.000
486328.135,-42.969,23.926,39.062,-22.461,-57.617,0.000,0.000,0.000
486328.139,60.059,23.926,34.668,47.363,116.699,0.000,0.000,0.000
486328.143,84.473,27.344,32.715,73.730,265.625,0.000,0.000,0.000
486328.147,-16.602,31.738,33.691,7.812,108.887,0.000,0.000,0.000
486328.151,-58.594,34.180,34.180,-26.367,-77.637,0.000,0.000,0.000
486328.155,38.574,37.109,29.297,35.645,42.969,0.000,0.000,0.000
486328.159,112.305,41.992,27.832,79.590,256.348,0.000,0.000,0.000
486328.163,32.715,37.598,29.297,17.090,140.137,0.000,0.000,0.000
486328.166,-60.059,28.320,26.367,-36.133,-163.086,0.000,0.000,0.000
486328.170,6.348,26.367,23.438,3.906,-108.887,0.000,0.000,0.000
486328.174,102.539,28.809,24.414,63.965,181.152,0.000,0.000,0.000
486328.178,65.918,29.785,27.344,32.715,139.160,0.000,0.000,0.000
486328.182,-42.969,33.203,32.227,-37.109,-127.930,0.000,0.000,0.000
486328.186,-20.020,39.062,32.227,-19.043,-187.500,0.000,0.000,0.000
486328.190,79.102,39.062,27.344,55.176,75.684,0.000,0.000,0.000
486328.194,77.148,37.598,27.832,57.129,229.980,0.000,0.000,0.000
486328.198,-30.762,35.156,28.320,-19.531,-42.480,0.000,0.000,0.000
486328.202,-45.898,31.250,26.855,-35.156,-199.219,0.000,0.000,0.000
486328.206,55.664,29.785,27.832,41.992,-13.672,0.000,0.000,0.000
486328.209,92.285,27.832,27.344,71.289,164.062,0.000,0.000,0.000
486328.213,-2.441,29.297,33.203,0.000,67.871,0.000,0.000,0.000
486328.217,-62.500,28.809,33.203,-38.574,-169.434,0.000,0.000,0.000
486328.221,15.137,22.461,25.391,19.043,-100.586,0.000,0.000,0.000
486328.225,98.633,28.809,28.809,75.684,95.215,0.000,0.000,0.000
486328.229,29.297,33.691,27.344,26.855,14.648,0.000,0.000,0.000
486328.233,-83.984,26.855,23.926,-47.852,-172.852,0.000,0.000,0.000
486328.237,-19.043,26.855,26.367,-10.254,-109.863,0.000,0.000,0.000
486328.241,110.352,33.691,26.855,64.941,184.082,0.000,0.000,0.000
486328.245,75.684,35.156,23.926,34.668,156.738,0.000,0.000,0.000
486328.249,-61.035,32.715,27.832,-33.691,-101.074,0.000,0.000,0.000
486328.252,-45.410,31.738,27.344,-19.043,-161.621,0.000,0.000,0.000
486328.256,62.012,26.367,29.785,54.199,28.320,0.000,0.000,0.000
486328.260,72.754,23.438,31.738,62.500,153.809,0.000,0.000,0.000
486328.264,-38.086,27.344,25.391,-23.438,83.984,0.000,0.000,0.000
486328.268,-61.035,29.785,26.855,-48.340,-15.625,0.000,0.000,0.000
486328.272,42.969,34.180,27.832,30.762,16.113,0.000,0.000,0.000
486328.276,94.727,36.133,26.855,68.848,95.215,0.000,0.000,0.000
486328.280,2.441,31.738,27.832,3.418,-23.438,0.000,0.000,0.000
486328.284,-56.152,33.203,28.320,-33.203,-186.523,0.000,0.000,0.000
486328.288,40.039,33.691,28.320,25.879,-62.500,0.000,0.000,0.000
486328.291,117.188,32.715,34.180,79.102,168.457,0.000,0.000,0.000
486328.295,41.016,33.691,34.180,30.762,155.273,0.000,0.000,0.000
486328.299,-56.641,30.762,27.832,-24.902,-23.438,0.000,0.000,0.000
486328.303,-8.301,30.762,24.902,9.277,-108.398,0.000,0.000,0.000
486328.307,90.820,30.273,23.926,69.336,116.211,0.000,0.000,0.000
486328.311,71.289,33.203,23.926,50.781,157.227,0.000,0.000,0.000
486328.315,-44.922,40.527,27.344,-19.043,-119.629,0.000,0.000,0.000
486328.319,-32.715,39.062,24.414,-17.090,-179.688,0.000,0.000,0.000
486328.323,73.242,31.738,20.020,52.734,71.777,0.000,0.000,0.000
486328.327,93.750,32.227,23.438,67.383,229.980,0.000,0.000,0.000
486328.331,-11.230,40.039,31.738,1.953,58.594,0.000,0.000,0.000
486328.334,-57.129,32.715,25.391,-26.367,-113.281,0.000,0.000,0.000
486328.338,37.598,22.461,17.578,26.855,-10.742,0.000,0.000,0.000
486328.342,91.797,23.926,20.996,67.383,140.625,0.000,0.000,0.000
486328.346,11.230,26.367,25.391,16.113,-19.531,0.000,0.000,0.000
486328.350,-69.824,31.250,28.320,-37.109,-236.328,0.000,0.000,0.000
486328.354,0.977,29.297,26.367,0.977,-135.742,0.000,0.000,0.000
486328.358,98.633,24.902,23.438,65.918,113.770,0.000,0.000,0.000
486328.362,46.875,27.832,22.949,22.949,93.262,0.000,0.000,0.000
486328.366,-62.500,29.785,24.414,-50.781,-134.277,0.000,0.000,0.000
486328.370,-19.531,31.738,23.926,-23.926,-107.422,0.000,0.000,0.000
486328.374,79.102,33.203,26.367,53.223,103.027,0.000,0.000,0.000
486328.377,60.059,28.320,24.902,42.969,186.035,0.000,0.000,0.000
486328.381,-47.363,30.762,27.832,-35.645,9.277,0.000,0.000,0.000
486328.385,-52.734,32.227,27.832,-37.598,-109.375,0.000,0.000,0.000
486328.389,47.363,23.438,26.855,37.109,62.500,0.000,0.000,0.000
486328.393,82.031,20.508,26.855,57.617,203.125,0.000,0.000,0.000
486328.397,-13.184,25.879,32.715,-5.371,2.930,0.000,0.000,0.000
486328.401,-54.688,31.250,38.574,-31.250,-188.965,0.000,0.000,0.000
486328.405,49.805,32.715,33.203,34.180,-31.738,0.000,0.000,0.000
486328.409,123.535,33.691,29.297,82.520,163.086,0.000,0.000,0.000
486328.413,25.391,33.203,29.297,16.602,104.004,0.000,0.000,0.000
486328.416,-63.477,34.180,28.809,-36.621,-116.211,0.000,0.000,0.000
486328.420,5.371,35.645,29.297,14.648,-108.887,0.000,0.000,0.000
486328.424,86.426,29.785,31.738,75.195,116.211,0.000,0.000,0.000
486328.428,48.828,29.297,31.250,32.715,106.445,0.000,0.000,0.000
486328.432,-55.176,30.273,32.227,-41.992,-123.047,0.000,0.000,0.000
486328.436,-13.672,30.273,31.250,-24.414,-154.297,0.000,0.000,0.000
486328.440,88.867,30.762,27.832,48.340,35.156,0.000,0.000,0.000
486328.444,77.148,30.762,29.297,51.270,122.070,0.000,0.000,0.000
486328.448,-35.156,33.203,28.809,-24.902,-7.812,0.000,0.000,0.000
486328.452,-49.316,35.645,23.926,-38.086,-96.191,0.000,0.000,0.000
486328.456,58.105,32.227,24.902,39.062,15.625,0.000,0.000,0.000
486328.459,100.586,26.855,26.855,67.871,141.602,0.000,0.000,0.000
486328.463,6.836,32.715,29.785,10.254,20.020,0.000,0.000,0.000
486328.467,-43.457,36.133,31.738,-20.996,-118.652,0.000,0.000,0.000
486328.471,38.574,31.250,38.574,33.203,-35.156,0.000,0.000,0.000
486328.475,113.770,34.180,42.480,84.961,150.391,0.000,0.000,0.000
486328.479,37.109,39.551,39.062,42.480,62.988,0.000,0.000,0.000
486328.483,-67.383,35.645,37.109,-24.414,-212.402,0.000,0.000,0.000
486328.487,-13.184,29.785,34.668,7.812,-145.508,0.000,0.000,0.000
486328.491,85.449,34.668,36.133,83.008,133.789,0.000,0.000,0.000
486328.495,60.547,39.551,38.574,55.176,162.598,0.000,0.000,0.000
486328.499,-44.922,39.062,37.598,-20.508,-76.660,0.000,0.000,0.000
486328.502,-29.785,35.645,32.715,-23.926,-149.902,0.000,0.000,0.000
486328.506,68.848,33.203,26.367,39.062,53.223,0.000,0.000,0.000
486328.510,80.078,42.480,30.762,59.570,140.137,0.000,0.000,0.000
486328.514,-24.902,44.434,36.133,-7.324,-36.133,0.000,0.000,0.000
486328.518,-52.246,32.227,32.715,-36.621,-168.457,0.000,0.000,0.000
486328.522,43.457,30.762,30.762,33.691,-6.836,0.000,0.000,0.000
486328.526,92.773,31.250,31.738,75.684,151.855,0.000,0.000,0.000
486328.530,5.859,34.668,34.668,15.625,26.367,0.000,0.000,0.000
486328.534,-67.383,34.180,36.133,-26.367,-153.320,0.000,0.000,0.000
486328.538,8.789,30.762,32.227,29.297,-69.336,0.000,0.000,0.000
486328.541,90.820,33.203,29.297,87.402,125.977,0.000,0.000,0.000
486328.545,26.367,33.203,29.297,36.621,58.105,0.000,0.000,0.000
486328.549,-67.871,33.691,30.762,-26.855,-143.555,0.000,0.000,0.000
486328.553,-15.137,33.203,29.785,8.301,-93.262,0.000,0.000,0.000
486328.557,83.008,29.785,24.414,72.754,157.715,0.000,0.000,0.000
486328.561,81.055,34.668,27.832,58.594,241.699,0.000,0.000,0.000
486328.565,-18.066,41.992,32.227,-18.066,29.297,0.000,0.000,0.000
486328.569,-23.926,41.992,27.832,-16.602,-97.168,0.000,0.000,0.000
486328.573,84.961,40.039,22.461,58.105,80.078,0.000,0.000,0.000
486328.577,115.234,39.551,23.438,61.035,243.164,0.000,0.000,0.000
486328.581,2.441,37.598,24.902,-13.184,104.980,0.000,0.000,0.000
486328.584,-38.574,37.598,25.879,-35.645,-59.570,0.000,0.000,0.000
486328.588,51.758,36.621,26.367,22.461,12.695,0.000,0.000,0.000
486328.592,108.887,33.203,24.902,59.082,130.859,0.000,0.000,0.000
486328.596,24.414,37.109,26.367,6.348,41.504,0.000,0.000,0.000
486328.600,-60.059,39.551,26.367,-41.016,-160.645,0.000,0.000,0.000
486328.604,3.418,30.273,25.879,0.977,-116.699,0.000,0.000,0.000
486328.608,86.914,24.902,28.809,56.641,140.137,0.000,0.000,0.000
486328.612,40.039,26.367,30.762,20.508,149.902,0.000,0.000,0.000
486328.616,-62.012,29.297,33.203,-41.504,-90.820,0.000,0.000,0.000
486328.620,-32.227,30.273,29.297,-24.414,-108.887,0.000,0.000,0.000
486328.623,66.406,28.320,28.320,48.828,171.875,0.000,0.000,0.000
486328.627,52.734,30.273,25.879,46.387,279.785,0.000,0.000,0.000
486328.631,-64.941,27.344,18.555,-27.344,64.453,0.000,0.000,0.000
486328.635,-71.777,22.461,10.742,-34.668,-86.426,0.000,0.000,0.000
486328.639,35.645,22.461,4.395,33.203,54.688,0.000,0.000,0.000
486328.643,82.031,27.344,7.324,64.941,151.855,0.000,0.000,0.000
486328.647,-5.859,35.645,7.324,2.441,-45.410,0.000,0.000,0.000
486328.651,-45.410,39.062,3.906,-32.715,-214.844,0.000,0.000,0.000
486328.655,45.898,40.039,2.441,25.391,-79.590,0.000,0.000,0.000
486328.659,107.910,39.062,-6.348,69.824,160.645,0.000,0.000,0.000
486328.663,34.180,46.875,-6.836,10.742,66.406,0.000,0.000,0.000
486328.666,-43.457,53.711,-3.418,-52.734,-148.926,0.000,0.000,0.000
486328.670,23.438,49.805,-8.789,-9.766,-104.004,0.000,0.000,0.000
486328.674,109.863,43.945,-12.695,62.012,109.375,0.000,0.000,0.000
486328.678,71.777,38.086,-10.254,27.344,104.492,0.000,0.000,0.000
486328.682,-42.480,36.621,-6.348,-57.129,-98.145,0.000,0.000,0.000
486328.686,-20.996,37.109,-1.953,-42.969,-100.586,0.000,0.000,0.000
486328.690,82.520,34.668,0.488,32.715,58.105,0.000,0.000,0.000
486328.694,88.867,28.320,-0.488,22.949,132.324,0.000,0.000,0.000
486328.698,-28.320,27.832,5.859,-50.293,-41.992,0.000,0.000,0.000
486328.702,-63.965,28.809,4.883,-59.570,-143.066,0.000,0.000,0.000
486328.706,40.039,25.879,2.930,19.043,51.758,0.000,0.000,0.000
486328.709,85.449,22.461,7.812,60.059,181.152,0.000,0.000,0.000
486328.713,-19.531,18.066,9.277,0.977,36.133,0.000,0.000,0.000
486328.717,-76.172,16.602,16.113,-28.809,-123.047,0.000,0.000,0.000
486328.721,21.484,21.484,20.996,41.992,-29.297,0.000,0.000,0.000
486328.725,95.703,17.090,14.160,91.797,155.273,0.000,0.000,0.000
486328.729,19.531,14.160,15.625,34.180,93.262,0.000,0.000,0.000
486328.733,-79.590,21.973,20.508,-22.461,-101.562,0.000,0.000,0.000
486328.737,-28.320,22.949,20.508,10.254,-101.074,2.000,1.000,0.000
486328.741,69.336,25.391,19.531,70.312,114.746,0.000,0.000,0.000
486328.745,49.805,37.109,23.438,45.410,174.805,0.000,0.000,0.000
486328.748,-49.316,42.480,26.855,-28.320,-18.066,0.000,0.000,0.000
486328.752,-31.250,34.180,20.020,-29.297,-92.773,0.000,0.000,0.000
486328.756,58.105,33.203,19.531,44.434,112.793,0.000,0.000,0.000
486328.760,73.242,35.645,26.367,53.223,251.953,0.000,0.000,0.000
486328.764,-18.555,34.668,26.367,-20.020,86.914,0.000,0.000,0.000
486328.768,-51.270,34.668,21.484,-36.133,-45.898,0.000,0.000,0.000
486328.772,47.363,26.855,19.043,26.855,24.902,0.000,0.000,0.000
486328.776,111.328,31.250,28.809,70.312,171.875,0.000,0.000,0.000
486328.780,17.090,37.598,34.668,8.789,68.848,0.000,0.000,0.000
486328.784,-56.152,25.879,29.785,-50.781,-97.168,0.000,0.000,0.000
486328.788,24.414,18.555,31.738,-2.930,29.785,0.000,0.000,0.000
486328.791,104.980,20.020,34.668,60.059,257.812,0.000,0.000,0.000
486328.795,48.340,21.484,41.504,23.926,227.539,0.000,0.000,0.000
486328.799,-55.176,20.996,45.410,-41.504,-46.387,0.000,0.000,0.000
486328.803,-10.254,22.949,42.969,-15.137,-112.793,0.000,0.000,0.000
486328.807,90.332,24.902,43.457,62.988,89.355,0.000,0.000,0.000
486328.811,69.336,29.785,47.363,52.734,140.625,0.000,0.000,0.000
486328.815,-38.086,31.250,47.363,-20.020,-56.641,0.000,0.000,0.000
486328.819,-31.250,22.949,43.457,-16.602,-157.227,0.000,0.000,0.000
486328.823,65.918,20.996,40.039,50.781,18.555,0.000,0.000,0.000
486328.827,83.008,20.020,38.086,61.035,145.508,0.000,0.000,0.000
486328.831,-21.484,21.973,41.016,-10.254,-8.789,0.000,0.000,0.000
486328.834,-74.707,25.879,41.504,-41.504,-176.270,0.000,0.000,0.000
486328.838,21.484,25.879,39.062,24.902,-48.340,0.000,0.000,0.000
486328.842,98.145,27.832,45.410,71.289,158.203,0.000,0.000,0.000
486328.846,7.324,25.391,46.875,8.789,47.363,0.000,0.000,0.000
486328.850,-71.777,22.949,46.875,-38.086,-168.457,0.000,0.000,0.000
486328.854,1.953,26.367,47.363,11.719,-98.633,0.000,0.000,0.000
486328.858,90.820,28.320,39.551,65.918,130.371,0.000,0.000,0.000
486328.862,51.270,28.320,39.551,26.855,117.188,0.000,0.000,0.000
486328.866,-44.434,34.180,45.898,-38.574,-76.172,0.000,0.000,0.000
486328.870,-15.625,37.109,43.945,-15.137,-117.188,0.000,0.000,0.000
486328.873,89.355,29.297,37.109,52.734,56.152,0.000,0.000,0.000
486328.877,87.402,28.809,36.621,38.574,141.113,0.000,0.000,0.000
486328.881,-35.156,32.227,38.086,-31.250,-35.156,0.000,0.000,0.000
486328.885,-22.949,33.203,37.109,-25.879,-110.840,0.000,0.000,0.000
486328.889,88.867,37.109,39.062,55.664,92.285,0.000,0.000,0.000
486328.893,110.840,35.156,32.227,79.102,275.391,0.000,0.000,0.000
486328.897,12.695,37.598,37.598,7.324,106.445,0.000,0.000,0.000
486328.901,-43.457,35.156,38.574,-27.832,-107.910,0.000,0.000,0.000
486328.905,37.598,31.738,34.668,38.086,31.738,0.000,0.000,0.000
486328.909,104.980,37.109,38.086,83.984,211.426,0.000,0.000,0.000
486328.913,27.344,36.133,41.016,28.809,127.930,0.000,0.000,0.000
486328.916,-56.641,32.715,41.992,-27.344,-72.754,0.000,0.000,0.000
486328.920,-4.883,30.762,38.086,11.719,-74.707,0.000,0.000,0.000
486328.924,82.031,31.738,41.504,84.473,175.781,0.000,0.000,0.000
486328.928,45.410,30.273,45.410,60.059,181.641,0.000,0.000,0.000
486328.932,-57.129,29.297,43.945,-17.090,-69.824,0.000,0.000,0.000
486328.936,-37.598,29.297,40.527,-13.672,-89.355,0.000,0.000,0.000
486328.940,64.453,29.785,39.062,62.988,124.023,0.000,0.000,0.000
486328.944,74.707,30.762,39.551,67.383,207.520,0.000,0.000,0.000
486328.948,-32.227,28.809,39.062,-8.789,9.766,0.000,0.000,0.000
486328.952,-45.410,26.855,39.551,-25.391,-86.426,0.000,0.000,0.000
486328.956,57.617,28.809,39.551,43.457,90.332,0.000,0.000,0.000
486328.959,87.402,34.180,43.457,73.242,221.680,0.000,0.000,0.000
486328.963,0.977,38.086,49.316,8.301,68.359,0.000,0.000,0.000
486328.967,-62.988,30.762,42.480,-37.109,-122.559,0.000,0.000,0.000
486328.971,10.254,27.832,38.086,7.324,-84.473,0.000,0.000,0.000
486328.975,93.750,30.273,41.992,64.941,96.191,0.000,0.000,0.000
486328.979,32.715,30.762,42.969,20.996,26.855,0.000,0.000,0.000
486328.983,-54.199,36.133,42.969,-45.410,-239.258,0.000,0.000,0.000
486328.987,-7.812,35.645,36.621,-9.766,-234.375,0.000,0.000,0.000
486328.991,91.309,36.621,31.250,62.500,3.906,0.000,0.000,0.000
486328.995,65.430,40.039,31.738,32.715,62.500,0.000,0.000,0.000
486328.998,-51.270,39.062,30.762,-44.434,-122.070,0.000,0.000,0.000
486329.002,-35.645,37.598,27.832,-36.133,-204.590,0.000,0.000,0.000
486329.006,73.730,39.551,29.785,41.992,-20.996,0.000,0.000,0.000
486329.010,87.402,39.551,27.832,48.828,102.051,0.000,0.000,0.000
486329.014,-31.250,32.715,24.902,-32.227,-57.129,0.000,0.000,0.000
486329.018,-55.664,29.785,32.227,-43.945,-169.434,0.000,0.000,0.000
486329.022,53.223,31.738,30.273,28.809,38.574,0.000,0.000,0.000
486329.026,93.750,35.156,27.832,65.918,232.910,0.000,0.000,0.000
486329.030,-15.137,34.180,29.785,2.441,54.688,0.000,0.000,0.000
486329.034,-86.426,34.180,35.156,-49.805,-156.250,0.000,0.000,0.000
486329.038,-5.859,32.715,33.203,2.930,-57.617,0.000,0.000,0.000
486329.041,97.168,32.715,35.645,70.801,223.633,0.000,0.000,0.000
486329.045,44.434,34.668,41.992,27.344,239.258,0.000,0.000,0.000
486329.049,-70.801,24.414,38.086,-40.039,3.906,0.000,0.000,0.000
486329.053,-19.043,20.996,34.668,-10.254,-53.711,0.000,0.000,0.000
486329.057,71.777,20.508,32.715,59.570,104.492,0.000,0.000,0.000
486329.061,53.223,25.391,34.180,52.246,105.957,0.000,0.000,0.000
486329.065,-53.711,34.180,38.574,-12.207,-125.000,0.000,0.000,0.000
486329.069,-54.688,31.738,40.527,-7.812,-209.961,0.000,0.000,0.000
486329.073,64.453,31.738,41.016,62.500,-22.949,0.000,0.000,0.000
486329.077,93.262,30.762,39.062,68.359,99.609,0.000,0.000,0.000
486329.080,-22.461,24.902,40.039,-3.418,-79.590,0.000,0.000,0.000
486329.084,-62.988,22.949,41.504,-38.574,-190.918,0.000,0.000,0.000
486329.088,32.715,23.926,35.645,15.137,-26.855,0.000,0.000,0.000
486329.092,87.891,28.320,35.645,59.082,141.113,0.000,0.000,0.000
486329.096,1.953,35.156,41.016,4.395,60.059,0.000,0.000,0.000
486329.100,-62.012,35.645,37.598,-49.316,-155.762,0.000,0.000,0.000
486329.104,17.090,32.715,28.320,-6.836,-103.027,0.000,0.000,0.000
486329.108,102.539,36.621,28.809,62.500,204.102,0.000,0.000,0.000
486329.112,45.898,41.016,31.738,25.391,213.867,0.000,0.000,0.000
486329.116,-66.895,39.551,30.762,-46.387,-1.953,0.000,0.000,0.000
486329.120,-23.926,34.668,22.949,-22.461,-21.973,0.000,0.000,0.000
486329.123,88.379,35.645,23.438,56.641,99.121,0.000,0.000,0.000
486329.127,83.496,39.062,30.273,61.523,152.344,0.000,0.000,0.000
486329.131,-23.438,41.992,27.832,-17.578,27.344,0.000,0.000,0.000
486329.135,-32.227,41.504,22.949,-28.320,-63.477,0.000,0.000,0.000
486329.139,75.195,39.551,26.855,53.711,115.723,0.000,0.000,0.000
486329.143,110.352,37.598,27.344,67.871,217.285,0.000,0.000,0.000
486329.147,-14.648,34.668,27.344,-8.789,-19.531,0.000,0.000,0.000
486329.151,-78.613,39.062,28.809,-44.922,-201.172,0.000,0.000,0.000
486329.155,20.508,38.086,23.438,14.160,-45.898,0.000,0.000,0.000
486329.159,102.539,32.227,26.367,74.219,164.551,0.000,0.000,0.000
486329.163,18.066,35.156,30.273,17.090,44.922,0.000,0.000,0.000
486329.166,-78.613,36.133,27.344,-40.039,-138.184,0.000,0.000,0.000
486329.170,-6.836,25.879,28.320,4.395,-27.344,0.000,0.000,0.000
486329.174,91.797,21.484,29.297,63.965,193.359,0.000,0.000,0.000
486329.178,45.898,23.926,25.879,31.738,168.457,0.000,0.000,0.000
486329.182,-64.941,25.391,27.344,-39.551,-54.688,0.000,0.000,0.000
486329.186,-35.156,28.809,29.297,-18.555,-107.422,0.000,0.000,0.000
486329.190,77.637,31.250,27.344,60.547,78.125,0.000,0.000,0.000
486329.194,75.195,30.273,24.902,53.711,156.738,0.000,0.000,0.000
486329.198,-46.875,28.809,25.879,-31.250,4.883,0.000,0.000,0.000
486329.202,-60.059,33.203,28.320,-40.527,-126.465,0.000,0.000,0.000
486329.205,53.223,37.109,28.809,42.480,-36.621,0.000,0.000,0.000
486329.209,84.473,29.785,29.297,60.547,160.156,0.000,0.000,0.000
486329.213,-17.578,29.297,25.879,-10.254,71.289,0.000,0.000,0.000
486329.217,-72.754,31.250,20.996,-51.758,-182.617,0.000,0.000,0.000
486329.221,21.973,27.832,21.973,1.465,-98.145,0.000,0.000,0.000
486329.225,101.074,34.180,24.414,60.547,160.645,0.000,0.000,0.000
486329.229,40.039,43.457,25.391,13.672,35.156,0.000,0.000,0.000
486329.233,-54.688,37.109,24.414,-50.293,-171.387,0.000,0.000,0.000
486329.237,-3.906,26.367,19.531,-17.090,-68.848,0.000,0.000,0.000
486329.241,92.773,27.344,15.137,56.152,152.344,0.000,0.000,0.000
486329.245,57.617,28.320,14.160,33.203,173.828,0.000,0.000,0.000
486329.248,-51.270,33.203,20.996,-43.945,-34.180,0.000,0.000,0.000
486329.252,-43.945,34.180,15.625,-43.457,-146.484,0.000,0.000,0.000
486329.256,68.359,28.809,10.742,33.203,-27.344,0.000,0.000,0.000
486329.260,107.422,34.180,19.531,51.758,101.562,0.000,0.000,0.000
486329.264,-5.371,40.039,20.996,-15.625,-47.363,0.000,0.000,0.000
486329.268,-55.176,36.621,22.949,-35.645,-214.355,0.000,0.000,0.000
486329.272,46.387,33.691,25.391,38.086,-65.918,0.000,0.000,0.000
486329.276,109.863,29.297,23.438,77.637,133.789,0.000,0.000,0.000
486329.280,27.832,32.227,23.926,15.625,-12.695,0.000,0.000,0.000
486329.284,-58.594,33.203,27.344,-27.344,-252.930,0.000,0.000,0.000
486329.288,20.508,28.809,27.344,18.555,-141.113,0.000,0.000,0.000
486329.291,102.051,29.785,24.414,73.730,104.004,0.000,0.000,0.000
486329.295,40.527,34.668,28.809,38.574,69.824,0.000,0.000,0.000
486329.299,-55.664,35.645,31.250,-31.738,-148.438,0.000,0.000,0.000
486329.303,-14.160,34.180,30.273,-12.207,-118.164,0.000,0.000,0.000
486329.307,85.938,32.715,26.855,59.082,120.117,0.000,0.000,0.000
486329.311,69.336,29.297,27.832,45.898,191.895,0.000,0.000,0.000
486329.315,-51.270,28.320,27.344,-33.691,6.836,0.000,0.000,0.000
486329.319,-56.152,26.855,25.391,-38.086,-121.094,0.000,0.000,0.000
486329.323,62.500,25.391,29.297,43.457,63.965,0.000,0.000,0.000
486329.327,96.680,28.320,32.227,60.547,221.680,0.000,0.000,0.000
486329.330,-19.531,30.762,31.738,-10.254,12.207,0.000,0.000,0.000
486329.334,-70.801,25.879,30.762,-39.062,-171.875,0.000,0.000,0.000
486329.338,38.574,30.762,35.156,28.809,-15.137,0.000,0.000,0.000
486329.342,103.027,35.645,27.832,75.684,225.586,0.000,0.000,0.000
486329.346,2.441,30.273,20.996,10.742,98.145,0.000,0.000,0.000
486329.350,-81.543,31.738,28.320,-37.109,-195.312,0.000,0.000,0.000
486329.354,-3.906,31.250,27.832,16.602,-143.555,0.000,0.000,0.000
486329.358,88.379,29.297,25.879,77.148,84.473,0.000,0.000,0.000
486329.362,40.527,32.715,32.715,41.992,73.242,0.000,0.000,0.000
486329.366,-62.500,33.691,41.504,-27.344,-160.156,0.000,0.000,0.000
486329.370,-32.227,29.785,42.480,-13.672,-208.496,0.000,0.000,0.000
486329.373,76.172,29.785,41.992,57.617,61.035,0.000,0.000,0.000
486329.377,67.871,29.297,38.086,55.176,209.473,0.000,0.000,0.000
486329.381,-47.363,27.832,37.109,-22.949,-30.273,0.000,0.000,0.000
486329.385,-50.293,31.250,37.598,-42.480,-180.176,0.000,0.000,0.000
486329.389,68.848,33.203,30.273,30.273,-5.371,0.000,0.000,0.000
486329.393,108.887,36.621,29.297,63.965,90.820,0.000,0.000,0.000
486329.397,-0.488,36.133,32.715,-2.930,-108.398,0.000,0.000,0.000
486329.401,-49.805,37.109,32.227,-43.945,-241.699,0.000,0.000,0.000
486329.405,37.598,40.039,30.762,14.648,-87.402,0.000,0.000,0.000
486329.409,100.098,39.062,30.273,71.289,129.395,0.000,0.000,0.000
486329.413,26.855,37.109,31.738,20.996,63.965,0.000,0.000,0.000
486329.416,-65.430,29.297,29.785,-47.852,-176.758,0.000,0.000,0.000
486329.420,2.441,25.391,29.785,-6.348,-142.578,0.000,0.000,0.000
486329.424,104.492,27.832,29.297,70.801,85.449,0.000,0.000,0.000
486329.428,68.848,26.367,23.926,41.016,75.195,0.000,0.000,0.000
486329.432,-43.457,27.832,25.391,-27.832,-106.445,0.000,0.000,0.000
486329.436,-19.531,29.297,24.902,-18.555,-52.246,0.000,0.000,0.000
486329.440,89.355,33.691,27.832,52.246,117.676,0.000,0.000,0.000
486329.444,89.355,38.574,30.273,59.570,139.160,0.000,0.000,0.000
486329.448,-22.949,32.715,24.414,-20.996,-35.645,0.000,0.000,0.000
486329.452,-37.109,28.320,26.855,-38.086,-132.324,0.000,0.000,0.000
486329.455,62.012,31.738,28.320,41.992,-15.625,0.000,0.000,0.000
486329.459,98.633,35.156,25.879,80.566,137.695,0.000,0.000,0.000
486329.463,6.836,36.621,29.785,9.277,107.910,0.000,0.000,0.000
486329.467,-47.363,39.062,32.227,-36.621,-14.160,0.000,0.000,0.000
486329.471,41.016,41.016,28.809,22.949,56.152,0.000,0.000,0.000
486329.475,107.910,40.039,22.461,76.660,204.102,0.000,0.000,0.000
486329.479,31.738,39.062,21.484,20.020,172.363,0.000,0.000,0.000
486329.483,-53.711,41.016,27.344,-42.480,-30.273,0.000,0.000,0.000
486329.487,-0.977,36.133,25.879,-8.789,-131.836,0.000,0.000,0.000
486329.491,96.680,33.691,23.438,62.500,48.340,0.000,0.000,0.000
486329.495,74.219,34.668,23.926,47.852,111.816,0.000,0.000,0.000
486329.498,-38.574,35.645,26.367,-30.273,-115.723,0.000,0.000,0.000
486329.502,-35.645,36.621,27.832,-28.320,-214.355,0.000,0.000,0.000
486329.506,65.918,32.715,26.855,47.852,-34.668,0.000,0.000,0.000
486329.510,88.379,31.738,26.855,54.199,121.582,0.000,0.000,0.000
486329.514,-31.738,29.785,27.832,-16.602,-42.480,0.000,0.000,0.000
486329.518,-65.918,22.949,25.879,-33.691,-172.852,0.000,0.000,0.000
486329.522,49.805,22.461,24.414,32.715,13.184,0.000,0.000,0.000
486329.526,95.703,26.855,20.020,69.824,151.367,0.000,0.000,0.000
486329.530,12.207,30.762,24.902,16.113,29.297,0.000,0.000,0.000
486329.534,-49.805,31.738,26.855,-36.133,-158.203,0.000,0.000,0.000
486329.538,11.719,28.320,23.926,3.418,-95.215,0.000,0.000,0.000
486329.541,89.844,29.297,26.855,63.965,166.504,0.000,0.000,0.000
486329.545,33.691,27.344,28.320,20.020,114.258,0.000,0.000,0.000
486329.549,-73.730,26.367,28.320,-43.945,-131.348,0.000,0.000,0.000
486329.553,-25.879,24.902,24.902,-15.625,-52.734,0.000,0.000,0.000
486329.557,95.703,35.156,28.809,61.523,224.609,0.000,0.000,0.000
486329.561,86.914,40.039,28.809,53.711,274.902,0.000,0.000,0.000
486329.565,-18.066,31.738,25.879,-20.508,50.293,0.000,0.000,0.000
486329.569,-16.602,33.203,23.438,-21.484,-85.449,0.000,0.000,0.000
486329.573,66.895,33.691,20.020,41.992,121.582,0.000,0.000,0.000
486329.577,104.980,34.668,20.020,61.035,248.047,0.000,0.000,0.000
486329.580,-6.348,35.156,23.438,-5.371,39.062,0.000,0.000,0.000
486329.584,-72.266,32.227,24.414,-46.875,-106.445,0.000,0.000,0.000
486329.588,28.809,30.762,22.949,18.555,18.555,0.000,0.000,0.000
486329.592,104.004,36.133,27.344,72.754,188.965,0.000,0.000,0.000
486329.596,38.086,41.504,32.227,19.043,118.652,0.000,0.000,0.000
486329.600,-34.668,33.691,29.297,-34.180,-84.961,0.000,0.000,0.000
486329.604,40.527,32.227,30.273,19.531,-66.406,0.000,0.000,0.000
486329.608,129.395,33.203,30.762,93.262,185.547,0.000,0.000,0.000
486329.612,72.754,31.250,26.855,55.664,200.684,0.000,0.000,0.000
486329.616,-36.621,31.250,27.832,-20.508,-12.207,0.000,0.000,0.000
486329.620,-7.812,34.180,29.297,-4.883,-38.086,0.000,0.000,0.000
486329.623,87.891,30.273,26.855,62.988,202.148,0.000,0.000,0.000
486329.627,79.102,28.320,29.785,59.570,278.320,0.000,0.000,0.000
486329.631,-35.156,36.133,34.180,-8.301,31.738,0.000,0.000,0.000
486329.635,-41.992,35.156,34.180,-14.160,-123.535,0.000,0.000,0.000
486329.639,65.918,28.320,33.203,62.500,49.805,0.000,0.000,0.000
486329.643,92.773,26.855,27.344,79.590,301.758,0.000,0.000,0.000
486329.647,-12.207,28.320,31.250,6.348,142.090,0.000,0.000,0.000
486329.651,-67.383,27.832,38.574,-30.273,-97.656,0.000,0.000,0.000
486329.655,26.855,28.320,37.109,30.762,38.574,0.000,0.000,0.000
486329.659,101.074,28.809,32.227,76.660,248.047,0.000,0.000,0.000
486329.662,26.367,33.203,37.109,21.484,159.180,0.000,0.000,0.000
486329.666,-70.312,28.320,33.203,-44.922,-71.289,0.000,0.000,0.000
486329.670,-33.203,20.508,22.949,-15.137,-37.109,0.000,0.000,0.000
486329.674,59.570,23.926,27.832,57.617,227.051,0.000,0.000,0.000
486329.678,36.621,25.391,31.250,36.621,225.586,0.000,0.000,0.000
486329.682,-62.012,27.344,33.203,-26.367,-44.434,0.000,0.000,0.000
486329.686,-41.992,25.879,31.738,-19.531,-122.070,0.000,0.000,0.000
486329.690,64.941,24.902,26.855,49.316,89.355,0.000,0.000,0.000
486329.694,85.938,31.250,28.809,68.359,271.973,0.000,0.000,0.000
486329.698,-16.602,38.086,34.180,3.906,101.074,0.000,0.000,0.000
486329.702,-42.969,40.527,31.250,-19.043,-71.289,0.000,0.000,0.000
486329.705,47.852,41.016,26.367,43.457,105.469,0.000,0.000,0.000
486329.709,101.562,37.109,29.785,70.312,228.027,0.000,0.000,0.000
486329.713,12.207,36.621,30.273,-2.930,40.039,0.000,0.000,0.000
486329.717,-61.523,38.574,28.320,-52.734,-132.324,0.000,0.000,0.000
486329.721,17.578,35.156,24.902,0.977,-15.137,0.000,0.000,0.000
486329.725,111.816,35.156,24.414,64.453,209.473,0.000,0.000,0.000
486329.729,53.711,35.156,26.855,20.996,123.535,0.000,0.000,0.000
486329.733,-52.246,36.133,32.715,-43.945,-85.449,0.000,0.000,0.000
486329.737,-7.324,35.645,33.691,-4.883,-81.055,0.000,0.000,0.000
486329.741,94.727,37.109,38.574,72.754,112.793,0.000,0.000,0.000
486329.745,83.496,41.016,38.574,46.875,171.387,0.000,0.000,0.000
486329.748,-36.621,33.203,31.250,-34.668,-22.949,0.000,0.000,0.000
486329.752,-37.109,29.297,33.203,-25.879,-90.820,0.000,0.000,0.000
486329.756,68.848,25.391,28.809,47.852,60.059,0.000,0.000,0.000
486329.760,91.309,26.367,28.809,61.035,151.367,0.000,0.000,0.000
486329.764,-20.020,33.691,35.156,-18.555,8.301,0.000,0.000,0.000
486329.768,-64.941,34.180,33.203,-44.434,-137.207,0.000,0.000,0.000
486329.772,42.969,34.180,31.738,31.738,-0.977,0.000,0.000,0.000
486329.776,105.957,36.133,35.645,79.102,199.707,0.000,0.000,0.000
486329.780,21.973,39.551,36.133,15.137,110.840,0.000,0.000,0.000
486329.784,-51.758,40.039,36.133,-34.180,-100.098,0.000,0.000,0.000
486329.787,11.230,35.156,36.621,17.090,-77.148,0.000,0.000,0.000
486329.791,98.145,30.762,28.809,75.195,138.184,0.000,0.000,0.000
486329.795,54.688,31.250,25.879,29.785,170.898,0.000,0.000,0.000
486329.799,-62.012,29.297,29.785,-34.668,-43.945,0.000,0.000,0.000
486329.803,-36.133,31.738,28.320,-4.395,-114.746,0.000,0.000,0.000
486329.807,70.312,39.062,23.926,64.941,112.305,0.000,0.000,0.000
486329.811,69.336,33.203,23.926,49.316,211.426,0.000,0.000,0.000
486329.815,-35.645,30.273,23.438,-24.414,-37.598,0.000,0.000,0.000
486329.819,-38.086,36.621,25.391,-21.484,-129.883,0.000,0.000,0.000
486329.823,59.082,37.598,28.809,47.363,74.219,0.000,0.000,0.000
486329.827,80.566,31.250,21.973,58.105,184.082,0.000,0.000,0.000
486329.830,-9.277,31.738,21.484,-13.184,21.973,0.000,0.000,0.000
486329.834,-51.758,31.738,25.391,-49.316,-139.648,0.000,0.000,0.000
486329.838,25.879,30.273,19.531,6.836,-29.785,0.000,0.000,0.000
486329.842,103.516,31.250,16.602,60.059,167.969,0.000,0.000,0.000
486329.846,45.898,39.551,23.438,13.184,34.668,0.000,0.000,0.000
486329.850,-46.387,41.992,22.949,-48.340,-170.410,0.000,0.000,0.000
486329.854,8.789,32.715,19.043,-13.184,-66.895,0.000,0.000,0.000
486329.858,102.539,37.598,19.531,61.523,104.980,0.000,0.000,0.000
486329.862,62.500,46.387,20.996,35.645,104.980,0.000,0.000,0.000
486329.866,-51.758,37.598,23.926,-35.645,-62.500,0.000,0.000,0.000
486329.870,-20.508,32.227,27.344,-20.996,-117.676,0.000,0.000,0.000
486329.873,94.238,36.621,27.344,52.734,110.352,0.000,0.000,0.000
486329.877,88.867,37.109,28.320,50.781,179.199,0.000,0.000,0.000
486329.881,-34.668,38.574,30.762,-22.949,-70.801,0.000,0.000,0.000
486329.885,-55.176,35.156,28.809,-37.109,-217.285,0.000,0.000,0.000
486329.889,47.363,32.227,28.320,31.738,-1.953,0.000,0.000,0.000
486329.893,103.516,36.621,31.250,62.500,168.945,0.000,0.000,0.000
486329.897,4.395,37.598,34.668,2.930,-12.207,0.000,0.000,0.000
486329.901,-62.988,31.738,31.250,-41.016,-186.035,0.000,0.000,0.000
486329.905,27.832,32.227,28.809,10.742,-65.430,0.000,0.000,0.000
486329.909,95.703,32.715,31.250,70.312,155.762,0.000,0.000,0.000
486329.912,20.020,33.691,29.785,15.625,103.027,0.000,0.000,0.000
486329.916,-71.777,37.598,32.227,-35.156,-100.098,0.000,0.000,0.000
486329.920,-13.184,32.227,32.227,5.859,-98.145,0.000,0.000,0.000
486329.924,88.867,29.297,29.785,62.500,172.363,0.000,0.000,0.000
486329.928,57.129,30.762,30.762,34.180,254.395,0.000,0.000,0.000
486329.932,-54.199,33.691,33.203,-29.785,-5.371,0.000,0.000,0.000
486329.936,-34.180,31.250,30.273,-18.066,-105.957,0.000,0.000,0.000
486329.940,73.242,28.809,27.344,58.594,118.652,0.000,0.000,0.000
486329.944,81.543,28.320,30.762,66.895,259.277,0.000,0.000,0.000
486329.948,-33.203,31.738,30.273,-14.648,49.316,0.000,0.000,0.000
486329.952,-44.922,35.645,26.855,-35.156,-201.172,0.000,0.000,0.000
486329.955,48.828,33.691,27.344,33.691,-110.352,0.000,0.000,0.000
486329.959,79.102,31.250,22.949,63.965,114.258,0.000,0.000,0.000
486329.963,-7.324,31.250,20.996,6.348,-4.395,0.000,0.000,0.000
486329.967,-54.688,31.738,26.855,-37.598,-200.684,0.000,0.000,0.000
486329.971,27.832,34.668,28.320,13.184,-82.031,0.000,0.000,0.000
486329.975,97.168,29.297,26.855,72.754,144.043,0.000,0.000,0.000
486329.979,46.875,23.926,28.809,26.855,109.375,0.000,0.000,0.000
486329.983,-48.828,25.879,29.785,-43.457,-134.277,0.000,0.000,0.000
486329.987,-16.113,29.297,27.344,-11.230,-112.305,0.000,0.000,0.000
486329.991,83.984,30.273,27.344,61.035,125.977,0.000,0.000,0.000
486329.995,75.684,31.250,31.250,46.387,188.477,0.000,0.000,0.000
486329.998,-39.551,32.227,31.250,-20.508,-50.293,0.000,0.000,0.000
486330.002,-43.945,27.832,25.391,-21.973,-138.184,0.000,0.000,0.000
486330.006,64.941,25.879,26.855,48.340,104.492,0.000,0.000,0.000
486330.010,90.332,25.879,25.391,65.918,225.586,0.000,0.000,0.000
486330.014,-2.441,31.738,31.738,3.906,78.125,0.000,0.000,0.000
486330.018,-43.457,36.133,33.203,-28.809,-128.418,0.000,0.000,0.000
486330.022,47.363,29.785,23.926,29.785,-45.898,0.000,0.000,0.000
486330.026,110.840,24.414,26.367,74.707,162.109,0.000,0.000,0.000
486330.030,36.133,27.832,32.227,17.578,43.945,0.000,0.000,0.000
486330.034,-45.898,28.320,29.297,-43.457,-168.457,0.000,0.000,0.000
486330.037,-2.441,26.367,21.973,-2.441,-87.402,0.000,0.000,0.000
486330.041,94.727,28.809,21.973,71.777,146.973,0.000,0.000,0.000
486330.045,49.805,30.273,25.879,23.926,136.230,0.000,0.000,0.000
486330.049,-61.035,34.668,24.414,-49.316,-88.379,0.000,0.000,0.000
486330.053,-12.207,33.691,21.484,-17.090,-137.695,0.000,0.000,0.000
486330.057,93.750,26.367,22.949,56.152,78.613,0.000,0.000,0.000
486330.061,80.078,29.297,24.414,52.734,126.465,0.000,0.000,0.000
486330.065,-34.668,34.180,26.367,-24.414,-115.723,0.000,0.000,0.000
486330.069,-34.668,34.180,21.973,-33.691,-198.730,0.000,0.000,0.000
486330.073,64.941,33.203,20.020,41.016,24.414,0.000,0.000,0.000
486330.077,93.750,31.250,24.902,64.941,158.203,0.000,0.000,0.000
486330.080,1.465,37.109,32.715,-0.488,-28.320,0.000,0.000,0.000
486330.084,-47.363,41.992,31.250,-35.645,-250.000,0.000,0.000,0.000
486330.088,34.668,28.809,22.949,20.508,-111.328,0.000,0.000,0.000
486330.092,104.004,25.391,24.414,66.406,153.320,0.000,0.000,0.000
486330.096,23.926,32.715,32.227,14.160,109.375,0.000,0.000,0.000
486330.100,-65.918,33.203,33.203,-35.645,-141.602,0.000,0.000,0.000
486330.104,1.953,31.738,29.785,7.812,-156.250,0.000,0.000,0.000
486330.108,88.867,33.203,27.832,72.266,114.746,0.000,0.000,0.000
486330.112,53.223,33.203,30.273,43.457,128.906,0.000,0.000,0.000
486330.116,-49.805,31.738,34.668,-27.832,-112.793,0.000,0.000,0.000
486330.119,-17.090,27.832,32.227,-14.160,-124.023,0.000,0.000,0.000
486330.123,93.262,29.297,27.344,50.293,72.754,0.000,0.000,0.000
486330.127,82.031,33.203,27.344,45.410,162.598,0.000,0.000,0.000
486330.131,-38.574,27.832,31.250,-28.320,15.625,0.000,0.000,0.000
486330.135,-53.223,24.414,28.320,-39.551,-129.883,0.000,0.000,0.000
486330.139,51.758,25.879,23.438,34.668,32.715,0.000,0.000,0.000
486330.143,98.145,32.227,24.414,67.383,215.820,0.000,0.000,0.000
486330.147,14.648,34.668,31.250,8.301,60.059,0.000,0.000,0.000
486330.151,-41.016,33.691,35.645,-20.996,-120.605,0.000,0.000,0.000
486330.155,45.410,31.250,33.203,33.203,15.625,0.000,0.000,0.000
486330.159,117.676,27.832,32.715,80.078,236.328,0.000,0.000,0.000
486330.162,48.340,34.180,33.691,32.227,147.949,0.000,0.000,0.000
486330.166,-45.410,34.180,30.273,-33.203,-87.402,0.000,0.000,0.000
486330.170,-4.395,28.809,29.297,3.418,-64.941,0.000,0.000,0.000
486330.174,90.332,34.180,28.809,79.102,162.598,0.000,0.000,0.000
486330.178,62.500,34.668,32.715,59.570,170.898,0.000,0.000,0.000
486330.182,-49.805,33.203,39.062,-24.414,-73.242,0.000,0.000,0.000
486330.186,-34.180,33.691,35.645,-28.320,-150.879,0.000,0.000,0.000
486330.190,74.707,35.156,34.668,54.688,83.008,0.000,0.000,0.000
486330.194,91.797,35.156,37.109,72.754,219.727,0.000,0.000,0.000
486330.198,-10.254,34.668,37.598,-4.395,16.602,0.000,0.000,0.000
486330.202,-58.594,30.273,37.109,-35.645,-110.840,0.000,0.000,0.000
486330.205,29.785,31.250,34.668,30.273,48.828,0.000,0.000,0.000
486330.209,94.238,33.203,34.180,64.941,228.516,0.000,0.000,0.000
486330.213,7.812,33.203,40.527,5.371,143.555,0.000,0.000,0.000
486330.217,-66.406,32.715,44.922,-36.621,-103.027,0.000,0.000,0.000
486330.221,10.254,30.762,40.039,14.648,-34.668,0.000,0.000,0.000
486330.225,105.957,35.156,37.109,75.195,194.824,0.000,0.000,0.000
486330.229,54.688,35.156,35.156,30.762,118.164,0.000,0.000,0.000
486330.233,-60.547,35.156,33.691,-35.156,-82.031,0.000,0.000,0.000
486330.237,-10.742,39.551,33.691,-0.488,-97.168,0.000,0.000,0.000
486330.241,93.750,35.156,24.902,60.547,106.445,0.000,0.000,0.000
486330.244,73.730,34.668,23.438,39.551,181.641,0.000,0.000,0.000
486330.248,-40.039,40.039,28.320,-26.367,-52.734,0.000,0.000,0.000
486330.252,-34.180,38.574,25.391,-33.691,-164.551,0.000,0.000,0.000
486330.256,72.266,37.598,25.391,35.645,28.809,0.000,0.000,0.000
486330.260,98.633,43.457,32.715,54.688,171.875,0.000,0.000,0.000
486330.264,-2.930,41.504,29.785,-13.184,3.906,4.000,1.000,0.000
486330.268,-46.387,30.762,20.996,-37.598,-154.297,0.000,0.000,0.000
486330.272,52.246,26.367,22.461,22.949,-31.738,0.000,0.000,0.000
486330.276,107.422,27.832,22.461,62.988,150.391,0.000,0.000,0.000
486330.280,12.695,31.738,23.438,8.789,45.898,0.000,0.000,0.000
486330.284,-66.406,33.691,27.832,-40.039,-208.984,0.000,0.000,0.000
486330.287,-1.465,31.250,23.926,2.441,-143.555,0.000,0.000,0.000
486330.291,82.520,28.320,21.973,61.523,125.977,0.000,0.000,0.000
486330.295,36.621,30.762,28.809,30.762,118.652,0.000,0.000,0.000
486330.299,-67.383,28.809,28.320,-40.527,-96.191,0.000,0.000,0.000
486330.303,-29.297,23.926,25.391,-19.043,-140.137,0.000,0.000,0.000
486330.307,67.383,22.949,27.832,60.547,77.148,0.000,0.000,0.000
486330.311,71.289,27.344,29.297,51.758,149.902,0.000,0.000,0.000
486330.315,-35.156,31.250,32.227,-13.672,-22.461,0.000,0.000,0.000
486330.319,-59.082,27.832,32.227,-14.648,-47.363,0.000,0.000,0.000
486330.323,38.086,21.973,30.273,52.734,153.809,0.000,0.000,0.000
486330.327,86.914,21.973,34.668,78.125,288.086,0.000,0.000,0.000
486330.330,-7.324,24.414,38.574,0.000,69.824,0.000,0.000,0.000
486330.334,-64.453,22.949,38.086,-40.039,-151.367,0.000,0.000,0.000
486330.338,27.344,25.879,34.180,28.809,-4.883,0.000,0.000,0.000
486330.342,98.145,28.320,28.809,74.707,178.711,0.000,0.000,0.000
486330.346,27.344,26.367,29.297,21.484,83.008,0.000,0.000,0.000
486330.350,-53.711,31.250,34.180,-24.902,-86.914,0.000,0.000,0.000
486330.354,17.090,38.086,33.203,18.555,-92.285,0.000,0.000,0.000
486330.358,103.027,36.133,30.762,78.613,95.703,0.000,0.000,0.000
486330.362,67.871,30.762,30.762,45.410,143.066,0.000,0.000,0.000
486330.366,-33.691,28.809,31.250,-27.344,-67.383,0.000,0.000,0.000
486330.369,-28.809,29.297,30.273,-14.160,-128.418,0.000,0.000,0.000
486330.373,71.289,30.762,31.250,58.594,63.965,0.000,0.000,0.000
486330.377,68.359,32.715,27.344,44.922,210.449,0.000,0.000,0.000
486330.381,-41.992,36.133,28.320,-27.832,38.574,0.000,0.000,0.000
486330.385,-53.711,31.738,34.668,-30.273,-94.238,0.000,0.000,0.000
486330.389,47.363,27.832,29.785,35.645,85.449,0.000,0.000,0.000
486330.393,95.703,29.785,25.391,61.523,229.980,0.000,0.000,0.000
486330.397,5.371,29.785,28.809,-0.977,75.684,0.000,0.000,0.000
486330.401,-40.527,31.250,30.273,-33.203,-126.953,0.000,0.000,0.000
486330.405,35.645,30.762,27.344,25.879,-43.945,0.000,0.000,0.000
486330.409,94.727,32.715,26.367,85.449,101.562,0.000,0.000,0.000
486330.412,30.762,37.109,27.832,36.133,41.992,0.000,0.000,0.000
486330.416,-62.012,36.133,31.738,-28.809,-126.465,0.000,0.000,0.000
486330.420,-10.254,34.180,34.668,3.906,-108.398,0.000,0.000,0.000
486330.424,89.844,31.250,30.273,63.965,111.816,0.000,0.000,0.000
486330.428,62.012,30.273,26.855,39.551,151.855,0.000,0.000,0.000
486330.432,-55.176,31.738,29.785,-30.762,-2.930,0.000,0.000,0.000
486330.436,-38.574,26.367,27.832,-27.344,-28.809,0.000,0.000,0.000
486330.440,69.824,28.809,26.367,42.969,127.930,0.000,0.000,0.000
486330.444,83.008,32.715,25.879,58.105,133.789,0.000,0.000,0.000
486330.448,-25.879,32.715,25.879,-13.184,-64.941,0.000,0.000,0.000
486330.452,-44.434,34.668,29.297,-34.668,-212.402,0.000,0.000,0.000
486330.455,53.223,31.738,24.414,38.574,-36.133,0.000,0.000,0.000
486330.459,103.027,29.297,18.555,73.730,249.512,0.000,0.000,0.000
486330.463,26.855,33.203,22.461,6.836,129.395,0.000,0.000,0.000
486330.467,-51.270,35.156,25.391,-45.898,-75.195,0.000,0.000,0.000
486330.471,10.254,30.273,22.949,4.883,-31.250,0.000,0.000,0.000
486330.475,92.285,28.809,23.438,65.430,158.203,0.000,0.000,0.000
486330.479,43.945,33.691,27.832,20.020,187.500,0.000,0.000,0.000
486330.483,-56.641,33.691,29.297,-41.016,4.883,0.000,0.000,0.000
486330.487,-17.090,34.668,31.250,-12.207,-58.105,0.000,0.000,0.000
486330.491,86.426,37.598,32.227,58.105,95.703,0.000,0.000,0.000
486330.494,63.965,37.109,29.785,43.457,193.359,0.000,0.000,0.000
486330.498,-44.434,32.227,24.902,-33.691,-36.621,0.000,0.000,0.000
486330.502,-31.250,31.738,24.414,-26.855,-174.805,0.000,0.000,0.000
486330.506,81.543,36.133,24.902,49.805,5.859,0.000,0.000,0.000
486330.510,103.027,34.180,17.578,61.523,174.316,0.000,0.000,0.000
486330.514,-4.395,31.738,20.508,-12.207,45.898,0.000,0.000,0.000
486330.518,-52.246,30.273,25.879,-47.363,-159.180,0.000,0.000,0.000
486330.522,34.180,33.691,27.832,22.949,-54.199,0.000,0.000,0.000
486330.526,107.422,33.691,28.809,67.871,158.691,0.000,0.000,0.000
486330.530,23.438,30.762,28.320,6.836,84.961,0.000,0.000,0.000
486330.534,-68.848,32.227,26.367,-44.922,-105.469,0.000,0.000,0.000
486330.537,2.930,32.715,26.855,2.441,-28.320,0.000,0.000,0.000
486330.541,97.656,32.227,27.344,64.941,182.129,0.000,0.000,0.000
486330.545,44.434,35.156,28.809,29.297,127.930,0.000,0.000,0.000
486330.549,-56.641,34.668,31.250,-34.668,-123.047,0.000,0.000,0.000
486330.553,-14.160,33.203,25.879,-20.020,-139.160,0.000,0.000,0.000
486330.557,96.680,31.250,21.973,52.734,78.125,0.000,0.000,0.000
486330.561,86.914,27.344,23.926,52.734,184.570,0.000,0.000,0.000
486330.565,-44.922,28.809,25.391,-22.949,-17.090,0.000,0.000,0.000
486330.569,-65.430,27.344,20.996,-35.645,-195.801,0.000,0.000,0.000
486330.573,38.574,28.320,24.414,36.621,11.719,0.000,0.000,0.000
486330.577,86.914,34.668,29.785,63.965,174.805,0.000,0.000,0.000
486330.580,-4.395,34.668,27.344,1.953,-2.930,0.000,0.000,0.000
486330.584,-60.547,27.832,22.949,-38.574,-191.406,0.000,0.000,0.000
486330.588,38.086,27.344,19.531,12.695,-62.988,0.000,0.000,0.000
486330.592,102.051,31.738,20.996,63.965,204.102,0.000,0.000,0.000
486330.596,13.672,33.691,26.367,20.020,160.645,0.000,0.000,0.000
486330.600,-68.359,32.227,26.367,-39.551,-70.801,0.000,0.000,0.000
486330.604,-2.930,33.203,27.832,-3.906,-38.574,0.000,0.000,0.000
486330.608,103.027,33.691,27.344,62.012,201.172,0.000,0.000,0.000
486330.612,65.430,32.227,29.785,37.598,193.848,0.000,0.000,0.000
486330.616,-68.359,30.762,28.320,-33.203,-48.828,0.000,0.000,0.000
486330.619,-52.246,28.320,25.391,-23.926,-129.395,0.000,0.000,0.000
486330.623,63.965,27.344,28.320,60.059,46.387,0.000,0.000,0.000
486330.627,76.660,26.367,24.414,63.965,158.203,0.000,0.000,0.000
486330.631,-21.973,33.691,25.391,-16.602,-20.020,0.000,0.000,0.000
486330.635,-44.434,31.738,24.902,-29.785,-143.066,0.000,0.000,0.000
486330.639,36.621,24.414,23.438,44.434,31.738,0.000,0.000,0.000
486330.643,78.613,29.785,25.391,76.172,185.059,0.000,0.000,0.000
486330.647,-14.160,32.715,25.391,8.789,18.555,0.000,0.000,0.000
486330.651,-78.125,27.832,26.367,-38.086,-171.875,0.000,0.000,0.000
486330.655,12.695,25.391,25.879,18.555,-93.750,0.000,0.000,0.000
486330.659,98.145,26.855,26.367,75.195,127.930,0.000,0.000,0.000
486330.662,38.574,29.297,26.367,22.461,88.867,0.000,0.000,0.000
486330.666,-56.641,29.297,27.344,-38.086,-104.004,0.000,0.000,0.000
486330.670,-9.766,27.344,27.832,0.488,-53.223,0.000,0.000,0.000
486330.674,93.750,26.855,26.367,77.637,181.641,0.000,0.000,0.000
486330.678,65.918,25.879,25.391,59.082,229.492,0.000,0.000,0.000
486330.682,-48.828,27.832,28.809,-11.719,-6.348,0.000,0.000,0.000
486330.686,-23.438,28.320,30.273,-2.441,-186.035,0.000,0.000,0.000
486330.690,89.844,28.809,26.367,67.383,-13.184,0.000,0.000,0.000
486330.694,92.773,30.762,28.320,81.055,136.230,0.000,0.000,0.000
486330.698,-18.555,32.715,32.227,10.254,-34.668,0.000,0.000,0.000
486330.701,-41.504,35.156,34.668,-11.719,-183.594,0.000,0.000,0.000
486330.705,61.035,30.273,32.715,50.293,-29.785,0.000,0.000,0.000
486330.709,94.727,23.438,25.391,77.637,189.453,0.000,0.000,0.000
486330.713,-0.977,24.902,31.250,25.879,76.660,0.000,0.000,0.000
486330.717,-65.918,26.367,36.621,-25.391,-117.676,0.000,0.000,0.000
486330.721,12.207,23.926,30.762,11.719,-32.227,0.000,0.000,0.000
486330.725,100.586,28.809,31.738,77.148,172.363,0.000,0.000,0.000
486330.729,39.551,31.738,32.227,40.527,113.281,0.000,0.000,0.000
486330.733,-47.852,33.203,29.785,-26.367,-98.145,0.000,0.000,0.000
486330.737,-6.348,33.691,29.297,-4.395,-40.039,0.000,0.000,0.000
486330.741,77.148,29.297,25.391,67.383,171.387,0.000,0.000,0.000
486330.744,69.824,31.738,29.297,60.059,164.062,0.000,0.000,0.000
486330.748,-47.363,31.738,32.227,-17.090,-93.750,0.000,0.000,0.000
486330.752,-54.688,25.391,24.414,-24.902,-182.617,0.000,0.000,0.000
486330.756,54.199,25.391,24.414,52.734,93.262,0.000,0.000,0.000
486330.760,90.332,33.203,31.738,85.938,229.004,0.000,0.000,0.000
486330.764,1.953,35.645,29.785,12.695,-2.930,0.000,0.000,0.000
486330.768,-41.016,29.785,27.344,-29.785,-179.688,0.000,0.000,0.000
486330.772,38.086,28.809,31.738,40.039,-36.621,0.000,0.000,0.000
486330.776,93.750,32.227,25.391,89.355,150.879,0.000,0.000,0.000
486330.780,11.230,30.273,25.391,27.832,45.898,0.000,0.000,0.000
486330.784,-64.453,30.762,28.809,-25.391,-145.996,0.000,0.000,0.000
486330.787,5.859,31.738,20.996,19.531,-102.051,0.000,0.000,0.000
486330.791,109.863,31.250,27.344,87.402,102.539,0.000,0.000,0.000
486330.795,64.941,31.250,30.762,50.781,124.023,0.000,0.000,0.000
486330.799,-46.387,31.250,26.855,-23.926,-78.613,0.000,0.000,0.000
486330.803,-14.648,27.832,26.367,-4.395,-145.996,0.000,0.000,0.000
486330.807,78.613,21.973,28.320,67.383,104.980,0.000,0.000,0.000
486330.811,68.848,22.949,27.832,63.965,188.965,0.000,0.000,0.000
486330.815,-39.551,27.344,30.273,-10.742,-90.332,0.000,0.000,0.000
486330.819,-49.805,28.320,30.762,-16.602,-218.750,0.000,0.000,0.000
486330.823,65.918,31.250,28.809,57.129,-20.508,0.000,0.000,0.000
486330.826,108.887,34.668,29.297,80.078,159.668,0.000,0.000,0.000
486330.830,1.953,36.133,28.320,18.066,30.762,0.000,0.000,0.000
486330.834,-54.688,33.691,27.344,-15.625,-141.113,0.000,0.000,0.000
486330.838,31.738,33.203,26.855,40.527,28.809,0.000,0.000,0.000
486330.842,105.957,30.273,23.926,77.148,277.344,0.000,0.000,0.000
486330.846,31.738,26.855,24.902,15.137,190.430,0.000,0.000,0.000
486330.850,-62.500,27.344,32.227,-37.109,-48.340,0.000,0.000,0.000
486330.854,18.555,30.273,30.273,0.977,-116.699,0.000,0.000,0.000
486330.858,108.398,31.250,27.832,65.430,116.211,0.000,0.000,0.000
486330.862,48.340,29.297,33.203,46.875,166.016,0.000,0.000,0.000
486330.866,-61.523,30.273,34.180,-24.414,-108.398,0.000,0.000,0.000
486330.869,-43.457,27.832,30.762,-16.602,-158.691,0.000,0.000,0.000
486330.873,64.941,26.367,24.414,55.664,88.867,0.000,0.000,0.000
486330.877,81.543,32.715,26.855,59.570,259.766,0.000,0.000,0.000
486330.881,-19.043,38.086,29.785,-12.695,57.617,0.000,0.000,0.000
486330.885,-41.504,34.180,29.297,-36.621,-76.660,0.000,0.000,0.000
486330.889,60.059,29.297,30.273,34.180,84.473,0.000,0.000,0.000
486330.893,109.863,30.762,31.250,77.148,191.406,0.000,0.000,0.000
486330.897,8.301,33.691,31.738,12.695,3.906,0.000,0.000,0.000
486330.901,-56.152,34.668,31.250,-31.250,-184.570,0.000,0.000,0.000
486330.905,19.043,27.832,28.320,20.508,-75.195,0.000,0.000,0.000
486330.909,94.238,26.367,26.855,75.684,151.855,0.000,0.000,0.000
486330.912,36.621,30.273,31.738,31.738,110.840,0.000,0.000,0.000
486330.916,-71.289,30.762,34.180,-36.133,-122.559,0.000,0.000,0.000
486330.920,-18.555,33.203,31.738,-9.277,-122.070,0.000,0.000,0.000
486330.924,78.125,29.297,26.367,54.199,142.578,0.000,0.000,0.000
486330.928,37.598,20.996,27.344,29.785,243.652,0.000,0.000,0.000
486330.932,-69.336,24.414,33.691,-40.527,36.133,0.000,0.000,0.000
486330.936,-46.387,26.855,30.762,-29.297,-62.012,0.000,0.000,0.000
486330.940,60.059,24.902,25.879,47.852,161.621,0.000,0.000,0.000
486330.944,84.961,29.785,30.273,62.500,276.367,0.000,0.000,0.000
486330.948,-11.719,30.762,31.738,-12.207,40.527,0.000,0.000,0.000
486330.951,-57.617,30.762,29.297,-33.691,-162.598,0.000,0.000,0.000
486330.955,31.738,35.156,32.227,42.969,-42.969,0.000,0.000,0.000
486330.959,96.680,33.203,34.180,84.961,243.652,0.000,0.000,0.000
486330.963,15.137,34.668,38.574,22.461,164.551,0.000,0.000,0.000
486330.967,-62.500,29.785,37.109,-26.855,-105.469,0.000,0.000,0.000
486330.971,8.789,23.438,36.133,20.996,-86.426,0.000,0.000,0.000
486330.975,91.797,27.832,32.715,71.777,95.215,0.000,0.000,0.000
486330.979,31.738,32.715,26.367,27.832,81.543,0.000,0.000,0.000
486330.983,-71.777,32.715,27.344,-36.133,-132.324,0.000,0.000,0.000
486330.987,-28.320,29.785,25.391,-14.160,-132.812,0.000,0.000,0.000
486330.991,75.195,30.762,24.902,57.617,129.883,0.000,0.000,0.000
486330.994,74.707,32.227,28.320,48.340,241.699,0.000,0.000,0.000
486330.998,-32.227,32.227,31.738,-23.438,5.371,0.000,0.000,0.000
486331.002,-49.316,28.809,34.180,-23.438,-189.941,0.000,0.000,0.000
486331.006,47.852,27.832,34.668,47.363,0.977,0.000,0.000,0.000
486331.010,70.801,23.926,26.367,63.477,177.734,0.000,0.000,0.000
486331.014,-28.809,21.973,22.949,-6.836,15.625,0.000,0.000,0.000
486331.018,-65.430,25.391,25.879,-32.715,-168.945,0.000,0.000,0.000
486331.022,33.691,27.832,26.367,32.715,-70.312,0.000,0.000,0.000
486331.026,105.469,31.250,26.855,79.590,165.039,0.000,0.000,0.000
486331.030,32.715,39.551,32.227,26.855,86.914,0.000,0.000,0.000
486331.034,-56.641,34.668,28.809,-28.320,-149.902,0.000,0.000,0.000
486331.037,-0.977,21.973,20.020,8.301,-108.398,0.000,0.000,0.000
486331.041,88.867,27.832,27.344,71.289,171.387,0.000,0.000,0.000
486331.045,52.734,33.203,30.762,40.039,237.305,0.000,0.000,0.000
486331.049,-56.152,28.320,23.438,-32.715,6.348,0.000,0.000,0.000
486331.053,-28.320,27.344,22.949,-13.184,-19.531,0.000,0.000,0.000
486331.057,83.008,30.273,22.949,63.965,151.855,0.000,0.000,0.000
486331.061,79.590,32.227,26.367,59.082,123.535,0.000,0.000,0.000
486331.065,-29.297,33.203,32.715,-14.648,-99.609,0.000,0.000,0.000
486331.069,-40.039,31.250,30.762,-30.273,-206.055,0.000,0.000,0.000
486331.073,56.641,28.320,30.273,38.574,-6.836,0.000,0.000,0.000
486331.076,89.355,31.738,31.738,70.312,159.668,0.000,0.000,0.000
486331.080,-13.672,30.273,29.297,0.000,0.488,0.000,0.000,0.000
486331.084,-72.266,28.320,26.367,-41.992,-180.176,0.000,0.000,0.000
486331.088,20.996,29.785,25.391,16.602,-46.387,0.000,0.000,0.000
486331.092,96.680,27.832,27.344,67.383,188.965,0.000,0.000,0.000
486331.096,27.832,29.297,35.645,22.949,99.121,0.000,0.000,0.000
486331.100,-70.801,28.809,36.133,-40.527,-139.160,0.000,0.000,0.000
486331.104,-12.695,28.320,31.250,-10.742,-133.301,0.000,0.000,0.000
486331.108,85.449,25.391,30.273,62.988,96.680,0.000,0.000,0.000
486331.112,49.316,27.344,32.715,41.992,125.488,0.000,0.000,0.000
486331.116,-58.105,29.297,33.691,-37.598,-103.516,0.000,0.000,0.000
486331.119,-40.527,26.367,30.273,-27.344,-142.578,0.000,0.000,0.000
486331.123,71.289,27.344,30.273,48.340,69.336,0.000,0.000,0.000
486331.127,87.402,33.691,33.203,49.805,190.918,0.000,0.000,0.000
486331.131,-3.906,37.598,27.344,-20.508,-4.395,0.000,0.000,0.000
486331.135,-35.645,30.762,23.438,-42.969,-152.832,0.000,0.000,0.000
486331.139,45.410,28.320,27.832,28.320,17.090,0.000,0.000,0.000
486331.143,91.309,28.320,27.344,66.406,180.176,0.000,0.000,0.000
486331.147,-12.695,33.203,35.645,4.395,37.109,0.000,0.000,0.000
486331.151,-74.219,37.598,36.621,-38.086,-151.367,0.000,0.000,0.000
486331.155,15.625,28.320,26.367,9.766,-73.242,0.000,0.000,0.000
486331.158,107.910,26.367,25.879,70.312,133.301,0.000,0.000,0.000
486331.162,40.527,32.227,29.785,27.832,107.910,0.000,0.000,0.000
486331.166,-64.453,35.645,29.297,-38.574,-116.699,0.000,0.000,0.000
486331.170,0.000,37.109,29.785,-1.465,-158.203,0.000,0.000,0.000
486331.174,94.238,37.109,28.809,72.754,77.637,0.000,0.000,0.000
486331.178,66.895,39.062,32.715,50.293,150.391,0.000,0.000,0.000
486331.182,-35.645,36.621,32.227,-29.785,4.883,0.000,0.000,0.000
486331.186,-41.504,31.250,28.320,-24.414,-30.762,0.000,0.000,0.000
486331.190,52.246,31.250,27.832,50.293,103.516,0.000,0.000,0.000
486331.194,75.195,37.598,27.344,61.035,187.988,0.000,0.000,0.000
486331.198,-18.555,39.062,31.250,-5.859,-14.648,0.000,0.000,0.000
486331.201,-51.758,29.785,29.297,-34.668,-178.223,0.000,0.000,0.000
486331.205,41.504,29.297,27.344,25.391,42.969,0.000,0.000,0.000
486331.209,104.492,32.227,28.809,63.965,286.133,0.000,0.000,0.000
486331.213,11.719,30.762,31.738,-0.977,176.758,0.000,0.000,0.000
486331.217,-76.172,26.367,34.180,-58.594,-41.016,0.000,0.000,0.000
486331.221,-9.766,22.949,30.762,-9.766,16.602,0.000,0.000,0.000
486331.225,83.496,27.344,31.738,62.500,259.766,0.000,0.000,0.000
486331.229,33.203,34.180,33.203,27.344,219.727,0.000,0.000,0.000
486331.233,-60.059,36.133,28.320,-47.852,3.418,0.000,0.000,0.000
486331.237,-11.230,28.320,23.926,-18.066,-31.250,0.000,0.000,0.000
486331.241,76.172,24.902,26.367,65.918,122.559,0.000,0.000,0.000
486331.244,62.500,31.250,31.250,51.270,198.242,0.000,0.000,0.000
486331.248,-46.875,32.227,35.645,-30.273,0.977,0.000,0.000,0.000
486331.252,-45.898,28.809,32.227,-33.203,-91.797,0.000,0.000,0.000
486331.256,60.547,30.273,25.391,46.387,90.332,0.000,0.000,0.000
486331.260,87.891,30.762,23.438,67.383,187.988,0.000,0.000,0.000
486331.264,-19.043,31.250,26.855,-6.836,48.828,0.000,0.000,0.000
486331.268,-76.172,33.203,26.855,-33.691,-102.539,0.000,0.000,0.000
486331.272,16.602,29.785,26.367,33.203,35.156,0.000,0.000,0.000
486331.276,101.074,36.133,29.785,78.613,205.566,0.000,0.000,0.000
486331.280,27.344,41.992,31.738,18.555,95.703,0.000,0.000,0.000
486331.283,-52.246,31.738,27.832,-43.457,-160.156,0.000,0.000,0.000
486331.287,19.531,29.785,21.973,-4.395,-178.223,0.000,0.000,0.000
486331.291,98.145,33.203,23.438,59.570,60.547,0.000,0.000,0.000
486331.295,43.945,33.203,26.367,24.902,29.297,0.000,0.000,0.000
486331.299,-63.965,34.668,24.414,-39.062,-207.031,0.000,0.000,0.000
486331.303,-32.227,32.715,24.414,-15.625,-228.516,0.000,0.000,0.000
486331.307,73.242,33.691,27.832,54.688,13.672,0.000,0.000,0.000
486331.311,77.148,32.715,25.879,47.852,178.223,0.000,0.000,0.000
486331.315,-28.320,35.156,28.809,-19.531,-37.109,0.000,0.000,0.000
486331.319,-45.410,29.297,24.902,-40.039,-230.957,0.000,0.000,0.000
486331.323,46.875,22.461,20.508,22.461,-40.039,0.000,0.000,0.000
486331.326,90.820,27.344,24.902,59.082,179.688,0.000,0.000,0.000
486331.330,-1.465,28.320,31.250,-0.977,29.297,0.000,0.000,0.000
486331.334,-73.730,23.438,30.273,-37.109,-190.430,0.000,0.000,0.000
486331.338,9.766,24.414,22.461,19.531,-46.875,0.000,0.000,0.000
486331.342,81.055,25.879,24.414,72.754,172.363,0.000,0.000,0.000
486331.346,16.602,22.461,30.762,27.832,99.121,0.000,0.000,0.000
486331.350,-74.707,20.020,29.785,-31.250,-108.887,0.000,0.000,0.000
486331.354,-22.461,22.461,27.344,1.465,-76.660,0.000,0.000,0.000
486331.358,83.984,28.809,31.738,71.777,150.391,0.000,0.000,0.000
486331.362,51.270,29.297,34.180,46.387,144.531,0.000,0.000,0.000
486331.366,-64.453,25.879,32.227,-31.738,-93.750,0.000,0.000,0.000
486331.369,-39.062,25.391,24.414,-30.273,-148.438,0.000,0.000,0.000
486331.373,79.102,28.809,19.043,48.340,43.457,0.000,0.000,0.000
486331.377,72.754,26.855,20.508,46.387,143.066,0.000,0.000,0.000
486331.381,-46.875,24.414,21.973,-39.062,-26.367,0.000,0.000,0.000
486331.385,-58.594,24.414,23.926,-50.781,-173.340,0.000,0.000,0.000
486331.389,42.969,28.320,27.344,24.414,-21.484,0.000,0.000,0.000
486331.393,91.797,30.762,27.344,63.965,178.711,0.000,0.000,0.000
486331.397,13.184,35.645,31.738,3.906,52.734,0.000,0.000,0.000
486331.401,-60.547,36.133,33.691,-44.434,-159.180,0.000,0.000,0.000
486331.405,3.906,26.855,28.320,9.766,-78.613,0.000,0.000,0.000
486331.408,88.379,28.809,31.250,67.871,111.816,0.000,0.000,0.000
486331.412,25.879,32.227,30.273,12.207,45.898,0.000,0.000,0.000
486331.416,-70.801,31.738,32.227,-49.805,-97.656,0.000,0.000,0.000
486331.420,-19.043,30.762,33.203,-16.113,-118.164,0.000,0.000,0.000
486331.424,85.938,28.809,25.391,52.734,107.910,0.000,0.000,0.000
486331.428,76.172,34.180,27.344,37.109,261.719,0.000,0.000,0.000
486331.432,-37.109,35.156,31.738,-26.367,43.945,0.000,0.000,0.000
486331.436,-30.762,29.297,28.320,-17.578,-63.477,0.000,0.000,0.000
486331.440,86.914,28.809,27.832,52.734,131.836,0.000,0.000,0.000
486331.444,101.074,35.645,31.250,66.895,253.418,0.000,0.000,0.000
486331.448,-27.344,33.691,30.762,-11.230,103.516,0.000,0.000,0.000
486331.451,-58.594,28.320,29.297,-40.527,-62.500,0.000,0.000,0.000
486331.455,42.480,29.785,25.391,27.344,76.172,0.000,0.000,0.000
486331.459,101.562,32.227,21.484,64.453,237.793,0.000,0.000,0.000
486331.463,17.090,38.086,25.391,8.301,41.992,0.000,0.000,0.000
486331.467,-58.105,37.598,28.320,-40.527,-127.930,0.000,0.000,0.000
