timestamps,TP9,AF7,AF8,TP10,Right AUX,Frequency,Contrast,Orientation
495396.091,31.250,34.668,31.250,28.320,51.270,0.000,0.000,0.000
495396.094,16.113,32.715,32.227,19.043,52.246,0.000,0.000,0.000
495396.098,9.277,30.273,29.297,16.113,53.711,0.000,0.000,0.000
495396.102,19.531,27.832,33.691,20.020,54.199,0.000,0.000,0.000
495396.106,23.438,28.809,30.273,21.484,48.828,0.000,0.000,0.000
495396.110,17.090,26.855,25.879,20.020,46.875,0.000,0.000,0.000
495396.114,13.672,33.203,33.203,18.066,51.758,0.000,0.000,0.000
495396.118,24.414,44.434,36.133,24.902,55.176,0.000,0.000,0.000
495396.122,25.391,34.668,28.809,26.367,67.871,0.000,0.000,0.000
495396.126,16.113,20.996,27.344,18.555,83.984,0.000,0.000,0.000
495396.130,5.859,20.020,28.320,10.742,48.340,0.000,0.000,0.000
495396.134,15.137,24.414,21.484,9.766,31.738,0.000,0.000,0.000
495396.137,24.414,29.785,20.020,19.531,73.730,0.000,0.000,0.000
495396.141,27.832,35.645,24.902,22.461,68.359,0.000,0.000,0.000
495396.145,29.785,39.062,25.879,14.648,10.742,0.000,0.000,0.000
495396.149,20.020,38.574,24.902,13.672,0.000,0.000,0.000,0.000
495396.153,21.973,30.762,19.531,19.043,20.508,0.000,0.000,0.000
495396.157,27.832,25.391,18.555,25.391,18.066,0.000,0.000,0.000
495396.161,19.531,29.785,28.320,26.855,26.367,0.000,0.000,0.000
495396.165,10.742,33.691,30.762,21.973,35.156,0.000,0.000,0.000
495396.169,20.508,32.227,22.949,25.879,43.457,0.000,0.000,0.000
495396.173,35.645,36.133,32.227,36.133,42.969,0.000,0.000,0.000
495396.176,25.391,37.598,36.133,27.832,28.320,0.000,0.000,0.000
495396.180,20.508,36.133,31.250,22.949,38.574,0.000,0.000,0.000
495396.184,31.738,28.809,27.832,23.926,43.945,0.000,0.000,0.000
495396.188,30.762,21.973,26.367,26.367,37.109,0.000,0.000,0.000
495396.192,25.391,24.902,26.367,27.344,37.109,0.000,0.000,0.000
495396.196,18.555,28.320,27.344,23.438,45.898,0.000,0.000,0.000
495396.200,25.391,34.180,26.855,29.297,53.711,0.000,0.000,0.000
495396.204,33.203,31.250,21.973,35.156,53.711,0.000,0.000,0.000
495396.208,28.809,23.926,19.531,34.180,53.223,0.000,0.000,0.000
495396.212,14.160,24.414,23.926,27.344,53.711,0.000,0.000,0.000
495396.216,14.160,27.832,25.391,23.438,59.570,0.000,0.000,0.000
495396.219,29.785,30.762,22.461,25.391,53.711,0.000,0.000,0.000
495396.223,27.832,35.645,28.320,23.926,48.340,0.000,0.000,0.000
495396.227,14.160,33.203,25.391,18.066,54.199,0.000,0.000,0.000
495396.231,10.254,36.133,17.090,14.160,60.059,0.000,0.000,0.000
495396.235,19.043,46.875,23.438,23.438,55.664,0.000,0.000,0.000
495396.239,22.461,38.574,20.508,29.297,33.203,0.000,0.000,0.000
495396.243,15.137,20.996,11.230,15.625,25.879,0.000,0.000,0.000
495396.247,3.418,17.578,11.719,4.395,34.180,0.000,0.000,0.000
495396.251,14.648,28.320,17.090,11.719,45.898,0.000,0.000,0.000
495396.255,23.926,33.691,32.227,22.949,45.410,0.000,0.000,0.000
495396.259,20.020,29.785,34.668,20.508,35.156,0.000,0.000,0.000
495396.262,13.184,33.203,25.879,19.531,35.156,0.000,0.000,0.000
495396.266,3.418,33.203,25.391,17.090,30.273,0.000,0.000,0.000
495396.270,14.160,28.320,27.832,20.996,34.180,0.000,0.000,0.000
495396.274,28.809,32.715,30.762,30.273,47.852,0.000,0.000,0.000
495396.278,11.719,28.320,29.785,22.461,41.992,0.000,0.000,0.000
495396.282,5.859,28.320,33.691,26.367,42.969,0.000,0.000,0.000
495396.286,30.273,30.273,38.574,36.621,48.828,0.000,0.000,0.000
495396.290,33.691,22.461,34.180,36.621,38.086,0.000,0.000,0.000
495396.294,15.625,25.879,32.227,30.273,31.738,0.000,0.000,0.000
495396.298,11.230,35.156,36.133,25.879,40.527,0.000,0.000,0.000
495396.301,17.090,36.621,34.668,21.484,56.152,0.000,0.000,0.000
495396.305,21.484,35.156,30.762,25.391,62.500,0.000,0.000,0.000
495396.309,16.602,34.668,31.738,23.438,42.969,0.000,0.000,0.000
495396.313,6.348,33.691,40.527,19.043,31.250,0.000,0.000,0.000
495396.317,8.789,29.297,39.062,22.461,33.203,0.000,0.000,0.000
495396.321,20.508,24.902,27.344,28.809,41.016,0.000,0.000,0.000
495396.325,20.996,31.738,23.926,27.344,48.828,0.000,0.000,0.000
495396.329,9.277,41.992,37.109,21.973,50.781,0.000,0.000,0.000
495396.333,12.207,36.133,34.668,24.414,55.176,0.000,0.000,0.000
495396.337,17.578,30.273,21.973,25.391,47.852,0.000,0.000,0.000
495396.341,25.879,41.992,26.855,27.344,24.414,0.000,0.000,0.000
495396.344,20.508,50.293,34.180,24.414,23.926,0.000,0.000,0.000
495396.348,6.836,37.109,30.273,17.090,26.367,0.000,0.000,0.000
495396.352,15.625,26.855,25.879,20.508,17.090,0.000,0.000,0.000
495396.356,27.832,35.156,28.809,31.250,27.344,0.000,0.000,0.000
495396.360,20.020,39.551,25.879,29.297,36.621,0.000,0.000,0.000
495396.364,9.277,36.133,21.973,24.902,35.156,0.000,0.000,0.000
495396.368,21.484,42.969,25.879,30.762,32.227,0.000,0.000,0.000
495396.372,28.320,40.527,22.461,31.738,28.320,0.000,0.000,0.000
495396.376,22.461,37.109,25.391,29.785,33.203,0.000,0.000,0.000
495396.380,8.789,37.598,25.391,20.996,29.785,0.000,0.000,0.000
495396.383,9.277,34.180,23.926,13.672,37.598,0.000,0.000,0.000
495396.387,18.555,37.109,28.320,20.020,39.551,0.000,0.000,0.000
495396.391,18.555,36.621,25.879,21.973,25.879,0.000,0.000,0.000
495396.395,9.277,33.691,26.855,19.531,33.691,0.000,0.000,0.000
495396.399,5.371,33.691,24.902,14.648,36.133,0.000,0.000,0.000
495396.403,9.766,34.180,24.414,12.207,18.555,0.000,0.000,0.000
495396.407,23.926,47.363,34.668,25.879,26.855,0.000,0.000,0.000
495396.411,22.461,54.199,32.227,27.344,39.062,0.000,0.000,0.000
495396.415,7.812,35.156,26.367,12.695,30.762,0.000,0.000,0.000
495396.419,14.160,30.273,28.320,13.672,28.809,0.000,0.000,0.000
495396.423,25.879,43.457,31.738,26.367,35.156,0.000,0.000,0.000
495396.426,16.602,42.480,32.715,17.578,30.273,0.000,0.000,0.000
495396.430,-1.953,34.180,20.020,1.465,23.926,0.000,0.000,0.000
495396.434,8.789,38.086,18.555,6.836,33.203,0.000,0.000,0.000
495396.438,21.973,36.621,21.484,22.461,41.504,0.000,0.000,0.000
495396.442,19.531,37.598,19.531,22.949,36.621,0.000,0.000,0.000
495396.446,12.207,41.992,25.879,11.719,31.250,0.000,0.000,0.000
495396.450,16.602,37.109,26.855,9.277,37.598,0.000,0.000,0.000
495396.454,33.203,33.691,22.949,19.531,39.551,0.000,0.000,0.000
495396.458,40.527,39.062,28.809,34.668,49.316,0.000,0.000,0.000
495396.462,20.996,43.457,31.250,29.297,55.176,0.000,0.000,0.000
495396.466,11.230,38.086,27.832,17.578,46.387,0.000,0.000,0.000
495396.469,29.297,34.180,28.320,26.367,35.645,0.000,0.000,0.000
495396.473,29.785,35.645,24.414,27.344,22.949,0.000,0.000,0.000
495396.477,5.859,35.156,19.531,14.648,24.902,0.000,0.000,0.000
495396.481,0.488,32.227,21.973,13.184,38.086,0.000,0.000,0.000
495396.485,17.578,36.133,25.391,22.461,33.691,0.000,0.000,0.000
495396.489,24.414,40.527,24.902,26.367,28.320,0.000,0.000,0.000
495396.493,18.066,36.621,21.484,23.926,39.551,0.000,0.000,0.000
495396.497,12.695,39.062,25.879,20.996,56.641,0.000,0.000,0.000
495396.501,24.414,42.480,30.273,27.344,67.871,0.000,0.000,0.000
495396.505,33.203,38.574,30.762,35.156,61.523,0.000,0.000,0.000
495396.508,28.809,38.086,29.297,30.273,41.504,0.000,0.000,0.000
495396.512,15.625,30.273,28.809,17.578,26.855,0.000,0.000,0.000
495396.516,11.719,26.855,30.273,10.254,27.344,0.000,0.000,0.000
495396.520,14.648,31.738,27.344,10.254,26.367,0.000,0.000,0.000
495396.524,11.230,28.809,27.344,9.277,25.391,0.000,0.000,0.000
495396.528,3.418,25.391,22.461,12.695,23.438,0.000,0.000,0.000
495396.532,0.000,26.367,19.043,15.137,31.250,0.000,0.000,0.000
495396.536,6.836,27.832,21.973,14.160,31.738,0.000,0.000,0.000
495396.540,19.043,30.762,31.738,21.484,30.273,0.000,0.000,0.000
495396.544,20.996,35.156,37.109,27.344,41.992,0.000,0.000,0.000
495396.548,8.789,29.785,31.250,20.020,40.039,0.000,0.000,0.000
495396.551,18.066,32.227,33.691,19.043,30.273,0.000,0.000,0.000
495396.555,26.855,42.480,39.551,32.227,42.969,0.000,0.000,0.000
495396.559,10.254,33.691,35.156,30.273,41.016,0.000,0.000,0.000
495396.563,-4.395,26.367,22.949,19.043,27.344,0.000,0.000,0.000
495396.567,8.301,31.738,25.391,18.555,39.551,0.000,0.000,0.000
495396.571,19.043,33.691,28.320,23.926,44.922,0.000,0.000,0.000
495396.575,18.066,32.227,24.414,28.809,38.086,0.000,0.000,0.000
495396.579,10.742,27.832,21.484,21.484,39.551,0.000,0.000,0.000
495396.583,15.625,27.832,22.461,16.113,68.848,0.000,0.000,0.000
495396.587,30.273,32.227,24.414,25.879,73.730,0.000,0.000,0.000
495396.591,37.109,35.156,25.391,35.645,44.922,0.000,0.000,0.000
495396.594,25.391,34.668,23.438,30.273,39.551,0.000,0.000,0.000
495396.598,9.766,31.250,19.043,18.555,31.738,0.000,0.000,0.000
495396.602,17.090,31.250,20.508,26.855,32.715,0.000,0.000,0.000
495396.606,28.320,34.180,22.949,33.691,40.527,0.000,0.000,0.000
495396.610,22.949,38.086,24.902,23.438,41.504,0.000,0.000,0.000
495396.614,8.301,32.227,26.367,18.066,51.270,0.000,0.000,0.000
495396.618,20.996,32.715,28.809,24.902,50.781,0.000,0.000,0.000
495396.622,34.668,40.039,23.438,31.738,41.992,0.000,0.000,0.000
495396.626,30.762,35.645,18.555,23.438,40.039,0.000,0.000,0.000
495396.630,24.414,34.180,27.832,18.066,42.480,0.000,0.000,0.000
495396.633,37.598,40.039,29.297,21.484,44.922,0.000,0.000,0.000
495396.637,47.852,39.062,20.996,21.973,43.945,0.000,0.000,0.000
495396.641,43.457,39.062,21.973,25.879,60.059,0.000,0.000,0.000
495396.645,32.227,45.898,29.785,25.879,75.684,0.000,0.000,0.000
495396.649,27.832,41.992,33.691,22.949,57.129,0.000,0.000,0.000
495396.653,37.598,36.621,30.762,28.320,37.598,0.000,0.000,0.000
495396.657,32.227,33.203,29.785,26.367,36.133,0.000,0.000,0.000
495396.661,21.484,30.762,30.273,18.555,40.527,0.000,0.000,0.000
495396.665,20.996,34.180,30.762,20.996,42.480,0.000,0.000,0.000
495396.669,31.738,38.574,32.227,33.691,42.480,0.000,0.000,0.000
495396.673,43.457,43.945,30.762,40.527,53.223,0.000,0.000,0.000
495396.676,41.016,42.969,28.809,37.598,59.570,0.000,0.000,0.000
495396.680,25.879,32.227,25.879,27.832,57.617,0.000,0.000,0.000
495396.684,25.391,31.738,24.902,24.414,60.547,0.000,0.000,0.000
495396.688,30.273,38.574,26.367,29.297,56.641,0.000,0.000,0.000
495396.692,27.832,38.086,31.738,29.785,60.547,0.000,0.000,0.000
495396.696,18.555,39.551,32.227,23.926,51.758,0.000,0.000,0.000
495396.700,20.020,44.922,26.367,23.438,35.645,0.000,0.000,0.000
495396.704,22.949,43.945,20.996,22.461,35.156,0.000,0.000,0.000
495396.708,22.949,33.203,17.090,20.996,38.086,0.000,0.000,0.000
495396.712,21.973,29.785,18.555,16.113,29.785,0.000,0.000,0.000
495396.716,19.043,36.133,24.414,12.695,22.461,0.000,0.000,0.000
495396.719,18.066,33.691,26.855,20.996,25.879,0.000,0.000,0.000
495396.723,23.926,37.598,22.949,29.297,31.738,0.000,0.000,0.000
495396.727,20.508,43.457,23.438,26.367,38.574,0.000,0.000,0.000
495396.731,7.812,39.551,30.762,15.625,36.133,0.000,0.000,0.000
495396.735,13.184,36.133,21.484,16.602,33.203,0.000,0.000,0.000
495396.739,21.484,34.668,20.996,22.461,34.668,0.000,0.000,0.000
495396.743,17.090,36.621,31.250,21.973,41.992,0.000,0.000,0.000
495396.747,8.789,41.504,33.203,19.043,57.617,0.000,0.000,0.000
495396.751,19.531,43.945,37.109,22.949,50.293,0.000,0.000,0.000
495396.755,25.879,36.621,35.156,28.320,29.297,0.000,0.000,0.000
495396.758,19.531,30.273,28.809,21.484,24.414,0.000,0.000,0.000
495396.762,11.230,29.785,28.320,14.648,27.832,0.000,0.000,0.000
495396.766,15.625,33.203,28.809,20.508,38.086,0.000,0.000,0.000
495396.770,29.297,31.738,30.762,28.320,38.574,0.000,0.000,0.000
495396.774,28.320,29.785,27.344,25.879,30.762,0.000,0.000,0.000
495396.778,18.555,38.574,25.391,20.996,27.344,0.000,0.000,0.000
495396.782,21.484,44.922,30.762,23.926,33.691,0.000,0.000,0.000
495396.786,26.855,40.527,24.902,21.973,34.668,0.000,0.000,0.000
495396.790,28.809,38.086,21.973,20.508,28.320,0.000,0.000,0.000
495396.794,24.414,35.156,27.832,14.160,28.320,0.000,0.000,0.000
495396.798,17.090,31.250,22.461,7.324,33.203,0.000,0.000,0.000
495396.801,33.691,38.574,18.555,15.625,29.297,0.000,0.000,0.000
495396.805,46.875,38.086,25.391,22.461,25.391,0.000,0.000,0.000
495396.809,38.086,38.086,32.227,20.020,32.227,0.000,0.000,0.000
495396.813,22.461,37.109,34.668,16.113,35.156,0.000,0.000,0.000
495396.817,22.949,29.785,38.574,20.508,40.527,0.000,0.000,0.000
495396.821,26.367,30.762,37.109,21.973,40.039,0.000,0.000,0.000
495396.825,19.043,30.762,28.320,16.113,27.344,0.000,0.000,0.000
495396.829,12.695,32.227,25.391,15.137,28.320,0.000,0.000,0.000
495396.833,17.578,31.738,24.414,17.578,47.852,0.000,0.000,0.000
495396.837,36.133,38.086,24.414,26.855,54.199,0.000,0.000,0.000
495396.841,40.039,41.992,25.391,30.273,35.645,0.000,0.000,0.000
495396.844,27.832,38.574,33.203,28.320,28.809,0.000,0.000,0.000
495396.848,25.391,39.551,33.203,26.367,36.133,0.000,0.000,0.000
495396.852,40.039,37.109,28.320,27.344,44.434,0.000,0.000,0.000
495396.856,44.434,27.832,27.344,31.738,46.387,0.000,0.000,0.000
495396.860,33.203,30.273,25.879,26.855,41.992,0.000,0.000,0.000
495396.864,22.949,35.645,28.320,22.949,36.133,0.000,0.000,0.000
495396.868,24.414,27.344,24.414,19.531,27.344,0.000,0.000,0.000
495396.872,36.621,23.926,20.508,22.949,31.250,0.000,0.000,0.000
495396.876,37.109,32.715,31.250,33.691,42.480,0.000,0.000,0.000
495396.880,17.090,31.738,33.203,22.461,38.086,0.000,0.000,0.000
495396.883,9.277,23.438,21.973,8.789,31.250,0.000,0.000,0.000
495396.887,25.391,22.949,23.926,25.391,48.340,0.000,0.000,0.000
495396.891,35.156,26.855,29.785,30.273,42.480,0.000,0.000,0.000
495396.895,27.344,27.344,34.668,18.555,27.832,0.000,0.000,0.000
495396.899,22.461,27.832,38.574,18.066,32.715,0.000,0.000,0.000
495396.903,36.621,31.738,39.062,31.250,33.691,0.000,0.000,0.000
495396.907,44.922,40.527,43.457,39.062,37.109,0.000,0.000,0.000
495396.911,35.645,33.691,36.133,25.391,36.621,0.000,0.000,0.000
495396.915,30.273,23.438,32.227,21.484,39.062,0.000,0.000,0.000
495396.919,42.480,28.809,35.645,32.227,45.898,0.000,0.000,0.000
495396.923,43.945,27.832,25.391,32.227,45.898,0.000,0.000,0.000
495396.926,29.785,20.996,21.484,24.902,43.457,0.000,0.000,0.000
495396.930,20.996,28.809,29.297,23.438,45.898,0.000,0.000,0.000
495396.934,32.715,34.180,33.691,23.438,45.898,0.000,0.000,0.000
495396.938,45.410,33.203,32.227,28.320,45.410,0.000,0.000,0.000
495396.942,40.039,30.273,30.762,24.902,44.922,0.000,0.000,0.000
495396.946,22.949,21.484,29.785,15.137,40.527,0.000,0.000,0.000
495396.950,19.531,18.066,31.738,21.484,38.086,0.000,0.000,0.000
495396.954,41.016,22.949,38.574,31.738,35.156,0.000,0.000,0.000
495396.958,39.551,26.855,39.551,28.809,33.691,0.000,0.000,0.000
495396.962,20.020,29.785,42.480,23.438,37.598,0.000,0.000,0.000
495396.965,27.832,32.227,37.598,24.414,53.223,0.000,0.000,0.000
495396.969,36.621,35.156,33.203,27.344,65.918,0.000,0.000,0.000
495396.973,36.133,36.621,34.668,29.297,55.176,0.000,0.000,0.000
495396.977,29.297,31.738,29.785,32.227,44.922,0.000,0.000,0.000
495396.981,19.531,29.297,27.832,26.855,25.879,0.000,0.000,0.000
495396.985,32.715,31.738,32.227,34.668,26.855,0.000,0.000,0.000
495396.989,47.852,26.855,36.133,49.316,40.039,0.000,0.000,0.000
495396.993,46.387,26.367,38.086,43.457,35.156,0.000,0.000,0.000
495396.997,35.156,36.133,36.621,38.086,44.922,0.000,0.000,0.000
495397.001,36.133,35.156,34.668,41.504,53.711,0.000,0.000,0.000
495397.005,41.504,34.668,31.738,39.551,48.340,0.000,0.000,0.000
495397.008,35.156,28.809,25.879,30.762,39.062,0.000,0.000,0.000
495397.012,22.461,29.297,25.391,25.879,40.039,0.000,0.000,0.000
495397.016,23.438,34.180,25.879,23.926,53.223,0.000,0.000,0.000
495397.020,40.527,36.133,35.156,33.203,52.246,0.000,0.000,0.000
495397.024,48.828,36.621,38.086,37.109,44.434,0.000,0.000,0.000
495397.028,37.598,38.574,27.344,27.344,48.340,0.000,0.000,0.000
495397.032,28.809,37.598,23.926,20.020,53.711,0.000,0.000,0.000
495397.036,36.621,34.180,26.367,31.250,55.176,0.000,0.000,0.000
495397.040,41.992,33.691,23.438,37.598,51.270,0.000,0.000,0.000
495397.044,29.785,30.273,23.438,29.785,50.293,0.000,0.000,0.000
495397.048,16.602,27.832,26.367,27.832,50.781,0.000,0.000,0.000
495397.051,22.949,31.250,34.668,32.715,38.574,0.000,0.000,0.000
495397.055,29.785,29.785,40.039,42.480,41.016,0.000,0.000,0.000
495397.059,24.902,29.785,32.227,38.574,45.898,0.000,0.000,0.000
495397.063,11.719,28.809,25.879,26.367,41.504,0.000,0.000,0.000
495397.067,30.273,30.762,26.855,37.109,55.664,0.000,0.000,0.000
495397.071,39.062,35.645,21.973,33.691,47.363,0.000,0.000,0.000
495397.075,25.391,32.715,17.578,24.414,34.668,0.000,0.000,0.000
495397.079,22.949,37.109,23.926,25.391,62.500,0.000,0.000,0.000
495397.083,28.809,41.992,29.297,25.391,71.289,0.000,0.000,0.000
495397.087,32.715,45.898,28.809,29.297,45.410,0.000,0.000,0.000
495397.090,34.180,44.922,21.973,25.879,44.922,0.000,0.000,0.000
495397.094,12.207,36.133,12.207,8.789,43.945,0.000,0.000,0.000
495397.098,2.441,29.297,15.137,5.371,28.320,0.000,0.000,0.000
495397.102,23.926,30.762,23.438,18.066,23.438,0.000,0.000,0.000
495397.106,28.320,36.621,19.043,16.113,22.461,0.000,0.000,0.000
495397.110,22.949,34.668,14.648,10.254,21.973,0.000,0.000,0.000
495397.114,17.578,38.086,19.531,16.113,26.367,0.000,0.000,0.000
495397.118,24.902,51.270,29.297,27.832,39.551,0.000,0.000,0.000
495397.122,33.691,48.828,28.320,29.785,36.621,0.000,0.000,0.000
495397.126,24.902,37.598,15.137,25.879,27.832,0.000,0.000,0.000
495397.130,14.648,37.109,15.137,19.043,29.785,0.000,0.000,0.000
495397.133,23.926,36.621,18.066,16.113,34.668,0.000,0.000,0.000
495397.137,31.738,37.598,20.996,26.855,36.621,0.000,0.000,0.000
495397.141,29.785,39.062,23.926,32.715,40.039,0.000,0.000,0.000
495397.145,26.367,41.016,24.902,33.203,51.758,0.000,0.000,0.000
495397.149,22.461,39.062,24.902,31.738,52.734,0.000,0.000,0.000
495397.153,24.414,39.551,27.344,32.715,55.664,0.000,0.000,0.000
495397.157,27.344,39.551,28.320,39.062,67.871,0.000,0.000,0.000
495397.161,17.578,34.668,20.508,29.297,41.504,0.000,0.000,0.000
495397.165,15.137,39.062,20.996,21.973,25.879,0.000,0.000,0.000
495397.169,28.320,37.109,27.344,25.879,38.086,0.000,0.000,0.000
495397.173,29.297,32.715,30.273,27.832,29.785,0.000,0.000,0.000
495397.176,23.438,36.621,33.691,28.320,31.250,0.000,0.000,0.000
495397.180,24.414,46.875,40.039,29.785,54.688,0.000,0.000,0.000
495397.184,28.809,40.527,37.109,30.762,52.734,0.000,0.000,0.000
495397.188,28.320,30.273,29.785,33.691,34.668,0.000,0.000,0.000
495397.192,22.949,30.762,27.832,33.203,39.551,0.000,0.000,0.000
495397.196,9.277,35.156,28.809,19.043,38.574,0.000,0.000,0.000
495397.200,12.207,40.039,29.297,11.230,34.180,0.000,0.000,0.000
495397.204,27.344,40.039,33.203,24.902,39.551,0.000,0.000,0.000
495397.208,29.297,44.434,36.621,35.645,40.039,0.000,0.000,0.000
495397.212,19.043,44.434,35.156,34.180,39.551,0.000,0.000,0.000
495397.215,17.090,37.598,33.203,30.762,40.527,0.000,0.000,0.000
495397.219,25.879,35.156,33.203,30.273,38.574,0.000,0.000,0.000
495397.223,27.832,35.156,28.809,32.227,36.133,0.000,0.000,0.000
495397.227,22.949,38.086,26.855,30.762,40.039,0.000,0.000,0.000
495397.231,21.484,43.945,31.250,28.809,45.898,0.000,0.000,0.000
495397.235,31.250,45.898,30.273,36.133,50.293,0.000,0.000,0.000
495397.239,31.250,35.645,31.738,36.621,46.387,0.000,0.000,0.000
495397.243,22.949,34.180,31.738,33.203,42.969,0.000,0.000,0.000
495397.247,12.207,38.574,28.320,28.320,43.457,0.000,0.000,0.000
495397.251,12.207,34.180,24.902,22.949,39.062,0.000,0.000,0.000
495397.255,21.484,36.621,20.996,27.344,33.691,0.000,0.000,0.000
495397.258,26.855,46.387,25.391,24.902,23.926,0.000,0.000,0.000
495397.262,22.949,47.363,28.809,14.648,28.320,0.000,0.000,0.000
495397.266,28.809,37.109,26.367,12.695,31.738,0.000,0.000,0.000
495397.270,31.250,35.156,23.926,18.066,23.438,0.000,0.000,0.000
495397.274,21.484,36.621,24.414,15.625,25.879,0.000,0.000,0.000
495397.278,19.043,38.086,29.297,13.672,36.621,0.000,0.000,0.000
495397.282,10.254,33.203,33.203,16.113,31.250,0.000,0.000,0.000
495397.286,9.766,30.762,28.320,19.043,20.508,0.000,0.000,0.000
495397.290,10.742,32.715,19.531,20.020,21.484,0.000,0.000,0.000
495397.294,11.719,41.504,26.367,22.461,20.508,0.000,0.000,0.000
495397.298,9.277,45.410,33.691,21.484,16.113,0.000,0.000,0.000
495397.301,10.254,34.180,27.344,20.996,14.648,0.000,0.000,0.000
495397.305,19.043,32.715,25.391,31.738,18.066,0.000,0.000,0.000
495397.309,22.461,36.621,28.320,35.156,26.367,0.000,0.000,0.000
495397.313,16.602,39.062,26.855,23.926,34.668,0.000,0.000,0.000
495397.317,17.578,43.945,24.902,18.555,40.039,0.000,0.000,0.000
495397.321,26.367,42.969,20.508,28.320,49.805,0.000,0.000,0.000
495397.325,33.203,39.551,18.066,30.273,45.410,0.000,0.000,0.000
495397.329,20.020,45.410,23.438,24.902,33.691,0.000,0.000,0.000
495397.333,5.859,41.992,22.949,20.508,22.461,0.000,0.000,0.000
495397.337,12.207,27.832,23.926,20.508,6.836,0.000,0.000,0.000
495397.340,17.578,27.832,32.715,28.320,18.066,0.000,0.000,0.000
495397.344,4.883,31.738,35.156,22.949,17.578,0.000,0.000,0.000
495397.348,1.953,26.855,33.203,12.207,4.395,0.000,0.000,0.000
495397.352,14.160,30.762,35.645,19.531,14.160,0.000,0.000,0.000
495397.356,22.461,37.598,34.668,33.691,23.438,0.000,0.000,0.000
495397.360,16.602,34.668,28.809,26.855,25.879,0.000,0.000,0.000
495397.364,4.883,34.668,29.785,15.137,29.785,0.000,0.000,0.000
495397.368,16.113,41.016,32.227,26.855,28.809,0.000,0.000,0.000
495397.372,20.508,37.109,30.273,29.785,17.090,0.000,0.000,0.000
495397.376,19.043,31.738,37.109,20.996,16.602,0.000,0.000,0.000
495397.380,6.348,28.809,37.598,12.207,18.066,0.000,0.000,0.000
495397.383,3.906,29.785,31.738,11.230,14.160,0.000,0.000,0.000
495397.387,22.461,35.156,30.762,20.996,20.020,0.000,0.000,0.000
495397.391,16.113,33.691,34.180,16.113,15.137,0.000,0.000,0.000
495397.395,2.441,33.691,35.156,10.254,17.090,0.000,0.000,0.000
495397.399,14.160,33.203,31.738,8.301,21.484,0.000,0.000,0.000
495397.403,23.926,32.227,28.809,12.695,19.531,0.000,0.000,0.000
495397.407,20.020,27.344,26.855,19.531,25.391,0.000,0.000,0.000
495397.411,20.020,22.461,31.738,15.625,25.391,0.000,0.000,0.000
495397.415,19.043,26.367,32.715,12.695,21.973,0.000,0.000,0.000
495397.419,23.438,29.297,29.785,21.973,29.785,0.000,0.000,0.000
495397.422,25.879,26.855,31.738,26.855,34.180,0.000,0.000,0.000
495397.426,22.949,27.832,36.133,21.973,34.668,0.000,0.000,0.000
495397.430,14.648,28.320,40.039,17.578,34.668,0.000,0.000,0.000
495397.434,11.230,26.367,35.156,12.695,24.414,0.000,0.000,0.000
495397.438,20.020,33.203,32.715,16.113,23.438,0.000,0.000,0.000
495397.442,24.414,31.738,38.086,19.043,26.855,0.000,0.000,0.000
495397.446,23.438,25.879,36.621,13.184,30.273,0.000,0.000,0.000
495397.450,29.785,35.645,35.645,16.113,33.203,0.000,0.000,0.000
495397.454,37.109,42.969,30.762,21.973,34.668,0.000,0.000,0.000
495397.458,34.180,37.109,23.926,20.508,41.016,0.000,0.000,0.000
495397.462,19.043,36.133,32.227,20.508,41.992,0.000,0.000,0.000
495397.465,18.555,36.133,34.180,19.531,37.109,0.000,0.000,0.000
495397.469,27.832,27.344,30.762,21.973,25.879,0.000,0.000,0.000
495397.473,36.621,23.926,33.203,24.902,27.832,0.000,0.000,0.000
495397.477,27.344,22.461,32.715,18.066,36.621,0.000,0.000,0.000
495397.481,7.812,25.879,34.668,13.184,36.133,0.000,0.000,0.000
495397.485,17.090,33.203,36.133,19.043,30.762,0.000,0.000,0.000
495397.489,27.344,30.762,29.785,21.973,35.156,0.000,0.000,0.000
495397.493,14.648,31.250,23.438,16.113,38.574,0.000,0.000,0.000
495397.497,7.812,41.016,25.391,8.789,25.391,0.000,0.000,0.000
495397.501,17.090,40.039,30.762,9.766,16.113,0.000,0.000,0.000
495397.505,16.602,31.738,26.855,14.648,8.301,0.000,0.000,0.000
495397.508,13.672,28.809,23.438,13.672,10.254,0.000,0.000,0.000
495397.512,8.301,28.320,32.227,12.207,37.109,0.000,0.000,0.000
495397.516,14.648,32.715,38.574,18.066,46.387,0.000,0.000,0.000
495397.520,24.414,31.250,38.086,24.414,22.949,0.000,0.000,0.000
495397.524,15.137,26.367,33.203,23.438,16.602,0.000,0.000,0.000
495397.528,-0.488,27.344,23.926,14.160,16.602,0.000,0.000,0.000
495397.532,0.488,31.250,22.949,8.301,22.461,0.000,0.000,0.000
495397.536,18.066,26.855,28.809,15.625,41.016,0.000,0.000,0.000
495397.540,16.602,20.020,27.344,14.648,29.297,0.000,0.000,0.000
495397.544,3.906,23.438,22.949,4.395,17.090,0.000,0.000,0.000
495397.547,4.883,31.738,34.180,14.160,30.762,0.000,0.000,0.000
495397.551,13.184,30.273,26.855,19.043,21.973,2.000,1.000,45.000
495397.555,20.996,32.227,22.949,20.508,15.137,0.000,0.000,0.000
495397.559,19.043,35.645,28.320,18.555,20.996,0.000,0.000,0.000
495397.563,10.254,33.691,20.508,14.160,24.414,0.000,0.000,0.000
495397.567,9.766,26.367,20.996,13.184,26.367,0.000,0.000,0.000
495397.571,15.625,27.344,20.996,9.766,21.973,0.000,0.000,0.000
495397.575,20.996,37.109,20.996,15.137,24.902,0.000,0.000,0.000
495397.579,15.625,39.551,27.344,17.578,31.738,0.000,0.000,0.000
495397.583,20.020,38.574,30.273,17.090,36.621,0.000,0.000,0.000
495397.587,28.320,35.645,25.879,20.996,41.504,0.000,0.000,0.000
495397.590,26.855,32.715,23.926,20.996,37.109,0.000,0.000,0.000
495397.594,21.484,39.551,30.762,19.043,36.133,0.000,0.000,0.000
495397.598,18.555,44.434,34.180,13.672,50.293,0.000,0.000,0.000
495397.602,29.297,39.062,39.062,22.461,45.898,0.000,0.000,0.000
495397.606,35.645,37.598,39.062,32.715,26.855,0.000,0.000,0.000
495397.610,31.250,33.691,36.621,31.738,27.832,0.000,0.000,0.000
495397.614,22.949,34.668,36.621,25.879,28.320,0.000,0.000,0.000
495397.618,24.902,40.039,38.086,24.902,30.762,0.000,0.000,0.000
495397.622,33.691,40.527,44.434,35.156,35.645,0.000,0.000,0.000
495397.626,28.809,41.016,37.598,32.227,35.156,0.000,0.000,0.000
495397.630,10.742,44.434,30.273,16.113,20.996,0.000,0.000,0.000
495397.633,7.324,48.340,31.738,15.625,6.836,0.000,0.000,0.000
495397.637,18.066,42.969,29.785,26.367,15.137,0.000,0.000,0.000
495397.641,17.090,29.785,26.367,23.926,22.461,0.000,0.000,0.000
495397.645,5.371,32.227,30.273,15.625,26.367,0.000,0.000,0.000
495397.649,13.184,41.992,32.715,16.113,34.668,0.000,0.000,0.000
495397.653,24.414,37.109,29.297,22.949,38.574,0.000,0.000,0.000
495397.657,25.391,36.133,29.297,28.320,30.273,0.000,0.000,0.000
495397.661,7.324,35.645,30.273,11.719,21.484,0.000,0.000,0.000
495397.665,-6.348,34.668,31.250,-0.488,35.156,0.000,0.000,0.000
495397.669,8.789,40.039,25.879,7.812,28.320,0.000,0.000,0.000
495397.672,20.020,38.574,27.344,11.230,11.230,0.000,0.000,0.000
495397.676,11.719,43.457,34.668,2.930,8.789,0.000,0.000,0.000
495397.680,3.418,45.410,36.133,-0.488,-8.301,0.000,0.000,0.000
495397.684,20.020,38.574,33.691,4.395,-24.902,0.000,0.000,0.000
495397.688,38.574,38.086,35.156,20.508,-25.879,0.000,0.000,0.000
495397.692,40.039,45.410,34.668,26.855,-14.160,0.000,0.000,0.000
495397.696,38.086,54.199,36.621,25.391,6.348,0.000,0.000,0.000
495397.700,41.016,48.340,39.062,26.855,21.484,0.000,0.000,0.000
495397.704,41.992,43.945,35.156,32.715,27.832,0.000,0.000,0.000
495397.708,41.504,43.945,30.762,34.180,28.809,0.000,0.000,0.000
495397.712,23.926,41.992,29.785,20.996,27.344,0.000,0.000,0.000
495397.715,23.926,46.875,33.691,21.484,37.109,0.000,0.000,0.000
495397.719,24.902,45.410,26.367,23.438,35.156,0.000,0.000,0.000
495397.723,14.160,32.715,21.973,15.625,18.066,0.000,0.000,0.000
495397.727,14.160,32.715,27.344,18.066,25.391,0.000,0.000,0.000
495397.731,8.301,39.062,33.691,17.090,35.156,0.000,0.000,0.000
495397.735,12.695,35.156,34.180,18.066,30.273,0.000,0.000,0.000
495397.739,17.090,30.273,32.715,24.414,26.855,0.000,0.000,0.000
495397.743,16.113,33.691,34.668,20.996,28.809,0.000,0.000,0.000
495397.747,13.184,32.227,27.344,14.160,23.438,0.000,0.000,0.000
495397.751,23.438,38.574,27.344,17.578,26.367,0.000,0.000,0.000
495397.755,26.855,39.062,30.273,21.973,37.109,0.000,0.000,0.000
495397.758,21.484,22.949,24.414,23.926,30.762,0.000,0.000,0.000
495397.762,14.160,18.066,22.949,20.508,24.414,0.000,0.000,0.000
495397.766,17.578,26.367,25.391,20.020,27.832,0.000,0.000,0.000
495397.770,27.832,32.227,26.367,24.414,31.250,0.000,0.000,0.000
495397.774,26.855,27.832,20.508,20.996,27.344,0.000,0.000,0.000
495397.778,20.508,31.250,21.973,20.020,30.273,0.000,0.000,0.000
495397.782,13.184,28.320,20.508,10.742,26.855,0.000,0.000,0.000
495397.786,22.461,25.391,16.602,12.695,25.391,0.000,0.000,0.000
495397.790,28.809,31.738,15.625,13.672,37.109,0.000,0.000,0.000
495397.794,18.066,27.832,13.672,10.742,36.133,0.000,0.000,0.000
495397.797,11.230,23.438,21.484,15.137,17.090,0.000,0.000,0.000
495397.801,21.973,22.949,27.344,17.578,8.789,0.000,0.000,0.000
495397.805,25.391,24.902,28.320,27.344,20.020,0.000,0.000,0.000
495397.809,14.160,30.273,24.414,20.020,23.926,0.000,0.000,0.000
495397.813,0.488,32.227,20.508,10.742,25.879,0.000,0.000,0.000
495397.817,9.766,33.691,28.320,27.344,28.320,0.000,0.000,0.000
495397.821,20.020,34.180,27.344,35.645,27.344,0.000,0.000,0.000
495397.825,24.414,28.320,20.996,27.832,32.715,0.000,0.000,0.000
495397.829,10.742,15.625,22.461,16.602,23.926,0.000,0.000,0.000
495397.833,0.488,18.066,28.320,17.578,15.137,0.000,0.000,0.000
495397.837,13.672,26.855,37.109,28.809,20.020,0.000,0.000,0.000
495397.840,20.508,31.250,42.480,37.598,22.949,0.000,0.000,0.000
495397.844,8.789,29.785,34.180,31.250,18.555,0.000,0.000,0.000
495397.848,9.766,27.832,27.344,25.391,23.438,0.000,0.000,0.000
495397.852,30.762,37.598,35.156,38.086,32.227,0.000,0.000,0.000
495397.856,27.832,39.551,38.574,38.574,35.645,0.000,0.000,0.000
495397.860,17.090,31.738,36.133,31.738,53.223,0.000,0.000,0.000
495397.864,13.672,26.367,32.227,24.414,36.621,0.000,0.000,0.000
495397.868,20.508,29.297,34.180,21.484,14.160,0.000,0.000,0.000
495397.872,29.785,35.156,29.297,21.973,18.555,0.000,0.000,0.000
495397.876,33.203,35.156,27.832,25.391,29.297,0.000,0.000,0.000
495397.879,26.855,34.180,29.297,22.949,23.926,0.000,0.000,0.000
495397.883,28.320,29.297,23.438,18.555,9.766,0.000,0.000,0.000
495397.887,40.527,21.484,20.020,22.949,12.695,0.000,0.000,0.000
495397.891,36.621,17.578,16.602,19.531,17.090,0.000,0.000,0.000
495397.895,21.484,16.602,16.602,16.602,30.762,0.000,0.000,0.000
495397.899,18.555,16.602,17.578,14.648,24.414,0.000,0.000,0.000
495397.903,20.508,18.555,16.113,15.625,9.766,0.000,0.000,0.000
495397.907,24.902,22.461,20.020,22.949,7.324,0.000,0.000,0.000
495397.911,26.855,28.320,28.320,17.578,7.324,0.000,0.000,0.000
495397.915,23.438,34.668,32.227,11.719,7.324,0.000,0.000,0.000
495397.919,31.250,34.180,27.344,20.996,6.836,0.000,0.000,0.000
495397.922,33.203,19.531,14.648,24.902,8.789,0.000,0.000,0.000
495397.926,26.855,14.160,12.695,20.020,17.578,0.000,0.000,0.000
495397.930,20.020,20.996,17.578,18.555,25.879,0.000,0.000,0.000
495397.934,21.484,21.973,24.414,22.949,26.855,0.000,0.000,0.000
495397.938,32.227,26.855,32.227,34.668,30.273,0.000,0.000,0.000
495397.942,36.133,31.250,37.598,40.039,35.156,0.000,0.000,0.000
495397.946,14.160,28.320,34.180,20.020,23.926,0.000,0.000,0.000
495397.950,8.789,21.973,27.832,10.254,17.090,0.000,0.000,0.000
495397.954,24.902,19.531,27.344,20.020,22.949,0.000,0.000,0.000
495397.958,29.785,22.949,26.367,25.391,26.855,0.000,0.000,0.000
495397.962,16.113,31.250,19.531,14.160,25.879,0.000,0.000,0.000
495397.965,17.090,31.250,19.531,10.742,34.180,0.000,0.000,0.000
495397.969,35.645,27.344,25.879,25.879,44.434,0.000,0.000,0.000
495397.973,33.203,31.738,25.879,28.809,35.645,0.000,0.000,0.000
495397.977,26.367,35.645,26.367,24.902,34.180,0.000,0.000,0.000
495397.981,30.273,38.086,34.180,28.320,40.527,0.000,0.000,0.000
495397.985,38.574,30.273,34.180,27.832,37.109,0.000,0.000,0.000
495397.989,40.527,20.508,26.367,26.855,21.484,0.000,0.000,0.000
495397.993,36.621,24.902,21.973,23.926,15.137,0.000,0.000,0.000
495397.997,24.414,30.762,20.508,20.020,20.508,0.000,0.000,0.000
495398.001,26.855,33.203,24.902,21.484,22.949,0.000,0.000,0.000
495398.004,30.273,34.668,27.344,27.344,31.250,0.000,0.000,0.000
495398.008,20.508,34.668,25.391,26.855,40.039,0.000,0.000,0.000
495398.012,12.695,31.738,26.855,20.508,32.715,0.000,0.000,0.000
495398.016,21.973,37.109,31.250,24.414,28.809,0.000,0.000,0.000
495398.020,32.715,43.945,32.227,29.297,30.762,0.000,0.000,0.000
495398.024,27.344,31.250,27.344,27.344,23.438,0.000,0.000,0.000
495398.028,18.066,23.926,24.902,29.297,28.809,0.000,0.000,0.000
495398.032,16.113,27.832,25.879,27.832,35.645,0.000,0.000,0.000
495398.036,26.367,24.902,27.832,28.320,36.133,0.000,0.000,0.000
495398.040,28.809,24.414,25.879,30.273,33.203,0.000,0.000,0.000
495398.044,22.949,27.832,25.879,21.973,34.668,0.000,0.000,0.000
495398.047,17.090,30.762,30.273,16.602,41.992,0.000,0.000,0.000
495398.051,24.902,37.109,32.715,18.066,41.992,0.000,0.000,0.000
495398.055,34.668,37.109,28.809,22.949,35.645,0.000,0.000,0.000
495398.059,27.832,36.621,28.809,20.508,27.344,0.000,0.000,0.000
495398.063,7.812,32.715,26.855,2.930,19.531,0.000,0.000,0.000
495398.067,14.160,30.273,25.879,8.301,24.902,0.000,0.000,0.000
495398.071,30.762,36.133,34.180,26.367,34.180,0.000,0.000,0.000
495398.075,31.738,39.062,36.133,31.250,37.109,0.000,0.000,0.000
495398.079,26.855,36.133,34.668,26.855,37.109,0.000,0.000,0.000
495398.083,29.297,35.645,38.086,26.855,37.109,0.000,0.000,0.000
495398.087,29.297,31.250,34.180,29.297,31.738,0.000,0.000,0.000
495398.090,29.785,22.461,30.273,27.344,28.809,0.000,0.000,0.000
495398.094,16.602,27.832,32.227,20.020,30.273,0.000,0.000,0.000
495398.098,9.766,36.133,32.715,16.602,35.156,0.000,0.000,0.000
495398.102,27.344,38.574,36.133,23.438,35.645,0.000,0.000,0.000
495398.106,29.785,33.203,28.809,28.320,23.438,0.000,0.000,0.000
495398.110,19.043,28.809,24.902,25.879,26.367,0.000,0.000,0.000
495398.114,14.160,28.809,28.809,25.391,34.668,0.000,0.000,0.000
495398.118,27.832,36.133,33.691,36.621,39.551,0.000,0.000,0.000
495398.122,41.016,41.504,39.551,49.805,50.293,0.000,0.000,0.000
495398.126,35.156,35.645,30.273,40.527,48.340,0.000,0.000,0.000
495398.129,18.066,30.273,23.438,23.438,44.434,0.000,0.000,0.000
495398.133,20.020,28.320,29.785,25.391,46.387,0.000,0.000,0.000
495398.137,35.156,30.273,35.156,38.574,43.945,0.000,0.000,0.000
495398.141,29.785,27.832,30.273,30.762,50.293,0.000,0.000,0.000
495398.145,11.230,25.879,20.996,17.578,50.293,0.000,0.000,0.000
495398.149,11.719,30.762,20.996,21.973,34.668,0.000,0.000,0.000
495398.153,25.391,30.273,28.809,28.809,21.973,0.000,0.000,0.000
495398.157,33.203,25.391,28.809,28.320,24.902,0.000,0.000,0.000
495398.161,27.832,28.320,21.973,22.461,39.062,0.000,0.000,0.000
495398.165,16.113,27.832,22.949,14.160,35.645,0.000,0.000,0.000
495398.169,23.926,29.297,26.367,17.578,26.855,0.000,0.000,0.000
495398.172,34.180,36.621,26.367,28.320,18.555,0.000,0.000,0.000
495398.176,21.973,33.203,25.879,20.508,14.160,0.000,0.000,0.000
495398.180,7.324,23.438,23.926,13.672,21.484,0.000,0.000,0.000
495398.184,14.160,23.438,21.484,14.160,23.926,0.000,0.000,0.000
495398.188,22.461,26.855,24.414,16.602,16.602,0.000,0.000,0.000
495398.192,23.926,24.414,21.484,23.438,22.461,0.000,0.000,0.000
495398.196,17.090,28.809,20.996,21.973,29.297,0.000,0.000,0.000
495398.200,16.113,31.738,26.367,16.602,35.645,0.000,0.000,0.000
495398.204,20.996,30.762,23.926,14.648,33.691,0.000,0.000,0.000
495398.208,19.531,24.414,17.578,8.301,22.461,0.000,0.000,0.000
495398.212,10.254,22.949,20.996,1.953,23.926,0.000,0.000,0.000
495398.215,5.859,33.203,26.367,2.441,30.762,0.000,0.000,0.000
495398.219,12.207,29.297,26.367,6.836,20.508,0.000,0.000,0.000
495398.223,13.672,18.066,23.926,12.207,3.906,0.000,0.000,0.000
495398.227,7.812,18.066,28.320,16.113,6.348,0.000,0.000,0.000
495398.231,4.395,21.484,34.668,14.160,10.254,0.000,0.000,0.000
495398.235,7.324,22.461,29.785,13.184,11.719,0.000,0.000,0.000
495398.239,17.578,26.855,31.738,21.484,20.996,0.000,0.000,0.000
495398.243,23.926,31.738,33.691,18.555,20.020,0.000,0.000,0.000
495398.247,11.719,26.855,26.855,9.766,18.066,0.000,0.000,0.000
495398.251,10.742,30.273,32.227,14.648,31.738,0.000,0.000,0.000
495398.254,18.555,33.691,39.551,25.879,34.668,0.000,0.000,0.000
495398.258,17.090,26.367,33.691,24.902,22.461,0.000,0.000,0.000
495398.262,11.230,31.250,35.645,13.672,24.414,0.000,0.000,0.000
495398.266,8.301,31.738,36.621,10.742,19.043,0.000,0.000,0.000
495398.270,23.438,32.715,39.551,22.461,23.926,0.000,0.000,0.000
495398.274,33.203,38.086,40.527,20.996,32.227,0.000,0.000,0.000
495398.278,17.090,35.156,32.715,9.277,30.762,0.000,0.000,0.000
495398.282,16.113,28.809,30.762,13.672,35.645,0.000,0.000,0.000
495398.286,32.715,32.227,34.180,21.484,33.691,0.000,0.000,0.000
495398.290,38.574,36.133,37.109,31.738,35.645,0.000,0.000,0.000
495398.294,25.879,27.832,34.668,28.320,28.809,0.000,0.000,0.000
495398.297,17.090,27.832,35.645,18.555,26.855,0.000,0.000,0.000
495398.301,21.973,25.879,32.227,18.066,28.809,0.000,0.000,0.000
495398.305,25.879,30.273,34.180,27.832,41.016,0.000,0.000,0.000
495398.309,24.902,41.504,33.691,29.297,59.570,0.000,0.000,0.000
495398.313,22.949,36.621,31.250,22.949,46.387,0.000,0.000,0.000
495398.317,23.438,31.738,28.809,23.926,36.133,0.000,0.000,0.000
495398.321,20.996,28.320,23.926,25.391,36.133,0.000,0.000,0.000
495398.325,18.066,23.438,23.926,21.973,7.812,0.000,0.000,0.000
495398.329,7.324,25.879,26.367,17.090,5.859,0.000,0.000,0.000
495398.333,9.277,24.414,24.902,14.160,19.043,0.000,0.000,0.000
495398.337,22.461,25.879,27.344,20.020,17.578,0.000,0.000,0.000
495398.340,28.809,34.668,28.809,27.344,24.414,0.000,0.000,0.000
495398.344,23.926,38.574,24.414,20.508,30.273,0.000,0.000,0.000
495398.348,19.043,33.203,23.438,17.578,27.344,0.000,0.000,0.000
495398.352,27.344,33.203,25.879,25.391,38.086,0.000,0.000,0.000
495398.356,35.156,38.574,24.902,31.738,29.785,0.000,0.000,0.000
495398.360,28.809,29.785,22.949,27.832,12.207,0.000,0.000,0.000
495398.364,20.996,24.414,29.297,17.578,27.344,0.000,0.000,0.000
495398.368,22.461,29.297,29.785,13.184,36.133,0.000,0.000,0.000
495398.372,27.344,27.832,24.414,19.531,20.020,0.000,0.000,0.000
495398.376,30.762,37.598,31.250,27.344,20.020,0.000,0.000,0.000
495398.379,13.184,33.203,25.879,16.113,24.902,0.000,0.000,0.000
495398.383,15.137,25.879,18.066,11.230,21.484,0.000,0.000,0.000
495398.387,35.645,30.762,23.926,17.578,15.625,0.000,0.000,0.000
495398.391,35.156,31.738,25.879,18.555,16.602,0.000,0.000,0.000
495398.395,20.020,33.691,26.855,13.184,16.602,0.000,0.000,0.000
495398.399,13.184,31.738,26.855,3.418,11.719,0.000,0.000,0.000
495398.403,21.973,29.297,25.391,11.719,17.578,0.000,0.000,0.000
495398.407,26.855,27.832,28.320,22.949,26.367,0.000,0.000,0.000
495398.411,20.020,32.227,33.203,14.648,28.320,0.000,0.000,0.000
495398.415,13.672,34.180,23.438,5.371,18.066,0.000,0.000,0.000
495398.419,27.832,31.738,22.461,20.508,20.020,0.000,0.000,0.000
495398.422,36.133,30.273,33.691,31.738,29.785,0.000,0.000,0.000
495398.426,21.484,35.645,30.273,19.043,23.438,0.000,0.000,0.000
495398.430,7.324,35.156,26.855,10.254,22.949,0.000,0.000,0.000
495398.434,19.531,33.691,36.133,18.066,30.273,0.000,0.000,0.000
495398.438,33.203,40.527,40.039,25.879,29.297,0.000,0.000,0.000
495398.442,23.926,30.762,29.785,19.043,37.598,0.000,0.000,0.000
495398.446,17.090,25.391,32.715,19.043,53.223,0.000,0.000,0.000
495398.450,26.367,31.738,37.598,27.344,39.551,0.000,0.000,0.000
495398.454,33.691,29.297,27.344,27.832,26.855,0.000,0.000,0.000
495398.458,38.574,29.297,29.785,31.738,45.410,0.000,0.000,0.000
495398.461,32.715,35.156,33.203,33.203,72.754,0.000,0.000,0.000
495398.465,24.414,29.785,28.320,27.344,48.340,0.000,0.000,0.000
495398.469,32.715,29.785,26.367,27.344,10.254,0.000,0.000,0.000
495398.473,34.180,34.668,26.855,27.832,10.742,0.000,0.000,0.000
495398.477,13.184,24.902,25.879,19.531,17.090,0.000,0.000,0.000
495398.481,7.324,21.484,30.762,20.020,28.809,0.000,0.000,0.000
495398.485,20.996,27.344,30.273,23.926,32.715,0.000,0.000,0.000
495398.489,24.902,34.180,28.320,29.785,18.555,0.000,0.000,0.000
495398.493,23.926,39.062,34.668,31.738,20.020,0.000,0.000,0.000
495398.497,20.996,35.645,31.250,19.531,33.203,0.000,0.000,0.000
495398.501,27.832,35.645,24.902,19.531,37.109,0.000,0.000,0.000
495398.504,30.273,33.691,24.414,24.414,25.391,0.000,0.000,0.000
495398.508,26.855,32.227,27.344,24.414,15.625,0.000,0.000,0.000
495398.512,16.602,31.250,28.320,17.578,25.879,0.000,0.000,0.000
495398.516,11.230,24.414,20.508,7.324,27.344,0.000,0.000,0.000
495398.520,30.273,30.762,24.414,23.438,37.109,0.000,0.000,0.000
495398.524,41.016,43.457,30.762,38.086,45.410,0.000,0.000,0.000
495398.528,23.926,34.668,26.367,22.461,37.109,0.000,0.000,0.000
495398.532,10.254,21.973,19.531,13.184,36.133,0.000,0.000,0.000
495398.536,21.484,24.414,17.578,21.484,37.109,0.000,0.000,0.000
495398.540,34.180,28.809,25.879,29.297,30.273,0.000,0.000,0.000
495398.544,29.785,31.250,27.832,29.297,30.273,0.000,0.000,0.000
495398.547,27.344,37.598,32.227,33.203,40.527,0.000,0.000,0.000
495398.551,41.016,45.898,36.621,43.457,44.922,0.000,0.000,0.000
495398.555,49.316,43.457,31.250,43.457,55.176,0.000,0.000,0.000
495398.559,43.945,43.945,28.809,31.738,62.500,0.000,0.000,0.000
495398.563,26.367,43.945,26.367,17.090,38.574,0.000,0.000,0.000
495398.567,32.227,33.691,32.227,20.996,25.391,0.000,0.000,0.000
495398.571,40.527,30.273,30.273,26.367,25.879,0.000,0.000,0.000
495398.575,27.344,29.297,25.391,26.367,33.203,0.000,0.000,0.000
495398.579,19.531,33.691,28.809,27.344,44.922,0.000,0.000,0.000
495398.583,28.809,41.016,32.715,32.227,63.965,0.000,0.000,0.000
495398.586,38.086,40.527,34.668,39.551,57.129,0.000,0.000,0.000
495398.590,42.480,42.969,33.691,41.504,31.738,0.000,0.000,0.000
495398.594,23.438,40.527,23.926,22.949,20.020,0.000,0.000,0.000
495398.598,15.137,34.180,26.855,10.742,24.414,0.000,0.000,0.000
495398.602,23.438,31.250,30.273,18.066,26.855,0.000,0.000,0.000
495398.606,19.043,31.250,19.531,13.672,14.648,0.000,0.000,0.000
495398.610,17.578,34.180,18.066,0.488,19.043,0.000,0.000,0.000
495398.614,11.230,34.180,23.438,0.977,26.367,0.000,0.000,0.000
495398.618,11.230,37.109,25.391,9.766,32.227,0.000,0.000,0.000
495398.622,17.090,40.527,24.902,15.625,37.598,0.000,0.000,0.000
495398.626,19.531,41.016,30.762,25.391,36.621,0.000,0.000,0.000
495398.629,7.324,36.133,31.250,20.020,28.809,0.000,0.000,0.000
495398.633,9.277,23.926,21.973,16.602,23.926,0.000,0.000,0.000
495398.637,17.578,24.414,23.926,29.785,29.297,0.000,0.000,0.000
495398.641,16.602,27.344,29.297,34.668,30.762,0.000,0.000,0.000
495398.645,6.348,25.879,27.832,22.461,39.062,0.000,0.000,0.000
495398.649,3.906,24.902,28.320,10.742,50.781,0.000,0.000,0.000
495398.653,12.207,25.391,30.273,12.695,38.574,0.000,0.000,0.000
495398.657,19.531,30.273,35.156,30.762,31.738,0.000,0.000,0.000
495398.661,14.648,37.109,41.016,30.762,22.949,0.000,0.000,0.000
495398.665,11.230,42.969,33.691,19.043,21.973,0.000,0.000,0.000
495398.669,22.949,41.504,26.367,26.855,53.223,0.000,0.000,0.000
495398.672,28.320,38.574,23.438,30.273,41.992,0.000,0.000,0.000
495398.676,20.508,32.715,21.484,19.043,10.742,0.000,0.000,0.000
495398.680,12.695,32.227,28.809,16.113,13.184,0.000,0.000,0.000
495398.684,22.461,35.645,31.738,22.949,11.719,0.000,0.000,0.000
495398.688,29.785,34.180,29.297,28.809,15.137,0.000,0.000,0.000
495398.692,26.367,35.645,30.762,28.809,27.832,0.000,0.000,0.000
495398.696,9.766,34.180,24.414,18.066,38.574,0.000,0.000,0.000
495398.700,13.672,38.086,25.391,16.602,50.781,0.000,0.000,0.000
495398.704,25.879,37.109,23.438,25.879,45.898,0.000,0.000,0.000
495398.708,21.973,28.809,16.602,24.902,43.457,0.000,0.000,0.000
495398.711,13.672,28.320,21.484,17.090,33.203,0.000,0.000,0.000
495398.715,14.160,31.738,25.391,14.160,20.508,0.000,0.000,0.000
495398.719,29.297,40.527,37.109,25.391,28.809,0.000,0.000,0.000
495398.723,31.250,43.457,37.598,29.785,26.855,0.000,0.000,0.000
495398.727,19.531,41.504,31.250,17.090,27.832,0.000,0.000,0.000
495398.731,12.207,42.480,36.621,13.672,30.762,0.000,0.000,0.000
495398.735,18.066,33.203,31.738,20.020,27.832,0.000,0.000,0.000
495398.739,23.438,29.297,29.785,26.855,26.367,0.000,0.000,0.000
495398.743,16.602,37.109,30.273,20.020,24.414,0.000,0.000,0.000
495398.747,13.672,35.645,28.320,15.137,25.391,0.000,0.000,0.000
495398.751,20.508,29.785,28.320,18.066,32.227,0.000,0.000,0.000
495398.754,29.785,33.691,33.691,23.438,32.715,0.000,0.000,0.000
495398.758,20.508,33.203,34.668,20.996,28.809,0.000,0.000,0.000
495398.762,4.883,33.691,32.715,16.602,30.762,0.000,0.000,0.000
495398.766,17.578,41.504,36.621,19.531,37.109,0.000,0.000,0.000
495398.770,24.414,33.203,30.273,25.879,33.203,0.000,0.000,0.000
495398.774,22.949,23.926,24.414,28.320,42.969,0.000,0.000,0.000
495398.778,20.996,26.367,29.297,23.926,42.480,0.000,0.000,0.000
495398.782,18.555,30.273,31.250,20.020,33.203,0.000,0.000,0.000
495398.786,28.809,34.668,34.668,24.902,41.992,0.000,0.000,0.000
495398.790,36.621,40.039,37.598,33.203,43.457,0.000,0.000,0.000
495398.794,28.809,39.551,39.062,28.320,45.898,0.000,0.000,0.000
495398.797,19.531,42.480,33.691,21.484,32.227,0.000,0.000,0.000
495398.801,20.508,41.504,24.902,19.043,17.090,0.000,0.000,0.000
495398.805,32.227,39.062,25.391,23.926,20.996,0.000,0.000,0.000
495398.809,34.180,38.574,25.879,26.855,19.043,0.000,0.000,0.000
495398.813,21.973,34.668,24.902,18.555,23.926,0.000,0.000,0.000
495398.817,21.484,33.203,26.855,12.207,32.227,0.000,0.000,0.000
495398.821,33.691,41.504,31.738,20.020,35.156,0.000,0.000,0.000
495398.825,34.668,46.875,35.156,28.320,50.293,0.000,0.000,0.000
495398.829,19.043,39.062,30.273,18.555,68.359,0.000,0.000,0.000
495398.833,17.090,35.156,27.832,16.113,60.547,0.000,0.000,0.000
495398.836,25.391,37.109,27.344,26.855,33.203,0.000,0.000,0.000
495398.840,29.297,33.203,24.902,30.273,31.250,0.000,0.000,0.000
495398.844,15.625,30.762,22.949,18.066,41.016,0.000,0.000,0.000
495398.848,8.789,31.738,23.926,14.160,36.621,0.000,0.000,0.000
495398.852,29.297,36.133,28.809,26.855,24.414,0.000,0.000,0.000
495398.856,33.203,40.039,33.691,26.855,21.973,0.000,0.000,0.000
495398.860,16.602,32.715,27.832,15.625,23.926,0.000,0.000,0.000
495398.864,11.230,34.180,27.344,17.090,27.344,0.000,0.000,0.000
495398.868,25.879,41.504,32.227,27.832,37.109,0.000,0.000,0.000
495398.872,31.738,36.621,19.043,30.762,36.133,0.000,0.000,0.000
495398.876,22.949,31.250,13.184,29.297,34.668,0.000,0.000,0.000
495398.879,16.113,33.203,20.996,21.973,34.668,0.000,0.000,0.000
495398.883,19.043,35.645,21.484,20.996,36.133,0.000,0.000,0.000
495398.887,28.320,35.156,27.344,31.738,40.527,0.000,0.000,0.000
495398.891,32.715,35.645,32.227,31.738,31.738,0.000,0.000,0.000
495398.895,23.926,30.762,27.832,22.461,29.785,0.000,0.000,0.000
495398.899,18.555,25.391,28.320,19.043,33.691,0.000,0.000,0.000
495398.903,23.926,30.273,27.344,29.297,37.598,0.000,0.000,0.000
495398.907,22.949,35.645,27.344,27.832,30.273,0.000,0.000,0.000
495398.911,16.602,37.109,30.273,16.602,28.809,0.000,0.000,0.000
495398.915,14.648,40.039,31.250,14.160,41.992,0.000,0.000,0.000
495398.918,15.625,38.086,28.809,11.230,38.574,0.000,0.000,0.000
495398.922,28.320,37.109,32.715,25.879,36.621,0.000,0.000,0.000
495398.926,28.320,36.133,37.598,28.320,27.832,0.000,0.000,0.000
495398.930,14.648,33.203,30.273,16.602,23.438,0.000,0.000,0.000
495398.934,18.066,29.785,24.414,19.043,37.598,0.000,0.000,0.000
495398.938,19.531,28.320,26.855,23.926,36.621,0.000,0.000,0.000
495398.942,22.949,36.133,33.203,28.320,36.133,0.000,0.000,0.000
495398.946,16.602,37.109,33.203,20.020,36.621,0.000,0.000,0.000
495398.950,13.672,33.691,31.250,11.719,19.043,0.000,0.000,0.000
495398.954,24.902,33.691,29.785,20.020,19.531,0.000,0.000,0.000
495398.958,24.902,32.715,25.391,18.066,31.738,0.000,0.000,0.000
495398.961,10.742,27.344,22.949,12.695,24.414,0.000,0.000,0.000
495398.965,7.324,24.414,27.832,20.020,20.508,0.000,0.000,0.000
495398.969,25.391,29.785,33.203,24.414,20.508,0.000,0.000,0.000
495398.973,35.645,36.133,39.062,32.227,22.949,0.000,0.000,0.000
495398.977,22.949,36.133,41.016,34.668,41.992,0.000,0.000,0.000
495398.981,7.812,37.598,35.156,23.926,42.969,0.000,0.000,0.000
495398.985,20.996,37.109,30.273,22.461,22.949,0.000,0.000,0.000
495398.989,27.832,34.180,29.297,26.855,21.973,0.000,0.000,0.000
495398.993,19.043,34.668,31.738,26.855,25.391,0.000,0.000,0.000
495398.997,8.789,27.832,31.250,16.113,22.949,0.000,0.000,0.000
495399.001,16.113,26.367,35.156,20.996,29.297,0.000,0.000,0.000
495399.004,25.879,33.691,40.527,36.133,37.109,0.000,0.000,0.000
495399.008,22.949,29.785,42.480,31.250,27.344,0.000,0.000,0.000
495399.012,17.578,32.715,41.504,23.438,34.668,0.000,0.000,0.000
495399.016,16.113,32.227,39.062,20.996,38.574,0.000,0.000,0.000
495399.020,24.414,29.785,32.715,24.414,25.879,0.000,0.000,0.000
495399.024,29.785,31.250,23.926,25.391,23.926,0.000,0.000,0.000
495399.028,19.043,27.832,22.949,16.113,18.555,0.000,0.000,0.000
495399.032,12.695,28.809,20.508,15.137,24.902,0.000,0.000,0.000
495399.036,22.949,30.273,20.020,21.973,35.156,0.000,0.000,0.000
495399.040,29.297,31.738,28.809,24.902,41.016,0.000,0.000,0.000
495399.043,24.414,34.668,30.762,21.973,39.062,0.000,0.000,0.000
495399.047,22.949,36.621,31.250,21.484,27.832,0.000,0.000,0.000
495399.051,33.691,37.598,30.273,28.809,28.320,0.000,0.000,0.000
495399.055,46.875,39.062,23.438,32.227,40.039,0.000,0.000,0.000
495399.059,31.738,31.250,21.973,20.508,45.410,0.000,0.000,0.000
495399.063,14.648,26.367,22.949,12.207,46.875,0.000,0.000,0.000
495399.067,35.156,28.320,28.320,18.066,34.180,0.000,0.000,0.000
495399.071,43.945,28.809,35.645,26.855,23.926,4.000,1.000,45.000
495399.075,45.410,36.133,39.062,34.668,31.250,0.000,0.000,0.000
495399.079,15.625,31.738,36.621,28.320,34.180,0.000,0.000,0.000
495399.083,-6.836,24.902,34.668,25.391,30.762,0.000,0.000,0.000
495399.086,11.719,29.785,27.344,33.691,19.043,0.000,0.000,0.000
495399.090,15.625,28.320,24.902,36.621,24.414,0.000,0.000,0.000
495399.094,9.277,30.762,26.367,33.203,25.879,0.000,0.000,0.000
495399.098,13.672,30.762,23.438,29.785,21.484,0.000,0.000,0.000
495399.102,27.832,28.320,24.902,30.273,24.414,0.000,0.000,0.000
495399.106,38.086,30.273,27.832,30.762,24.414,0.000,0.000,0.000
495399.110,32.715,30.273,30.762,29.297,26.855,0.000,0.000,0.000
495399.114,17.578,35.156,30.273,25.391,44.922,0.000,0.000,0.000
495399.118,20.020,39.551,28.320,26.855,51.270,0.000,0.000,0.000
495399.122,33.691,43.457,31.250,37.598,39.062,0.000,0.000,0.000
495399.126,33.203,42.969,28.809,34.668,43.457,0.000,0.000,0.000
495399.129,14.648,31.250,17.090,18.555,43.457,0.000,0.000,0.000
495399.133,14.160,27.344,14.648,12.207,26.367,0.000,0.000,0.000
495399.137,27.344,27.832,21.973,26.367,27.344,0.000,0.000,0.000
495399.141,27.832,26.855,25.879,28.320,32.227,0.000,0.000,0.000
495399.145,16.602,29.785,26.855,17.090,31.250,0.000,0.000,0.000
495399.149,23.926,34.668,28.320,21.484,42.480,0.000,0.000,0.000
495399.153,38.086,36.133,26.367,29.297,51.270,0.000,0.000,0.000
495399.157,27.832,31.738,25.391,33.691,45.410,0.000,0.000,0.000
495399.161,18.066,31.738,26.367,32.227,38.086,0.000,0.000,0.000
495399.165,9.277,30.762,22.461,19.531,27.344,0.000,0.000,0.000
495399.168,13.672,22.461,17.090,20.996,18.066,0.000,0.000,0.000
495399.172,22.461,26.367,24.414,32.227,23.926,0.000,0.000,0.000
495399.176,16.113,30.273,33.691,25.391,31.250,0.000,0.000,0.000
495399.180,7.812,31.738,35.156,22.949,36.133,0.000,0.000,0.000
495399.184,18.066,33.203,35.156,28.809,34.668,0.000,0.000,0.000
495399.188,24.902,30.762,34.668,29.785,20.020,0.000,0.000,0.000
495399.192,20.020,39.062,35.156,31.250,21.484,0.000,0.000,0.000
495399.196,17.090,43.457,38.574,26.855,41.016,0.000,0.000,0.000
495399.200,19.531,35.645,33.691,19.531,30.273,0.000,0.000,0.000
495399.204,27.832,32.715,26.855,22.461,-0.488,0.000,0.000,0.000
495399.208,24.414,30.273,22.949,20.508,-2.930,0.000,0.000,0.000
495399.211,17.090,33.203,23.438,20.020,9.766,0.000,0.000,0.000
495399.215,19.531,38.574,32.227,28.809,17.090,0.000,0.000,0.000
495399.219,21.484,37.109,30.762,26.367,26.367,0.000,0.000,0.000
495399.223,24.414,37.109,25.879,24.414,34.668,0.000,0.000,0.000
495399.227,21.973,39.551,27.832,27.344,34.180,0.000,0.000,0.000
495399.231,18.066,33.691,30.273,25.391,39.551,0.000,0.000,0.000
495399.235,28.809,39.062,35.645,31.738,42.480,0.000,0.000,0.000
495399.239,37.109,42.969,31.250,34.668,38.086,0.000,0.000,0.000
495399.243,29.297,29.785,22.461,24.902,38.086,0.000,0.000,0.000
495399.247,16.113,30.273,23.438,22.949,39.551,0.000,0.000,0.000
495399.251,20.508,33.691,25.879,24.902,34.180,0.000,0.000,0.000
495399.254,25.879,38.574,23.438,25.391,25.879,0.000,0.000,0.000
495399.258,23.438,39.551,25.391,28.320,23.438,0.000,0.000,0.000
495399.262,12.695,34.180,26.855,22.461,25.879,0.000,0.000,0.000
495399.266,12.695,35.156,27.344,16.113,31.250,0.000,0.000,0.000
495399.270,23.926,43.945,28.320,28.809,34.668,0.000,0.000,0.000
495399.274,30.273,40.527,27.344,36.621,27.832,0.000,0.000,0.000
495399.278,29.297,31.738,22.461,32.715,23.926,0.000,0.000,0.000
495399.282,25.879,33.203,18.066,22.461,35.156,0.000,0.000,0.000
495399.286,31.250,33.691,19.531,20.508,43.945,0.000,0.000,0.000
495399.290,33.691,37.598,20.508,28.320,20.996,0.000,0.000,0.000
495399.293,26.855,38.086,18.066,20.508,24.414,0.000,0.000,0.000
495399.297,16.602,32.715,16.602,4.883,34.180,0.000,0.000,0.000
495399.301,16.602,34.180,12.695,4.395,6.836,0.000,0.000,0.000
495399.305,24.902,35.156,11.719,18.555,9.766,0.000,0.000,0.000
495399.309,22.461,34.668,22.461,17.090,22.949,0.000,0.000,0.000
495399.313,6.348,28.809,22.949,4.883,8.789,0.000,0.000,0.000
495399.317,9.766,29.297,20.508,7.812,6.348,0.000,0.000,0.000
495399.321,15.137,26.855,15.137,14.160,12.207,0.000,0.000,0.000
495399.325,10.254,20.020,13.672,14.648,16.113,0.000,0.000,0.000
495399.329,-5.859,24.902,22.949,1.953,21.973,0.000,0.000,0.000
495399.333,-7.812,27.344,26.367,4.883,28.809,0.000,0.000,0.000
495399.336,6.348,29.785,22.949,16.113,21.484,0.000,0.000,0.000
495399.340,5.859,29.297,24.414,14.160,18.555,0.000,0.000,0.000
495399.344,0.977,30.762,28.320,15.625,25.879,0.000,0.000,0.000
495399.348,5.859,35.645,33.691,10.742,24.414,0.000,0.000,0.000
495399.352,15.137,30.273,38.574,14.648,23.438,0.000,0.000,0.000
495399.356,14.160,24.414,33.203,19.531,16.113,0.000,0.000,0.000
495399.360,5.371,24.414,24.902,13.184,19.043,0.000,0.000,0.000
495399.364,6.836,25.391,25.879,10.742,38.574,0.000,0.000,0.000
495399.368,13.672,26.855,26.367,5.371,33.691,0.000,0.000,0.000
495399.372,15.625,29.297,28.320,13.672,28.809,0.000,0.000,0.000
495399.375,23.438,40.527,31.250,19.531,39.062,0.000,0.000,0.000
495399.379,15.137,41.016,34.180,9.766,34.668,0.000,0.000,0.000
495399.383,13.672,27.832,33.203,7.324,40.527,0.000,0.000,0.000
495399.387,25.391,23.926,25.879,11.230,45.898,0.000,0.000,0.000
495399.391,22.949,27.832,23.438,8.301,24.414,0.000,0.000,0.000
495399.395,17.578,24.902,25.391,8.789,25.879,0.000,0.000,0.000
495399.399,25.391,28.809,32.715,16.113,35.645,0.000,0.000,0.000
495399.403,21.484,36.133,33.691,15.625,28.320,0.000,0.000,0.000
495399.407,19.043,30.273,30.273,20.020,38.574,0.000,0.000,0.000
495399.411,14.160,25.391,34.668,18.066,44.434,0.000,0.000,0.000
495399.415,4.395,33.203,33.691,13.184,35.645,0.000,0.000,0.000
495399.418,15.137,41.504,37.109,25.879,34.180,0.000,0.000,0.000
495399.422,20.996,31.250,37.598,30.273,14.160,0.000,0.000,0.000
495399.426,19.531,24.414,37.598,24.902,16.602,0.000,0.000,0.000
495399.430,10.254,28.320,38.086,22.461,41.504,0.000,0.000,0.000
495399.434,11.719,29.785,33.691,20.508,24.902,0.000,0.000,0.000
495399.438,28.320,28.320,33.203,29.297,18.555,0.000,0.000,0.000
495399.442,26.367,25.879,32.715,34.668,34.668,0.000,0.000,0.000
495399.446,16.602,26.367,40.039,22.461,37.109,0.000,0.000,0.000
495399.450,17.090,27.832,40.527,19.043,39.062,0.000,0.000,0.000
495399.454,27.344,31.738,35.645,27.832,39.551,0.000,0.000,0.000
495399.458,25.391,27.344,33.203,22.949,23.926,0.000,0.000,0.000
495399.461,9.766,24.414,29.297,9.766,19.531,0.000,0.000,0.000
495399.465,9.766,29.297,26.855,9.766,39.062,0.000,0.000,0.000
495399.469,24.902,33.203,27.344,14.648,29.785,0.000,0.000,0.000
495399.473,30.273,41.016,33.203,15.137,8.301,0.000,0.000,0.000
495399.477,24.902,46.875,37.598,14.160,24.902,0.000,0.000,0.000
495399.481,10.254,32.227,36.621,7.324,29.297,0.000,0.000,0.000
495399.485,15.625,22.461,37.598,13.672,23.438,0.000,0.000,0.000
495399.489,28.320,29.297,35.645,26.367,30.273,0.000,0.000,0.000
495399.493,19.043,33.203,33.203,21.973,20.020,0.000,0.000,0.000
495399.497,4.883,30.273,28.809,9.277,19.531,0.000,0.000,0.000
495399.500,14.160,31.738,26.367,11.719,36.621,0.000,0.000,0.000
495399.504,25.879,31.738,24.902,19.531,41.016,0.000,0.000,0.000
495399.508,20.020,28.809,22.949,21.973,43.945,0.000,0.000,0.000
495399.512,19.531,33.691,34.180,24.902,49.805,0.000,0.000,0.000
495399.516,31.738,41.016,45.898,30.762,47.363,0.000,0.000,0.000
495399.520,32.227,34.668,44.922,33.203,43.945,0.000,0.000,0.000
495399.524,25.879,25.879,39.062,34.668,43.945,0.000,0.000,0.000
495399.528,20.996,29.785,38.574,32.715,43.457,0.000,0.000,0.000
495399.532,10.254,24.902,39.551,22.461,36.133,0.000,0.000,0.000
495399.536,15.137,19.531,36.133,22.949,40.039,0.000,0.000,0.000
495399.540,23.438,26.367,31.738,26.367,52.246,0.000,0.000,0.000
495399.543,18.555,28.809,31.738,24.902,46.387,0.000,0.000,0.000
495399.547,17.090,36.133,37.598,21.973,12.695,0.000,0.000,0.000
495399.551,15.625,37.598,35.645,16.602,-11.719,0.000,0.000,0.000
495399.555,19.531,32.227,36.133,21.484,-3.418,0.000,0.000,0.000
495399.559,21.973,33.203,37.598,23.926,9.766,0.000,0.000,0.000
495399.563,6.836,30.762,39.551,16.602,16.113,0.000,0.000,0.000
495399.567,11.719,23.926,44.434,12.207,18.555,0.000,0.000,0.000
495399.571,25.391,20.996,38.086,20.996,33.203,0.000,0.000,0.000
495399.575,17.578,20.020,32.227,17.578,34.668,0.000,0.000,0.000
495399.579,3.906,20.996,32.715,7.324,28.320,0.000,0.000,0.000
495399.583,7.812,28.320,37.598,14.160,23.438,0.000,0.000,0.000
495399.586,23.438,34.180,39.551,22.949,20.996,0.000,0.000,0.000
495399.590,30.273,30.762,33.691,26.367,41.016,0.000,0.000,0.000
495399.594,9.766,23.438,31.738,17.578,44.434,0.000,0.000,0.000
495399.598,0.488,22.949,31.250,9.277,43.945,0.000,0.000,0.000
495399.602,18.066,24.414,30.273,17.578,47.363,0.000,0.000,0.000
495399.606,24.902,25.879,34.180,21.973,33.203,0.000,0.000,0.000
495399.610,12.207,25.391,31.250,10.254,25.391,0.000,0.000,0.000
495399.614,5.371,28.320,25.879,3.906,36.133,0.000,0.000,0.000
495399.618,28.320,39.551,28.320,11.230,51.270,0.000,0.000,0.000
495399.622,40.039,40.527,27.344,19.531,44.922,0.000,0.000,0.000
495399.625,24.902,28.320,24.902,19.043,25.879,0.000,0.000,0.000
495399.629,16.602,27.344,28.320,15.137,27.832,0.000,0.000,0.000
495399.633,27.344,33.203,32.227,20.508,41.016,0.000,0.000,0.000
495399.637,37.598,35.645,33.691,32.715,31.250,0.000,0.000,0.000
495399.641,32.715,37.598,33.203,26.855,26.855,0.000,0.000,0.000
495399.645,22.949,48.828,34.180,19.531,43.945,0.000,0.000,0.000
495399.649,22.461,50.781,29.785,16.602,39.062,0.000,0.000,0.000
495399.653,23.438,41.016,26.367,13.672,21.484,0.000,0.000,0.000
495399.657,19.043,41.504,23.438,9.766,12.207,0.000,0.000,0.000
495399.661,12.207,40.527,25.391,7.812,26.855,0.000,0.000,0.000
495399.665,11.230,36.621,32.715,12.207,41.504,0.000,0.000,0.000
495399.668,18.555,33.203,35.645,17.578,32.227,0.000,0.000,0.000
495399.672,25.879,33.203,35.645,27.832,28.320,0.000,0.000,0.000
495399.676,20.020,36.133,36.133,27.832,27.832,0.000,0.000,0.000
495399.680,11.230,40.039,38.086,24.414,34.668,0.000,0.000,0.000
495399.684,21.484,44.434,38.574,28.320,40.039,0.000,0.000,0.000
495399.688,21.484,37.109,34.180,23.926,29.297,0.000,0.000,0.000
495399.692,10.254,28.320,31.738,18.555,30.762,0.000,0.000,0.000
495399.696,1.953,36.133,35.156,11.719,27.344,0.000,0.000,0.000
495399.700,4.395,42.480,33.691,8.301,10.742,0.000,0.000,0.000
495399.704,14.648,37.598,33.691,17.090,15.137,0.000,0.000,0.000
495399.708,21.484,31.738,37.109,21.973,28.320,0.000,0.000,0.000
495399.711,10.254,32.715,34.180,16.602,41.504,0.000,0.000,0.000
495399.715,7.324,34.180,31.250,16.113,36.133,0.000,0.000,0.000
495399.719,23.438,32.227,29.785,20.020,25.879,0.000,0.000,0.000
495399.723,30.273,35.156,34.668,24.902,34.668,0.000,0.000,0.000
495399.727,26.367,41.504,35.156,22.949,31.738,0.000,0.000,0.000
495399.731,13.184,36.621,28.809,10.254,21.484,0.000,0.000,0.000
495399.735,14.648,33.203,27.832,9.766,21.973,0.000,0.000,0.000
495399.739,24.902,37.598,26.367,17.090,34.180,0.000,0.000,0.000
495399.743,23.926,38.574,29.785,16.113,38.574,0.000,0.000,0.000
495399.747,10.742,38.086,29.297,7.324,29.785,0.000,0.000,0.000
495399.750,17.578,41.016,31.250,10.742,39.062,0.000,0.000,0.000
495399.754,27.344,39.062,37.109,20.020,40.527,0.000,0.000,0.000
495399.758,26.855,30.273,29.785,18.555,25.879,0.000,0.000,0.000
495399.762,21.484,31.250,28.320,16.113,41.992,0.000,0.000,0.000
495399.766,23.438,37.109,32.715,22.461,52.734,0.000,0.000,0.000
495399.770,31.738,41.504,31.738,33.203,41.016,0.000,0.000,0.000
495399.774,21.484,34.668,28.809,28.320,31.250,0.000,0.000,0.000
495399.778,5.859,31.738,27.832,19.531,35.156,0.000,0.000,0.000
495399.782,5.859,32.715,27.344,15.137,31.738,0.000,0.000,0.000
495399.786,20.996,27.832,28.809,20.996,11.719,0.000,0.000,0.000
495399.790,20.996,29.297,27.344,29.785,5.859,0.000,0.000,0.000
495399.793,6.836,34.668,25.879,26.855,11.719,0.000,0.000,0.000
495399.797,1.465,30.273,26.855,26.367,19.531,0.000,0.000,0.000
495399.801,16.602,30.762,24.902,33.691,25.879,0.000,0.000,0.000
495399.805,24.902,37.598,23.926,34.180,23.438,0.000,0.000,0.000
495399.809,10.742,29.785,21.973,19.531,23.926,0.000,0.000,0.000
495399.813,5.859,28.809,25.391,13.672,40.039,0.000,0.000,0.000
495399.817,16.602,36.133,28.809,21.973,44.434,0.000,0.000,0.000
495399.821,22.461,36.133,29.297,28.320,39.551,0.000,0.000,0.000
495399.825,25.879,35.645,30.273,29.297,38.086,0.000,0.000,0.000
495399.829,20.508,41.504,27.344,24.414,28.320,0.000,0.000,0.000
495399.832,19.043,42.480,25.879,22.461,25.391,0.000,0.000,0.000
495399.836,18.555,34.180,24.414,25.879,27.832,0.000,0.000,0.000
495399.840,20.508,33.691,31.250,32.227,26.855,0.000,0.000,0.000
495399.844,15.137,37.109,37.109,23.438,28.809,0.000,0.000,0.000
495399.848,0.977,31.250,34.180,10.742,29.297,0.000,0.000,0.000
495399.852,2.441,23.438,24.902,8.789,18.555,0.000,0.000,0.000
495399.856,14.160,27.832,27.344,17.578,26.855,0.000,0.000,0.000
495399.860,16.113,32.227,34.668,22.949,38.086,0.000,0.000,0.000
495399.864,2.930,29.785,28.809,16.602,21.973,0.000,0.000,0.000
495399.868,8.789,31.738,24.902,20.020,21.484,0.000,0.000,0.000
495399.872,25.391,36.621,29.297,26.367,41.504,0.000,0.000,0.000
495399.875,32.715,44.922,35.156,23.926,36.621,0.000,0.000,0.000
495399.879,17.578,51.270,33.203,22.461,17.090,0.000,0.000,0.000
495399.883,3.418,35.645,18.066,13.184,13.184,0.000,0.000,0.000
495399.887,11.230,22.461,11.230,17.090,11.719,0.000,0.000,0.000
495399.891,13.184,22.461,14.648,21.973,12.207,0.000,0.000,0.000
495399.895,5.371,23.926,18.555,18.555,17.090,0.000,0.000,0.000
495399.899,8.789,26.855,21.973,18.066,23.438,0.000,0.000,0.000
495399.903,20.508,31.738,24.414,19.531,33.203,0.000,0.000,0.000
495399.907,25.391,32.715,21.973,22.949,26.367,0.000,0.000,0.000
495399.911,13.672,35.156,23.926,14.648,24.414,0.000,0.000,0.000
495399.915,11.719,39.062,29.785,7.324,32.715,0.000,0.000,0.000
495399.918,28.809,35.645,35.645,19.043,32.715,0.000,0.000,0.000
495399.922,31.250,38.574,35.156,29.785,30.273,0.000,0.000,0.000
495399.926,9.277,32.715,28.320,12.695,22.949,0.000,0.000,0.000
495399.930,-0.488,23.438,24.414,4.395,24.414,0.000,0.000,0.000
495399.934,13.184,23.438,22.949,13.184,23.926,0.000,0.000,0.000
495399.938,19.531,25.391,26.367,22.461,25.391,0.000,0.000,0.000
495399.942,17.578,26.367,28.320,24.414,38.086,0.000,0.000,0.000
495399.946,6.836,26.855,32.715,18.555,35.645,0.000,0.000,0.000
495399.950,5.859,24.902,27.832,17.578,30.273,0.000,0.000,0.000
495399.954,16.602,23.438,18.555,20.508,41.016,0.000,0.000,0.000
495399.957,25.879,35.156,27.344,28.320,33.203,0.000,0.000,0.000
495399.961,11.230,41.992,29.785,20.020,30.762,0.000,0.000,0.000
495399.965,3.418,30.273,16.602,7.324,30.762,0.000,0.000,0.000
495399.969,14.160,24.414,13.672,14.648,11.719,0.000,0.000,0.000
495399.973,14.160,30.273,14.648,18.066,13.672,0.000,0.000,0.000
495399.977,11.719,31.250,22.461,13.184,37.109,0.000,0.000,0.000
495399.981,5.371,25.879,26.367,7.812,42.480,0.000,0.000,0.000
495399.985,17.090,25.391,18.066,12.207,20.508,0.000,0.000,0.000
495399.989,28.809,29.785,18.066,23.926,18.555,0.000,0.000,0.000
495399.993,28.809,33.203,22.949,21.484,36.621,0.000,0.000,0.000
495399.997,32.715,41.504,25.391,20.020,42.969,0.000,0.000,0.000
495400.000,31.738,41.016,25.879,21.973,36.621,0.000,0.000,0.000
495400.004,30.273,30.762,21.484,21.484,36.621,0.000,0.000,0.000
495400.008,34.668,34.668,22.949,27.832,45.410,0.000,0.000,0.000
495400.012,29.785,39.551,31.250,25.879,39.551,0.000,0.000,0.000
495400.016,27.832,32.227,32.227,12.695,23.438,0.000,0.000,0.000
495400.020,31.250,32.715,33.691,17.578,25.391,0.000,0.000,0.000
495400.024,25.879,34.180,35.645,18.066,25.879,0.000,0.000,0.000
495400.028,18.555,31.738,32.715,5.859,25.391,0.000,0.000,0.000
495400.032,11.230,32.715,31.738,2.441,28.809,0.000,0.000,0.000
495400.036,15.625,37.109,36.133,15.625,32.715,0.000,0.000,0.000
495400.040,18.555,43.945,34.668,20.020,28.320,0.000,0.000,0.000
495400.043,6.836,40.527,31.250,9.766,17.090,0.000,0.000,0.000
495400.047,2.441,30.273,31.738,11.230,21.973,0.000,0.000,0.000
495400.051,7.324,26.367,27.344,16.113,30.762,0.000,0.000,0.000
495400.055,15.137,29.297,29.785,26.367,42.969,0.000,0.000,0.000
495400.059,12.695,30.762,34.668,21.973,29.785,0.000,0.000,0.000
495400.063,-3.906,32.227,31.738,7.324,22.949,0.000,0.000,0.000
495400.067,4.883,41.504,34.180,15.137,19.043,0.000,0.000,0.000
495400.071,23.438,50.781,36.621,22.949,4.883,0.000,0.000,0.000
495400.075,19.043,42.480,29.785,16.602,2.930,0.000,0.000,0.000
495400.079,5.371,34.180,29.297,10.742,7.812,0.000,0.000,0.000
495400.082,4.395,36.133,31.738,15.625,14.648,0.000,0.000,0.000
495400.086,8.789,31.250,26.367,20.996,20.996,0.000,0.000,0.000
495400.090,19.043,32.715,27.832,19.531,23.438,0.000,0.000,0.000
495400.094,14.160,37.598,29.297,14.648,18.066,0.000,0.000,0.000
495400.098,7.324,34.668,30.273,15.137,21.484,0.000,0.000,0.000
495400.102,24.902,39.551,37.109,27.344,36.621,0.000,0.000,0.000
495400.106,34.668,44.434,37.109,29.785,39.062,0.000,0.000,0.000
495400.110,29.297,39.062,31.250,23.926,41.504,0.000,0.000,0.000
495400.114,20.508,40.039,33.203,29.785,55.176,0.000,0.000,0.000
495400.118,30.273,44.434,33.691,35.156,65.918,0.000,0.000,0.000
495400.122,34.668,41.992,29.297,32.227,58.594,0.000,0.000,0.000
495400.125,24.414,36.621,22.949,26.367,36.133,0.000,0.000,0.000
495400.129,12.207,37.109,20.020,13.184,31.738,0.000,0.000,0.000
495400.133,16.113,42.969,25.879,7.812,30.273,0.000,0.000,0.000
495400.137,32.227,41.016,32.715,18.555,29.785,0.000,0.000,0.000
495400.141,28.809,35.156,28.320,17.090,20.020,0.000,0.000,0.000
495400.145,19.043,29.297,25.391,5.371,2.930,0.000,0.000,0.000
495400.149,20.020,34.668,32.715,6.348,10.254,0.000,0.000,0.000
495400.153,24.414,43.945,35.156,15.137,11.230,0.000,0.000,0.000
495400.157,25.879,35.156,31.738,18.555,4.883,0.000,0.000,0.000
495400.161,20.020,30.762,34.180,14.160,11.719,0.000,0.000,0.000
495400.165,14.160,34.180,35.156,4.883,12.207,0.000,0.000,0.000
495400.168,20.996,35.645,38.574,10.254,15.137,0.000,0.000,0.000
495400.172,25.879,34.668,39.062,19.043,20.020,0.000,0.000,0.000
495400.176,20.020,32.715,33.691,14.160,12.207,0.000,0.000,0.000
495400.180,12.207,33.203,35.156,7.324,12.207,0.000,0.000,0.000
495400.184,21.973,33.691,40.039,9.766,16.602,0.000,0.000,0.000
495400.188,29.785,34.180,39.062,24.414,29.297,0.000,0.000,0.000
495400.192,23.926,35.645,31.738,22.949,22.461,0.000,0.000,0.000
495400.196,13.184,41.504,34.180,8.301,13.184,0.000,0.000,0.000
495400.200,14.648,47.852,37.109,2.930,29.785,0.000,0.000,0.000
495400.204,21.484,36.621,27.832,4.395,30.762,0.000,0.000,0.000
495400.207,17.578,24.902,29.785,4.395,18.555,0.000,0.000,0.000
495400.211,2.930,29.785,33.691,-2.441,12.695,0.000,0.000,0.000
495400.215,10.254,33.203,29.785,-4.395,8.789,0.000,0.000,0.000
495400.219,21.484,33.203,24.414,5.859,7.812,0.000,0.000,0.000
495400.223,23.926,39.062,29.297,20.996,24.902,0.000,0.000,0.000
495400.227,17.578,41.992,32.715,11.719,39.062,0.000,0.000,0.000
495400.231,7.324,40.527,27.344,0.488,42.969,0.000,0.000,0.000
495400.235,25.879,49.316,31.250,14.160,43.457,0.000,0.000,0.000
495400.239,25.879,43.457,31.250,20.508,30.273,0.000,0.000,0.000
495400.243,13.672,29.297,27.344,13.184,30.273,0.000,0.000,0.000
495400.247,5.859,27.344,31.250,11.719,36.133,0.000,0.000,0.000
495400.250,17.090,25.879,37.109,20.508,35.156,0.000,0.000,0.000
495400.254,31.250,32.227,46.387,31.250,28.809,0.000,0.000,0.000
495400.258,23.438,32.227,45.898,25.391,27.344,0.000,0.000,0.000
495400.262,19.043,32.227,43.945,24.902,52.246,0.000,0.000,0.000
495400.266,24.414,46.387,47.363,30.762,62.500,0.000,0.000,0.000
495400.270,27.832,42.480,41.016,28.320,44.434,0.000,0.000,0.000
495400.274,28.320,29.297,38.086,25.879,35.645,0.000,0.000,0.000
495400.278,23.926,33.203,41.504,25.879,41.504,0.000,0.000,0.000
495400.282,19.531,33.203,36.621,25.391,41.016,0.000,0.000,0.000
495400.286,24.902,29.297,32.227,27.344,32.227,0.000,0.000,0.000
495400.290,28.320,32.715,33.203,30.273,39.551,0.000,0.000,0.000
495400.293,23.926,35.645,29.297,23.926,46.875,0.000,0.000,0.000
495400.297,21.484,41.016,30.762,20.996,44.434,0.000,0.000,0.000
495400.301,25.879,41.016,32.715,22.461,48.340,0.000,0.000,0.000
495400.305,29.297,37.598,30.762,27.344,46.875,0.000,0.000,0.000
495400.309,30.762,44.922,30.762,30.762,38.574,0.000,0.000,0.000
495400.313,21.973,46.387,32.227,25.391,45.898,0.000,0.000,0.000
495400.317,25.391,39.551,32.715,20.020,40.527,0.000,0.000,0.000
495400.321,39.062,39.062,28.809,28.809,31.250,0.000,0.000,0.000
495400.325,41.504,44.922,34.180,31.738,39.551,0.000,0.000,0.000
495400.329,31.738,39.551,41.504,27.344,42.480,0.000,0.000,0.000
495400.332,30.273,32.715,40.039,27.832,43.457,0.000,0.000,0.000
495400.336,36.133,37.109,37.598,35.156,36.133,0.000,0.000,0.000
495400.340,33.691,37.109,33.203,36.621,40.039,0.000,0.000,0.000
495400.344,12.207,25.879,24.414,23.438,38.086,0.000,0.000,0.000
495400.348,-3.906,27.832,18.555,12.207,20.508,0.000,0.000,0.000
495400.352,12.207,36.133,22.461,16.113,16.113,0.000,0.000,0.000
495400.356,26.855,36.621,32.227,28.809,25.391,0.000,0.000,0.000
495400.360,17.090,44.922,39.062,31.250,47.852,0.000,0.000,0.000
495400.364,7.812,41.016,43.945,20.020,38.574,0.000,0.000,0.000
495400.368,15.137,30.273,40.039,18.066,21.484,0.000,0.000,0.000
495400.372,22.461,30.273,33.691,20.508,20.996,0.000,0.000,0.000
495400.375,20.996,24.414,31.250,18.555,22.949,0.000,0.000,0.000
495400.379,11.230,24.414,34.180,14.648,32.227,0.000,0.000,0.000
495400.383,16.602,31.250,39.551,10.254,31.738,0.000,0.000,0.000
495400.387,30.762,37.109,36.133,24.902,39.062,0.000,0.000,0.000
495400.391,18.066,39.062,26.855,21.973,44.922,0.000,0.000,0.000
495400.395,9.277,37.109,32.227,14.160,38.574,0.000,0.000,0.000
495400.399,17.090,38.574,34.668,17.578,28.809,0.000,0.000,0.000
495400.403,25.391,38.086,32.715,23.438,19.043,0.000,0.000,0.000
495400.407,25.879,35.156,30.762,27.832,15.137,0.000,0.000,0.000
495400.411,15.625,33.691,26.367,23.926,20.020,0.000,0.000,0.000
495400.414,6.348,25.879,28.320,19.043,20.508,2.000,1.000,0.000
495400.418,15.137,25.391,32.715,21.973,25.391,0.000,0.000,0.000
495400.422,25.879,27.344,32.227,30.273,29.297,0.000,0.000,0.000
495400.426,21.484,25.391,26.855,26.855,37.598,0.000,0.000,0.000
495400.430,15.137,31.250,28.809,21.484,45.410,0.000,0.000,0.000
495400.434,20.508,29.297,35.156,17.578,33.203,0.000,0.000,0.000
495400.438,16.113,25.879,28.320,14.160,29.297,0.000,0.000,0.000
495400.442,9.277,26.855,20.996,12.207,43.457,0.000,0.000,0.000
495400.446,9.277,31.250,28.809,9.766,49.805,0.000,0.000,0.000
495400.450,12.695,34.668,30.762,6.836,34.668,0.000,0.000,0.000
495400.454,20.020,34.180,31.738,15.137,25.879,0.000,0.000,0.000
495400.457,24.414,30.762,33.691,20.508,26.855,0.000,0.000,0.000
495400.461,19.531,31.250,26.855,20.996,29.297,0.000,0.000,0.000
495400.465,19.043,34.180,22.461,16.113,38.574,0.000,0.000,0.000
495400.469,36.133,35.156,24.902,14.160,41.504,0.000,0.000,0.000
495400.473,48.828,37.598,29.297,23.926,45.898,0.000,0.000,0.000
495400.477,36.621,40.039,28.320,22.461,48.340,0.000,0.000,0.000
495400.481,24.414,43.457,28.809,15.625,42.480,0.000,0.000,0.000
495400.485,34.668,41.504,25.391,19.043,42.480,0.000,0.000,0.000
495400.489,43.457,38.086,27.832,22.949,43.945,0.000,0.000,0.000
495400.493,30.273,40.527,36.621,17.090,38.086,0.000,0.000,0.000
495400.497,17.578,40.039,31.738,8.301,41.016,0.000,0.000,0.000
495400.500,25.391,39.062,31.738,15.137,42.480,0.000,0.000,0.000
495400.504,35.156,40.527,27.832,20.996,37.109,0.000,0.000,0.000
495400.508,29.297,36.133,24.902,20.020,40.527,0.000,0.000,0.000
495400.512,10.742,36.621,27.344,18.555,38.574,0.000,0.000,0.000
495400.516,19.531,38.574,27.344,17.090,31.738,0.000,0.000,0.000
495400.520,29.297,35.156,33.203,20.996,43.457,0.000,0.000,0.000
495400.524,16.602,35.645,37.109,21.484,53.711,0.000,0.000,0.000
495400.528,1.953,35.645,24.902,11.230,43.945,0.000,0.000,0.000
495400.532,1.465,27.832,14.160,6.836,34.668,0.000,0.000,0.000
495400.536,20.508,25.391,20.508,18.066,19.043,0.000,0.000,0.000
495400.539,27.832,27.832,24.414,30.273,17.578,0.000,0.000,0.000
495400.543,20.996,25.879,25.391,23.926,38.086,0.000,0.000,0.000
495400.547,18.555,23.926,27.832,14.648,20.996,0.000,0.000,0.000
495400.551,22.949,23.926,23.438,21.484,-8.301,0.000,0.000,0.000
495400.555,24.902,27.832,25.879,22.949,-5.371,0.000,0.000,0.000
495400.559,22.949,33.203,30.762,20.020,-4.883,0.000,0.000,0.000
495400.563,12.207,29.297,23.926,16.113,-7.324,0.000,0.000,0.000
495400.567,7.324,21.973,19.043,9.277,-2.930,0.000,0.000,0.000
495400.571,15.137,26.855,17.578,8.301,4.395,0.000,0.000,0.000
495400.575,19.531,27.344,17.090,12.207,20.508,0.000,0.000,0.000
495400.579,11.719,23.438,20.996,9.277,28.809,0.000,0.000,0.000
495400.582,17.090,23.926,20.996,9.766,32.227,0.000,0.000,0.000
495400.586,29.785,24.414,20.020,16.602,37.109,0.000,0.000,0.000
495400.590,26.367,21.484,17.578,12.207,34.668,0.000,0.000,0.000
495400.594,16.602,21.973,20.508,11.230,42.480,0.000,0.000,0.000
495400.598,18.555,37.598,29.297,20.020,55.176,0.000,0.000,0.000
495400.602,23.926,34.180,19.531,15.625,46.875,0.000,0.000,0.000
495400.606,22.461,22.461,12.207,14.648,37.109,0.000,0.000,0.000
495400.610,19.531,23.926,16.113,24.414,41.016,0.000,0.000,0.000
495400.614,8.789,24.902,22.461,23.438,43.457,0.000,0.000,0.000
495400.618,10.742,29.297,27.344,18.066,36.621,0.000,0.000,0.000
495400.622,13.672,24.414,24.902,20.020,28.809,0.000,0.000,0.000
495400.625,7.324,26.855,21.973,18.066,18.066,0.000,0.000,0.000
495400.629,3.906,36.621,22.949,12.695,25.391,0.000,0.000,0.000
495400.633,5.371,31.738,24.414,10.742,39.062,0.000,0.000,0.000
495400.637,9.277,27.344,25.391,12.695,16.113,0.000,0.000,0.000
495400.641,17.090,27.344,25.879,14.648,7.324,0.000,0.000,0.000
495400.645,6.836,26.855,23.926,10.742,24.902,0.000,0.000,0.000
495400.649,-7.812,32.227,27.344,15.625,28.320,0.000,0.000,0.000
495400.653,5.859,35.645,30.273,20.020,20.508,0.000,0.000,0.000
495400.657,16.113,34.180,31.738,23.926,21.973,0.000,0.000,0.000
495400.661,5.371,32.715,31.250,20.996,21.484,0.000,0.000,0.000
495400.664,3.906,36.621,33.203,12.207,15.625,0.000,0.000,0.000
495400.668,22.461,39.551,40.039,21.484,31.250,0.000,0.000,0.000
495400.672,35.156,37.598,37.598,30.762,43.457,0.000,0.000,0.000
495400.676,28.809,37.598,28.320,21.973,36.133,0.000,0.000,0.000
495400.680,16.602,30.273,28.809,20.020,25.879,0.000,0.000,0.000
495400.684,19.043,27.832,39.062,27.344,32.227,0.000,0.000,0.000
495400.688,23.438,31.738,39.062,28.809,39.551,0.000,0.000,0.000
495400.692,26.855,37.109,37.109,28.809,46.387,0.000,0.000,0.000
495400.696,11.719,37.598,36.621,19.043,45.410,0.000,0.000,0.000
495400.700,12.207,33.203,36.621,20.020,36.621,0.000,0.000,0.000
495400.704,30.762,35.645,42.969,32.715,36.621,0.000,0.000,0.000
495400.707,28.320,36.621,36.621,33.691,33.203,0.000,0.000,0.000
495400.711,14.160,36.621,33.203,22.949,31.738,0.000,0.000,0.000
495400.715,18.555,39.062,37.109,24.902,46.387,0.000,0.000,0.000
495400.719,33.691,42.969,32.227,32.715,55.664,0.000,0.000,0.000
495400.723,33.691,43.945,32.227,27.832,37.109,0.000,0.000,0.000
495400.727,20.020,38.086,29.785,16.113,21.484,0.000,0.000,0.000
495400.731,9.277,34.180,24.414,11.719,20.996,0.000,0.000,0.000
495400.735,17.090,34.668,27.344,14.160,21.484,0.000,0.000,0.000
495400.739,23.438,41.016,32.227,20.020,23.926,0.000,0.000,0.000
495400.743,19.531,41.992,35.156,18.555,22.461,0.000,0.000,0.000
495400.747,13.672,37.598,35.645,15.625,25.391,0.000,0.000,0.000
495400.750,20.508,35.645,34.180,21.973,25.879,0.000,0.000,0.000
495400.754,33.691,39.551,33.203,29.785,24.414,0.000,0.000,0.000
495400.758,35.645,35.156,29.297,28.809,25.879,0.000,0.000,0.000
495400.762,23.926,30.762,27.344,20.020,31.250,0.000,0.000,0.000
495400.766,20.508,39.062,28.809,13.184,24.414,0.000,0.000,0.000
495400.770,24.414,32.227,27.344,16.113,12.695,0.000,0.000,0.000
495400.774,23.926,24.414,25.879,22.461,10.742,0.000,0.000,0.000
495400.778,17.090,30.273,30.762,15.625,14.160,0.000,0.000,0.000
495400.782,12.695,33.691,32.227,9.277,18.555,0.000,0.000,0.000
495400.786,20.508,27.832,31.738,17.578,18.066,0.000,0.000,0.000
495400.789,21.973,23.438,29.785,17.090,10.254,0.000,0.000,0.000
495400.793,13.184,25.879,27.344,9.277,9.766,0.000,0.000,0.000
495400.797,7.812,28.809,25.879,7.324,15.137,0.000,0.000,0.000
495400.801,18.066,33.691,24.414,13.184,12.695,0.000,0.000,0.000
495400.805,28.809,30.762,28.809,24.902,15.625,0.000,0.000,0.000
495400.809,19.531,22.949,29.297,16.113,12.207,0.000,0.000,0.000
495400.813,0.488,23.926,25.391,7.812,11.230,0.000,0.000,0.000
495400.817,9.766,29.785,29.297,17.090,29.297,0.000,0.000,0.000
495400.821,22.461,35.156,29.297,20.508,30.273,0.000,0.000,0.000
495400.825,28.809,39.062,34.180,20.996,24.902,0.000,0.000,0.000
495400.829,25.391,43.945,39.551,17.090,40.039,0.000,0.000,0.000
495400.832,22.461,33.691,24.902,12.207,68.359,0.000,0.000,0.000
495400.836,31.738,27.344,22.949,16.113,46.875,0.000,0.000,0.000
495400.840,30.273,29.785,25.391,18.066,9.277,0.000,0.000,0.000
495400.844,30.273,35.645,22.461,15.137,35.645,0.000,0.000,0.000
495400.848,21.484,35.156,20.020,6.348,35.645,0.000,0.000,0.000
495400.852,21.973,30.273,21.484,9.277,17.090,0.000,0.000,0.000
495400.856,25.391,32.715,27.832,17.090,22.461,0.000,0.000,0.000
495400.860,19.043,34.180,31.738,13.184,20.508,0.000,0.000,0.000
495400.864,12.207,28.809,24.902,8.301,15.137,0.000,0.000,0.000
495400.868,20.508,28.809,26.367,11.719,20.020,0.000,0.000,0.000
495400.871,31.250,32.715,31.250,20.996,20.508,0.000,0.000,0.000
495400.875,30.762,27.344,22.461,22.949,25.879,0.000,0.000,0.000
495400.879,19.531,25.879,17.090,9.277,27.344,0.000,0.000,0.000
495400.883,19.531,28.320,20.996,7.812,16.113,0.000,0.000,0.000
495400.887,30.273,27.832,26.855,23.438,27.344,0.000,0.000,0.000
495400.891,25.391,27.832,29.297,23.926,37.598,0.000,0.000,0.000
495400.895,13.184,22.461,36.133,18.066,32.715,0.000,0.000,0.000
495400.899,13.184,23.926,38.086,20.020,31.738,0.000,0.000,0.000
495400.903,16.602,29.785,36.133,20.020,26.855,0.000,0.000,0.000
495400.907,19.043,28.320,35.645,23.926,28.320,0.000,0.000,0.000
495400.911,17.578,32.715,36.133,26.855,36.621,0.000,0.000,0.000
495400.914,11.719,35.645,35.645,23.438,33.691,0.000,0.000,0.000
495400.918,16.113,33.203,31.250,20.996,12.695,0.000,0.000,0.000
495400.922,17.578,33.691,26.367,24.902,-1.953,0.000,0.000,0.000
495400.926,1.465,26.855,28.320,15.625,-5.371,0.000,0.000,0.000
495400.930,-14.648,21.973,31.250,1.953,-2.441,0.000,0.000,0.000
495400.934,-8.301,24.414,27.832,1.465,-0.977,0.000,0.000,0.000
495400.938,1.465,21.484,24.902,11.230,1.953,0.000,0.000,0.000
495400.942,4.883,21.973,25.879,17.090,17.090,0.000,0.000,0.000
495400.946,-2.930,32.715,28.320,6.348,30.762,0.000,0.000,0.000
495400.950,2.441,31.250,28.320,8.301,41.016,0.000,0.000,0.000
495400.954,20.020,29.297,29.297,22.949,48.340,0.000,0.000,0.000
495400.957,21.973,36.621,40.527,27.344,40.039,0.000,0.000,0.000
495400.961,10.742,36.621,39.551,18.555,34.180,0.000,0.000,0.000
495400.965,6.836,31.738,28.320,10.742,39.062,0.000,0.000,0.000
495400.969,12.207,29.297,28.320,16.602,30.762,0.000,0.000,0.000
495400.973,24.902,34.668,24.414,23.926,28.809,0.000,0.000,0.000
495400.977,22.461,31.738,23.926,17.578,30.762,0.000,0.000,0.000
495400.981,16.602,34.668,32.227,16.602,27.344,0.000,0.000,0.000
495400.985,35.645,39.551,35.645,29.785,34.180,0.000,0.000,0.000
495400.989,36.133,30.762,32.227,32.715,41.016,0.000,0.000,0.000
495400.993,23.926,33.691,32.715,25.391,39.551,0.000,0.000,0.000
495400.996,18.066,38.086,37.109,25.391,37.109,0.000,0.000,0.000
495401.000,24.414,36.621,35.156,29.297,37.109,0.000,0.000,0.000
495401.004,30.273,39.062,33.203,28.809,39.551,0.000,0.000,0.000
495401.008,23.926,35.645,28.320,24.414,25.879,0.000,0.000,0.000
495401.012,13.672,34.180,28.320,20.508,18.066,0.000,0.000,0.000
495401.016,17.578,42.969,31.738,23.926,21.973,0.000,0.000,0.000
495401.020,30.273,41.504,31.738,25.879,19.043,0.000,0.000,0.000
495401.024,29.297,37.109,30.762,23.438,26.367,0.000,0.000,0.000
495401.028,24.902,39.062,32.227,23.438,34.668,0.000,0.000,0.000
495401.032,22.461,35.156,33.203,20.508,31.250,0.000,0.000,0.000
495401.036,32.715,33.203,31.250,22.461,41.992,0.000,0.000,0.000
495401.039,34.180,36.621,28.809,25.391,39.062,0.000,0.000,0.000
495401.043,24.902,34.668,30.762,21.973,24.414,0.000,0.000,0.000
495401.047,23.438,30.762,30.273,24.414,37.598,0.000,0.000,0.000
495401.051,25.879,36.133,27.344,25.879,46.387,0.000,0.000,0.000
495401.055,29.785,38.574,32.227,33.203,41.992,0.000,0.000,0.000
495401.059,26.367,32.715,33.203,25.879,35.156,0.000,0.000,0.000
495401.063,16.113,32.227,35.645,19.043,34.180,0.000,0.000,0.000
495401.067,19.043,33.203,36.621,24.902,32.715,0.000,0.000,0.000
495401.071,23.438,26.855,30.273,25.391,31.738,0.000,0.000,0.000
495401.075,33.203,30.762,30.762,27.344,32.227,0.000,0.000,0.000
495401.079,23.438,33.691,31.738,20.508,24.902,0.000,0.000,0.000
495401.082,16.113,33.203,35.156,24.414,28.809,0.000,0.000,0.000
495401.086,24.902,35.645,40.527,30.762,27.344,0.000,0.000,0.000
495401.090,29.297,27.344,33.691,25.879,22.949,0.000,0.000,0.000
495401.094,24.414,21.484,29.297,16.113,31.250,0.000,0.000,0.000
495401.098,13.184,25.879,35.156,14.648,32.227,0.000,0.000,0.000
495401.102,28.809,30.273,33.691,22.949,40.039,0.000,0.000,0.000
495401.106,41.992,30.762,29.297,35.156,41.992,0.000,0.000,0.000
495401.110,28.320,31.250,31.738,34.180,24.414,0.000,0.000,0.000
495401.114,12.207,32.227,29.785,25.879,26.855,0.000,0.000,0.000
495401.118,19.043,30.273,28.809,33.203,26.855,0.000,0.000,0.000
495401.121,35.645,39.551,35.645,41.504,23.438,0.000,0.000,0.000
495401.125,36.133,47.852,38.574,36.621,35.156,0.000,0.000,0.000
495401.129,18.555,37.598,36.133,23.926,30.273,0.000,0.000,0.000
495401.133,27.832,31.738,27.832,25.879,24.902,0.000,0.000,0.000
495401.137,40.039,32.227,27.344,38.574,33.691,0.000,0.000,0.000
495401.141,28.809,30.273,30.762,28.809,37.598,0.000,0.000,0.000
495401.145,22.461,33.691,25.879,19.531,35.156,0.000,0.000,0.000
495401.149,24.414,39.551,26.855,26.855,35.645,0.000,0.000,0.000
495401.153,28.809,33.691,22.461,31.250,31.738,0.000,0.000,0.000
495401.157,32.715,28.809,16.602,28.809,27.344,0.000,0.000,0.000
495401.161,15.625,31.738,17.578,22.949,30.273,0.000,0.000,0.000
495401.164,1.465,31.250,21.484,17.578,23.438,0.000,0.000,0.000
495401.168,17.090,38.086,24.902,20.020,30.762,0.000,0.000,0.000
495401.172,33.203,37.598,22.949,29.297,42.480,0.000,0.000,0.000
495401.176,34.180,34.668,26.855,31.738,40.527,0.000,0.000,0.000
495401.180,29.785,40.527,28.809,36.133,44.434,0.000,0.000,0.000
495401.184,31.738,32.227,23.438,35.645,45.898,0.000,0.000,0.000
495401.188,29.785,28.320,21.484,33.203,38.574,0.000,0.000,0.000
495401.192,29.297,32.227,25.879,33.203,32.715,0.000,0.000,0.000
495401.196,17.578,34.668,23.926,23.926,23.926,0.000,0.000,0.000
495401.200,14.648,32.227,19.043,19.043,19.043,0.000,0.000,0.000
495401.204,25.879,32.715,20.020,25.879,10.742,0.000,0.000,0.000
495401.207,29.297,38.086,23.926,29.785,13.672,0.000,0.000,0.000
495401.211,16.602,39.062,28.809,22.461,33.691,0.000,0.000,0.000
495401.215,15.625,41.016,26.367,14.160,28.809,0.000,0.000,0.000
495401.219,28.809,41.504,24.414,20.020,23.438,0.000,0.000,0.000
495401.223,27.344,38.086,27.344,27.832,28.809,0.000,0.000,0.000
495401.227,15.137,30.762,23.438,22.949,32.227,0.000,0.000,0.000
495401.231,2.441,30.273,22.949,11.230,26.367,0.000,0.000,0.000
495401.235,12.695,37.598,27.344,10.742,19.531,0.000,0.000,0.000
495401.239,16.113,33.691,23.438,25.391,35.156,0.000,0.000,0.000
495401.243,7.812,31.738,19.043,24.902,18.555,0.000,0.000,0.000
495401.246,-4.395,34.180,17.578,8.301,0.977,0.000,0.000,0.000
495401.250,7.324,35.645,21.973,11.719,23.438,0.000,0.000,0.000
495401.254,28.320,43.457,28.809,24.902,29.785,0.000,0.000,0.000
495401.258,20.020,42.480,25.879,19.043,15.625,0.000,0.000,0.000
495401.262,9.766,30.273,21.973,7.812,13.184,0.000,0.000,0.000
495401.266,10.254,26.855,27.832,12.695,18.555,0.000,0.000,0.000
495401.270,17.090,30.762,24.902,15.625,19.043,0.000,0.000,0.000
495401.274,25.391,35.645,22.461,14.160,19.043,0.000,0.000,0.000
495401.278,17.090,35.645,31.250,16.113,21.484,0.000,0.000,0.000
495401.282,8.789,34.668,28.320,12.207,26.855,0.000,0.000,0.000
495401.286,23.438,34.180,28.320,20.996,38.086,0.000,0.000,0.000
495401.289,29.785,34.668,31.250,31.250,36.133,0.000,0.000,0.000
495401.293,19.531,33.691,32.227,20.020,27.832,0.000,0.000,0.000
495401.297,8.789,27.344,34.180,5.371,16.602,0.000,0.000,0.000
495401.301,22.461,29.785,40.039,13.184,17.578,0.000,0.000,0.000
495401.305,28.320,29.297,42.969,20.996,20.508,0.000,0.000,0.000
495401.309,16.602,26.855,41.504,17.578,12.695,0.000,0.000,0.000
495401.313,17.578,29.785,33.691,17.578,24.902,0.000,0.000,0.000
495401.317,27.832,31.250,25.391,18.066,37.598,0.000,0.000,0.000
495401.321,27.344,30.273,20.020,17.578,33.203,0.000,0.000,0.000
495401.325,21.973,34.668,19.531,19.043,31.250,0.000,0.000,0.000
495401.328,11.230,34.180,22.949,20.508,42.969,0.000,0.000,0.000
495401.332,15.137,37.109,27.344,23.438,41.016,0.000,0.000,0.000
495401.336,24.902,38.574,30.273,25.391,27.832,0.000,0.000,0.000
495401.340,36.621,37.598,36.133,30.762,39.062,0.000,0.000,0.000
495401.344,34.180,41.504,41.992,33.203,58.105,0.000,0.000,0.000
495401.348,15.625,35.156,39.551,27.832,55.176,0.000,0.000,0.000
495401.352,24.902,34.180,37.109,31.738,47.363,0.000,0.000,0.000
495401.356,34.668,33.691,35.645,37.109,51.270,0.000,0.000,0.000
495401.360,29.297,27.832,38.086,33.691,65.430,0.000,0.000,0.000
495401.364,21.973,30.762,36.133,23.926,47.852,0.000,0.000,0.000
495401.368,29.297,38.086,29.297,25.879,24.902,0.000,0.000,0.000
495401.371,32.227,35.156,30.273,35.156,31.250,0.000,0.000,0.000
495401.375,24.902,29.785,31.250,33.203,36.133,0.000,0.000,0.000
495401.379,18.066,32.227,31.738,25.391,39.551,0.000,0.000,0.000
495401.383,22.949,32.227,33.691,28.320,39.062,0.000,0.000,0.000
495401.387,30.762,30.762,34.180,33.203,50.781,0.000,0.000,0.000
495401.391,39.062,35.156,38.574,32.715,58.105,0.000,0.000,0.000
495401.395,27.344,37.598,38.574,29.785,45.410,0.000,0.000,0.000
495401.399,19.043,32.715,37.109,29.785,30.762,0.000,0.000,0.000
495401.403,29.297,32.227,36.133,36.621,19.531,0.000,0.000,0.000
495401.407,24.902,28.320,26.855,34.668,15.625,0.000,0.000,0.000
495401.411,11.719,21.973,24.902,25.391,19.531,0.000,0.000,0.000
495401.414,4.395,19.531,26.855,18.066,21.484,0.000,0.000,0.000
495401.418,12.207,16.113,22.949,15.625,19.043,0.000,0.000,0.000
495401.422,13.672,17.090,20.020,19.043,15.625,0.000,0.000,0.000
495401.426,2.930,17.090,20.996,10.742,11.719,0.000,0.000,0.000
495401.430,0.000,21.484,19.043,11.719,24.414,0.000,0.000,0.000
495401.434,14.160,27.832,18.555,23.926,31.250,0.000,0.000,0.000
495401.438,22.949,29.297,22.461,29.297,26.367,0.000,0.000,0.000
495401.442,24.414,35.645,30.273,34.668,33.203,0.000,0.000,0.000
495401.446,18.066,30.762,32.227,27.832,35.156,0.000,0.000,0.000
495401.450,16.113,24.902,26.855,18.555,25.879,0.000,0.000,0.000
495401.453,21.973,23.438,26.367,21.484,17.578,0.000,0.000,0.000
495401.457,19.531,18.555,24.414,19.043,15.137,0.000,0.000,0.000
495401.461,8.789,18.555,26.855,9.766,20.020,0.000,0.000,0.000
495401.465,9.277,24.902,32.715,12.695,29.297,0.000,0.000,0.000
495401.469,20.020,29.297,40.527,22.949,29.785,0.000,0.000,0.000
495401.473,31.738,36.133,45.410,32.227,39.551,0.000,0.000,0.000
495401.477,29.297,39.551,39.551,29.297,53.223,0.000,0.000,0.000
495401.481,14.648,24.902,34.668,20.020,41.016,0.000,0.000,0.000
495401.485,22.461,23.438,32.227,21.484,39.551,0.000,0.000,0.000
495401.489,26.855,28.809,24.902,20.996,25.391,0.000,0.000,0.000
495401.493,19.043,23.926,26.367,14.160,10.254,0.000,0.000,0.000
495401.496,11.719,26.367,25.879,14.160,17.090,0.000,0.000,0.000
495401.500,12.695,28.320,20.996,21.973,17.578,0.000,0.000,0.000
495401.504,17.090,29.785,28.320,27.832,22.461,0.000,0.000,0.000
495401.508,19.531,31.250,37.109,29.297,34.180,0.000,0.000,0.000
495401.512,12.695,31.738,37.109,25.879,41.016,0.000,0.000,0.000
495401.516,12.207,27.344,28.809,16.602,38.086,0.000,0.000,0.000
495401.520,29.785,27.344,30.762,25.879,32.227,0.000,0.000,0.000
495401.524,34.180,29.297,35.156,32.715,36.621,0.000,0.000,0.000
495401.528,14.160,29.785,29.297,15.137,39.062,0.000,0.000,0.000
495401.532,-1.953,31.250,30.762,10.254,37.598,0.000,0.000,0.000
495401.536,3.906,28.320,31.250,18.555,33.691,0.000,0.000,0.000
495401.539,12.207,30.762,23.926,20.508,18.555,0.000,0.000,0.000
495401.543,9.277,35.645,27.832,17.578,3.906,0.000,0.000,0.000
495401.547,-0.977,29.785,30.762,10.742,3.906,0.000,0.000,0.000
495401.551,13.184,29.785,30.273,15.137,19.043,0.000,0.000,0.000
495401.555,34.668,33.691,34.668,25.391,27.344,0.000,0.000,0.000
495401.559,31.738,33.203,35.156,19.531,24.414,0.000,0.000,0.000
495401.563,12.695,38.574,33.691,11.719,24.414,0.000,0.000,0.000
495401.567,18.066,41.992,31.250,18.066,24.414,0.000,0.000,0.000
495401.571,30.273,38.574,33.203,21.484,20.996,0.000,0.000,0.000
495401.575,26.367,38.574,35.645,21.973,16.602,0.000,0.000,0.000
495401.578,17.578,43.457,38.086,23.438,24.414,0.000,0.000,0.000
495401.582,21.484,38.574,35.156,24.902,32.715,0.000,0.000,0.000
495401.586,29.297,27.832,24.414,21.973,26.367,0.000,0.000,0.000
495401.590,32.227,28.320,24.414,22.461,27.832,0.000,0.000,0.000
495401.594,19.531,33.691,33.203,19.531,25.391,0.000,0.000,0.000
495401.598,10.254,35.156,32.715,13.672,22.949,0.000,0.000,0.000
495401.602,20.020,36.621,27.344,14.648,16.602,0.000,0.000,0.000
495401.606,23.926,37.109,25.391,17.578,10.742,0.000,0.000,0.000
495401.610,14.648,32.715,26.367,14.160,25.391,0.000,0.000,0.000
495401.614,3.906,27.832,21.973,9.277,32.227,0.000,0.000,0.000
495401.618,22.461,33.691,25.879,15.137,25.391,0.000,0.000,0.000
495401.621,34.180,39.062,25.879,24.414,17.090,0.000,0.000,0.000
495401.625,16.113,27.344,7.812,19.043,14.648,0.000,0.000,0.000
495401.629,4.395,23.438,10.254,14.160,16.602,0.000,0.000,0.000
495401.633,13.672,29.785,21.484,17.578,21.973,0.000,0.000,0.000
495401.637,23.438,32.227,22.949,23.438,38.574,0.000,0.000,0.000
495401.641,26.367,38.574,23.926,29.785,42.480,0.000,0.000,0.000
495401.645,26.367,34.668,23.926,23.438,26.855,0.000,0.000,0.000
495401.649,23.438,31.250,22.461,16.113,21.973,0.000,0.000,0.000
495401.653,30.273,35.156,20.996,22.461,21.973,0.000,0.000,0.000
495401.657,40.039,36.133,23.926,26.855,25.391,0.000,0.000,0.000
495401.661,23.926,33.691,26.367,23.926,31.250,0.000,0.000,0.000
495401.664,18.066,41.992,30.762,23.438,43.945,0.000,0.000,0.000
495401.668,27.344,47.363,29.297,25.391,51.270,0.000,0.000,0.000
495401.672,31.250,36.133,21.973,30.273,44.922,0.000,0.000,0.000
495401.676,30.762,31.250,21.484,28.320,27.344,0.000,0.000,0.000
495401.680,21.484,36.621,27.832,17.578,22.949,0.000,0.000,0.000
495401.684,29.297,40.527,30.273,18.066,36.621,0.000,0.000,0.000
495401.688,47.852,44.434,34.180,29.785,49.805,0.000,0.000,0.000
495401.692,44.434,41.504,40.039,32.715,42.480,0.000,0.000,0.000
495401.696,20.020,37.109,36.133,21.973,26.855,0.000,0.000,0.000
495401.700,13.672,38.086,29.785,18.555,30.762,0.000,0.000,0.000
495401.703,29.785,41.504,38.574,35.645,36.133,0.000,0.000,0.000
495401.707,31.250,40.039,38.086,33.203,22.949,0.000,0.000,0.000
495401.711,17.090,41.992,33.691,19.043,21.484,0.000,0.000,0.000
495401.715,11.230,42.480,36.133,12.207,15.625,0.000,0.000,0.000
495401.719,20.020,31.738,30.273,9.277,0.488,0.000,0.000,0.000
495401.723,20.508,33.203,31.738,12.207,6.836,0.000,0.000,0.000
495401.727,7.324,38.086,37.598,9.766,1.953,0.000,0.000,0.000
495401.731,0.000,35.645,34.180,6.836,-5.859,0.000,0.000,0.000
495401.735,14.648,32.227,31.250,14.648,6.836,0.000,0.000,0.000
495401.739,21.484,32.227,31.250,24.414,12.695,0.000,0.000,0.000
495401.743,15.137,33.203,31.250,18.066,17.578,0.000,0.000,0.000
495401.746,11.719,36.621,32.715,19.531,32.227,0.000,0.000,0.000
495401.750,14.648,39.062,35.645,26.367,27.832,0.000,0.000,0.000
495401.754,23.926,39.062,38.574,25.879,23.926,0.000,0.000,0.000
495401.758,22.949,37.598,41.016,21.484,25.391,0.000,0.000,0.000
495401.762,6.836,32.227,37.598,14.648,17.578,0.000,0.000,0.000
495401.766,10.254,39.551,38.086,20.508,30.273,0.000,0.000,0.000
495401.770,20.020,34.180,33.203,23.926,41.016,0.000,0.000,0.000
495401.774,14.160,20.020,24.414,18.555,23.438,0.000,0.000,0.000
495401.778,3.906,21.484,20.020,16.602,14.648,0.000,0.000,0.000
495401.782,7.812,28.809,22.461,19.531,25.391,0.000,0.000,0.000
495401.785,21.973,34.668,23.926,23.438,32.227,0.000,0.000,0.000
495401.789,26.367,37.598,24.414,28.320,30.273,0.000,0.000,0.000
495401.793,21.973,41.504,23.926,28.320,28.320,0.000,0.000,0.000
495401.797,16.602,38.574,20.508,26.367,35.156,0.000,0.000,0.000
495401.801,22.949,36.621,26.855,23.438,36.621,0.000,0.000,0.000
495401.805,27.832,38.086,25.879,24.902,27.832,0.000,0.000,0.000
495401.809,20.020,39.551,29.785,28.809,24.902,0.000,0.000,0.000
495401.813,12.207,33.691,31.738,20.508,25.391,0.000,0.000,0.000
495401.817,17.578,29.297,23.438,13.672,21.484,0.000,0.000,0.000
495401.821,23.926,36.133,27.344,19.043,30.762,0.000,0.000,0.000
495401.825,24.902,36.621,35.645,28.809,32.227,0.000,0.000,0.000
495401.828,19.531,38.574,35.645,24.414,17.090,0.000,0.000,0.000
495401.832,23.926,44.922,33.691,16.602,22.949,0.000,0.000,0.000
495401.836,27.344,42.480,32.715,17.090,21.484,0.000,0.000,0.000
495401.840,27.832,33.203,32.715,21.484,20.020,0.000,0.000,0.000
495401.844,23.438,30.273,36.133,20.020,26.855,0.000,0.000,0.000
495401.848,16.113,28.809,34.180,13.184,25.391,0.000,0.000,0.000
495401.852,24.902,27.832,27.344,14.648,31.250,0.000,0.000,0.000
495401.856,29.785,32.227,27.832,19.043,29.297,0.000,0.000,0.000
495401.860,23.926,34.180,30.762,15.625,19.531,0.000,0.000,0.000
495401.864,17.578,35.156,33.691,15.625,30.762,0.000,0.000,0.000
495401.868,16.602,26.855,26.367,18.066,35.645,0.000,0.000,0.000
495401.871,24.902,22.461,27.832,30.762,46.875,0.000,0.000,0.000
495401.875,28.320,25.879,35.156,31.738,53.711,0.000,0.000,0.000
495401.879,15.625,21.484,25.879,20.020,39.551,0.000,0.000,0.000
495401.883,21.973,19.531,22.949,22.461,33.203,0.000,0.000,0.000
495401.887,34.180,20.996,27.832,32.715,30.762,0.000,0.000,0.000
495401.891,24.902,23.926,20.508,29.297,18.555,0.000,0.000,0.000
495401.895,13.672,26.855,19.531,23.926,13.672,0.000,0.000,0.000
495401.899,19.043,33.203,26.855,26.855,26.855,0.000,0.000,0.000
495401.903,25.391,35.156,28.809,33.203,34.180,0.000,0.000,0.000
495401.907,25.879,25.879,24.414,33.203,19.531,0.000,0.000,0.000
495401.910,19.531,26.855,23.926,22.949,6.348,0.000,0.000,0.000
495401.914,13.672,25.391,26.367,17.090,24.902,0.000,0.000,0.000
495401.918,20.996,22.461,27.344,19.043,29.785,0.000,0.000,0.000
495401.922,27.344,25.391,29.297,21.973,9.766,0.000,0.000,0.000
495401.926,26.367,28.320,27.344,17.578,16.602,0.000,0.000,0.000
495401.930,20.996,29.297,20.996,16.602,29.785,0.000,0.000,0.000
495401.934,28.809,35.156,22.949,19.531,35.156,0.000,0.000,0.000
495401.938,34.180,38.086,20.020,20.508,41.992,0.000,0.000,0.000
495401.942,37.109,37.109,23.438,26.367,32.227,4.000,1.000,0.000
495401.946,33.691,45.898,39.062,26.367,24.414,0.000,0.000,0.000
495401.950,30.762,41.992,40.039,19.043,22.461,0.000,0.000,0.000
495401.953,32.227,33.203,28.320,20.020,16.602,0.000,0.000,0.000
495401.957,33.203,32.227,23.438,20.996,14.648,0.000,0.000,0.000
495401.961,20.508,31.738,24.902,15.137,15.625,0.000,0.000,0.000
495401.965,16.113,38.086,27.832,13.184,19.043,0.000,0.000,0.000
495401.969,32.227,42.969,33.691,18.066,27.344,0.000,0.000,0.000
495401.973,41.992,41.016,36.133,29.297,42.480,0.000,0.000,0.000
495401.977,36.621,40.039,36.621,29.785,45.898,0.000,0.000,0.000
495401.981,24.902,43.945,30.762,20.508,27.344,0.000,0.000,0.000
495401.985,28.320,47.363,31.250,20.996,24.414,0.000,0.000,0.000
495401.989,25.391,37.109,32.227,23.438,22.949,0.000,0.000,0.000
495401.993,17.090,32.227,25.391,19.043,21.484,0.000,0.000,0.000
495401.996,9.277,39.062,21.484,10.742,32.715,0.000,0.000,0.000
495402.000,12.695,41.504,24.414,11.719,17.578,0.000,0.000,0.000
495402.004,25.391,39.551,25.879,21.484,10.742,0.000,0.000,0.000
495402.008,25.879,41.016,26.855,23.438,33.203,0.000,0.000,0.000
495402.012,20.020,48.828,28.320,21.484,41.016,0.000,0.000,0.000
495402.016,20.996,42.480,27.832,18.066,19.531,0.000,0.000,0.000
495402.020,22.461,32.715,25.879,16.113,13.184,0.000,0.000,0.000
495402.024,27.344,34.180,27.344,26.367,24.902,0.000,0.000,0.000
495402.028,20.508,34.180,27.832,20.996,23.926,0.000,0.000,0.000
495402.032,16.113,41.016,21.973,16.602,31.738,0.000,0.000,0.000
495402.035,24.414,40.039,20.020,26.367,32.715,0.000,0.000,0.000
495402.039,31.250,39.062,27.344,22.461,25.391,0.000,0.000,0.000
495402.043,25.879,45.898,33.203,16.113,23.438,0.000,0.000,0.000
495402.047,17.578,44.922,34.668,20.020,31.250,0.000,0.000,0.000
495402.051,24.414,46.387,39.551,20.996,29.297,0.000,0.000,0.000
495402.055,30.762,40.039,37.109,20.508,31.738,0.000,0.000,0.000
495402.059,32.715,35.645,32.715,24.902,51.758,0.000,0.000,0.000
495402.063,19.043,35.645,29.297,21.973,41.016,0.000,0.000,0.000
495402.067,15.625,23.926,19.531,17.578,14.160,0.000,0.000,0.000
495402.071,32.227,24.902,16.602,29.297,3.418,0.000,0.000,0.000
495402.075,38.574,34.180,21.973,30.762,4.883,0.000,0.000,0.000
495402.078,32.227,34.180,23.438,25.879,16.602,0.000,0.000,0.000
495402.082,32.715,41.992,27.344,33.691,37.598,0.000,0.000,0.000
495402.086,39.551,51.758,35.645,39.062,34.180,0.000,0.000,0.000
495402.090,43.945,43.945,34.180,41.504,37.598,0.000,0.000,0.000
495402.094,26.367,36.621,24.414,32.227,49.316,0.000,0.000,0.000
495402.098,15.625,29.297,20.996,24.902,38.574,0.000,0.000,0.000
495402.102,30.762,32.227,29.785,35.156,38.574,0.000,0.000,0.000
495402.106,30.273,38.086,34.180,39.551,39.551,0.000,0.000,0.000
495402.110,21.973,28.809,36.133,36.133,30.762,0.000,0.000,0.000
495402.114,11.719,28.809,36.133,26.855,30.273,0.000,0.000,0.000
495402.118,15.137,33.203,37.109,25.391,42.969,0.000,0.000,0.000
495402.121,25.879,31.250,38.086,35.645,44.922,0.000,0.000,0.000
495402.125,25.879,34.668,34.668,37.598,25.391,0.000,0.000,0.000
495402.129,17.090,41.504,41.992,31.250,25.879,0.000,0.000,0.000
495402.133,10.254,39.551,40.527,24.414,38.086,0.000,0.000,0.000
495402.137,15.137,32.715,35.156,29.297,40.039,0.000,0.000,0.000
495402.141,12.695,29.785,36.621,28.320,17.578,0.000,0.000,0.000
495402.145,1.465,25.391,30.273,12.695,6.348,0.000,0.000,0.000
495402.149,9.277,26.367,29.297,14.160,29.297,0.000,0.000,0.000
495402.153,23.438,32.227,33.691,19.531,30.762,0.000,0.000,0.000
495402.157,29.297,31.250,28.809,24.902,30.273,0.000,0.000,0.000
495402.160,22.461,33.691,23.926,27.344,38.086,0.000,0.000,0.000
495402.164,18.066,38.086,29.785,19.043,26.855,0.000,0.000,0.000
495402.168,30.273,35.156,33.203,27.344,35.156,0.000,0.000,0.000
495402.172,40.039,34.180,31.250,40.527,66.406,0.000,0.000,0.000
495402.176,34.180,35.645,24.902,36.133,54.199,0.000,0.000,0.000
495402.180,18.555,30.273,18.555,24.414,19.531,0.000,0.000,0.000
495402.184,24.414,30.762,26.367,24.414,30.273,0.000,0.000,0.000
495402.188,31.738,38.086,30.762,27.832,32.227,0.000,0.000,0.000
495402.192,19.531,35.645,23.926,22.949,15.137,0.000,0.000,0.000
495402.196,10.742,32.227,16.602,16.602,26.367,0.000,0.000,0.000
495402.200,14.160,36.133,20.020,16.602,39.551,0.000,0.000,0.000
495402.203,20.996,35.156,22.949,23.438,37.109,0.000,0.000,0.000
495402.207,24.902,40.039,28.320,28.809,40.039,0.000,0.000,0.000
495402.211,14.648,42.969,30.762,19.043,40.039,0.000,0.000,0.000
495402.215,14.648,35.645,20.996,12.207,35.645,0.000,0.000,0.000
495402.219,24.902,36.133,27.832,20.508,34.180,0.000,0.000,0.000
495402.223,22.949,36.133,30.762,26.367,32.227,0.000,0.000,0.000
495402.227,17.090,37.109,21.484,23.438,39.551,0.000,0.000,0.000
495402.231,17.578,35.156,17.090,20.020,35.156,0.000,0.000,0.000
495402.235,27.832,27.344,16.602,15.625,21.973,0.000,0.000,0.000
495402.239,31.738,31.250,24.902,15.137,28.809,0.000,0.000,0.000
495402.243,29.297,37.598,29.785,18.555,31.738,0.000,0.000,0.000
495402.246,17.578,37.598,24.902,13.672,29.785,0.000,0.000,0.000
495402.250,21.973,32.715,22.461,16.113,44.434,0.000,0.000,0.000
495402.254,29.785,27.344,24.902,21.973,45.410,0.000,0.000,0.000
495402.258,28.320,31.738,25.391,23.438,32.715,0.000,0.000,0.000
495402.262,28.809,40.527,24.902,25.879,36.621,0.000,0.000,0.000
495402.266,23.438,39.551,26.855,17.090,39.062,0.000,0.000,0.000
495402.270,27.344,41.992,34.180,23.926,40.527,0.000,0.000,0.000
495402.274,34.668,39.551,34.668,33.691,51.758,0.000,0.000,0.000
495402.278,17.090,29.785,26.367,22.461,45.410,0.000,0.000,0.000
495402.282,6.348,29.785,23.926,25.879,40.527,0.000,0.000,0.000
495402.285,19.531,31.738,27.344,36.133,45.898,0.000,0.000,0.000
495402.289,21.484,37.109,36.621,37.598,51.270,0.000,0.000,0.000
495402.293,18.066,35.156,38.086,34.668,51.270,0.000,0.000,0.000
495402.297,19.043,28.809,29.785,24.902,36.133,0.000,0.000,0.000
495402.301,18.066,25.879,28.320,25.391,25.879,0.000,0.000,0.000
495402.305,20.020,26.367,32.227,35.156,32.715,0.000,0.000,0.000
495402.309,18.066,35.645,39.551,29.785,39.062,0.000,0.000,0.000
495402.313,-1.953,35.645,37.109,13.672,23.926,0.000,0.000,0.000
495402.317,-6.348,24.902,30.273,11.719,10.254,0.000,0.000,0.000
495402.321,6.836,32.715,34.668,23.438,18.555,0.000,0.000,0.000
495402.325,12.695,39.551,37.109,24.902,20.996,0.000,0.000,0.000
495402.328,8.789,36.133,39.062,17.090,29.297,0.000,0.000,0.000
495402.332,9.277,30.762,32.227,5.371,27.832,0.000,0.000,0.000
495402.336,20.996,27.832,27.344,9.766,19.531,0.000,0.000,0.000
495402.340,24.902,31.738,32.227,17.090,29.785,0.000,0.000,0.000
495402.344,20.996,40.527,36.133,17.090,34.180,0.000,0.000,0.000
495402.348,17.578,41.504,39.062,13.672,27.344,0.000,0.000,0.000
495402.352,22.949,32.715,34.180,10.254,18.066,0.000,0.000,0.000
495402.356,24.414,31.250,28.320,14.648,15.625,0.000,0.000,0.000
495402.360,19.043,39.062,31.250,16.602,21.484,0.000,0.000,0.000
495402.364,9.277,41.016,36.133,11.719,29.785,0.000,0.000,0.000
495402.367,16.602,38.574,35.156,13.672,43.457,0.000,0.000,0.000
495402.371,25.391,41.016,31.250,18.066,45.898,0.000,0.000,0.000
495402.375,24.902,36.621,29.785,20.996,23.926,0.000,0.000,0.000
495402.379,16.113,31.250,26.855,20.508,5.371,0.000,0.000,0.000
495402.383,17.578,35.156,26.367,17.578,8.301,0.000,0.000,0.000
495402.387,29.785,30.762,23.926,21.973,17.090,0.000,0.000,0.000
495402.391,38.086,27.832,28.809,28.320,34.180,0.000,0.000,0.000
495402.395,25.391,33.203,33.203,26.855,52.246,0.000,0.000,0.000
495402.399,17.578,28.320,33.203,32.227,41.992,0.000,0.000,0.000
495402.403,24.902,29.297,30.273,33.691,28.320,0.000,0.000,0.000
495402.407,32.227,31.738,23.926,27.344,36.133,0.000,0.000,0.000
495402.410,32.715,36.133,27.344,26.367,31.738,0.000,0.000,0.000
495402.414,18.066,37.598,35.156,24.414,20.996,0.000,0.000,0.000
495402.418,25.391,32.715,41.504,26.855,29.297,0.000,0.000,0.000
495402.422,38.086,36.133,39.551,32.227,38.574,0.000,0.000,0.000
495402.426,23.438,32.715,35.645,29.297,33.203,0.000,0.000,0.000
495402.430,8.789,27.344,33.203,20.020,29.785,0.000,0.000,0.000
495402.434,13.672,29.785,29.297,19.043,44.434,0.000,0.000,0.000
495402.438,16.602,26.855,21.973,23.926,31.738,0.000,0.000,0.000
495402.442,14.648,30.273,25.391,21.484,11.719,0.000,0.000,0.000
495402.446,7.812,42.480,32.715,15.137,9.766,0.000,0.000,0.000
495402.450,13.672,41.992,32.227,14.160,19.531,0.000,0.000,0.000
495402.453,30.273,36.133,28.809,19.531,28.809,0.000,0.000,0.000
495402.457,30.762,35.645,27.344,20.508,29.785,0.000,0.000,0.000
495402.461,17.578,31.738,33.203,14.648,34.668,0.000,0.000,0.000
495402.465,11.719,33.691,30.762,9.277,32.715,0.000,0.000,0.000
495402.469,20.508,31.250,23.438,10.742,39.062,0.000,0.000,0.000
495402.473,29.297,26.855,20.020,14.648,35.156,0.000,0.000,0.000
495402.477,23.438,34.180,21.484,13.672,14.648,0.000,0.000,0.000
495402.481,12.207,38.574,24.414,13.672,23.926,0.000,0.000,0.000
495402.485,16.113,37.598,27.344,19.531,44.922,0.000,0.000,0.000
495402.489,24.414,35.645,32.227,27.832,53.711,0.000,0.000,0.000
495402.492,19.531,41.504,28.320,28.320,36.133,0.000,0.000,0.000
495402.496,7.324,39.062,24.414,24.902,18.066,0.000,0.000,0.000
495402.500,14.648,26.855,27.832,23.438,23.438,0.000,0.000,0.000
495402.504,23.438,27.344,27.344,26.367,28.809,0.000,0.000,0.000
495402.508,19.043,27.344,23.926,25.391,22.949,0.000,0.000,0.000
495402.512,13.672,28.809,19.531,15.137,15.137,0.000,0.000,0.000
495402.516,13.672,32.227,20.020,14.648,20.020,0.000,0.000,0.000
495402.520,18.066,33.691,27.832,21.973,24.902,0.000,0.000,0.000
495402.524,15.137,31.250,28.809,22.949,27.344,0.000,0.000,0.000
495402.528,5.371,25.391,33.691,24.902,41.016,0.000,0.000,0.000
495402.532,9.277,29.297,41.504,27.344,34.180,0.000,0.000,0.000
495402.535,19.043,30.273,31.738,20.508,11.719,0.000,0.000,0.000
495402.539,19.531,25.879,20.508,16.113,14.648,0.000,0.000,0.000
495402.543,17.578,26.855,25.879,18.555,28.320,0.000,0.000,0.000
495402.547,17.090,29.297,33.203,19.043,32.715,0.000,0.000,0.000
495402.551,20.996,30.762,33.691,23.438,24.414,0.000,0.000,0.000
495402.555,23.438,29.297,27.832,26.855,26.367,0.000,0.000,0.000
495402.559,29.785,30.273,30.273,25.391,42.480,0.000,0.000,0.000
495402.563,28.320,33.203,34.668,20.508,47.363,0.000,0.000,0.000
495402.567,25.391,28.320,33.203,14.160,36.621,0.000,0.000,0.000
495402.571,38.574,30.762,32.227,25.879,49.316,0.000,0.000,0.000
495402.575,34.180,37.598,27.832,34.180,45.410,0.000,0.000,0.000
495402.578,11.719,34.180,26.855,22.949,35.645,0.000,0.000,0.000
495402.582,13.184,32.715,25.879,20.508,50.293,0.000,0.000,0.000
495402.586,32.715,39.551,28.320,35.156,49.805,0.000,0.000,0.000
495402.590,36.621,46.875,33.203,43.457,43.457,0.000,0.000,0.000
495402.594,20.020,38.086,33.203,26.367,26.855,0.000,0.000,0.000
495402.598,12.207,32.715,27.344,12.695,15.137,0.000,0.000,0.000
495402.602,25.391,33.691,20.020,13.184,23.438,0.000,0.000,0.000
495402.606,26.367,30.273,23.926,22.949,41.992,0.000,0.000,0.000
495402.610,19.043,35.645,29.785,21.484,29.785,0.000,0.000,0.000
495402.614,18.066,39.062,27.832,13.184,10.742,0.000,0.000,0.000
495402.617,26.855,31.738,24.902,19.043,25.391,0.000,0.000,0.000
495402.621,35.645,36.133,24.414,29.785,34.668,0.000,0.000,0.000
495402.625,35.645,38.574,22.949,28.809,20.020,0.000,0.000,0.000
495402.629,20.020,31.738,20.020,14.648,12.695,0.000,0.000,0.000
495402.633,14.160,35.645,22.949,17.578,26.367,0.000,0.000,0.000
495402.637,19.531,37.109,25.391,23.438,26.367,0.000,0.000,0.000
495402.641,15.137,31.250,25.391,15.625,22.461,0.000,0.000,0.000
495402.645,11.719,31.738,23.438,11.230,24.902,0.000,0.000,0.000
495402.649,20.020,40.527,28.320,14.160,23.926,0.000,0.000,0.000
495402.653,29.297,40.039,28.320,19.531,23.438,0.000,0.000,0.000
495402.657,30.273,36.133,25.391,24.414,29.785,0.000,0.000,0.000
495402.660,32.715,41.016,29.297,22.949,42.480,0.000,0.000,0.000
495402.664,30.762,42.969,28.320,17.090,48.340,0.000,0.000,0.000
495402.668,36.621,33.691,23.926,16.113,35.156,0.000,0.000,0.000
495402.672,41.992,36.133,22.949,24.902,30.762,0.000,0.000,0.000
495402.676,31.250,42.969,26.367,24.902,38.574,0.000,0.000,0.000
495402.680,16.113,38.574,28.320,17.578,32.227,0.000,0.000,0.000
495402.684,22.461,36.133,32.715,22.461,33.203,0.000,0.000,0.000
495402.688,34.180,40.039,36.621,29.297,43.945,0.000,0.000,0.000
495402.692,31.250,45.410,33.691,34.180,44.434,0.000,0.000,0.000
495402.696,22.949,44.922,31.250,26.855,31.250,0.000,0.000,0.000
495402.700,22.461,38.574,25.391,17.578,29.785,0.000,0.000,0.000
495402.703,33.691,36.621,24.902,26.855,43.457,0.000,0.000,0.000
495402.707,40.039,39.551,32.715,35.645,43.457,0.000,0.000,0.000
495402.711,27.344,38.574,40.527,29.785,40.039,0.000,0.000,0.000
495402.715,23.926,35.645,44.434,24.902,39.551,0.000,0.000,0.000
495402.719,32.715,33.203,34.668,29.785,46.875,0.000,0.000,0.000
495402.723,40.527,36.133,33.203,38.574,61.523,0.000,0.000,0.000
495402.727,30.762,35.156,35.156,33.691,34.180,0.000,0.000,0.000
495402.731,13.672,30.273,25.879,16.602,5.371,0.000,0.000,0.000
495402.735,21.973,28.809,21.484,13.184,9.766,0.000,0.000,0.000
495402.739,30.762,26.855,23.926,22.949,20.020,0.000,0.000,0.000
495402.742,22.461,30.273,28.320,24.414,23.438,0.000,0.000,0.000
495402.746,13.184,34.668,30.762,19.531,30.762,0.000,0.000,0.000
495402.750,23.438,37.598,30.762,19.043,51.270,0.000,0.000,0.000
495402.754,23.926,28.320,27.832,19.043,22.461,0.000,0.000,0.000
495402.758,19.043,27.344,28.320,22.949,-2.441,0.000,0.000,0.000
495402.762,15.625,35.156,32.227,22.949,20.020,0.000,0.000,0.000
495402.766,14.160,27.344,28.809,19.043,27.344,0.000,0.000,0.000
495402.770,24.414,22.949,26.367,25.391,35.156,0.000,0.000,0.000
495402.774,26.367,29.785,26.855,31.250,30.762,0.000,0.000,0.000
495402.778,14.160,32.227,27.344,21.484,22.461,0.000,0.000,0.000
495402.782,15.137,34.668,29.297,18.066,24.902,0.000,0.000,0.000
495402.785,24.902,31.738,25.879,25.879,25.879,0.000,0.000,0.000
495402.789,30.762,32.227,27.344,23.438,32.715,0.000,0.000,0.000
495402.793,22.461,33.691,35.156,12.695,37.598,0.000,0.000,0.000
495402.797,13.184,32.715,27.832,8.789,50.781,0.000,0.000,0.000
495402.801,23.438,30.762,25.879,15.137,56.641,0.000,0.000,0.000
495402.805,22.461,25.879,27.832,15.625,26.855,0.000,0.000,0.000
495402.809,15.625,31.738,28.320,19.531,16.113,0.000,0.000,0.000
495402.813,4.395,31.250,27.832,19.531,28.809,0.000,0.000,0.000
495402.817,11.719,30.762,35.156,17.578,39.551,0.000,0.000,0.000
495402.821,15.137,29.785,31.738,18.555,22.461,0.000,0.000,0.000
495402.824,9.277,26.855,25.879,16.113,16.113,0.000,0.000,0.000
495402.828,4.395,28.809,31.738,18.066,43.457,0.000,0.000,0.000
495402.832,6.836,33.691,30.762,19.043,33.691,0.000,0.000,0.000
495402.836,20.508,37.598,27.832,21.973,13.184,0.000,0.000,0.000
495402.840,18.555,29.785,27.832,26.367,15.625,0.000,0.000,0.000
495402.844,7.324,28.809,27.344,21.973,21.973,0.000,0.000,0.000
495402.848,4.395,34.668,32.227,23.926,26.367,0.000,0.000,0.000
495402.852,20.508,35.645,33.691,34.180,26.367,0.000,0.000,0.000
495402.856,29.785,36.621,31.250,36.133,34.180,0.000,0.000,0.000
495402.860,25.391,38.574,31.738,35.156,47.363,0.000,0.000,0.000
495402.864,16.113,41.016,28.320,28.809,39.062,0.000,0.000,0.000
495402.867,19.043,38.086,23.926,19.043,18.066,0.000,0.000,0.000
495402.871,23.438,35.645,22.949,24.414,24.414,0.000,0.000,0.000
495402.875,20.996,39.551,31.250,26.855,37.598,0.000,0.000,0.000
495402.879,7.812,36.621,32.715,18.066,23.438,0.000,0.000,0.000
495402.883,6.348,28.320,31.250,20.020,11.719,0.000,0.000,0.000
495402.887,17.090,26.367,34.180,25.879,12.695,0.000,0.000,0.000
495402.891,21.484,30.273,33.203,29.297,24.414,0.000,0.000,0.000
495402.895,15.625,37.598,36.621,28.320,34.668,0.000,0.000,0.000
495402.899,16.113,38.574,40.039,22.949,31.250,0.000,0.000,0.000
495402.903,25.879,30.762,32.227,22.949,26.367,0.000,0.000,0.000
495402.907,34.180,22.949,26.367,26.855,16.113,0.000,0.000,0.000
495402.910,27.344,27.344,32.715,27.832,20.020,0.000,0.000,0.000
495402.914,15.625,35.645,40.527,26.367,28.809,0.000,0.000,0.000
495402.918,27.832,30.762,40.039,25.879,22.461,0.000,0.000,0.000
495402.922,38.086,29.297,38.574,28.809,18.555,0.000,0.000,0.000
495402.926,25.879,34.180,36.621,22.461,22.949,0.000,0.000,0.000
495402.930,14.648,34.180,34.668,17.090,28.809,0.000,0.000,0.000
495402.934,28.320,34.180,35.645,26.855,28.809,0.000,0.000,0.000
495402.938,39.551,32.227,32.227,32.227,21.973,0.000,0.000,0.000
495402.942,37.598,35.645,32.715,32.715,37.109,0.000,0.000,0.000
495402.946,27.344,36.133,36.621,23.926,47.852,0.000,0.000,0.000
495402.949,23.926,27.344,31.738,19.043,29.785,0.000,0.000,0.000
495402.953,37.598,27.832,36.133,30.762,26.855,0.000,0.000,0.000
495402.957,39.062,38.086,41.992,33.691,25.391,0.000,0.000,0.000
495402.961,16.113,35.645,38.086,24.902,26.855,0.000,0.000,0.000
495402.965,13.672,31.738,36.133,25.391,36.133,0.000,0.000,0.000
495402.969,29.297,30.762,31.738,26.855,26.855,0.000,0.000,0.000
495402.973,39.551,35.156,29.297,31.250,27.344,0.000,0.000,0.000
495402.977,36.133,41.992,32.715,31.738,35.156,0.000,0.000,0.000
495402.981,21.484,24.902,22.949,20.996,44.922,0.000,0.000,0.000
495402.985,26.855,18.555,18.066,24.902,48.340,0.000,0.000,0.000
495402.989,32.715,30.762,23.438,33.691,27.832,0.000,0.000,0.000
495402.992,25.879,37.109,31.738,31.738,21.484,0.000,0.000,0.000
495402.996,10.742,30.273,26.367,22.949,36.621,0.000,0.000,0.000
495403.000,18.555,26.855,20.996,22.949,42.480,0.000,0.000,0.000
495403.004,27.832,26.855,28.320,32.715,26.855,0.000,0.000,0.000
495403.008,16.602,20.020,26.855,32.715,28.320,0.000,0.000,0.000
495403.012,14.648,21.484,25.391,23.438,31.250,0.000,0.000,0.000
495403.016,20.508,30.762,25.391,14.160,21.973,0.000,0.000,0.000
495403.020,25.879,34.668,22.461,18.555,25.391,0.000,0.000,0.000
495403.024,28.809,31.250,23.926,21.973,27.344,0.000,0.000,0.000
495403.028,26.367,34.180,20.508,15.625,33.203,0.000,0.000,0.000
495403.032,15.625,29.785,15.625,8.301,33.203,0.000,0.000,0.000
495403.035,19.531,21.973,16.602,14.648,30.273,0.000,0.000,0.000
495403.039,28.320,21.973,19.531,28.809,32.227,0.000,0.000,0.000
495403.043,19.043,24.902,23.438,23.926,29.785,0.000,0.000,0.000
495403.047,6.348,25.879,20.996,18.066,34.180,0.000,0.000,0.000
495403.051,13.184,24.414,19.043,16.602,39.551,0.000,0.000,0.000
495403.055,26.855,26.855,21.973,24.902,45.898,0.000,0.000,0.000
495403.059,22.949,27.344,23.438,26.367,36.621,0.000,0.000,0.000
495403.063,3.906,23.438,17.090,15.137,29.785,0.000,0.000,0.000
495403.067,10.742,24.902,17.090,12.207,40.527,0.000,0.000,0.000
495403.071,30.762,30.273,22.949,25.391,30.762,0.000,0.000,0.000
495403.074,32.715,34.180,23.926,31.250,22.461,0.000,0.000,0.000
495403.078,19.531,26.855,23.438,22.461,23.438,0.000,0.000,0.000
495403.082,25.391,20.508,24.414,22.949,32.227,0.000,0.000,0.000
495403.086,37.109,21.973,32.227,28.320,34.668,0.000,0.000,0.000
495403.090,36.133,24.902,24.414,24.902,26.855,0.000,0.000,0.000
495403.094,22.461,22.949,13.184,15.625,40.527,0.000,0.000,0.000
495403.098,9.766,20.508,18.066,11.230,37.598,0.000,0.000,0.000
495403.102,14.648,22.949,24.414,18.555,18.066,0.000,0.000,0.000
495403.106,21.973,25.879,21.484,21.484,16.113,0.000,0.000,0.000
495403.110,17.578,27.832,25.879,21.973,18.066,0.000,0.000,0.000
495403.114,7.812,31.250,33.691,22.949,26.855,0.000,0.000,0.000
495403.117,12.695,31.250,32.227,20.020,31.738,0.000,0.000,0.000
495403.121,22.949,37.598,41.016,24.902,32.227,0.000,0.000,0.000
495403.125,24.414,41.016,33.691,20.020,29.297,0.000,0.000,0.000
495403.129,9.277,33.691,28.809,11.230,30.273,0.000,0.000,0.000
495403.133,14.648,35.156,36.133,17.578,37.598,0.000,0.000,0.000
495403.137,27.832,33.691,31.738,28.320,36.621,0.000,0.000,0.000
495403.141,24.902,35.156,31.250,33.203,39.551,0.000,0.000,0.000
495403.145,4.883,32.227,34.180,25.879,40.527,0.000,0.000,0.000
495403.149,-0.488,20.996,33.203,20.508,41.016,0.000,0.000,0.000
495403.153,12.695,25.391,32.227,22.949,55.664,0.000,0.000,0.000
495403.157,15.137,28.809,38.086,25.879,48.340,0.000,0.000,0.000
495403.160,6.348,29.297,34.180,18.066,39.551,0.000,0.000,0.000
495403.164,2.441,36.133,31.250,13.184,44.922,0.000,0.000,0.000
495403.168,16.113,43.457,37.598,22.461,16.113,0.000,0.000,0.000
495403.172,20.996,40.039,34.180,24.414,10.254,0.000,0.000,0.000
495403.176,18.555,36.621,31.250,24.414,33.691,0.000,0.000,0.000
495403.180,15.625,39.062,31.738,22.461,22.461,0.000,0.000,0.000
495403.184,17.578,34.180,22.461,16.113,7.324,0.000,0.000,0.000
495403.188,21.973,22.949,21.973,25.879,27.344,0.000,0.000,0.000
495403.192,20.508,21.484,30.762,29.297,39.551,0.000,0.000,0.000
495403.196,6.836,26.367,32.715,18.066,20.508,0.000,0.000,0.000
495403.199,4.395,34.180,27.832,17.090,8.789,0.000,0.000,0.000
495403.203,27.832,41.016,27.344,29.297,31.250,0.000,0.000,0.000
495403.207,34.180,40.039,33.203,32.227,41.992,0.000,0.000,0.000
495403.211,12.207,30.762,23.438,18.555,24.902,0.000,0.000,0.000
495403.215,7.812,24.902,15.625,15.625,20.508,0.000,0.000,0.000
495403.219,19.531,25.391,20.508,26.367,24.902,0.000,0.000,0.000
495403.223,20.020,30.273,22.949,21.973,22.461,0.000,0.000,0.000
495403.227,10.254,38.086,26.367,14.648,20.996,0.000,0.000,0.000
495403.231,3.906,43.457,26.367,14.648,20.996,0.000,0.000,0.000
495403.235,15.137,33.691,21.973,15.137,24.902,0.000,0.000,0.000
495403.239,25.879,27.832,23.926,21.973,28.320,0.000,0.000,0.000
495403.242,19.531,36.621,24.414,20.996,22.949,0.000,0.000,0.000
495403.246,6.348,31.250,21.484,14.160,26.855,0.000,0.000,0.000
495403.250,15.137,22.461,24.902,19.043,46.387,0.000,0.000,0.000
495403.254,23.438,25.879,23.926,28.809,51.758,0.000,0.000,0.000
495403.258,15.625,26.855,19.531,25.391,28.809,0.000,0.000,0.000
495403.262,8.301,30.762,23.438,17.090,32.715,0.000,0.000,0.000
495403.266,17.090,33.203,26.855,13.184,40.039,0.000,0.000,0.000
495403.270,30.273,32.715,29.785,18.555,34.668,0.000,0.000,0.000
495403.274,27.344,31.738,30.762,24.902,35.156,0.000,0.000,0.000
495403.278,11.230,25.391,31.250,21.973,26.367,0.000,0.000,0.000
495403.281,8.789,24.902,35.645,15.137,31.738,0.000,0.000,0.000
495403.285,20.020,26.855,34.180,20.508,38.574,0.000,0.000,0.000
495403.289,27.344,29.785,37.598,33.203,40.039,0.000,0.000,0.000
495403.293,21.973,31.250,40.039,27.832,48.340,0.000,0.000,0.000
495403.297,15.137,29.297,39.062,24.902,38.086,0.000,0.000,0.000
495403.301,20.996,33.691,36.621,22.461,20.508,0.000,0.000,0.000
495403.305,22.949,27.832,35.156,21.973,22.949,0.000,0.000,0.000
495403.309,20.020,22.461,37.109,20.508,23.926,2.000,1.000,90.000
495403.313,15.625,29.785,35.645,18.555,29.297,0.000,0.000,0.000
495403.317,16.602,29.785,32.227,18.066,30.762,0.000,0.000,0.000
495403.321,32.227,29.785,32.715,28.320,48.828,0.000,0.000,0.000
495403.324,42.969,32.227,36.133,38.574,55.664,0.000,0.000,0.000
495403.328,31.738,31.250,29.785,25.391,26.855,0.000,0.000,0.000
495403.332,33.203,37.598,31.738,19.531,26.367,0.000,0.000,0.000
495403.336,43.945,42.969,37.598,24.902,36.621,0.000,0.000,0.000
495403.340,40.527,41.016,29.297,23.438,39.551,0.000,0.000,0.000
495403.344,26.855,32.715,20.508,13.672,51.270,0.000,0.000,0.000
495403.348,20.508,29.785,23.438,5.859,55.664,0.000,0.000,0.000
495403.352,32.227,31.738,28.809,16.602,42.480,0.000,0.000,0.000
495403.356,36.621,36.133,36.133,31.250,42.480,0.000,0.000,0.000
495403.360,22.461,36.621,36.133,23.438,34.668,0.000,0.000,0.000
495403.364,11.230,33.691,27.832,9.766,30.762,0.000,0.000,0.000
495403.367,20.508,33.203,34.668,13.672,39.551,0.000,0.000,0.000
495403.371,27.832,32.227,34.668,20.508,21.484,0.000,0.000,0.000
495403.375,18.555,35.156,23.438,15.625,14.648,0.000,0.000,0.000
495403.379,4.395,33.203,20.996,5.859,19.043,0.000,0.000,0.000
495403.383,9.766,29.297,21.973,7.812,16.602,0.000,0.000,0.000
495403.387,28.809,35.156,28.809,22.461,25.879,0.000,0.000,0.000
495403.391,23.438,32.227,28.809,18.555,25.879,0.000,0.000,0.000
495403.395,9.277,31.250,27.832,14.648,27.344,0.000,0.000,0.000
495403.399,9.277,30.762,29.785,18.555,37.598,0.000,0.000,0.000
495403.403,17.578,25.391,37.109,27.344,49.316,0.000,0.000,0.000
495403.406,22.949,28.320,39.062,31.738,33.691,0.000,0.000,0.000
495403.410,13.184,27.344,26.855,17.578,13.672,0.000,0.000,0.000
495403.414,5.859,32.715,27.832,19.531,21.973,0.000,0.000,0.000
495403.418,13.672,41.992,32.715,27.832,29.297,0.000,0.000,0.000
495403.422,16.113,37.598,28.809,24.414,31.738,0.000,0.000,0.000
495403.426,9.766,27.832,19.043,18.555,29.297,0.000,0.000,0.000
495403.430,5.371,28.320,22.461,24.414,37.598,0.000,0.000,0.000
