timestamps,TP9,AF7,AF8,TP10,Right AUX,Frequency,Contrast,Orientation
495134.593,29.785,42.480,24.414,6.348,49.805,0.000,0.000,0.000
495134.597,49.316,46.875,27.344,26.367,53.711,0.000,0.000,0.000
495134.601,45.410,45.410,29.785,24.902,45.898,0.000,0.000,0.000
495134.605,17.578,35.645,20.508,0.000,33.691,0.000,0.000,0.000
495134.609,25.879,35.156,20.020,9.277,40.039,0.000,0.000,0.000
495134.612,42.969,39.062,27.344,27.344,50.293,0.000,0.000,0.000
495134.616,35.645,37.109,29.785,21.484,40.039,0.000,0.000,0.000
495134.620,16.113,38.086,23.438,10.742,26.367,0.000,0.000,0.000
495134.624,16.602,41.504,25.879,10.254,41.992,0.000,0.000,0.000
495134.628,37.598,44.434,32.715,22.949,58.594,0.000,0.000,0.000
495134.632,45.898,44.922,34.668,32.715,40.527,0.000,0.000,0.000
495134.636,25.879,39.551,34.180,21.484,31.738,0.000,0.000,0.000
495134.640,22.949,36.621,27.344,17.090,49.316,0.000,0.000,0.000
495134.644,40.527,41.016,31.250,25.879,55.176,0.000,0.000,0.000
495134.648,41.016,41.992,36.621,26.367,46.875,0.000,0.000,0.000
495134.651,29.785,36.621,32.227,19.043,33.691,0.000,0.000,0.000
495134.655,25.879,41.504,34.180,18.066,39.551,0.000,0.000,0.000
495134.659,35.645,47.363,33.691,25.879,49.316,0.000,0.000,0.000
495134.663,48.828,44.434,32.715,33.203,47.852,0.000,0.000,0.000
495134.667,42.480,43.457,33.691,26.367,46.875,0.000,0.000,0.000
495134.671,22.949,44.922,31.250,12.695,46.875,0.000,0.000,0.000
495134.675,40.527,47.363,35.645,23.926,62.988,0.000,0.000,0.000
495134.679,55.176,46.875,39.062,36.621,72.266,0.000,0.000,0.000
495134.683,47.852,43.457,40.039,29.297,67.383,0.000,0.000,0.000
495134.687,39.551,41.992,41.016,23.926,61.523,0.000,0.000,0.000
495134.691,36.621,43.457,41.016,24.414,55.664,0.000,0.000,0.000
495134.694,38.574,41.016,40.039,30.273,48.340,0.000,0.000,0.000
495134.698,42.480,38.086,37.109,40.039,56.641,0.000,0.000,0.000
495134.702,35.156,40.039,37.598,30.762,56.641,0.000,0.000,0.000
495134.706,23.926,37.109,34.180,18.066,40.527,0.000,0.000,0.000
495134.710,37.109,36.133,37.109,26.367,49.316,0.000,0.000,0.000
495134.714,44.922,41.016,44.434,33.691,54.199,0.000,0.000,0.000
495134.718,38.086,40.039,43.945,28.809,54.688,0.000,0.000,0.000
495134.722,28.320,40.039,43.457,20.020,60.059,0.000,0.000,0.000
495134.726,20.996,37.109,33.691,9.766,36.133,0.000,0.000,0.000
495134.730,31.250,34.180,29.297,17.090,22.461,0.000,0.000,0.000
495134.734,26.855,36.133,34.668,18.555,33.691,0.000,0.000,0.000
495134.737,1.953,29.785,37.109,1.953,35.156,0.000,0.000,0.000
495134.741,-2.441,25.391,32.715,-2.930,23.438,0.000,0.000,0.000
495134.745,14.160,26.855,30.762,9.277,31.250,0.000,0.000,0.000
495134.749,15.137,23.926,29.785,12.695,27.344,0.000,0.000,0.000
495134.753,6.836,26.367,37.109,3.418,18.555,0.000,0.000,0.000
495134.757,8.789,31.738,49.805,1.953,30.762,0.000,0.000,0.000
495134.761,22.461,37.598,51.270,19.043,32.227,0.000,0.000,0.000
495134.765,34.180,38.574,40.527,32.227,38.086,0.000,0.000,0.000
495134.769,26.367,32.227,36.621,22.949,44.434,0.000,0.000,0.000
495134.773,21.484,38.086,41.504,16.602,48.340,0.000,0.000,0.000
495134.776,31.250,41.016,45.410,25.879,44.922,0.000,0.000,0.000
495134.780,29.785,29.297,40.039,26.367,36.621,0.000,0.000,0.000
495134.784,20.508,27.344,32.715,18.555,42.969,0.000,0.000,0.000
495134.788,6.348,31.250,36.133,7.324,44.922,0.000,0.000,0.000
495134.792,15.137,34.180,39.062,12.207,51.270,0.000,0.000,0.000
495134.796,41.992,42.969,46.387,35.156,66.895,0.000,0.000,0.000
495134.800,37.598,33.691,41.016,32.227,52.246,0.000,0.000,0.000
495134.804,13.672,28.320,29.297,12.207,34.180,0.000,0.000,0.000
495134.808,17.090,33.691,30.273,11.230,40.527,0.000,0.000,0.000
495134.812,37.598,37.109,41.504,29.785,56.152,0.000,0.000,0.000
495134.816,39.062,50.293,47.363,31.738,61.523,0.000,0.000,0.000
495134.819,19.531,45.898,37.598,15.625,39.062,0.000,0.000,0.000
495134.823,10.254,28.809,28.320,11.230,26.367,0.000,0.000,0.000
495134.827,22.461,36.133,30.273,23.926,37.598,0.000,0.000,0.000
495134.831,31.738,39.062,32.715,31.250,38.086,0.000,0.000,0.000
495134.835,21.484,30.273,30.273,19.531,35.645,0.000,0.000,0.000
495134.839,7.324,31.250,33.203,10.742,40.527,0.000,0.000,0.000
495134.843,19.531,33.203,30.762,16.113,41.016,0.000,0.000,0.000
495134.847,32.227,28.809,28.809,25.391,36.621,0.000,0.000,0.000
495134.851,26.367,27.344,40.527,21.973,41.504,0.000,0.000,0.000
495134.855,16.113,34.180,43.457,13.184,48.828,0.000,0.000,0.000
495134.858,16.113,38.086,38.086,10.742,49.805,0.000,0.000,0.000
495134.862,22.949,35.156,34.668,15.625,59.570,0.000,0.000,0.000
495134.866,25.879,31.738,38.086,19.043,54.199,0.000,0.000,0.000
495134.870,12.695,34.180,40.527,6.836,31.738,0.000,0.000,0.000
495134.874,-0.488,29.297,36.621,-4.883,25.391,0.000,0.000,0.000
495134.878,12.695,27.344,34.668,6.836,30.273,0.000,0.000,0.000
495134.882,21.484,31.250,33.691,19.043,35.645,0.000,0.000,0.000
495134.886,10.742,34.668,36.133,13.672,39.062,0.000,0.000,0.000
495134.890,5.371,40.039,43.457,3.418,46.875,0.000,0.000,0.000
495134.894,15.625,33.203,45.410,6.836,63.477,0.000,0.000,0.000
495134.898,33.691,34.668,42.480,20.996,76.660,0.000,0.000,0.000
495134.901,30.762,35.645,37.598,13.672,59.082,0.000,0.000,0.000
495134.905,10.254,23.926,30.762,-4.395,30.273,0.000,0.000,0.000
495134.909,14.160,23.926,31.250,1.465,32.227,0.000,0.000,0.000
495134.913,27.832,33.691,34.668,21.973,47.363,0.000,0.000,0.000
495134.917,26.367,36.621,36.133,27.344,53.711,0.000,0.000,0.000
495134.921,12.695,37.598,38.574,18.555,44.922,0.000,0.000,0.000
495134.925,13.184,36.621,35.156,12.695,27.832,0.000,0.000,0.000
495134.929,23.438,31.738,31.738,23.438,33.691,0.000,0.000,0.000
495134.933,24.902,39.062,29.785,25.879,40.527,0.000,0.000,0.000
495134.937,14.160,45.410,22.461,11.719,27.344,0.000,0.000,0.000
495134.941,14.648,38.086,20.996,11.719,28.809,0.000,0.000,0.000
495134.944,29.297,32.227,18.555,23.926,42.969,0.000,0.000,0.000
495134.948,30.273,29.785,19.043,25.879,38.574,0.000,0.000,0.000
495134.952,12.695,30.273,21.484,9.766,24.414,0.000,0.000,0.000
495134.956,9.277,36.621,19.531,1.953,30.762,0.000,0.000,0.000
495134.960,24.902,36.133,26.855,16.602,44.434,0.000,0.000,0.000
495134.964,31.738,38.086,35.156,23.926,41.016,0.000,0.000,0.000
495134.968,23.926,39.062,38.574,16.602,39.551,0.000,0.000,0.000
495134.972,12.695,34.180,41.504,10.742,49.316,0.000,0.000,0.000
495134.976,19.043,34.180,39.551,10.742,55.664,0.000,0.000,0.000
495134.980,34.180,35.645,38.086,24.414,54.199,0.000,0.000,0.000
495134.983,35.645,36.621,39.062,23.438,49.316,0.000,0.000,0.000
495134.987,16.602,35.645,38.574,6.836,62.988,0.000,0.000,0.000
495134.991,18.555,36.621,42.480,9.766,62.988,0.000,0.000,0.000
495134.995,29.785,40.527,41.016,18.066,32.227,0.000,0.000,0.000
495134.999,31.250,39.062,39.062,18.066,30.762,0.000,0.000,0.000
495135.003,19.531,39.062,33.691,10.742,41.504,0.000,0.000,0.000
495135.007,9.766,38.574,21.973,5.859,37.109,0.000,0.000,0.000
495135.011,20.508,37.109,26.367,12.207,31.738,0.000,0.000,0.000
495135.015,28.809,36.621,32.715,19.531,47.363,0.000,0.000,0.000
495135.019,17.578,39.062,27.832,12.207,49.805,0.000,0.000,0.000
495135.023,4.395,35.645,26.367,1.953,26.367,0.000,0.000,0.000
495135.026,13.672,31.250,31.250,10.254,23.438,0.000,0.000,0.000
495135.030,24.414,33.691,29.785,22.949,33.691,0.000,0.000,0.000
495135.034,23.438,40.039,27.344,18.555,40.527,0.000,0.000,0.000
495135.038,12.695,37.109,33.203,2.930,43.945,0.000,0.000,0.000
495135.042,15.625,31.738,39.551,0.000,38.574,0.000,0.000,0.000
495135.046,26.855,31.250,31.250,9.766,27.344,0.000,0.000,0.000
495135.050,29.297,34.180,27.344,16.113,19.531,0.000,0.000,0.000
495135.054,16.602,38.574,37.598,10.254,26.855,0.000,0.000,0.000
495135.058,19.531,34.180,31.250,9.277,37.598,0.000,0.000,0.000
495135.062,34.180,33.203,25.879,21.484,39.062,0.000,0.000,0.000
495135.066,29.297,36.621,26.367,20.508,33.691,0.000,0.000,0.000
495135.069,19.043,40.527,30.762,8.789,34.180,0.000,0.000,0.000
495135.073,16.113,42.969,37.109,1.953,38.574,0.000,0.000,0.000
495135.077,25.391,37.598,36.621,10.254,41.504,0.000,0.000,0.000
495135.081,33.691,29.785,29.785,20.996,44.922,0.000,0.000,0.000
495135.085,23.438,30.273,24.414,9.766,41.504,0.000,0.000,0.000
495135.089,11.719,34.180,27.344,0.488,42.969,0.000,0.000,0.000
495135.093,26.855,37.109,31.250,13.184,52.246,0.000,0.000,0.000
495135.097,32.715,30.762,30.273,25.391,51.270,0.000,0.000,0.000
495135.101,20.020,31.250,30.762,19.043,39.551,0.000,0.000,0.000
495135.105,7.812,38.574,31.250,9.277,40.527,0.000,0.000,0.000
495135.108,13.184,35.156,25.391,7.812,41.016,0.000,0.000,0.000
495135.112,28.320,42.480,23.926,21.973,40.039,0.000,0.000,0.000
495135.116,16.113,38.574,22.949,17.578,37.598,0.000,0.000,0.000
495135.120,-3.418,23.926,24.414,-1.465,32.715,0.000,0.000,0.000
495135.124,0.000,26.367,26.855,-4.883,30.273,0.000,0.000,0.000
495135.128,16.602,30.762,33.691,13.184,26.855,0.000,0.000,0.000
495135.132,31.250,36.133,43.457,29.785,38.574,0.000,0.000,0.000
495135.136,19.043,36.621,38.574,16.113,55.664,0.000,0.000,0.000
495135.140,10.254,30.273,31.738,10.254,41.504,0.000,0.000,0.000
495135.144,17.578,26.367,33.203,14.648,15.625,0.000,0.000,0.000
495135.148,25.391,35.156,34.668,19.043,18.555,0.000,0.000,0.000
495135.151,34.180,47.852,35.156,23.438,38.086,0.000,0.000,0.000
495135.155,15.625,39.062,30.762,12.695,41.992,0.000,0.000,0.000
495135.159,15.625,32.227,22.949,12.207,39.062,0.000,0.000,0.000
495135.163,35.645,41.016,21.484,28.809,47.852,0.000,0.000,0.000
495135.167,39.062,43.945,27.344,33.691,58.594,0.000,0.000,0.000
495135.171,26.855,45.410,31.250,22.949,53.223,0.000,0.000,0.000
495135.175,23.926,41.504,29.297,19.531,45.410,0.000,0.000,0.000
495135.179,35.156,41.992,25.391,29.785,42.969,0.000,0.000,0.000
495135.183,38.574,39.551,19.531,32.715,44.434,0.000,0.000,0.000
495135.187,19.531,28.320,20.508,16.602,45.898,0.000,0.000,0.000
495135.191,9.766,30.273,26.855,0.977,37.598,0.000,0.000,0.000
495135.194,25.391,29.785,26.367,12.695,35.645,0.000,0.000,0.000
495135.198,32.715,27.344,31.250,23.438,41.504,0.000,0.000,0.000
495135.202,16.113,30.762,33.203,12.695,35.645,0.000,0.000,0.000
495135.206,10.742,31.738,32.715,13.184,43.457,0.000,0.000,0.000
495135.210,18.066,29.297,39.062,17.578,41.016,0.000,0.000,0.000
495135.214,18.555,31.738,37.598,12.695,20.508,0.000,0.000,0.000
495135.218,21.973,41.504,32.227,8.789,23.438,0.000,0.000,0.000
495135.222,1.465,36.621,38.086,-7.324,23.926,0.000,0.000,0.000
495135.226,0.000,25.879,36.133,-4.883,39.062,0.000,0.000,0.000
495135.230,19.531,29.297,35.645,16.113,35.156,0.000,0.000,0.000
495135.233,9.277,31.738,33.203,4.883,4.395,0.000,0.000,0.000
495135.237,-10.742,20.996,25.391,-10.742,16.113,0.000,0.000,0.000
495135.241,-5.859,19.531,27.832,-0.977,38.574,0.000,0.000,0.000
495135.245,12.695,23.926,26.855,15.625,32.715,0.000,0.000,0.000
495135.249,24.902,27.344,35.645,27.344,24.414,0.000,0.000,0.000
495135.253,11.719,30.762,32.715,14.648,21.973,0.000,0.000,0.000
495135.257,3.418,24.414,21.973,4.395,25.879,0.000,0.000,0.000
495135.261,21.973,25.879,20.508,12.207,30.273,0.000,0.000,0.000
495135.265,37.598,35.645,15.625,19.531,30.762,0.000,0.000,0.000
495135.269,40.039,40.527,19.531,21.484,44.922,0.000,0.000,0.000
495135.273,29.785,34.180,20.508,15.625,54.688,0.000,0.000,0.000
495135.276,29.297,23.926,17.578,15.625,51.758,0.000,0.000,0.000
495135.280,35.156,28.320,17.578,23.926,43.457,0.000,0.000,0.000
495135.284,28.320,33.203,22.949,22.949,44.434,0.000,0.000,0.000
495135.288,16.113,37.109,30.762,17.090,54.688,0.000,0.000,0.000
495135.292,21.484,35.645,32.715,17.578,48.340,0.000,0.000,0.000
495135.296,31.250,29.785,33.691,20.020,43.945,0.000,0.000,0.000
495135.300,32.227,35.156,37.598,23.438,52.734,0.000,0.000,0.000
495135.304,17.090,37.109,32.227,12.207,43.457,0.000,0.000,0.000
495135.308,14.648,31.738,33.203,7.812,37.598,0.000,0.000,0.000
495135.312,26.367,30.273,36.621,17.090,33.203,0.000,0.000,0.000
495135.315,30.273,24.414,29.785,22.949,33.203,0.000,0.000,0.000
495135.319,18.555,17.578,29.785,16.113,36.621,0.000,0.000,0.000
495135.323,3.418,21.973,29.297,1.953,29.297,0.000,0.000,0.000
495135.327,13.672,26.855,29.785,10.254,29.297,0.000,0.000,0.000
495135.331,27.344,27.344,32.715,27.344,43.457,0.000,0.000,0.000
495135.335,16.602,28.320,31.250,16.113,39.062,0.000,0.000,0.000
495135.339,6.836,31.250,26.855,2.930,28.809,0.000,0.000,0.000
495135.343,19.043,33.203,25.879,10.742,38.086,0.000,0.000,0.000
495135.347,28.809,37.598,30.762,26.855,45.898,0.000,0.000,0.000
495135.351,26.855,38.574,31.250,25.879,38.574,0.000,0.000,0.000
495135.355,14.160,32.715,33.203,6.348,31.738,0.000,0.000,0.000
495135.358,14.648,32.715,42.969,4.395,31.738,0.000,0.000,0.000
495135.362,26.367,37.109,41.016,23.926,48.828,0.000,0.000,0.000
495135.366,23.926,33.691,39.551,26.367,61.523,0.000,0.000,0.000
495135.370,2.930,28.320,41.992,9.277,37.598,0.000,0.000,0.000
495135.374,0.977,28.809,37.598,4.883,17.578,0.000,0.000,0.000
495135.378,23.438,29.297,36.133,20.020,19.043,0.000,0.000,0.000
495135.382,31.738,32.715,35.645,27.832,20.996,0.000,0.000,0.000
495135.386,15.137,36.621,35.156,12.695,16.113,0.000,0.000,0.000
495135.390,16.113,42.969,38.086,13.184,25.391,0.000,0.000,0.000
495135.394,30.273,40.527,38.574,19.531,26.367,0.000,0.000,0.000
495135.398,31.250,31.738,40.527,22.949,17.578,0.000,0.000,0.000
495135.401,23.926,32.715,38.574,19.043,24.414,0.000,0.000,0.000
495135.405,11.719,31.250,35.645,5.859,27.832,0.000,0.000,0.000
495135.409,20.996,30.762,31.250,11.719,27.832,0.000,0.000,0.000
495135.413,33.203,32.715,25.879,22.461,27.344,0.000,0.000,0.000
495135.417,28.809,38.574,32.227,20.508,32.227,0.000,0.000,0.000
495135.421,20.508,41.992,34.180,12.695,39.062,0.000,0.000,0.000
495135.425,24.414,36.133,32.227,17.090,54.199,0.000,0.000,0.000
495135.429,39.551,44.434,36.621,32.227,55.176,0.000,0.000,0.000
495135.433,41.992,54.688,41.016,34.180,31.738,0.000,0.000,0.000
495135.437,18.555,40.527,32.715,14.160,21.973,0.000,0.000,0.000
495135.440,9.766,28.320,30.762,5.859,31.738,0.000,0.000,0.000
495135.444,23.926,36.621,34.180,17.090,25.879,0.000,0.000,0.000
495135.448,30.762,39.062,32.715,24.902,17.578,0.000,0.000,0.000
495135.452,21.973,32.715,36.133,20.020,26.367,0.000,0.000,0.000
495135.456,11.230,31.250,38.086,15.137,28.320,0.000,0.000,0.000
495135.460,26.367,38.574,38.574,21.484,32.715,0.000,0.000,0.000
495135.464,41.992,39.551,37.109,31.250,34.180,0.000,0.000,0.000
495135.468,38.574,39.062,39.551,35.156,41.016,0.000,0.000,0.000
495135.472,16.602,33.691,40.039,19.043,46.875,0.000,0.000,0.000
495135.476,11.230,26.855,39.062,10.254,33.691,0.000,0.000,0.000
495135.480,29.297,32.227,42.480,25.391,37.109,0.000,0.000,0.000
495135.483,37.109,38.086,44.922,29.785,48.828,0.000,0.000,0.000
495135.487,24.414,39.551,45.898,17.578,46.875,0.000,0.000,0.000
495135.491,29.785,43.945,42.969,20.996,62.988,0.000,0.000,0.000
495135.495,47.363,46.875,38.574,35.156,79.102,0.000,0.000,0.000
495135.499,44.922,35.645,42.969,35.645,53.711,0.000,0.000,0.000
495135.503,29.297,38.086,46.875,28.320,31.738,0.000,0.000,0.000
495135.507,20.020,35.156,40.527,20.996,38.086,0.000,0.000,0.000
495135.511,33.691,32.715,38.574,26.855,45.898,0.000,0.000,0.000
495135.515,48.828,41.504,49.316,39.062,48.340,0.000,0.000,0.000
495135.519,30.273,35.156,46.387,20.996,36.621,0.000,0.000,0.000
495135.523,11.230,29.785,34.668,2.930,29.297,0.000,0.000,0.000
495135.526,24.902,33.203,39.062,15.137,39.551,0.000,0.000,0.000
495135.530,40.039,36.133,43.945,28.320,45.410,0.000,0.000,0.000
495135.534,36.133,34.668,48.828,27.344,46.387,0.000,0.000,0.000
495135.538,10.742,26.855,44.434,8.301,40.039,0.000,0.000,0.000
495135.542,14.648,25.879,44.922,8.301,40.527,0.000,0.000,0.000
495135.546,30.762,30.762,48.340,26.367,55.176,0.000,0.000,0.000
495135.550,25.879,33.691,46.387,26.855,43.457,0.000,0.000,0.000
495135.554,15.625,39.551,46.875,14.160,12.695,0.000,0.000,0.000
495135.558,16.602,41.504,42.969,9.277,13.672,0.000,0.000,0.000
495135.562,34.180,42.969,45.898,21.973,29.785,0.000,0.000,0.000
495135.565,37.109,38.086,46.387,23.926,29.785,0.000,0.000,0.000
495135.569,25.391,34.180,47.363,9.766,11.719,0.000,0.000,0.000
495135.573,31.250,36.133,51.758,17.090,21.973,0.000,0.000,0.000
495135.577,42.969,44.434,52.734,30.762,39.062,0.000,0.000,0.000
495135.581,41.016,40.039,46.387,27.344,28.320,0.000,0.000,0.000
495135.585,32.715,26.367,41.016,19.531,28.809,0.000,0.000,0.000
495135.589,16.602,28.809,42.480,12.695,35.156,0.000,0.000,0.000
495135.593,26.367,39.062,47.363,22.949,46.387,0.000,0.000,0.000
495135.597,35.156,39.062,48.828,32.227,43.945,0.000,0.000,0.000
495135.601,22.461,30.762,41.504,26.855,30.273,0.000,0.000,0.000
495135.605,9.277,27.344,40.039,23.438,39.551,0.000,0.000,0.000
495135.608,10.742,28.809,50.293,21.973,38.574,0.000,0.000,0.000
495135.612,24.414,35.156,49.316,33.691,33.691,0.000,0.000,0.000
495135.616,29.297,36.133,41.504,38.086,43.457,0.000,0.000,0.000
495135.620,14.648,31.250,44.434,23.926,33.691,0.000,0.000,0.000
495135.624,11.230,29.785,43.945,18.066,25.391,0.000,0.000,0.000
495135.628,27.832,33.691,40.039,27.344,28.320,0.000,0.000,0.000
495135.632,35.645,34.668,36.621,37.109,36.621,0.000,0.000,0.000
495135.636,20.508,34.180,31.738,24.902,39.551,0.000,0.000,0.000
495135.640,17.578,44.922,33.203,15.137,38.574,0.000,0.000,0.000
495135.644,35.645,49.805,38.574,21.973,35.645,0.000,0.000,0.000
495135.648,40.039,37.598,34.668,25.879,29.297,0.000,0.000,0.000
495135.651,36.621,41.016,34.668,22.949,42.969,0.000,0.000,0.000
495135.655,20.508,45.898,36.621,7.324,47.852,0.000,0.000,0.000
495135.659,19.531,34.668,30.273,3.418,20.508,0.000,0.000,0.000
495135.663,34.180,29.785,29.297,20.508,11.230,0.000,0.000,0.000
495135.667,27.832,35.156,34.180,21.973,17.578,0.000,0.000,0.000
495135.671,11.719,41.016,42.480,9.277,24.414,0.000,0.000,0.000
495135.675,15.137,43.457,43.457,6.836,26.855,0.000,0.000,0.000
495135.679,23.438,36.621,30.273,11.719,31.738,0.000,0.000,0.000
495135.683,29.297,39.551,32.227,19.531,41.992,0.000,0.000,0.000
495135.687,18.066,42.480,36.621,9.277,31.250,0.000,0.000,0.000
495135.690,14.160,34.668,27.832,-1.465,30.273,0.000,0.000,0.000
495135.694,34.180,31.250,30.762,19.531,42.969,0.000,0.000,0.000
495135.698,33.203,27.832,30.762,27.832,35.156,0.000,0.000,0.000
495135.702,18.066,31.250,32.715,15.137,30.762,0.000,0.000,0.000
495135.706,15.137,36.621,39.062,13.184,37.598,0.000,0.000,0.000
495135.710,29.785,38.086,34.180,17.578,40.039,0.000,0.000,0.000
495135.714,38.086,42.480,33.691,22.949,50.781,0.000,0.000,0.000
495135.718,27.832,46.875,33.203,16.113,43.945,0.000,0.000,0.000
495135.722,15.137,41.504,34.668,3.418,36.133,0.000,0.000,0.000
495135.726,19.043,34.180,37.598,4.395,40.039,0.000,0.000,0.000
495135.730,23.926,32.227,35.156,16.602,32.715,0.000,0.000,0.000
495135.733,25.391,35.645,38.086,18.066,31.250,0.000,0.000,0.000
495135.737,21.484,37.598,42.480,12.207,41.016,0.000,0.000,0.000
495135.741,22.461,34.180,41.016,14.160,47.852,0.000,0.000,0.000
495135.745,30.762,32.715,40.527,18.066,53.223,0.000,0.000,0.000
495135.749,38.086,41.504,45.898,24.902,54.688,0.000,0.000,0.000
495135.753,21.484,41.504,41.016,13.672,38.574,0.000,0.000,0.000
495135.757,6.348,29.785,30.273,-2.441,35.156,0.000,0.000,0.000
495135.761,14.648,26.367,26.367,3.418,32.227,0.000,0.000,0.000
495135.765,21.484,33.691,30.762,12.695,33.203,0.000,0.000,0.000
495135.769,10.254,34.180,28.320,5.859,43.457,0.000,0.000,0.000
495135.772,3.906,34.180,28.320,1.953,45.410,0.000,0.000,0.000
495135.776,14.648,33.203,25.391,5.859,40.039,0.000,0.000,0.000
495135.780,21.973,26.855,22.461,17.578,47.852,0.000,0.000,0.000
495135.784,28.320,36.133,37.598,30.273,52.734,0.000,0.000,0.000
495135.788,14.648,37.598,37.598,17.090,37.598,0.000,0.000,0.000
495135.792,12.695,30.762,27.344,11.230,36.621,0.000,0.000,0.000
495135.796,26.367,25.391,24.902,23.438,51.270,0.000,0.000,0.000
495135.800,28.320,27.832,25.879,27.344,49.316,0.000,0.000,0.000
495135.804,14.160,34.668,30.273,14.648,32.715,0.000,0.000,0.000
495135.808,13.672,39.551,33.203,10.742,32.715,0.000,0.000,0.000
495135.812,34.668,44.922,36.133,27.344,42.969,0.000,0.000,0.000
495135.815,47.363,44.434,34.668,36.133,55.664,0.000,0.000,0.000
495135.819,33.691,39.062,29.297,18.555,54.199,0.000,0.000,0.000
495135.823,21.973,32.715,25.879,5.859,49.805,0.000,0.000,0.000
495135.827,33.691,33.691,27.832,20.508,63.965,0.000,0.000,0.000
495135.831,38.574,35.645,26.855,28.320,55.176,0.000,0.000,0.000
495135.835,26.855,35.156,23.926,19.531,43.945,0.000,0.000,0.000
495135.839,10.742,33.691,21.973,5.859,48.340,0.000,0.000,0.000
495135.843,22.461,37.109,21.484,11.719,51.758,0.000,0.000,0.000
495135.847,41.504,37.109,28.320,26.855,57.617,0.000,0.000,0.000
495135.851,33.203,35.645,35.156,14.160,45.898,0.000,0.000,0.000
495135.855,17.578,41.504,35.156,3.418,47.852,0.000,0.000,0.000
495135.858,23.926,48.340,43.457,9.277,54.199,0.000,0.000,0.000
495135.862,27.832,39.062,40.039,13.672,30.762,0.000,0.000,0.000
495135.866,34.180,33.691,35.156,28.320,34.668,0.000,0.000,0.000
495135.870,21.484,44.434,42.969,18.555,38.086,0.000,0.000,0.000
495135.874,-0.977,37.598,34.180,-6.836,13.184,0.000,0.000,0.000
495135.878,14.160,30.762,26.367,11.719,16.602,0.000,0.000,0.000
495135.882,25.391,35.156,30.762,20.996,20.508,0.000,0.000,0.000
495135.886,11.719,39.062,32.715,6.836,19.043,0.000,0.000,0.000
495135.890,3.418,38.574,30.273,1.953,26.367,0.000,0.000,0.000
495135.894,1.465,33.691,33.691,-1.953,13.672,0.000,0.000,0.000
495135.897,3.906,36.133,31.738,4.883,9.277,0.000,0.000,0.000
495135.901,6.348,37.109,26.855,8.789,30.273,0.000,0.000,0.000
495135.905,-4.395,33.691,23.438,-0.488,33.203,0.000,0.000,0.000
495135.909,10.742,34.668,22.461,5.859,30.273,0.000,0.000,0.000
495135.913,30.762,40.039,29.785,25.879,41.504,0.000,0.000,0.000
495135.917,29.297,44.922,32.227,30.762,46.875,0.000,0.000,0.000
495135.921,12.207,39.062,30.273,13.672,43.457,0.000,0.000,0.000
495135.925,8.301,31.250,25.391,5.371,45.898,0.000,0.000,0.000
495135.929,23.438,33.691,22.949,17.090,63.477,0.000,0.000,0.000
495135.933,25.879,36.133,26.855,22.949,49.316,0.000,0.000,0.000
495135.937,5.859,31.738,31.250,13.672,29.785,0.000,0.000,0.000
495135.940,-0.977,31.250,23.926,3.906,34.668,0.000,0.000,0.000
495135.944,18.555,32.227,18.555,10.254,38.086,0.000,0.000,0.000
495135.948,28.809,32.715,18.555,20.020,44.922,0.000,0.000,0.000
495135.952,19.531,32.715,17.578,11.230,40.527,0.000,0.000,0.000
495135.956,10.742,39.551,20.020,1.953,37.598,0.000,0.000,0.000
495135.960,25.879,51.758,20.020,11.230,53.223,0.000,0.000,0.000
495135.964,39.062,49.316,20.020,24.902,50.293,0.000,0.000,0.000
495135.968,24.414,39.062,15.137,14.648,25.879,0.000,0.000,0.000
495135.972,7.324,36.133,13.672,2.930,24.902,0.000,0.000,0.000
495135.976,21.484,36.621,21.484,11.230,36.621,0.000,0.000,0.000
495135.980,37.598,37.598,23.438,26.367,50.781,0.000,0.000,0.000
495135.983,32.715,37.109,23.926,26.855,58.594,0.000,0.000,0.000
495135.987,19.043,45.410,30.273,14.160,46.875,0.000,0.000,0.000
495135.991,17.578,47.363,32.227,11.719,39.551,0.000,0.000,0.000
495135.995,27.832,38.086,31.250,20.020,32.227,0.000,0.000,0.000
495135.999,30.762,37.109,34.180,25.879,30.762,0.000,0.000,0.000
495136.003,20.020,41.992,37.109,17.090,30.762,0.000,0.000,0.000
495136.007,14.160,44.434,34.180,7.324,29.297,0.000,0.000,0.000
495136.011,27.832,41.016,32.715,14.648,41.992,0.000,0.000,0.000
495136.015,39.062,40.039,38.574,24.902,40.039,0.000,0.000,0.000
495136.019,27.344,40.039,33.203,18.555,35.156,0.000,0.000,0.000
495136.022,20.996,43.945,38.574,17.578,49.805,0.000,0.000,0.000
495136.026,30.273,49.805,49.316,21.973,47.852,0.000,0.000,0.000
495136.030,28.320,44.922,41.992,20.996,34.180,0.000,0.000,0.000
495136.034,22.949,40.039,33.203,16.113,33.203,0.000,0.000,0.000
495136.038,9.277,39.551,32.227,-1.953,36.621,0.000,0.000,0.000
495136.042,13.184,43.945,31.250,-0.488,47.852,0.000,0.000,0.000
495136.046,34.180,47.852,29.297,17.090,56.641,0.000,0.000,0.000
495136.050,33.691,42.480,31.250,18.066,50.781,0.000,0.000,0.000
495136.054,9.766,37.598,28.320,1.953,43.945,0.000,0.000,0.000
495136.058,10.254,39.551,29.785,0.977,52.246,0.000,0.000,0.000
495136.062,28.809,48.340,34.180,17.578,58.594,0.000,0.000,0.000
495136.065,36.133,47.363,32.715,24.902,61.035,0.000,0.000,0.000
495136.069,26.367,34.668,36.133,18.066,68.848,0.000,0.000,0.000
495136.073,9.277,36.133,33.203,6.348,62.988,0.000,0.000,0.000
495136.077,20.996,45.410,32.227,10.742,56.152,0.000,0.000,0.000
495136.081,37.598,44.922,37.598,27.344,66.406,0.000,0.000,0.000
495136.085,30.762,45.898,40.039,22.461,70.801,0.000,0.000,0.000
495136.089,19.043,45.898,37.109,11.230,68.848,0.000,0.000,0.000
495136.093,28.320,46.387,31.250,16.602,63.965,0.000,0.000,0.000
495136.097,38.574,47.852,23.926,30.273,53.223,2.000,1.000,45.000
495136.101,35.645,49.316,31.250,32.227,50.293,0.000,0.000,0.000
495136.105,19.043,45.410,34.668,15.625,48.340,0.000,0.000,0.000
495136.108,15.625,27.832,33.203,10.254,50.293,0.000,0.000,0.000
495136.112,34.668,28.809,40.039,26.367,55.176,0.000,0.000,0.000
495136.116,41.504,41.016,43.945,32.227,58.105,0.000,0.000,0.000
495136.120,19.043,42.969,43.945,13.184,50.781,0.000,0.000,0.000
495136.124,16.113,39.062,43.457,3.418,51.270,0.000,0.000,0.000
495136.128,40.039,42.969,51.270,20.020,62.500,0.000,0.000,0.000
495136.132,42.969,49.316,52.246,30.762,57.129,0.000,0.000,0.000
495136.136,20.996,41.504,43.457,17.090,38.574,0.000,0.000,0.000
495136.140,11.230,39.062,42.480,9.766,34.668,0.000,0.000,0.000
495136.144,24.414,46.387,47.363,21.973,37.109,0.000,0.000,0.000
495136.147,32.715,40.527,45.898,34.668,40.527,0.000,0.000,0.000
495136.151,25.879,35.156,42.480,23.926,41.504,0.000,0.000,0.000
495136.155,21.973,40.527,47.852,16.113,47.852,0.000,0.000,0.000
495136.159,37.109,49.805,52.246,28.809,60.059,0.000,0.000,0.000
495136.163,43.457,49.316,44.922,30.762,55.664,0.000,0.000,0.000
495136.167,33.691,44.922,34.180,21.973,44.434,0.000,0.000,0.000
495136.171,17.090,42.969,32.227,9.766,49.316,0.000,0.000,0.000
495136.175,19.531,38.086,32.227,8.789,65.918,0.000,0.000,0.000
495136.179,29.297,43.457,37.109,19.531,46.875,0.000,0.000,0.000
495136.183,23.926,41.504,37.598,17.578,25.879,0.000,0.000,0.000
495136.187,6.348,29.297,29.297,-1.953,29.297,0.000,0.000,0.000
495136.190,2.441,30.762,32.227,-8.789,35.645,0.000,0.000,0.000
495136.194,16.113,35.645,30.762,1.953,35.645,0.000,0.000,0.000
495136.198,20.508,38.574,26.367,10.742,30.762,0.000,0.000,0.000
495136.202,9.277,40.527,23.438,2.930,35.156,0.000,0.000,0.000
495136.206,2.930,36.133,22.949,-4.395,39.062,0.000,0.000,0.000
495136.210,12.695,35.156,29.785,0.977,40.527,0.000,0.000,0.000
495136.214,20.996,39.551,36.133,11.719,52.734,0.000,0.000,0.000
495136.218,27.344,40.039,39.551,15.625,58.105,0.000,0.000,0.000
495136.222,20.996,36.133,41.016,8.301,45.410,0.000,0.000,0.000
495136.226,8.789,29.785,32.715,-1.465,17.578,0.000,0.000,0.000
495136.229,8.789,21.973,24.414,7.812,-4.883,0.000,0.000,0.000
495136.233,10.742,23.438,21.973,13.184,-2.930,0.000,0.000,0.000
495136.237,1.953,32.715,20.020,-6.348,-5.859,0.000,0.000,0.000
495136.241,5.859,40.039,16.602,-12.695,7.812,0.000,0.000,0.000
495136.245,23.926,46.387,18.555,8.301,26.855,0.000,0.000,0.000
495136.249,26.855,41.992,17.578,17.578,24.902,0.000,0.000,0.000
495136.253,14.160,32.227,18.555,5.859,36.621,0.000,0.000,0.000
495136.257,10.742,38.574,27.344,0.488,45.410,0.000,0.000,0.000
495136.261,28.320,39.062,22.949,10.742,52.734,0.000,0.000,0.000
495136.265,38.574,32.715,18.066,20.020,55.664,0.000,0.000,0.000
495136.269,24.414,37.109,23.926,11.230,50.293,0.000,0.000,0.000
495136.272,9.766,38.086,23.438,1.953,47.363,0.000,0.000,0.000
495136.276,16.602,40.527,20.508,6.348,41.016,0.000,0.000,0.000
495136.280,32.715,38.086,23.438,24.902,48.340,0.000,0.000,0.000
495136.284,25.879,31.738,21.973,20.508,56.152,0.000,0.000,0.000
495136.288,4.395,32.227,23.438,0.488,52.246,0.000,0.000,0.000
495136.292,11.230,33.691,26.855,1.465,32.715,0.000,0.000,0.000
495136.296,20.508,31.250,19.531,9.766,17.578,0.000,0.000,0.000
495136.300,21.484,30.762,19.531,15.137,21.973,0.000,0.000,0.000
495136.304,13.184,39.062,24.902,9.766,25.879,0.000,0.000,0.000
495136.308,11.719,40.039,20.508,8.301,27.344,0.000,0.000,0.000
495136.312,29.297,38.086,14.648,20.508,31.250,0.000,0.000,0.000
495136.315,30.273,45.410,14.160,20.508,22.949,0.000,0.000,0.000
495136.319,17.090,48.828,11.230,5.371,15.625,0.000,0.000,0.000
495136.323,12.695,47.363,15.625,-1.465,23.926,0.000,0.000,0.000
495136.327,24.902,47.363,27.344,10.254,25.879,0.000,0.000,0.000
495136.331,29.297,43.945,27.832,18.066,23.926,0.000,0.000,0.000
495136.335,14.648,37.109,25.391,7.812,33.691,0.000,0.000,0.000
495136.339,2.441,32.715,29.785,-2.930,35.156,0.000,0.000,0.000
495136.343,16.113,40.039,32.715,5.371,29.785,0.000,0.000,0.000
495136.347,29.785,38.086,36.133,19.531,28.320,0.000,0.000,0.000
495136.351,29.785,39.551,40.039,20.508,26.367,0.000,0.000,0.000
495136.354,17.090,44.922,31.738,14.160,37.598,0.000,0.000,0.000
495136.358,14.160,36.133,25.879,7.324,43.945,0.000,0.000,0.000
495136.362,26.855,39.551,30.762,12.695,46.875,0.000,0.000,0.000
495136.366,35.645,44.434,31.738,21.973,59.570,0.000,0.000,0.000
495136.370,21.973,42.480,29.297,10.742,53.711,0.000,0.000,0.000
495136.374,13.184,35.156,33.691,6.348,40.527,0.000,0.000,0.000
495136.378,20.996,29.785,30.273,18.066,41.016,0.000,0.000,0.000
495136.382,34.180,37.598,31.250,27.344,42.969,0.000,0.000,0.000
495136.386,25.391,37.598,29.785,14.160,42.480,0.000,0.000,0.000
495136.390,9.766,29.297,30.273,8.301,42.969,0.000,0.000,0.000
495136.394,22.949,28.320,43.945,22.461,54.199,0.000,0.000,0.000
495136.397,38.086,31.250,47.363,38.086,62.988,0.000,0.000,0.000
495136.401,33.691,36.133,48.340,35.645,51.270,0.000,0.000,0.000
495136.405,10.742,38.086,43.457,10.742,35.645,0.000,0.000,0.000
495136.409,17.578,34.180,33.691,13.184,42.969,0.000,0.000,0.000
495136.413,34.180,34.668,38.086,32.715,49.316,0.000,0.000,0.000
495136.417,32.715,40.039,39.062,28.320,43.945,0.000,0.000,0.000
495136.421,17.578,41.504,24.902,15.137,41.992,0.000,0.000,0.000
495136.425,17.090,35.645,21.973,15.625,49.805,0.000,0.000,0.000
495136.429,33.203,30.273,28.809,29.785,44.434,0.000,0.000,0.000
495136.433,36.133,33.203,32.227,38.086,38.086,0.000,0.000,0.000
495136.437,23.926,34.668,37.598,26.367,35.645,0.000,0.000,0.000
495136.440,28.320,36.621,38.086,22.461,40.039,0.000,0.000,0.000
495136.444,49.805,37.109,39.551,38.574,56.152,0.000,0.000,0.000
495136.448,50.781,36.133,39.062,38.574,52.734,0.000,0.000,0.000
495136.452,32.715,39.062,35.156,19.531,50.293,0.000,0.000,0.000
495136.456,22.461,42.969,34.668,14.648,59.570,0.000,0.000,0.000
495136.460,31.738,45.898,31.250,24.414,47.852,0.000,0.000,0.000
495136.464,38.574,45.410,31.250,34.180,29.297,0.000,0.000,0.000
495136.468,30.273,41.504,33.203,26.367,18.066,0.000,0.000,0.000
495136.472,15.625,38.574,38.574,12.695,11.719,0.000,0.000,0.000
495136.476,19.531,39.062,40.527,16.602,12.695,0.000,0.000,0.000
495136.479,24.414,33.203,30.273,20.996,7.812,0.000,0.000,0.000
495136.483,25.391,32.227,28.320,18.555,4.395,0.000,0.000,0.000
495136.487,22.949,37.109,32.715,15.137,17.090,0.000,0.000,0.000
495136.491,16.113,31.738,29.297,10.254,35.156,0.000,0.000,0.000
495136.495,22.949,30.762,27.344,14.648,32.715,0.000,0.000,0.000
495136.499,33.691,37.109,31.250,24.414,21.484,0.000,0.000,0.000
495136.503,20.508,40.527,28.809,13.672,21.973,0.000,0.000,0.000
495136.507,8.789,37.109,25.879,2.441,26.367,0.000,0.000,0.000
495136.511,20.020,31.738,28.809,10.742,27.832,0.000,0.000,0.000
495136.515,31.738,33.203,33.203,21.973,30.762,0.000,0.000,0.000
495136.519,27.832,38.086,35.645,18.555,37.598,0.000,0.000,0.000
495136.522,13.672,39.062,34.668,6.836,37.598,0.000,0.000,0.000
495136.526,18.066,34.668,37.598,10.254,30.762,0.000,0.000,0.000
495136.530,30.762,30.273,30.273,19.531,29.297,0.000,0.000,0.000
495136.534,31.250,29.297,24.414,17.090,35.645,0.000,0.000,0.000
495136.538,19.043,37.109,33.203,5.859,36.133,0.000,0.000,0.000
495136.542,14.160,37.598,32.227,1.465,23.926,0.000,0.000,0.000
495136.546,20.996,27.344,29.297,11.230,19.531,0.000,0.000,0.000
495136.550,29.297,23.926,35.645,20.996,34.180,0.000,0.000,0.000
495136.554,17.090,27.344,41.016,9.766,36.621,0.000,0.000,0.000
495136.558,8.301,30.762,37.598,-0.488,34.180,0.000,0.000,0.000
495136.562,20.508,27.832,34.180,15.137,43.945,0.000,0.000,0.000
495136.565,26.855,28.320,42.969,25.879,36.621,0.000,0.000,0.000
495136.569,15.625,31.738,38.574,10.254,16.602,0.000,0.000,0.000
495136.573,7.812,37.598,31.738,0.000,24.414,0.000,0.000,0.000
495136.577,20.996,37.109,29.297,11.230,35.645,0.000,0.000,0.000
495136.581,39.062,36.621,23.926,27.832,38.086,0.000,0.000,0.000
495136.585,30.762,35.645,25.879,18.555,29.785,0.000,0.000,0.000
495136.589,16.602,29.785,34.180,8.301,22.949,0.000,0.000,0.000
495136.593,29.785,28.320,39.551,20.020,30.762,0.000,0.000,0.000
495136.597,41.016,33.203,35.645,28.809,28.320,0.000,0.000,0.000
495136.601,34.180,33.203,38.086,26.855,28.320,0.000,0.000,0.000
495136.604,19.531,37.109,46.875,18.066,38.574,0.000,0.000,0.000
495136.608,25.391,37.598,43.945,16.602,46.875,0.000,0.000,0.000
495136.612,41.016,34.668,42.969,26.367,47.852,0.000,0.000,0.000
495136.616,45.410,44.434,44.434,30.762,51.758,0.000,0.000,0.000
495136.620,29.297,42.969,36.621,19.531,50.293,0.000,0.000,0.000
495136.624,26.855,37.598,35.156,17.090,41.504,0.000,0.000,0.000
495136.628,42.969,40.527,43.457,29.785,41.504,0.000,0.000,0.000
495136.632,47.363,47.363,46.387,39.062,42.480,0.000,0.000,0.000
495136.636,32.227,44.922,39.551,23.926,36.621,0.000,0.000,0.000
495136.640,20.508,34.180,43.457,13.184,37.109,0.000,0.000,0.000
495136.644,28.809,37.598,44.434,22.949,35.645,0.000,0.000,0.000
495136.647,34.180,40.039,33.691,28.320,26.855,0.000,0.000,0.000
495136.651,33.691,38.574,33.691,25.391,31.250,0.000,0.000,0.000
495136.655,22.461,42.480,32.715,13.672,39.062,0.000,0.000,0.000
495136.659,19.043,37.598,23.926,8.301,32.715,0.000,0.000,0.000
495136.663,28.809,37.598,16.602,20.020,27.832,0.000,0.000,0.000
495136.667,31.738,42.480,18.066,26.855,37.598,0.000,0.000,0.000
495136.671,15.137,34.668,14.160,12.695,38.574,0.000,0.000,0.000
495136.675,7.324,23.926,6.348,1.953,30.273,0.000,0.000,0.000
495136.679,22.461,25.391,12.695,17.578,33.691,0.000,0.000,0.000
495136.683,33.691,30.762,24.414,27.344,48.340,0.000,0.000,0.000
495136.686,15.137,29.297,24.902,12.695,45.410,0.000,0.000,0.000
495136.690,-3.418,23.438,17.578,-6.836,34.668,0.000,0.000,0.000
495136.694,12.695,30.273,16.113,0.000,39.551,0.000,0.000,0.000
495136.698,23.926,40.039,20.020,12.207,41.504,0.000,0.000,0.000
495136.702,9.277,38.574,21.973,-1.465,36.621,0.000,0.000,0.000
495136.706,-6.348,26.367,16.602,-18.066,15.625,0.000,0.000,0.000
495136.710,8.301,22.949,11.719,-8.301,14.648,0.000,0.000,0.000
495136.714,26.855,32.715,12.695,13.672,31.738,0.000,0.000,0.000
495136.718,22.461,33.203,12.695,10.742,25.879,0.000,0.000,0.000
495136.722,6.836,28.809,12.695,-3.418,22.461,0.000,0.000,0.000
495136.726,9.277,30.762,12.207,-5.859,16.113,0.000,0.000,0.000
495136.729,24.414,38.086,16.602,12.695,17.090,0.000,0.000,0.000
495136.733,26.367,41.016,25.391,19.531,25.879,0.000,0.000,0.000
495136.737,14.160,41.504,32.715,3.906,18.555,0.000,0.000,0.000
495136.741,14.648,37.598,34.180,5.859,29.297,0.000,0.000,0.000
495136.745,32.227,40.039,35.156,26.855,47.363,0.000,0.000,0.000
495136.749,38.086,41.992,34.180,32.715,36.133,0.000,0.000,0.000
495136.753,20.996,32.715,34.668,20.996,35.645,0.000,0.000,0.000
495136.757,18.066,35.156,41.504,17.090,49.805,0.000,0.000,0.000
495136.761,29.785,35.645,39.062,20.508,44.922,0.000,0.000,0.000
495136.765,31.250,30.762,33.203,21.484,34.180,0.000,0.000,0.000
495136.769,24.902,36.621,36.621,20.020,35.645,0.000,0.000,0.000
495136.772,14.648,40.527,41.504,18.555,41.992,0.000,0.000,0.000
495136.776,15.625,31.250,40.527,17.578,39.551,0.000,0.000,0.000
495136.780,20.508,28.809,38.574,19.043,34.180,0.000,0.000,0.000
495136.784,21.973,38.086,43.945,20.020,32.715,0.000,0.000,0.000
495136.788,12.695,38.086,45.898,7.812,31.250,0.000,0.000,0.000
495136.792,15.625,36.133,44.434,3.418,34.180,0.000,0.000,0.000
495136.796,25.879,39.062,41.992,12.207,31.738,0.000,0.000,0.000
495136.800,22.949,39.062,40.527,11.719,26.367,0.000,0.000,0.000
495136.804,10.742,38.086,37.598,-0.977,32.227,0.000,0.000,0.000
495136.808,8.301,40.527,37.598,-4.395,40.039,0.000,0.000,0.000
495136.811,20.508,49.316,42.480,10.742,35.645,0.000,0.000,0.000
495136.815,26.367,47.363,44.922,20.996,37.598,0.000,0.000,0.000
495136.819,18.066,34.180,38.574,12.695,39.062,0.000,0.000,0.000
495136.823,8.301,33.691,36.133,-2.930,29.297,0.000,0.000,0.000
495136.827,15.625,40.039,42.480,2.441,32.227,0.000,0.000,0.000
495136.831,26.367,40.527,35.156,15.137,40.039,0.000,0.000,0.000
495136.835,21.973,37.598,28.320,10.742,38.574,0.000,0.000,0.000
495136.839,9.277,39.551,41.016,2.930,44.434,0.000,0.000,0.000
495136.843,17.090,41.992,44.922,2.930,37.598,0.000,0.000,0.000
495136.847,32.227,42.480,43.457,17.578,26.855,0.000,0.000,0.000
495136.851,29.297,50.781,43.457,19.043,25.879,0.000,0.000,0.000
495136.854,7.324,45.898,39.551,0.977,19.531,0.000,0.000,0.000
495136.858,3.906,30.762,40.039,-6.836,17.090,0.000,0.000,0.000
495136.862,21.973,30.273,40.039,5.859,25.391,0.000,0.000,0.000
495136.866,22.461,34.180,33.203,7.324,29.297,0.000,0.000,0.000
495136.870,6.836,32.227,25.391,-10.254,24.414,0.000,0.000,0.000
495136.874,4.883,34.668,23.438,-15.137,22.461,0.000,0.000,0.000
495136.878,21.973,30.762,25.879,0.488,29.297,0.000,0.000,0.000
495136.882,23.926,29.785,30.762,11.230,33.203,0.000,0.000,0.000
495136.886,7.812,30.762,24.414,-1.465,31.738,0.000,0.000,0.000
495136.890,1.953,26.855,18.555,-7.812,40.527,0.000,0.000,0.000
495136.894,16.602,32.227,23.438,3.418,41.992,0.000,0.000,0.000
495136.897,23.438,37.109,23.926,15.625,39.062,0.000,0.000,0.000
495136.901,16.113,32.715,19.531,10.254,41.504,0.000,0.000,0.000
495136.905,4.883,31.250,17.578,0.488,42.480,0.000,0.000,0.000
495136.909,10.742,35.156,19.043,8.789,39.551,0.000,0.000,0.000
495136.913,17.578,31.250,19.043,17.578,27.344,0.000,0.000,0.000
495136.917,17.578,27.344,15.625,11.230,18.555,0.000,0.000,0.000
495136.921,9.277,32.227,15.137,3.906,24.414,0.000,0.000,0.000
495136.925,5.371,27.832,21.484,6.348,36.133,0.000,0.000,0.000
495136.929,20.020,29.785,23.438,15.625,38.574,0.000,0.000,0.000
495136.933,31.250,36.621,25.391,25.391,41.992,0.000,0.000,0.000
495136.936,21.973,35.156,29.785,19.043,49.316,0.000,0.000,0.000
495136.940,12.695,31.738,25.391,6.348,61.523,0.000,0.000,0.000
495136.944,27.344,34.180,23.438,13.672,60.059,0.000,0.000,0.000
495136.948,33.203,39.551,24.414,25.391,39.551,0.000,0.000,0.000
495136.952,16.602,30.762,20.020,19.531,29.785,0.000,0.000,0.000
495136.956,5.859,20.996,20.996,6.836,37.598,0.000,0.000,0.000
495136.960,14.648,25.879,25.879,6.348,69.824,0.000,0.000,0.000
495136.964,24.414,33.203,31.250,20.508,62.988,0.000,0.000,0.000
495136.968,21.973,30.762,34.180,23.926,22.461,0.000,0.000,0.000
495136.972,10.742,27.344,28.320,15.137,31.250,0.000,0.000,0.000
495136.976,15.625,36.621,28.320,11.719,36.621,0.000,0.000,0.000
495136.979,26.367,43.457,33.203,17.578,28.809,0.000,0.000,0.000
495136.983,20.020,37.598,32.715,15.137,29.785,0.000,0.000,0.000
495136.987,3.418,38.086,32.715,2.441,33.691,0.000,0.000,0.000
495136.991,1.465,43.457,37.598,-7.812,31.738,0.000,0.000,0.000
495136.995,19.531,42.969,39.551,5.371,31.738,0.000,0.000,0.000
495136.999,29.297,40.039,41.016,16.113,34.180,0.000,0.000,0.000
495137.003,21.973,42.480,48.340,9.277,39.062,0.000,0.000,0.000
495137.007,17.090,42.480,56.152,5.371,45.898,0.000,0.000,0.000
495137.011,29.785,41.992,52.246,13.184,43.457,0.000,0.000,0.000
495137.015,49.805,46.387,53.711,30.273,47.852,0.000,0.000,0.000
495137.019,38.574,44.922,54.688,20.508,44.922,0.000,0.000,0.000
495137.022,16.113,44.434,49.316,8.301,44.922,0.000,0.000,0.000
495137.026,29.297,46.387,56.641,16.602,49.805,0.000,0.000,0.000
495137.030,45.410,42.480,59.082,22.461,43.457,0.000,0.000,0.000
495137.034,41.016,42.480,55.176,20.020,41.016,0.000,0.000,0.000
495137.038,20.508,42.969,56.641,9.766,43.945,0.000,0.000,0.000
495137.042,23.438,43.945,55.176,12.695,46.875,0.000,0.000,0.000
495137.046,41.016,46.875,54.199,28.809,50.293,0.000,0.000,0.000
495137.050,45.898,45.410,58.594,32.227,57.129,0.000,0.000,0.000
495137.054,27.832,40.039,61.035,17.578,56.641,0.000,0.000,0.000
495137.058,20.996,36.133,54.688,15.137,55.176,0.000,0.000,0.000
495137.061,40.527,39.062,52.734,28.809,57.129,0.000,0.000,0.000
495137.065,37.109,37.109,49.316,28.809,45.898,0.000,0.000,0.000
495137.069,24.902,36.621,44.922,20.996,49.316,0.000,0.000,0.000
495137.073,23.926,42.480,49.316,19.531,42.480,0.000,0.000,0.000
495137.077,34.180,41.016,49.805,20.508,27.344,0.000,0.000,0.000
495137.081,38.086,36.621,47.852,23.926,37.598,0.000,0.000,0.000
495137.085,28.320,41.992,51.758,24.414,44.434,0.000,0.000,0.000
495137.089,13.184,41.016,52.734,14.160,42.480,0.000,0.000,0.000
495137.093,14.160,31.738,46.387,9.766,40.039,0.000,0.000,0.000
495137.097,28.320,29.785,42.969,22.949,34.180,0.000,0.000,0.000
495137.101,24.414,32.227,39.062,25.391,26.855,0.000,0.000,0.000
495137.104,12.207,32.715,35.156,16.602,38.086,0.000,0.000,0.000
495137.108,16.602,32.227,41.016,14.648,49.805,0.000,0.000,0.000
495137.112,20.996,37.598,42.969,20.996,38.574,0.000,0.000,0.000
495137.116,25.879,38.574,42.969,29.297,32.227,0.000,0.000,0.000
495137.120,14.160,38.086,49.805,15.625,34.180,0.000,0.000,0.000
495137.124,4.395,38.574,46.387,1.465,31.738,0.000,0.000,0.000
495137.128,26.367,48.340,49.316,17.578,37.598,0.000,0.000,0.000
495137.132,38.086,50.781,56.152,33.203,42.969,0.000,0.000,0.000
495137.136,25.879,40.527,49.316,20.996,43.457,0.000,0.000,0.000
495137.140,19.531,40.527,38.574,12.695,45.410,0.000,0.000,0.000
495137.143,26.855,40.527,37.598,20.996,49.316,0.000,0.000,0.000
495137.147,35.156,33.203,40.039,29.785,49.805,0.000,0.000,0.000
495137.151,33.691,34.668,41.992,27.832,51.758,0.000,0.000,0.000
495137.155,20.020,42.969,40.527,9.766,45.898,0.000,0.000,0.000
495137.159,23.926,43.945,41.992,9.766,49.805,0.000,0.000,0.000
495137.163,38.574,42.480,51.758,25.879,63.965,0.000,0.000,0.000
495137.167,40.527,44.434,54.199,27.344,59.082,0.000,0.000,0.000
495137.171,23.438,40.527,45.410,13.184,36.133,0.000,0.000,0.000
495137.175,23.438,43.457,46.387,12.207,34.180,0.000,0.000,0.000
495137.179,38.086,47.363,48.828,27.344,49.316,0.000,0.000,0.000
495137.183,31.250,39.062,41.016,26.855,49.805,0.000,0.000,0.000
495137.186,17.578,34.180,36.133,15.625,41.992,0.000,0.000,0.000
495137.190,17.578,36.621,39.551,14.160,52.734,0.000,0.000,0.000
495137.194,28.809,41.504,36.133,21.484,48.828,0.000,0.000,0.000
495137.198,38.086,39.062,38.574,28.809,35.156,0.000,0.000,0.000
495137.202,29.785,41.016,41.504,20.508,36.621,0.000,0.000,0.000
495137.206,22.461,49.316,39.551,14.160,43.945,0.000,0.000,0.000
495137.210,31.250,44.434,37.109,20.508,43.945,0.000,0.000,0.000
495137.214,40.039,41.016,36.621,25.879,36.133,0.000,0.000,0.000
495137.218,39.062,45.898,45.898,29.297,45.410,0.000,0.000,0.000
495137.222,20.020,43.457,42.480,10.742,37.109,0.000,0.000,0.000
495137.226,20.996,38.574,35.156,1.465,29.785,0.000,0.000,0.000
495137.229,31.250,36.621,37.598,19.043,35.156,0.000,0.000,0.000
495137.233,21.484,33.203,30.273,16.113,28.809,0.000,0.000,0.000
495137.237,11.230,30.273,26.855,6.836,35.645,0.000,0.000,0.000
495137.241,15.137,27.832,31.250,8.789,35.156,0.000,0.000,0.000
495137.245,20.996,29.785,30.762,13.672,28.320,0.000,0.000,0.000
495137.249,23.438,34.668,31.250,18.066,31.250,0.000,0.000,0.000
495137.253,16.113,35.156,36.133,13.184,38.574,0.000,0.000,0.000
495137.257,13.184,38.574,40.527,10.742,45.898,0.000,0.000,0.000
495137.261,24.414,44.922,41.992,18.555,43.945,0.000,0.000,0.000
495137.265,31.738,44.922,41.992,24.414,52.246,0.000,0.000,0.000
495137.268,25.391,48.340,39.551,17.578,67.871,0.000,0.000,0.000
495137.272,5.371,39.551,36.133,0.488,45.898,0.000,0.000,0.000
495137.276,12.695,32.227,34.180,-1.953,18.066,0.000,0.000,0.000
495137.280,29.785,38.574,36.621,12.695,21.973,0.000,0.000,0.000
495137.284,27.832,40.039,38.086,15.625,28.809,0.000,0.000,0.000
495137.288,16.602,39.551,40.527,3.418,33.691,0.000,0.000,0.000
495137.292,18.555,41.016,47.363,2.441,45.410,0.000,0.000,0.000
495137.296,26.367,39.062,42.969,17.090,49.805,0.000,0.000,0.000
495137.300,31.250,43.457,39.551,26.855,42.969,0.000,0.000,0.000
495137.304,18.555,46.387,38.574,10.254,38.574,0.000,0.000,0.000
495137.308,7.324,41.992,26.367,-4.395,33.691,0.000,0.000,0.000
495137.311,21.973,44.922,23.438,8.301,31.250,0.000,0.000,0.000
495137.315,28.320,43.945,27.832,15.137,29.297,0.000,0.000,0.000
495137.319,12.695,41.016,32.715,4.395,29.297,0.000,0.000,0.000
495137.323,6.348,41.504,35.156,-1.465,33.691,0.000,0.000,0.000
495137.327,21.484,40.039,29.785,8.301,36.621,0.000,0.000,0.000
495137.331,34.180,37.598,27.344,18.066,37.598,0.000,0.000,0.000
495137.335,29.785,41.992,32.227,17.090,47.852,0.000,0.000,0.000
495137.339,14.648,51.758,41.504,14.648,60.547,0.000,0.000,0.000
495137.343,17.090,49.805,35.645,15.137,54.199,0.000,0.000,0.000
495137.347,28.320,44.434,30.762,27.832,53.223,0.000,0.000,0.000
495137.351,20.996,42.480,32.715,21.484,39.062,0.000,0.000,0.000
495137.354,5.371,43.945,29.785,10.254,41.992,0.000,0.000,0.000
495137.358,16.113,51.270,28.809,18.066,61.523,0.000,0.000,0.000
495137.362,30.273,45.898,28.809,27.344,48.828,0.000,0.000,0.000
495137.366,29.785,40.527,32.227,35.156,30.762,0.000,0.000,0.000
495137.370,22.949,48.340,33.203,26.855,30.273,0.000,0.000,0.000
495137.374,18.555,51.758,35.156,20.020,38.574,0.000,0.000,0.000
495137.378,35.645,50.293,41.504,35.156,41.016,0.000,0.000,0.000
495137.382,42.969,44.434,39.062,38.086,36.621,0.000,0.000,0.000
495137.386,20.508,44.434,30.762,21.484,29.785,0.000,0.000,0.000
495137.390,10.742,41.016,27.832,11.230,44.922,0.000,0.000,0.000
495137.393,18.555,31.250,25.879,10.742,43.457,0.000,0.000,0.000
495137.397,15.625,37.109,27.344,12.207,20.020,0.000,0.000,0.000
495137.401,14.160,43.457,33.203,10.254,20.996,0.000,0.000,0.000
495137.405,3.418,40.527,36.133,1.465,23.926,0.000,0.000,0.000
495137.409,5.371,34.180,29.297,-1.953,25.391,0.000,0.000,0.000
495137.413,19.531,30.273,29.785,8.789,27.344,0.000,0.000,0.000
495137.417,22.461,32.227,41.992,17.578,31.738,0.000,0.000,0.000
495137.421,8.301,31.250,41.992,7.324,32.227,0.000,0.000,0.000
495137.425,7.324,29.785,41.016,0.488,22.949,0.000,0.000,0.000
495137.429,19.531,35.156,45.410,8.301,23.438,0.000,0.000,0.000
495137.433,24.414,37.109,46.875,16.602,34.180,0.000,0.000,0.000
495137.436,13.184,30.762,41.504,5.371,31.250,0.000,0.000,0.000
495137.440,0.977,29.785,34.180,-11.230,20.996,0.000,0.000,0.000
495137.444,12.207,31.738,32.227,2.441,25.879,0.000,0.000,0.000
495137.448,21.973,34.668,39.062,18.066,34.668,0.000,0.000,0.000
495137.452,17.578,38.086,42.480,12.207,35.645,0.000,0.000,0.000
495137.456,6.348,36.621,40.039,-4.395,26.367,0.000,0.000,0.000
495137.460,15.625,39.062,37.109,-2.441,23.926,0.000,0.000,0.000
495137.464,35.645,43.945,36.133,17.578,33.203,0.000,0.000,0.000
495137.468,32.715,44.922,35.156,20.508,38.086,0.000,0.000,0.000
495137.472,13.672,37.109,36.133,8.789,38.086,0.000,0.000,0.000
495137.476,19.043,35.156,39.062,5.371,38.086,0.000,0.000,0.000
495137.479,32.715,33.691,35.645,12.695,39.062,0.000,0.000,0.000
495137.483,36.621,40.039,32.715,18.555,38.574,0.000,0.000,0.000
495137.487,20.020,43.945,33.691,3.418,27.832,0.000,0.000,0.000
495137.491,10.742,34.180,24.902,-2.930,25.391,0.000,0.000,0.000
495137.495,26.855,30.762,22.949,15.625,34.180,0.000,0.000,0.000
495137.499,27.832,31.738,27.344,18.555,28.809,0.000,0.000,0.000
495137.503,14.160,33.203,22.949,5.859,27.832,0.000,0.000,0.000
495137.507,17.578,41.992,23.926,7.812,42.969,0.000,0.000,0.000
495137.511,26.855,40.039,30.762,17.578,35.156,0.000,0.000,0.000
495137.515,26.367,28.320,30.273,20.020,20.996,0.000,0.000,0.000
495137.518,23.438,30.273,29.297,16.602,25.879,0.000,0.000,0.000
495137.522,16.113,32.227,34.180,11.230,33.203,0.000,0.000,0.000
495137.526,24.902,34.668,36.133,13.184,33.691,0.000,0.000,0.000
495137.530,28.809,36.133,37.109,19.531,20.508,0.000,0.000,0.000
495137.534,27.344,37.598,39.551,23.438,19.043,0.000,0.000,0.000
495137.538,12.695,36.621,41.504,12.207,26.855,0.000,0.000,0.000
495137.542,16.602,39.551,40.039,9.766,31.250,0.000,0.000,0.000
495137.546,29.785,42.480,35.156,23.438,31.250,0.000,0.000,0.000
495137.550,28.320,37.109,38.574,28.809,36.133,0.000,0.000,0.000
495137.554,18.555,31.738,43.945,17.578,28.809,0.000,0.000,0.000
495137.558,9.766,33.203,37.109,3.906,14.648,0.000,0.000,0.000
495137.561,19.531,39.062,36.133,13.184,15.625,0.000,0.000,0.000
495137.565,28.320,35.156,34.668,26.855,24.414,0.000,0.000,0.000
495137.569,20.020,31.250,29.785,18.066,34.668,0.000,0.000,0.000
495137.573,9.277,35.156,27.832,5.859,26.855,0.000,0.000,0.000
495137.577,15.625,36.133,24.414,7.324,25.879,0.000,0.000,0.000
495137.581,23.438,33.691,23.926,16.113,52.734,0.000,0.000,0.000
495137.585,24.902,43.457,31.250,13.672,48.340,0.000,0.000,0.000
495137.589,10.742,43.457,34.668,-0.977,10.254,0.000,0.000,0.000
495137.593,12.207,39.062,37.598,-2.441,10.742,0.000,0.000,0.000
495137.597,29.297,40.039,35.156,12.695,26.367,0.000,0.000,0.000
495137.600,26.855,36.133,24.414,16.113,17.090,0.000,0.000,0.000
495137.604,16.113,39.551,31.250,6.348,23.438,0.000,0.000,0.000
495137.608,20.020,43.457,37.109,4.883,27.344,0.000,0.000,0.000
495137.612,36.621,36.133,33.203,18.066,21.484,0.000,0.000,0.000
495137.616,46.387,37.598,39.062,27.832,32.715,4.000,1.000,45.000
495137.620,24.902,38.574,40.039,5.371,26.367,0.000,0.000,0.000
495137.624,15.625,35.645,36.133,-4.883,25.879,0.000,0.000,0.000
495137.628,32.715,41.992,35.645,13.672,32.227,0.000,0.000,0.000
495137.632,31.250,41.992,39.062,20.508,20.020,0.000,0.000,0.000
495137.636,19.531,38.086,41.016,11.719,16.113,0.000,0.000,0.000
495137.640,13.672,37.598,36.621,3.418,20.020,0.000,0.000,0.000
495137.643,26.367,45.898,40.527,12.695,33.203,0.000,0.000,0.000
495137.647,34.668,45.898,40.527,24.414,38.574,0.000,0.000,0.000
495137.651,24.414,38.574,36.621,19.043,35.156,0.000,0.000,0.000
495137.655,11.719,41.992,44.434,10.742,43.945,0.000,0.000,0.000
495137.659,17.090,34.668,38.086,12.207,36.621,0.000,0.000,0.000
495137.663,28.809,26.855,32.715,24.414,30.762,0.000,0.000,0.000
495137.667,23.926,30.273,34.180,26.367,32.227,0.000,0.000,0.000
495137.671,10.742,32.715,37.109,18.066,30.762,0.000,0.000,0.000
495137.675,15.625,32.715,42.480,25.879,45.410,0.000,0.000,0.000
495137.679,24.902,33.691,38.574,35.645,46.387,0.000,0.000,0.000
495137.683,27.832,34.668,30.273,37.109,42.969,0.000,0.000,0.000
495137.686,24.414,40.527,31.738,34.668,54.688,0.000,0.000,0.000
495137.690,14.160,47.363,33.691,23.438,44.434,0.000,0.000,0.000
495137.694,16.602,38.574,32.715,23.926,29.297,0.000,0.000,0.000
495137.698,23.926,28.320,31.250,30.273,37.598,0.000,0.000,0.000
495137.702,20.996,32.227,39.062,27.832,33.691,0.000,0.000,0.000
495137.706,10.742,37.109,50.781,22.949,28.809,0.000,0.000,0.000
495137.710,20.996,31.250,45.898,25.879,31.738,0.000,0.000,0.000
495137.714,26.367,26.367,39.062,28.809,36.621,0.000,0.000,0.000
495137.718,28.320,36.133,43.457,33.203,64.453,0.000,0.000,0.000
495137.722,24.414,45.410,44.434,28.809,62.500,0.000,0.000,0.000
495137.725,14.648,38.086,38.086,14.160,29.297,0.000,0.000,0.000
495137.729,27.832,37.109,39.062,24.414,34.668,0.000,0.000,0.000
495137.733,35.156,41.016,43.945,28.809,45.410,0.000,0.000,0.000
495137.737,12.207,33.691,42.480,10.742,41.992,0.000,0.000,0.000
495137.741,2.441,31.738,42.480,5.859,45.898,0.000,0.000,0.000
495137.745,19.043,33.691,42.969,20.508,52.246,0.000,0.000,0.000
495137.749,20.020,34.180,39.551,21.973,57.617,0.000,0.000,0.000
495137.753,14.648,31.738,43.457,15.625,56.641,0.000,0.000,0.000
495137.757,12.207,36.133,46.875,13.184,37.598,0.000,0.000,0.000
495137.761,18.066,41.016,34.668,13.184,20.508,0.000,0.000,0.000
495137.765,31.738,35.156,24.902,27.344,24.414,0.000,0.000,0.000
495137.768,23.438,34.668,27.344,21.973,22.949,0.000,0.000,0.000
495137.772,4.395,36.621,30.273,4.395,17.090,0.000,0.000,0.000
495137.776,15.625,31.738,30.762,10.742,27.832,0.000,0.000,0.000
495137.780,33.691,33.691,27.832,24.414,37.598,0.000,0.000,0.000
495137.784,33.203,41.016,30.762,26.855,46.875,0.000,0.000,0.000
495137.788,18.066,37.109,33.203,13.672,45.898,0.000,0.000,0.000
495137.792,18.555,31.738,27.832,8.789,35.156,0.000,0.000,0.000
495137.796,40.039,39.062,25.879,28.320,46.387,0.000,0.000,0.000
495137.800,51.270,39.062,26.855,39.551,59.570,0.000,0.000,0.000
495137.804,26.855,28.809,20.996,18.555,46.875,0.000,0.000,0.000
495137.808,19.043,27.832,18.555,12.695,53.223,0.000,0.000,0.000
495137.811,39.062,21.484,15.625,22.949,55.176,0.000,0.000,0.000
495137.815,42.480,24.414,15.137,20.996,39.551,0.000,0.000,0.000
495137.819,27.832,28.809,17.090,9.766,38.086,0.000,0.000,0.000
495137.823,17.090,30.273,19.043,2.930,24.902,0.000,0.000,0.000
495137.827,28.320,40.527,23.438,9.277,22.949,0.000,0.000,0.000
495137.831,31.250,33.203,20.996,14.160,16.602,0.000,0.000,0.000
495137.835,24.414,29.297,15.625,9.766,8.789,0.000,0.000,0.000
495137.839,14.160,32.227,13.672,-0.488,16.602,0.000,0.000,0.000
495137.843,21.484,30.273,19.043,1.465,28.320,0.000,0.000,0.000
495137.847,36.621,30.762,25.391,17.578,32.715,0.000,0.000,0.000
495137.850,34.668,32.227,25.879,18.555,24.414,0.000,0.000,0.000
495137.854,20.996,33.691,30.273,11.230,32.715,0.000,0.000,0.000
495137.858,17.578,33.203,26.367,10.742,35.645,0.000,0.000,0.000
495137.862,27.832,31.250,20.996,19.531,29.785,0.000,0.000,0.000
495137.866,35.156,38.574,24.414,25.879,32.715,0.000,0.000,0.000
495137.870,21.484,44.922,25.391,15.137,36.621,0.000,0.000,0.000
495137.874,2.930,33.203,22.461,-1.465,26.367,0.000,0.000,0.000
495137.878,13.184,27.832,22.461,6.348,27.832,0.000,0.000,0.000
495137.882,31.250,31.250,28.809,23.438,38.574,0.000,0.000,0.000
495137.886,26.367,28.809,33.203,19.043,41.504,0.000,0.000,0.000
495137.890,13.672,30.762,30.762,9.766,41.016,0.000,0.000,0.000
495137.893,26.367,40.039,32.227,20.508,43.457,0.000,0.000,0.000
495137.897,38.574,42.480,36.621,31.738,51.758,0.000,0.000,0.000
495137.901,35.156,36.133,35.645,29.785,60.547,0.000,0.000,0.000
495137.905,19.043,41.016,31.250,14.160,52.734,0.000,0.000,0.000
495137.909,22.949,49.316,28.320,12.695,34.668,0.000,0.000,0.000
495137.913,36.621,42.480,28.320,25.879,33.203,0.000,0.000,0.000
495137.917,33.203,36.133,25.391,24.902,35.156,0.000,0.000,0.000
495137.921,18.066,35.645,24.414,10.742,31.738,0.000,0.000,0.000
495137.925,20.996,41.016,29.785,12.207,42.480,0.000,0.000,0.000
495137.929,36.621,47.852,31.738,24.902,54.688,0.000,0.000,0.000
495137.933,35.156,41.016,26.367,27.832,39.062,0.000,0.000,0.000
495137.936,23.438,41.016,32.227,14.160,34.180,0.000,0.000,0.000
495137.940,18.066,44.434,32.715,0.977,42.480,0.000,0.000,0.000
495137.944,30.273,38.086,31.738,16.602,52.246,0.000,0.000,0.000
495137.948,38.574,44.922,42.969,33.203,63.477,0.000,0.000,0.000
495137.952,22.949,48.340,40.527,19.531,51.270,0.000,0.000,0.000
495137.956,12.207,41.992,41.504,11.719,46.875,0.000,0.000,0.000
495137.960,21.484,36.621,38.086,19.043,43.457,0.000,0.000,0.000
495137.964,29.297,36.133,30.762,30.273,39.062,0.000,0.000,0.000
495137.968,27.344,39.062,34.668,26.855,41.504,0.000,0.000,0.000
495137.972,16.602,40.527,33.203,13.184,29.785,0.000,0.000,0.000
495137.975,17.090,40.039,30.762,9.277,28.809,0.000,0.000,0.000
495137.979,24.902,38.086,31.250,19.043,26.367,0.000,0.000,0.000
495137.983,31.250,40.527,30.762,24.902,19.531,0.000,0.000,0.000
495137.987,23.926,46.875,30.762,16.602,29.785,0.000,0.000,0.000
495137.991,17.578,46.387,30.273,11.719,35.156,0.000,0.000,0.000
495137.995,22.949,30.762,24.902,11.719,25.391,0.000,0.000,0.000
495137.999,27.832,29.297,21.484,16.602,20.508,0.000,0.000,0.000
495138.003,19.531,33.691,26.367,12.207,27.344,0.000,0.000,0.000
495138.007,14.648,38.574,32.715,6.348,37.598,0.000,0.000,0.000
495138.011,21.484,44.434,31.250,10.254,36.133,0.000,0.000,0.000
495138.015,24.902,38.086,28.320,16.602,21.484,0.000,0.000,0.000
495138.018,24.414,36.133,34.180,21.973,23.926,0.000,0.000,0.000
495138.022,12.695,39.551,31.250,14.160,29.785,0.000,0.000,0.000
495138.026,12.695,36.133,22.949,14.648,22.949,0.000,0.000,0.000
495138.030,24.414,34.180,20.508,26.855,21.484,0.000,0.000,0.000
495138.034,22.461,32.227,21.973,24.414,25.391,0.000,0.000,0.000
495138.038,6.836,30.273,28.809,12.695,37.109,0.000,0.000,0.000
495138.042,0.488,30.273,24.414,5.371,38.086,0.000,0.000,0.000
495138.046,11.230,30.273,17.578,8.301,28.320,0.000,0.000,0.000
495138.050,23.438,31.250,22.461,14.648,25.391,0.000,0.000,0.000
495138.054,10.254,36.621,25.879,6.836,20.996,0.000,0.000,0.000
495138.057,-0.488,36.621,22.949,-2.930,27.832,0.000,0.000,0.000
495138.061,17.090,28.809,25.879,11.230,43.945,0.000,0.000,0.000
495138.065,32.227,37.109,32.715,28.809,49.316,0.000,0.000,0.000
495138.069,20.508,41.992,29.785,17.578,44.922,0.000,0.000,0.000
495138.073,3.418,31.738,23.926,1.953,43.945,0.000,0.000,0.000
495138.077,20.508,30.273,28.809,13.672,52.246,0.000,0.000,0.000
495138.081,37.598,36.621,33.203,26.367,60.547,0.000,0.000,0.000
495138.085,25.879,36.621,27.832,13.184,44.434,0.000,0.000,0.000
495138.089,5.859,37.598,26.367,-0.488,35.645,0.000,0.000,0.000
495138.093,17.090,40.039,28.320,9.766,50.781,0.000,0.000,0.000
495138.097,30.762,38.574,27.832,23.438,47.363,0.000,0.000,0.000
495138.100,31.250,40.527,35.645,20.020,44.434,0.000,0.000,0.000
495138.104,23.438,41.016,39.551,9.766,54.199,0.000,0.000,0.000
495138.108,29.297,45.410,40.527,15.625,62.988,0.000,0.000,0.000
495138.112,38.574,48.340,44.922,24.902,48.828,0.000,0.000,0.000
495138.116,30.762,42.969,37.598,19.043,29.297,0.000,0.000,0.000
495138.120,16.113,41.016,32.227,7.812,34.180,0.000,0.000,0.000
495138.124,11.230,44.922,36.133,1.953,40.527,0.000,0.000,0.000
495138.128,24.902,44.434,34.668,12.695,37.109,0.000,0.000,0.000
495138.132,31.738,40.039,33.203,20.508,33.691,0.000,0.000,0.000
495138.136,19.043,41.016,33.203,10.742,38.574,0.000,0.000,0.000
495138.140,16.602,39.551,33.691,7.812,58.594,0.000,0.000,0.000
495138.143,29.785,41.016,38.574,15.625,49.805,0.000,0.000,0.000
495138.147,36.621,51.758,38.574,26.367,36.621,0.000,0.000,0.000
495138.151,32.227,44.434,28.809,27.344,37.109,0.000,0.000,0.000
495138.155,14.160,33.691,26.855,9.277,34.180,0.000,0.000,0.000
495138.159,12.695,30.762,20.996,1.953,41.016,0.000,0.000,0.000
495138.163,25.879,34.180,19.043,18.066,51.758,0.000,0.000,0.000
495138.167,24.414,36.621,24.414,24.414,45.410,0.000,0.000,0.000
495138.171,8.789,31.250,18.555,10.742,37.109,0.000,0.000,0.000
495138.175,6.348,31.250,19.531,11.230,47.363,0.000,0.000,0.000
495138.179,19.043,36.133,31.250,27.344,52.246,0.000,0.000,0.000
495138.182,32.227,42.969,34.180,37.598,57.617,0.000,0.000,0.000
495138.186,27.344,37.598,35.156,29.785,67.383,0.000,0.000,0.000
495138.190,14.160,34.668,43.457,18.555,59.082,0.000,0.000,0.000
495138.194,18.066,37.109,36.621,23.926,51.270,0.000,0.000,0.000
495138.198,27.344,30.273,28.320,30.762,53.223,0.000,0.000,0.000
495138.202,21.973,29.297,28.320,20.996,48.340,0.000,0.000,0.000
495138.206,5.371,32.715,27.832,7.324,44.434,0.000,0.000,0.000
495138.210,16.602,34.668,29.785,15.137,55.176,0.000,0.000,0.000
495138.214,36.133,36.621,33.691,33.203,60.547,0.000,0.000,0.000
495138.218,31.250,41.016,35.645,27.832,48.828,0.000,0.000,0.000
495138.222,14.648,38.086,31.250,13.184,43.457,0.000,0.000,0.000
495138.225,16.602,33.203,27.344,9.766,44.434,0.000,0.000,0.000
495138.229,29.785,33.691,32.715,21.973,50.781,0.000,0.000,0.000
495138.233,30.762,34.180,39.062,26.367,60.547,0.000,0.000,0.000
495138.237,19.531,39.551,41.504,15.625,59.082,0.000,0.000,0.000
495138.241,19.531,48.828,41.992,10.742,53.223,0.000,0.000,0.000
495138.245,26.367,39.062,34.668,14.160,51.758,0.000,0.000,0.000
495138.249,32.715,32.227,32.715,21.484,48.340,0.000,0.000,0.000
495138.253,20.508,36.621,32.227,13.184,46.387,0.000,0.000,0.000
495138.257,18.066,38.574,36.133,8.789,52.246,0.000,0.000,0.000
495138.261,38.086,43.945,39.062,20.508,52.734,0.000,0.000,0.000
495138.265,45.410,42.969,25.879,25.879,49.316,0.000,0.000,0.000
495138.268,38.574,39.551,22.461,18.555,54.199,0.000,0.000,0.000
495138.272,26.367,37.598,30.762,11.719,56.641,0.000,0.000,0.000
495138.276,34.668,47.363,35.156,17.090,59.570,0.000,0.000,0.000
495138.280,42.969,49.316,36.621,26.367,57.129,0.000,0.000,0.000
495138.284,33.691,36.133,30.762,21.973,52.734,0.000,0.000,0.000
495138.288,17.578,34.180,27.344,7.812,54.199,0.000,0.000,0.000
495138.292,19.043,34.668,29.297,9.277,58.105,0.000,0.000,0.000
495138.296,28.809,38.086,27.344,21.973,41.016,0.000,0.000,0.000
495138.300,37.598,49.805,34.668,32.715,41.016,0.000,0.000,0.000
495138.304,32.227,52.734,38.574,25.391,58.105,0.000,0.000,0.000
495138.307,23.438,47.363,36.133,19.531,51.758,0.000,0.000,0.000
495138.311,37.598,46.387,40.039,33.691,56.641,0.000,0.000,0.000
495138.315,46.387,41.504,46.387,44.922,62.500,0.000,0.000,0.000
495138.319,41.016,43.945,54.199,42.969,63.965,0.000,0.000,0.000
495138.323,32.715,50.293,56.641,31.738,64.453,0.000,0.000,0.000
495138.327,35.156,46.875,49.805,31.250,66.895,0.000,0.000,0.000
495138.331,43.457,41.016,44.434,44.922,69.824,0.000,0.000,0.000
495138.335,42.969,44.922,42.969,43.457,53.711,0.000,0.000,0.000
495138.339,29.785,47.852,40.527,25.391,47.363,0.000,0.000,0.000
495138.343,31.250,47.363,41.504,22.949,61.523,0.000,0.000,0.000
495138.347,49.805,49.805,48.828,44.922,64.453,0.000,0.000,0.000
495138.350,47.363,45.410,50.781,44.922,49.316,0.000,0.000,0.000
495138.354,26.855,41.504,50.781,30.273,48.828,0.000,0.000,0.000
495138.358,26.367,39.551,57.617,32.227,65.918,0.000,0.000,0.000
495138.362,38.574,38.574,53.223,38.086,64.453,0.000,0.000,0.000
495138.366,39.062,40.039,45.898,39.062,43.945,0.000,0.000,0.000
495138.370,23.926,39.062,41.016,24.902,35.645,0.000,0.000,0.000
495138.374,22.949,42.480,41.504,15.625,43.457,0.000,0.000,0.000
495138.378,33.203,46.387,43.945,24.414,50.781,0.000,0.000,0.000
495138.382,34.180,41.992,40.527,29.785,51.758,0.000,0.000,0.000
495138.386,19.531,39.551,36.133,17.090,43.945,0.000,0.000,0.000
495138.390,9.277,41.992,34.668,7.812,41.504,0.000,0.000,0.000
495138.393,21.973,39.062,41.992,18.555,44.434,0.000,0.000,0.000
495138.397,37.109,43.457,47.363,33.203,46.875,0.000,0.000,0.000
495138.401,40.039,47.852,47.852,28.320,55.664,0.000,0.000,0.000
495138.405,27.832,54.688,48.340,17.090,62.988,0.000,0.000,0.000
495138.409,24.902,53.711,41.016,16.113,57.617,0.000,0.000,0.000
495138.413,36.133,42.969,36.621,23.438,55.664,0.000,0.000,0.000
495138.417,37.109,44.922,42.480,24.902,64.453,0.000,0.000,0.000
495138.421,18.555,45.410,43.457,12.207,64.453,0.000,0.000,0.000
495138.425,19.531,39.062,39.062,9.277,57.129,0.000,0.000,0.000
495138.429,29.297,37.598,37.109,17.578,48.828,0.000,0.000,0.000
495138.432,30.273,40.039,32.227,18.555,40.039,0.000,0.000,0.000
495138.436,24.414,45.410,31.738,14.160,51.270,0.000,0.000,0.000
495138.440,19.043,43.945,36.133,7.812,59.570,0.000,0.000,0.000
495138.444,33.691,41.504,32.227,14.160,48.828,0.000,0.000,0.000
495138.448,36.133,39.062,30.762,22.949,38.086,0.000,0.000,0.000
495138.452,25.391,37.598,38.574,22.949,30.273,0.000,0.000,0.000
495138.456,16.113,39.551,39.062,9.277,28.809,0.000,0.000,0.000
495138.460,22.949,37.598,36.621,1.953,31.250,0.000,0.000,0.000
495138.464,32.227,39.062,36.621,13.184,29.297,0.000,0.000,0.000
495138.468,29.297,38.574,39.551,22.461,36.621,0.000,0.000,0.000
495138.472,19.043,41.016,45.898,16.602,44.922,0.000,0.000,0.000
495138.475,15.625,42.480,42.969,6.836,37.598,0.000,0.000,0.000
495138.479,27.832,39.062,38.086,17.090,34.668,0.000,0.000,0.000
495138.483,37.109,45.898,45.410,32.227,41.504,0.000,0.000,0.000
495138.487,17.578,49.805,46.875,18.066,41.504,0.000,0.000,0.000
495138.491,1.465,40.527,34.668,1.953,38.086,0.000,0.000,0.000
495138.495,19.531,42.480,37.598,15.625,34.180,0.000,0.000,0.000
495138.499,27.344,40.039,42.480,22.461,24.902,0.000,0.000,0.000
495138.503,20.996,38.086,44.922,14.648,32.227,0.000,0.000,0.000
495138.507,14.160,41.992,45.410,6.836,38.574,0.000,0.000,0.000
495138.511,20.508,33.691,32.715,4.883,40.527,0.000,0.000,0.000
495138.515,39.551,33.691,32.715,20.996,47.852,0.000,0.000,0.000
495138.518,31.250,36.133,35.156,16.602,38.574,0.000,0.000,0.000
495138.522,11.230,38.574,30.273,-3.418,23.438,0.000,0.000,0.000
495138.526,16.113,35.156,28.320,-0.488,20.020,0.000,0.000,0.000
495138.530,17.090,25.391,24.414,10.254,24.414,0.000,0.000,0.000
495138.534,13.672,31.738,23.438,13.184,24.414,0.000,0.000,0.000
495138.538,3.906,35.645,25.879,0.977,12.207,0.000,0.000,0.000
495138.542,8.301,32.227,27.832,1.465,24.414,0.000,0.000,0.000
495138.546,28.809,39.551,29.297,20.996,37.109,0.000,0.000,0.000
495138.550,26.367,35.645,23.438,19.043,11.719,0.000,0.000,0.000
495138.554,13.184,29.785,20.996,-0.488,5.859,0.000,0.000,0.000
495138.557,7.812,27.344,17.578,-5.371,17.090,0.000,0.000,0.000
495138.561,17.090,28.809,19.043,6.836,19.043,0.000,0.000,0.000
495138.565,20.996,34.668,25.391,14.648,10.254,0.000,0.000,0.000
495138.569,7.324,35.156,24.414,11.230,10.742,0.000,0.000,0.000
495138.573,-2.930,33.691,28.809,3.418,31.738,0.000,0.000,0.000
495138.577,8.789,29.785,29.297,-1.953,40.527,0.000,0.000,0.000
495138.581,19.531,36.133,34.668,4.883,26.855,0.000,0.000,0.000
495138.585,17.578,42.969,38.574,-0.488,18.066,0.000,0.000,0.000
495138.589,2.441,36.621,30.762,-13.672,18.555,0.000,0.000,0.000
495138.593,7.812,32.715,24.414,-10.742,20.996,0.000,0.000,0.000
495138.597,22.461,30.273,29.297,0.000,25.879,0.000,0.000,0.000
495138.600,23.438,33.203,35.156,8.789,33.203,0.000,0.000,0.000
495138.604,14.160,32.715,28.809,2.930,39.062,0.000,0.000,0.000
495138.608,13.184,33.691,30.762,-4.395,35.156,0.000,0.000,0.000
495138.612,17.578,33.691,25.879,-2.930,20.020,0.000,0.000,0.000
495138.616,20.996,29.297,20.508,7.812,21.973,0.000,0.000,0.000
495138.620,13.184,33.203,25.391,5.371,31.738,0.000,0.000,0.000
495138.624,4.883,32.227,29.785,-1.465,31.738,0.000,0.000,0.000
495138.628,17.090,32.227,35.645,9.766,18.555,0.000,0.000,0.000
495138.632,24.902,31.250,30.273,17.578,13.184,0.000,0.000,0.000
495138.636,19.043,32.227,31.738,12.695,22.461,0.000,0.000,0.000
495138.639,10.742,35.645,31.250,6.348,22.461,0.000,0.000,0.000
495138.643,14.160,30.273,20.996,8.789,17.090,0.000,0.000,0.000
495138.647,21.973,30.762,19.531,25.879,25.879,0.000,0.000,0.000
495138.651,27.832,47.852,26.855,33.691,36.621,0.000,0.000,0.000
495138.655,8.301,43.457,28.809,10.254,25.879,0.000,0.000,0.000
495138.659,1.953,27.344,25.879,3.418,25.391,0.000,0.000,0.000
495138.663,15.625,27.344,26.855,20.508,36.133,0.000,0.000,0.000
495138.667,14.160,28.809,22.949,16.602,26.855,0.000,0.000,0.000
495138.671,5.859,35.156,24.902,6.836,15.625,0.000,0.000,0.000
495138.675,7.812,41.504,32.227,5.859,18.555,0.000,0.000,0.000
495138.679,13.184,38.574,27.832,12.207,14.160,0.000,0.000,0.000
495138.682,20.508,45.898,27.832,23.438,15.625,0.000,0.000,0.000
495138.686,14.160,48.828,27.344,16.602,22.949,0.000,0.000,0.000
495138.690,7.324,37.109,22.461,3.906,28.809,0.000,0.000,0.000
495138.694,25.391,37.109,24.902,11.719,40.527,0.000,0.000,0.000
495138.698,35.156,41.504,22.461,16.113,31.738,0.000,0.000,0.000
495138.702,17.090,38.086,13.184,2.930,17.578,0.000,0.000,0.000
495138.706,3.906,33.691,15.137,-3.418,32.715,0.000,0.000,0.000
495138.710,20.020,34.668,19.531,6.836,44.434,0.000,0.000,0.000
495138.714,36.133,37.598,19.043,17.578,31.250,0.000,0.000,0.000
495138.718,36.621,45.410,21.973,18.066,19.531,0.000,0.000,0.000
495138.722,22.461,43.457,24.414,9.277,25.879,0.000,0.000,0.000
495138.725,19.043,31.250,20.996,4.883,29.297,0.000,0.000,0.000
495138.729,35.156,26.367,21.973,18.066,30.273,0.000,0.000,0.000
495138.733,42.480,30.273,23.438,23.926,34.668,0.000,0.000,0.000
495138.737,30.762,36.621,23.926,13.672,42.969,0.000,0.000,0.000
495138.741,20.996,35.156,21.484,7.324,42.480,0.000,0.000,0.000
495138.745,24.414,32.715,23.438,10.254,36.133,0.000,0.000,0.000
495138.749,30.273,37.598,26.855,21.484,37.598,0.000,0.000,0.000
495138.753,23.926,40.039,26.855,17.090,53.711,0.000,0.000,0.000
495138.757,19.043,31.250,28.320,0.977,58.594,0.000,0.000,0.000
495138.761,25.879,27.344,25.879,4.883,22.949,0.000,0.000,0.000
495138.764,25.879,29.297,29.297,23.438,7.324,0.000,0.000,0.000
495138.768,19.531,33.203,31.738,24.414,14.648,0.000,0.000,0.000
495138.772,8.301,37.109,28.320,13.672,21.484,0.000,0.000,0.000
495138.776,11.719,34.668,20.996,12.695,28.320,0.000,0.000,0.000
495138.780,26.855,40.039,27.344,33.691,31.738,0.000,0.000,0.000
495138.784,33.691,41.016,36.621,42.480,32.715,0.000,0.000,0.000
495138.788,11.719,30.273,30.273,20.020,27.344,0.000,0.000,0.000
495138.792,9.277,31.250,22.461,16.602,29.785,0.000,0.000,0.000
495138.796,26.855,27.832,16.602,34.668,43.945,0.000,0.000,0.000
495138.800,28.320,22.949,13.672,34.668,40.039,0.000,0.000,0.000
495138.804,14.648,26.367,18.555,22.461,21.973,0.000,0.000,0.000
495138.807,12.695,31.250,20.996,20.020,23.438,0.000,0.000,0.000
495138.811,33.203,39.062,24.902,31.738,51.270,0.000,0.000,0.000
495138.815,43.945,43.457,32.715,42.969,66.895,0.000,0.000,0.000
495138.819,23.926,33.203,25.391,27.832,41.504,0.000,0.000,0.000
495138.823,13.184,28.809,28.320,15.625,34.668,0.000,0.000,0.000
495138.827,27.344,37.109,34.668,29.297,47.852,0.000,0.000,0.000
495138.831,31.250,35.156,20.508,37.109,43.457,0.000,0.000,0.000
495138.835,17.090,23.438,7.812,19.043,37.598,0.000,0.000,0.000
495138.839,6.348,21.484,8.301,3.906,39.062,0.000,0.000,0.000
495138.843,20.508,24.902,16.602,13.184,42.480,0.000,0.000,0.000
495138.847,34.668,33.691,22.949,27.344,39.062,0.000,0.000,0.000
495138.850,30.273,36.621,17.090,20.020,29.297,0.000,0.000,0.000
495138.854,18.066,30.762,15.137,3.906,37.109,0.000,0.000,0.000
495138.858,18.066,29.297,17.090,0.977,48.828,0.000,0.000,0.000
495138.862,31.250,33.203,28.320,15.625,51.758,0.000,0.000,0.000
495138.866,27.832,38.574,28.320,16.602,46.875,0.000,0.000,0.000
495138.870,9.766,32.715,17.578,-2.930,28.320,0.000,0.000,0.000
495138.874,8.301,33.203,23.438,-1.953,20.996,0.000,0.000,0.000
495138.878,21.973,38.086,24.902,10.742,24.902,0.000,0.000,0.000
495138.882,27.832,35.645,24.414,21.973,19.043,0.000,0.000,0.000
495138.886,21.973,36.133,23.438,14.648,14.160,0.000,0.000,0.000
495138.889,16.602,36.133,27.344,6.836,28.320,0.000,0.000,0.000
495138.893,27.344,31.250,29.785,11.719,44.922,0.000,0.000,0.000
495138.897,38.574,37.109,31.250,24.902,45.410,0.000,0.000,0.000
495138.901,36.133,47.363,34.180,31.250,41.992,0.000,0.000,0.000
495138.905,17.090,39.062,27.344,8.789,42.480,0.000,0.000,0.000
495138.909,20.996,34.180,25.879,3.418,40.527,0.000,0.000,0.000
495138.913,35.645,38.086,30.762,17.090,36.621,0.000,0.000,0.000
495138.917,37.598,40.039,37.109,22.461,45.410,0.000,0.000,0.000
495138.921,26.367,39.551,35.645,12.695,49.805,0.000,0.000,0.000
495138.925,16.602,38.574,30.762,7.324,33.691,0.000,0.000,0.000
495138.929,24.414,36.133,31.250,13.672,30.273,0.000,0.000,0.000
495138.932,36.621,35.645,35.156,24.902,44.434,0.000,0.000,0.000
495138.936,33.691,41.016,38.086,26.855,51.758,0.000,0.000,0.000
495138.940,13.672,35.156,32.227,6.348,37.109,0.000,0.000,0.000
495138.944,18.555,28.809,27.832,7.324,29.785,0.000,0.000,0.000
495138.948,29.785,32.715,27.344,21.484,25.391,0.000,0.000,0.000
495138.952,22.461,33.203,25.879,14.648,17.578,0.000,0.000,0.000
495138.956,11.719,36.621,27.832,6.836,18.555,0.000,0.000,0.000
495138.960,17.578,35.645,26.367,8.789,26.367,2.000,1.000,0.000
495138.964,33.691,38.086,24.902,23.438,43.945,0.000,0.000,0.000
495138.968,29.785,42.969,30.762,28.320,40.039,0.000,0.000,0.000
495138.972,11.719,38.086,28.320,15.137,21.973,0.000,0.000,0.000
495138.975,15.137,37.109,17.090,12.207,24.902,0.000,0.000,0.000
495138.979,33.691,38.574,17.090,28.320,35.645,0.000,0.000,0.000
495138.983,32.227,32.227,20.020,29.297,37.109,0.000,0.000,0.000
495138.987,14.160,32.227,15.137,8.301,26.367,0.000,0.000,0.000
495138.991,13.672,40.527,17.090,6.836,27.832,0.000,0.000,0.000
495138.995,29.785,38.086,16.113,24.414,25.391,0.000,0.000,0.000
495138.999,36.133,35.645,15.625,29.785,23.926,0.000,0.000,0.000
495139.003,25.879,34.668,17.090,18.555,21.484,0.000,0.000,0.000
495139.007,17.578,31.250,21.484,13.184,23.438,0.000,0.000,0.000
495139.011,21.484,31.250,19.043,11.719,28.320,0.000,0.000,0.000
495139.014,22.461,31.250,12.207,17.578,29.297,0.000,0.000,0.000
495139.018,20.996,30.273,12.695,18.066,31.250,0.000,0.000,0.000
495139.022,13.184,27.832,16.113,11.719,40.039,0.000,0.000,0.000
495139.026,18.066,24.902,14.160,13.672,38.086,0.000,0.000,0.000
495139.030,21.484,22.461,5.371,14.160,21.484,0.000,0.000,0.000
495139.034,18.555,26.367,6.836,14.648,32.227,0.000,0.000,0.000
495139.038,7.324,24.902,18.066,7.324,23.926,0.000,0.000,0.000
495139.042,5.371,26.367,14.648,2.441,12.695,0.000,0.000,0.000
495139.046,19.531,35.156,5.371,8.789,20.508,0.000,0.000,0.000
495139.050,25.391,33.203,4.883,18.555,19.531,0.000,0.000,0.000
495139.054,15.625,26.367,14.160,8.789,20.020,0.000,0.000,0.000
495139.057,8.301,29.297,22.461,-5.371,29.297,0.000,0.000,0.000
495139.061,20.508,31.250,16.602,2.441,29.785,0.000,0.000,0.000
495139.065,36.133,37.109,20.996,20.020,35.156,0.000,0.000,0.000
495139.069,27.832,38.086,23.438,15.137,37.598,0.000,0.000,0.000
495139.073,6.836,28.320,17.578,-0.488,37.109,0.000,0.000,0.000
495139.077,11.719,26.855,16.602,1.465,37.109,0.000,0.000,0.000
495139.081,25.391,31.738,14.160,17.090,33.691,0.000,0.000,0.000
495139.085,34.180,38.574,16.602,26.367,49.805,0.000,0.000,0.000
495139.089,22.949,35.156,22.461,17.090,47.852,0.000,0.000,0.000
495139.093,15.137,26.367,25.879,10.254,22.461,0.000,0.000,0.000
495139.096,33.203,29.785,24.902,28.809,14.648,0.000,0.000,0.000
495139.100,35.645,30.273,21.973,28.809,6.836,0.000,0.000,0.000
495139.104,15.625,30.762,26.855,4.883,4.395,0.000,0.000,0.000
495139.108,17.090,38.574,33.691,4.395,22.949,0.000,0.000,0.000
495139.112,32.715,33.203,34.668,22.461,32.715,0.000,0.000,0.000
495139.116,31.738,27.344,34.668,28.809,36.133,0.000,0.000,0.000
495139.120,16.602,31.250,34.180,13.184,36.621,0.000,0.000,0.000
495139.124,16.113,40.527,41.992,9.277,42.480,0.000,0.000,0.000
495139.128,28.809,41.016,45.898,21.484,46.387,0.000,0.000,0.000
495139.132,28.809,29.785,37.109,24.902,37.598,0.000,0.000,0.000
495139.136,17.090,28.809,37.109,20.996,41.016,0.000,0.000,0.000
495139.139,4.395,31.738,38.086,11.719,54.199,0.000,0.000,0.000
495139.143,11.719,28.809,37.598,15.625,48.828,0.000,0.000,0.000
495139.147,24.414,34.180,38.574,26.855,37.598,0.000,0.000,0.000
495139.151,16.602,36.133,34.668,20.996,26.367,0.000,0.000,0.000
495139.155,1.465,30.273,30.273,11.230,18.066,0.000,0.000,0.000
495139.159,10.742,29.297,34.668,16.113,29.785,0.000,0.000,0.000
495139.163,24.902,29.785,38.574,22.461,31.738,0.000,0.000,0.000
495139.167,21.973,29.785,34.180,20.996,19.531,0.000,0.000,0.000
495139.171,13.184,30.273,34.180,14.160,23.438,0.000,0.000,0.000
495139.175,14.160,30.273,34.180,6.348,39.062,0.000,0.000,0.000
495139.179,23.926,28.809,21.484,7.324,31.250,0.000,0.000,0.000
495139.182,29.785,34.180,19.043,16.602,17.578,0.000,0.000,0.000
495139.186,22.461,36.133,23.926,15.625,21.484,0.000,0.000,0.000
495139.190,15.137,37.109,28.809,10.742,30.762,0.000,0.000,0.000
495139.194,21.484,39.551,32.715,11.230,30.273,0.000,0.000,0.000
495139.198,23.926,25.879,28.809,14.160,26.367,0.000,0.000,0.000
495139.202,23.438,19.043,31.250,14.160,30.273,0.000,0.000,0.000
495139.206,11.230,23.926,27.344,5.859,36.133,0.000,0.000,0.000
495139.210,14.648,29.785,27.344,10.254,43.945,0.000,0.000,0.000
495139.214,31.738,38.574,26.367,25.391,51.270,0.000,0.000,0.000
495139.218,30.762,38.086,21.484,27.832,52.246,0.000,0.000,0.000
495139.221,16.113,41.992,29.785,19.043,48.828,0.000,0.000,0.000
495139.225,12.207,44.434,32.715,7.812,45.898,0.000,0.000,0.000
495139.229,19.531,30.762,21.973,12.207,45.898,0.000,0.000,0.000
495139.233,26.855,24.902,22.461,20.508,45.410,0.000,0.000,0.000
495139.237,16.602,27.832,25.391,13.184,42.480,0.000,0.000,0.000
495139.241,8.789,34.668,20.020,5.371,41.992,0.000,0.000,0.000
495139.245,24.414,38.086,20.996,13.184,47.363,0.000,0.000,0.000
495139.249,35.156,40.527,23.926,22.949,61.523,0.000,0.000,0.000
495139.253,22.949,41.992,22.461,8.789,60.547,0.000,0.000,0.000
495139.257,12.207,35.645,26.367,-4.883,37.109,0.000,0.000,0.000
495139.261,20.020,35.156,25.391,3.906,24.414,0.000,0.000,0.000
495139.264,36.621,38.574,24.902,24.414,26.855,0.000,0.000,0.000
495139.268,35.645,40.527,33.691,23.438,35.645,0.000,0.000,0.000
495139.272,11.719,41.504,39.062,7.812,27.832,0.000,0.000,0.000
495139.276,16.602,41.016,36.133,11.719,21.484,0.000,0.000,0.000
495139.280,33.203,39.062,28.320,25.879,34.180,0.000,0.000,0.000
495139.284,22.461,37.598,25.391,23.438,31.738,0.000,0.000,0.000
495139.288,3.906,34.668,22.461,2.930,24.414,0.000,0.000,0.000
495139.292,12.695,33.691,21.973,8.301,35.156,0.000,0.000,0.000
495139.296,25.879,34.668,23.438,24.902,33.691,0.000,0.000,0.000
495139.300,31.738,43.945,29.785,33.203,26.855,0.000,0.000,0.000
495139.304,26.855,49.805,37.109,22.949,33.203,0.000,0.000,0.000
495139.307,12.207,32.227,35.156,5.371,32.715,0.000,0.000,0.000
495139.311,21.484,28.809,32.227,14.160,30.273,0.000,0.000,0.000
495139.315,32.227,41.992,32.715,21.484,28.809,0.000,0.000,0.000
495139.319,21.973,38.574,32.227,13.184,29.297,0.000,0.000,0.000
495139.323,5.859,27.344,26.855,-2.930,25.391,0.000,0.000,0.000
495139.327,16.113,28.809,20.020,0.977,30.273,0.000,0.000,0.000
495139.331,30.273,38.574,25.391,14.160,37.109,0.000,0.000,0.000
495139.335,28.809,47.363,35.156,13.672,34.668,0.000,0.000,0.000
495139.339,12.207,42.969,30.762,1.465,26.367,0.000,0.000,0.000
495139.343,15.137,35.645,22.949,0.977,22.949,0.000,0.000,0.000
495139.346,33.203,39.062,26.855,17.090,28.809,0.000,0.000,0.000
495139.350,35.156,47.363,37.109,26.855,39.062,0.000,0.000,0.000
495139.354,21.973,41.992,36.621,19.043,44.922,0.000,0.000,0.000
495139.358,13.672,32.715,28.809,6.348,38.086,0.000,0.000,0.000
495139.362,20.996,38.574,24.902,13.184,32.227,0.000,0.000,0.000
495139.366,27.344,38.574,20.996,24.902,42.969,0.000,0.000,0.000
495139.370,17.090,32.715,18.066,11.719,47.852,0.000,0.000,0.000
495139.374,7.812,33.203,16.113,-1.465,41.016,0.000,0.000,0.000
495139.378,20.508,37.598,18.066,9.766,27.832,0.000,0.000,0.000
495139.382,26.855,40.527,17.090,22.949,17.578,0.000,0.000,0.000
495139.386,20.020,37.598,19.531,11.719,24.902,0.000,0.000,0.000
495139.389,16.602,39.551,26.855,-1.953,40.039,0.000,0.000,0.000
495139.393,27.344,39.062,27.344,6.348,33.203,0.000,0.000,0.000
495139.397,34.180,36.133,23.438,22.949,32.227,0.000,0.000,0.000
495139.401,29.785,43.945,22.949,20.996,45.898,0.000,0.000,0.000
495139.405,9.766,45.898,17.578,1.953,21.484,0.000,0.000,0.000
495139.409,10.742,37.598,12.207,0.977,15.625,0.000,0.000,0.000
495139.413,31.738,39.551,19.531,18.555,31.250,0.000,0.000,0.000
495139.417,33.203,43.945,18.555,24.902,38.574,0.000,0.000,0.000
495139.421,19.531,46.387,17.090,15.137,32.227,0.000,0.000,0.000
495139.425,15.625,38.574,22.461,10.254,21.973,0.000,0.000,0.000
495139.429,28.320,33.203,25.391,21.973,29.297,0.000,0.000,0.000
495139.432,36.621,33.203,30.762,33.203,34.668,0.000,0.000,0.000
495139.436,32.227,36.621,29.785,25.391,36.621,0.000,0.000,0.000
495139.440,20.508,36.621,29.297,16.113,38.086,0.000,0.000,0.000
495139.444,27.832,27.832,29.297,23.926,38.086,0.000,0.000,0.000
495139.448,34.180,26.855,31.738,31.250,32.715,0.000,0.000,0.000
495139.452,20.508,36.133,34.668,22.461,34.180,0.000,0.000,0.000
495139.456,11.719,34.180,30.273,13.184,41.016,0.000,0.000,0.000
495139.460,21.484,30.273,31.250,19.531,42.480,0.000,0.000,0.000
495139.464,29.297,31.250,31.250,26.367,48.340,0.000,0.000,0.000
495139.468,26.855,38.574,33.203,22.461,54.199,0.000,0.000,0.000
495139.471,16.602,37.109,36.133,15.137,46.387,0.000,0.000,0.000
495139.475,14.648,31.738,35.156,12.207,41.504,0.000,0.000,0.000
495139.479,21.973,31.738,27.832,18.066,36.133,0.000,0.000,0.000
495139.483,27.344,32.227,24.414,23.926,36.621,0.000,0.000,0.000
495139.487,21.484,33.691,30.762,17.090,52.734,0.000,0.000,0.000
495139.491,16.113,26.855,38.574,11.230,58.594,0.000,0.000,0.000
495139.495,21.484,26.855,32.227,12.695,36.133,0.000,0.000,0.000
495139.499,28.320,29.297,28.320,17.578,23.438,0.000,0.000,0.000
495139.503,24.414,27.832,30.762,12.207,38.086,0.000,0.000,0.000
495139.507,20.020,33.691,36.133,5.859,44.434,0.000,0.000,0.000
495139.511,31.738,41.992,37.598,8.789,28.809,0.000,0.000,0.000
495139.514,38.086,36.621,36.621,14.160,27.344,0.000,0.000,0.000
495139.518,34.180,36.133,38.574,19.531,41.016,0.000,0.000,0.000
495139.522,17.578,42.480,35.156,12.207,34.668,0.000,0.000,0.000
495139.526,17.090,36.133,31.738,5.371,33.691,0.000,0.000,0.000
495139.530,37.598,31.250,32.227,20.508,41.992,0.000,0.000,0.000
495139.534,37.598,34.180,30.762,28.320,39.551,0.000,0.000,0.000
495139.538,20.996,37.598,30.762,17.090,39.062,0.000,0.000,0.000
495139.542,19.531,38.086,31.738,2.441,41.992,0.000,0.000,0.000
495139.546,31.250,39.062,36.133,13.672,41.992,0.000,0.000,0.000
495139.550,40.039,41.992,31.738,24.414,42.969,0.000,0.000,0.000
495139.553,25.391,39.551,28.320,9.766,40.527,0.000,0.000,0.000
495139.557,11.230,39.551,33.203,-0.488,35.156,0.000,0.000,0.000
495139.561,21.973,41.504,35.156,13.184,38.574,0.000,0.000,0.000
495139.565,28.320,38.574,39.062,24.414,35.645,0.000,0.000,0.000
495139.569,15.625,35.645,32.715,10.742,27.832,0.000,0.000,0.000
495139.573,11.719,39.062,31.250,1.953,27.832,0.000,0.000,0.000
495139.577,22.461,42.969,33.691,3.906,26.367,0.000,0.000,0.000
495139.581,26.367,34.180,26.855,11.230,26.855,0.000,0.000,0.000
495139.585,25.391,34.180,29.297,13.184,28.809,0.000,0.000,0.000
495139.589,8.301,40.527,28.809,-1.953,30.762,0.000,0.000,0.000
495139.593,10.254,37.598,24.902,0.977,50.781,0.000,0.000,0.000
495139.596,30.762,34.180,27.344,17.090,46.387,0.000,0.000,0.000
495139.600,30.273,37.109,27.832,17.578,28.809,0.000,0.000,0.000
495139.604,18.555,41.016,33.691,13.672,49.316,0.000,0.000,0.000
495139.608,20.996,38.086,35.645,14.648,63.477,0.000,0.000,0.000
495139.612,30.762,34.180,27.832,23.926,51.758,0.000,0.000,0.000
495139.616,27.832,31.250,17.090,24.902,37.109,0.000,0.000,0.000
495139.620,15.625,32.227,11.230,10.254,34.668,0.000,0.000,0.000
495139.624,10.742,37.598,18.066,4.395,49.316,0.000,0.000,0.000
495139.628,24.414,45.410,26.855,18.066,51.270,0.000,0.000,0.000
495139.632,27.832,41.504,20.020,22.461,39.062,0.000,0.000,0.000
495139.636,20.508,34.180,22.461,14.648,43.945,0.000,0.000,0.000
495139.639,15.625,33.691,35.645,13.184,44.434,0.000,0.000,0.000
495139.643,19.043,34.668,34.180,20.508,43.457,0.000,0.000,0.000
495139.647,23.926,36.621,26.855,26.367,37.109,0.000,0.000,0.000
495139.651,22.461,34.180,31.738,24.414,22.949,0.000,0.000,0.000
495139.655,9.277,36.133,35.156,19.531,30.762,0.000,0.000,0.000
495139.659,12.207,48.340,33.203,18.555,49.805,0.000,0.000,0.000
495139.663,20.020,41.016,29.297,19.043,33.203,0.000,0.000,0.000
495139.667,19.043,31.250,24.902,18.555,19.531,0.000,0.000,0.000
495139.671,8.789,33.203,27.832,7.812,28.809,0.000,0.000,0.000
495139.675,5.859,37.598,39.551,4.883,35.156,0.000,0.000,0.000
495139.678,17.090,38.086,41.504,15.137,30.273,0.000,0.000,0.000
495139.682,30.273,36.133,41.504,27.344,27.832,0.000,0.000,0.000
495139.686,22.949,37.598,42.480,20.996,25.879,0.000,0.000,0.000
495139.690,10.742,37.109,40.527,8.301,23.926,0.000,0.000,0.000
495139.694,28.809,39.551,39.062,17.578,28.809,0.000,0.000,0.000
495139.698,39.062,44.922,40.039,33.691,31.250,0.000,0.000,0.000
495139.702,31.250,46.875,41.992,29.297,41.992,0.000,0.000,0.000
495139.706,10.254,37.109,34.668,6.836,37.109,0.000,0.000,0.000
495139.710,13.672,36.133,31.738,12.695,31.738,0.000,0.000,0.000
495139.714,26.855,35.156,30.273,30.273,43.457,0.000,0.000,0.000
495139.718,23.438,34.668,28.320,29.297,51.758,0.000,0.000,0.000
495139.721,11.719,37.109,35.645,20.996,46.875,0.000,0.000,0.000
495139.725,8.789,30.762,48.828,14.648,48.828,0.000,0.000,0.000
495139.729,22.461,28.809,42.969,27.832,53.223,0.000,0.000,0.000
495139.733,27.344,32.715,32.227,37.109,34.180,0.000,0.000,0.000
495139.737,8.789,31.738,26.855,17.090,18.066,0.000,0.000,0.000
495139.741,10.254,33.691,28.320,10.254,30.762,0.000,0.000,0.000
495139.745,30.273,35.156,33.203,24.902,45.898,0.000,0.000,0.000
495139.749,34.668,34.180,28.809,33.203,47.363,0.000,0.000,0.000
495139.753,23.926,37.109,29.297,23.438,44.434,0.000,0.000,0.000
495139.757,9.766,32.715,31.250,10.254,43.945,0.000,0.000,0.000
495139.761,17.578,36.133,35.645,18.555,43.945,0.000,0.000,0.000
495139.764,30.762,43.945,43.457,32.715,45.410,0.000,0.000,0.000
495139.768,36.133,47.852,40.527,36.621,49.805,0.000,0.000,0.000
495139.772,24.902,42.480,39.062,26.367,37.109,0.000,0.000,0.000
495139.776,19.531,29.785,34.180,22.949,41.504,0.000,0.000,0.000
495139.780,27.344,33.691,35.645,37.109,41.016,0.000,0.000,0.000
495139.784,25.391,38.086,35.156,31.738,22.461,0.000,0.000,0.000
495139.788,20.508,41.016,40.039,25.391,29.785,0.000,0.000,0.000
495139.792,20.508,44.434,39.551,22.461,36.621,0.000,0.000,0.000
495139.796,28.809,37.598,29.785,21.484,27.832,0.000,0.000,0.000
495139.800,35.156,30.762,33.203,26.855,27.344,0.000,0.000,0.000
495139.803,23.438,36.621,34.668,17.578,28.320,0.000,0.000,0.000
495139.807,15.137,38.574,31.250,9.766,23.438,0.000,0.000,0.000
495139.811,31.250,42.969,34.668,26.367,30.762,0.000,0.000,0.000
495139.815,41.992,43.457,37.598,41.504,35.645,0.000,0.000,0.000
495139.819,35.645,35.156,38.574,39.062,42.480,0.000,0.000,0.000
495139.823,20.508,36.133,36.621,21.484,50.293,0.000,0.000,0.000
495139.827,18.066,33.691,30.273,10.254,30.273,0.000,0.000,0.000
495139.831,34.180,34.668,29.785,25.391,30.762,0.000,0.000,0.000
495139.835,30.273,42.969,34.668,26.855,33.691,0.000,0.000,0.000
495139.839,17.090,40.527,37.109,12.695,22.461,0.000,0.000,0.000
495139.843,23.926,37.109,38.574,13.672,28.809,0.000,0.000,0.000
495139.846,40.527,36.621,43.945,35.156,35.645,0.000,0.000,0.000
495139.850,51.270,41.992,51.270,51.758,45.410,0.000,0.000,0.000
495139.854,32.715,46.875,49.805,35.645,46.387,0.000,0.000,0.000
495139.858,24.414,38.574,41.016,23.926,48.340,0.000,0.000,0.000
495139.862,43.945,39.062,43.457,42.969,60.059,0.000,0.000,0.000
495139.866,48.340,46.875,51.270,52.246,52.246,0.000,0.000,0.000
495139.870,26.855,40.527,44.922,30.762,30.762,0.000,0.000,0.000
495139.874,14.648,34.668,39.551,12.695,32.227,0.000,0.000,0.000
495139.878,28.809,36.621,53.711,17.578,37.598,0.000,0.000,0.000
495139.882,42.969,36.621,63.965,26.855,39.062,0.000,0.000,0.000
495139.886,34.180,34.668,59.570,18.066,43.457,0.000,0.000,0.000
495139.889,22.949,39.062,64.453,13.184,56.152,0.000,0.000,0.000
495139.893,37.109,43.457,72.266,21.973,47.363,0.000,0.000,0.000
495139.897,43.945,42.969,74.707,29.785,34.668,0.000,0.000,0.000
495139.901,38.086,44.922,79.590,29.297,40.527,0.000,0.000,0.000
495139.905,22.949,43.457,83.008,16.602,36.133,0.000,0.000,0.000
495139.909,18.066,34.668,83.008,9.277,31.250,0.000,0.000,0.000
495139.913,28.809,27.344,78.613,15.625,26.367,0.000,0.000,0.000
495139.917,28.809,27.832,72.754,17.578,23.926,0.000,0.000,0.000
495139.921,17.578,32.227,69.336,10.254,36.621,0.000,0.000,0.000
495139.925,16.602,33.691,68.848,7.324,55.176,0.000,0.000,0.000
495139.928,24.414,33.691,72.754,19.043,45.898,0.000,0.000,0.000
495139.932,29.785,36.621,74.707,29.297,32.227,0.000,0.000,0.000
495139.936,27.344,37.598,75.195,26.855,34.180,0.000,0.000,0.000
495139.940,18.066,40.527,83.984,22.461,37.598,0.000,0.000,0.000
495139.944,20.020,37.109,88.379,20.020,38.086,0.000,0.000,0.000
495139.948,30.762,33.203,87.402,27.832,31.250,0.000,0.000,0.000
495139.952,18.555,32.227,82.031,23.438,25.879,0.000,0.000,0.000
495139.956,0.977,31.250,81.055,16.602,35.156,0.000,0.000,0.000
495139.960,12.207,34.180,77.637,22.461,36.133,0.000,0.000,0.000
495139.964,24.902,32.715,67.383,27.832,24.902,0.000,0.000,0.000
495139.968,31.250,42.969,69.824,35.156,32.715,0.000,0.000,0.000
495139.971,17.090,47.363,71.289,24.414,41.992,0.000,0.000,0.000
495139.975,6.348,32.715,67.383,11.230,36.133,0.000,0.000,0.000
495139.979,23.926,30.273,63.477,19.043,35.645,0.000,0.000,0.000
495139.983,32.227,33.203,57.129,23.926,37.109,0.000,0.000,0.000
495139.987,19.531,35.645,52.246,17.090,35.156,0.000,0.000,0.000
495139.991,13.672,37.109,52.246,9.277,34.180,0.000,0.000,0.000
495139.995,26.855,33.691,51.758,18.066,34.180,0.000,0.000,0.000
495139.999,27.832,33.203,43.457,25.391,30.762,0.000,0.000,0.000
495140.003,20.020,34.668,41.992,17.578,37.109,0.000,0.000,0.000
495140.007,16.113,40.527,50.293,13.184,34.668,0.000,0.000,0.000
495140.010,19.531,40.527,45.898,10.254,14.160,0.000,0.000,0.000
495140.014,27.344,28.809,39.062,18.066,16.602,0.000,0.000,0.000
495140.018,17.090,24.414,39.551,13.184,21.973,0.000,0.000,0.000
495140.022,-5.859,21.973,36.133,-7.812,12.207,0.000,0.000,0.000
495140.026,3.906,21.484,38.574,-1.465,22.461,0.000,0.000,0.000
495140.030,24.902,29.785,46.387,20.508,30.273,0.000,0.000,0.000
495140.034,21.973,31.250,46.875,20.508,25.391,0.000,0.000,0.000
495140.038,2.930,27.832,43.945,5.371,30.273,0.000,0.000,0.000
495140.042,3.418,30.762,41.016,7.812,24.902,0.000,0.000,0.000
495140.046,12.207,23.438,30.762,15.625,21.484,0.000,0.000,0.000
495140.050,18.555,24.902,27.832,21.973,21.484,0.000,0.000,0.000
495140.053,12.207,30.273,35.645,16.602,17.090,0.000,0.000,0.000
495140.057,2.441,27.832,43.457,8.789,21.973,0.000,0.000,0.000
495140.061,21.973,30.762,40.527,19.531,31.250,0.000,0.000,0.000
495140.065,28.809,28.809,34.180,21.973,34.668,0.000,0.000,0.000
495140.069,19.043,27.832,28.320,9.766,20.020,0.000,0.000,0.000
495140.073,8.301,22.461,23.438,-2.441,13.184,0.000,0.000,0.000
495140.077,16.113,23.926,29.297,6.836,21.484,0.000,0.000,0.000
495140.081,28.320,28.809,30.762,22.949,21.484,0.000,0.000,0.000
495140.085,28.320,36.133,25.879,28.320,27.832,0.000,0.000,0.000
495140.089,17.578,38.574,25.879,16.602,35.156,0.000,0.000,0.000
495140.093,22.949,32.227,30.762,12.695,40.039,0.000,0.000,0.000
495140.096,34.668,28.809,26.855,21.484,36.621,0.000,0.000,0.000
495140.100,32.715,25.391,19.043,20.020,31.250,0.000,0.000,0.000
495140.104,26.855,28.809,27.832,19.043,41.504,0.000,0.000,0.000
495140.108,19.531,27.832,28.809,12.695,45.898,0.000,0.000,0.000
495140.112,22.461,24.902,21.973,13.184,43.457,0.000,0.000,0.000
495140.116,35.645,30.273,27.344,23.926,35.645,0.000,0.000,0.000
495140.120,34.668,36.621,35.645,19.531,27.832,0.000,0.000,0.000
495140.124,15.625,36.621,32.715,2.930,28.320,0.000,0.000,0.000
495140.128,23.438,32.227,29.785,6.836,31.250,0.000,0.000,0.000
495140.132,42.969,38.086,28.809,25.391,47.852,0.000,0.000,0.000
495140.135,34.668,36.133,29.785,20.508,59.570,0.000,0.000,0.000
495140.139,17.578,28.809,38.574,13.672,49.316,0.000,0.000,0.000
495140.143,17.090,26.855,28.809,15.625,33.691,0.000,0.000,0.000
495140.147,27.832,23.438,20.996,27.832,39.551,0.000,0.000,0.000
495140.151,23.438,21.973,24.414,30.762,55.176,0.000,0.000,0.000
495140.155,0.977,31.250,28.809,5.371,47.363,0.000,0.000,0.000
495140.159,0.488,35.156,26.367,-0.488,33.203,0.000,0.000,0.000
495140.163,9.766,25.391,18.066,10.742,28.320,0.000,0.000,0.000
495140.167,12.695,22.949,16.602,15.137,25.391,0.000,0.000,0.000
495140.171,5.859,29.785,22.461,6.836,25.391,0.000,0.000,0.000
495140.175,0.000,31.250,25.391,-1.953,27.344,0.000,0.000,0.000
495140.178,12.695,28.809,25.391,8.789,30.762,0.000,0.000,0.000
495140.182,21.484,29.785,24.414,20.996,34.668,0.000,0.000,0.000
495140.186,15.137,35.645,22.949,14.648,42.480,0.000,0.000,0.000
495140.190,8.301,37.598,21.973,6.836,48.828,0.000,0.000,0.000
495140.194,33.691,41.504,23.926,21.484,61.035,0.000,0.000,0.000
495140.198,45.898,47.852,23.438,27.832,70.801,0.000,0.000,0.000
495140.202,28.809,41.992,18.555,15.625,49.316,0.000,0.000,0.000
495140.206,17.090,37.598,19.043,10.254,27.832,0.000,0.000,0.000
495140.210,20.508,33.203,20.020,10.742,35.645,0.000,0.000,0.000
495140.214,23.438,29.785,17.578,13.672,37.598,0.000,0.000,0.000
495140.218,18.555,29.785,19.531,13.672,37.598,0.000,0.000,0.000
495140.221,6.836,29.785,20.996,7.324,40.527,0.000,0.000,0.000
495140.225,3.418,29.297,20.996,6.348,37.598,0.000,0.000,0.000
495140.229,11.719,26.855,14.648,9.277,24.414,0.000,0.000,0.000
495140.233,20.508,28.809,19.043,18.555,28.320,0.000,0.000,0.000
495140.237,15.137,30.762,26.367,17.578,46.387,0.000,0.000,0.000
495140.241,-3.906,17.090,19.043,1.465,39.551,0.000,0.000,0.000
495140.245,2.441,14.160,21.484,4.883,26.367,0.000,0.000,0.000
495140.249,9.277,23.438,24.414,16.113,20.020,0.000,0.000,0.000
495140.253,0.488,24.414,20.020,11.719,11.719,0.000,0.000,0.000
495140.257,-5.859,25.879,21.973,2.441,20.508,0.000,0.000,0.000
495140.260,5.371,29.785,23.926,8.301,25.879,0.000,0.000,0.000
495140.264,22.461,29.297,24.902,25.391,30.762,0.000,0.000,0.000
495140.268,20.996,31.738,21.973,24.414,37.598,0.000,0.000,0.000
495140.272,5.371,31.250,21.484,10.254,30.273,0.000,0.000,0.000
495140.276,8.301,31.250,26.855,9.277,25.879,0.000,0.000,0.000
495140.280,21.484,37.598,24.902,23.926,32.715,0.000,0.000,0.000
495140.284,22.461,34.668,26.855,23.438,28.809,0.000,0.000,0.000
495140.288,0.977,29.297,23.926,4.883,18.066,0.000,0.000,0.000
495140.292,0.000,33.691,18.066,0.977,20.020,0.000,0.000,0.000
495140.296,25.391,41.992,26.855,14.648,34.180,0.000,0.000,0.000
495140.300,38.574,39.551,27.832,24.414,48.340,0.000,0.000,0.000
495140.303,29.297,34.668,18.066,12.207,44.434,0.000,0.000,0.000
495140.307,15.625,37.109,14.160,-1.953,29.297,0.000,0.000,0.000
495140.311,33.691,37.598,18.555,9.766,24.902,0.000,0.000,0.000
495140.315,44.434,37.598,20.508,25.391,26.367,0.000,0.000,0.000
495140.319,27.832,36.133,16.113,16.602,32.715,0.000,0.000,0.000
495140.323,11.719,39.062,16.602,2.930,41.992,0.000,0.000,0.000
495140.327,18.066,43.457,16.602,9.766,37.109,0.000,0.000,0.000
495140.331,25.879,34.180,9.277,16.602,20.996,0.000,0.000,0.000
495140.335,20.020,28.320,9.766,15.625,12.207,0.000,0.000,0.000
495140.339,4.883,28.320,11.719,6.836,29.785,0.000,0.000,0.000
495140.343,12.207,28.320,13.672,7.324,47.363,0.000,0.000,0.000
495140.346,22.461,29.785,18.555,21.973,33.691,0.000,0.000,0.000
495140.350,23.438,32.715,25.391,28.320,18.555,0.000,0.000,0.000
495140.354,10.254,36.133,27.344,17.090,23.438,0.000,0.000,0.000
495140.358,0.000,34.668,28.809,14.160,32.227,0.000,0.000,0.000
495140.362,11.719,30.762,28.320,23.438,31.738,0.000,0.000,0.000
495140.366,11.230,32.715,23.438,19.531,26.855,0.000,0.000,0.000
495140.370,5.859,38.086,27.832,12.695,34.180,0.000,0.000,0.000
495140.374,-0.488,37.109,31.738,7.324,38.086,0.000,0.000,0.000
495140.378,15.137,41.992,26.855,16.113,41.504,0.000,0.000,0.000
495140.382,26.855,40.527,23.438,26.855,41.016,0.000,0.000,0.000
495140.385,19.531,38.086,21.973,22.949,41.016,0.000,0.000,0.000
495140.389,17.090,40.039,20.508,13.184,44.922,0.000,0.000,0.000
495140.393,19.043,37.109,24.414,14.160,40.039,0.000,0.000,0.000
495140.397,25.879,40.527,30.762,31.250,39.062,0.000,0.000,0.000
495140.401,29.785,44.922,27.832,30.762,46.387,0.000,0.000,0.000
495140.405,13.672,39.551,29.297,13.184,47.852,0.000,0.000,0.000
495140.409,13.184,39.062,38.086,13.184,47.363,0.000,0.000,0.000
495140.413,29.297,40.039,36.621,22.949,41.016,0.000,0.000,0.000
495140.417,40.039,39.062,37.109,28.320,44.434,0.000,0.000,0.000
495140.421,28.320,34.668,36.621,18.066,43.945,0.000,0.000,0.000
495140.425,15.625,29.785,32.715,8.789,28.809,0.000,0.000,0.000
495140.428,28.320,33.203,32.227,17.090,24.414,0.000,0.000,0.000
495140.432,39.551,35.645,34.180,28.809,31.250,0.000,0.000,0.000
495140.436,24.902,31.738,35.156,18.555,30.273,0.000,0.000,0.000
495140.440,7.324,40.039,39.062,7.324,23.926,0.000,0.000,0.000
495140.444,19.043,47.363,36.133,14.648,23.438,0.000,0.000,0.000
495140.448,28.320,39.551,33.203,27.832,32.227,0.000,0.000,0.000
495140.452,19.043,36.133,36.621,25.879,43.945,0.000,0.000,0.000
495140.456,2.930,38.574,37.598,11.230,54.199,0.000,0.000,0.000
495140.460,3.906,34.180,35.156,9.277,42.480,0.000,0.000,0.000
495140.464,11.719,25.879,31.738,17.578,24.414,0.000,0.000,0.000
495140.467,14.160,30.762,31.250,23.926,21.484,0.000,0.000,0.000
495140.471,3.418,30.762,27.832,11.230,14.648,0.000,0.000,0.000
495140.475,0.977,24.902,25.879,3.906,18.066,0.000,0.000,0.000
495140.479,18.555,30.762,30.762,22.949,32.227,0.000,0.000,0.000
495140.483,24.902,36.621,33.691,29.297,36.621,0.000,0.000,0.000
495140.487,11.230,31.738,25.391,11.230,31.250,4.000,1.000,0.000
495140.491,4.395,24.414,21.484,8.789,41.992,0.000,0.000,0.000
495140.495,13.184,26.367,29.297,16.602,50.293,0.000,0.000,0.000
495140.499,24.414,30.273,33.691,23.926,42.480,0.000,0.000,0.000
495140.503,22.461,32.227,30.273,23.438,28.320,0.000,0.000,0.000
495140.507,8.301,30.273,26.367,12.207,26.367,0.000,0.000,0.000
495140.510,11.719,28.320,23.438,13.672,26.855,0.000,0.000,0.000
495140.514,31.250,34.668,27.832,31.250,28.809,0.000,0.000,0.000
495140.518,33.691,40.039,32.715,32.227,32.715,0.000,0.000,0.000
495140.522,19.043,31.250,26.855,16.602,32.227,0.000,0.000,0.000
495140.526,23.926,21.484,26.855,14.160,30.762,0.000,0.000,0.000
495140.530,35.645,30.762,30.273,23.926,26.367,0.000,0.000,0.000
495140.534,39.062,41.016,26.855,27.832,28.809,0.000,0.000,0.000
495140.538,21.484,35.156,25.391,15.625,22.949,0.000,0.000,0.000
495140.542,14.648,32.227,18.555,12.207,20.996,0.000,0.000,0.000
495140.546,38.086,39.062,19.531,24.414,37.109,0.000,0.000,0.000
495140.550,46.387,46.875,32.227,34.180,36.621,0.000,0.000,0.000
495140.553,30.273,45.898,24.902,24.902,43.945,0.000,0.000,0.000
495140.557,20.996,37.598,16.602,10.254,58.105,0.000,0.000,0.000
495140.561,32.227,39.551,21.973,13.672,39.062,0.000,0.000,0.000
495140.565,35.645,39.062,21.973,23.926,18.066,0.000,0.000,0.000
495140.569,32.715,42.480,20.996,19.043,20.020,0.000,0.000,0.000
495140.573,23.926,45.898,20.020,4.883,29.297,0.000,0.000,0.000
495140.577,18.555,40.527,20.508,1.465,24.414,0.000,0.000,0.000
495140.581,28.320,37.109,24.414,15.137,11.719,0.000,0.000,0.000
495140.585,40.527,45.898,25.391,21.484,20.020,0.000,0.000,0.000
495140.589,27.344,53.711,26.367,12.695,27.344,0.000,0.000,0.000
495140.592,15.625,43.945,20.020,7.812,29.785,0.000,0.000,0.000
495140.596,28.809,41.504,8.789,20.020,36.621,0.000,0.000,0.000
495140.600,27.344,38.574,8.301,24.414,22.949,0.000,0.000,0.000
495140.604,10.254,32.715,8.789,9.766,19.531,0.000,0.000,0.000
495140.608,4.883,34.180,8.301,3.418,33.203,0.000,0.000,0.000
495140.612,21.484,35.156,12.695,18.555,44.434,0.000,0.000,0.000
495140.616,29.785,34.180,20.508,33.203,34.180,0.000,0.000,0.000
495140.620,4.883,31.738,23.926,14.160,5.371,0.000,0.000,0.000
495140.624,-5.371,34.668,26.855,2.441,3.418,0.000,0.000,0.000
495140.628,14.648,40.039,32.715,22.461,20.508,0.000,0.000,0.000
495140.632,22.461,46.387,38.574,35.645,21.484,0.000,0.000,0.000
495140.635,9.277,43.945,30.273,20.508,11.719,0.000,0.000,0.000
495140.639,-0.977,37.109,21.484,6.348,12.695,0.000,0.000,0.000
495140.643,10.742,41.504,24.902,11.230,23.438,0.000,0.000,0.000
495140.647,21.484,40.527,28.809,23.926,33.691,0.000,0.000,0.000
495140.651,20.020,37.598,30.762,24.414,32.715,0.000,0.000,0.000
495140.655,8.301,39.551,33.691,13.672,41.016,0.000,0.000,0.000
495140.659,12.207,38.574,40.039,13.184,48.828,0.000,0.000,0.000
495140.663,33.203,41.016,45.898,27.832,40.527,0.000,0.000,0.000
495140.667,35.645,39.062,43.457,32.715,26.367,0.000,0.000,0.000
495140.671,23.438,36.133,48.340,22.949,30.762,0.000,0.000,0.000
495140.675,29.297,38.574,54.199,21.973,46.875,0.000,0.000,0.000
495140.678,44.434,43.457,47.363,25.391,46.387,0.000,0.000,0.000
495140.682,44.434,43.945,39.062,28.320,39.551,0.000,0.000,0.000
495140.686,38.574,41.504,36.621,26.367,43.945,0.000,0.000,0.000
495140.690,29.785,40.527,38.574,19.043,44.922,0.000,0.000,0.000
495140.694,34.180,40.527,40.527,20.996,43.945,0.000,0.000,0.000
495140.698,45.898,41.992,39.551,30.273,52.734,0.000,0.000,0.000
495140.702,40.039,37.109,31.738,23.926,41.992,0.000,0.000,0.000
495140.706,26.367,36.621,26.855,13.184,31.250,0.000,0.000,0.000
495140.710,21.973,34.180,24.414,9.766,35.645,0.000,0.000,0.000
495140.714,25.391,32.715,15.625,13.184,38.574,0.000,0.000,0.000
495140.717,30.273,26.855,12.207,21.484,45.898,0.000,0.000,0.000
495140.721,16.602,24.414,14.648,13.184,36.133,0.000,0.000,0.000
495140.725,5.859,32.227,15.625,4.883,31.738,0.000,0.000,0.000
495140.729,20.020,33.691,22.461,20.020,37.109,0.000,0.000,0.000
495140.733,27.832,31.738,24.902,28.320,26.855,0.000,0.000,0.000
495140.737,18.066,36.133,27.832,18.555,26.855,0.000,0.000,0.000
495140.741,11.230,28.809,25.879,3.418,27.832,0.000,0.000,0.000
495140.745,25.391,29.785,24.902,12.207,27.832,0.000,0.000,0.000
495140.749,33.691,38.574,29.785,28.320,32.227,0.000,0.000,0.000
495140.753,28.320,34.180,23.926,22.461,38.086,0.000,0.000,0.000
495140.757,14.648,34.180,18.555,12.207,40.527,0.000,0.000,0.000
495140.760,22.461,34.668,20.996,17.090,38.574,0.000,0.000,0.000
495140.764,46.875,39.551,27.344,36.133,56.641,0.000,0.000,0.000
495140.768,35.645,43.457,29.297,27.832,74.707,0.000,0.000,0.000
495140.772,17.090,48.828,32.227,13.672,61.035,0.000,0.000,0.000
495140.776,18.066,42.969,31.738,14.648,32.715,0.000,0.000,0.000
495140.780,24.414,31.250,32.227,23.926,25.391,0.000,0.000,0.000
495140.784,21.973,34.180,34.180,27.832,26.367,0.000,0.000,0.000
495140.788,4.883,33.691,26.855,13.672,26.855,0.000,0.000,0.000
495140.792,3.418,34.180,24.414,10.742,34.668,0.000,0.000,0.000
495140.796,21.484,39.062,28.320,21.484,38.086,0.000,0.000,0.000
495140.800,23.926,38.086,27.344,22.949,31.250,0.000,0.000,0.000
495140.803,10.742,32.227,30.762,14.160,27.832,0.000,0.000,0.000
495140.807,9.766,31.250,40.039,12.207,41.504,0.000,0.000,0.000
495140.811,22.949,31.738,39.062,18.555,43.457,0.000,0.000,0.000
495140.815,28.320,32.227,29.297,22.949,23.438,0.000,0.000,0.000
495140.819,24.414,38.574,27.344,22.461,22.461,0.000,0.000,0.000
495140.823,10.742,36.133,28.320,10.254,28.320,0.000,0.000,0.000
495140.827,12.695,25.879,20.996,7.324,27.832,0.000,0.000,0.000
495140.831,30.762,32.715,18.066,22.949,41.016,0.000,0.000,0.000
495140.835,37.109,39.062,19.043,29.297,43.457,0.000,0.000,0.000
495140.839,28.320,39.551,26.855,23.926,39.551,0.000,0.000,0.000
495140.842,27.832,41.992,30.762,22.949,50.781,0.000,0.000,0.000
495140.846,35.156,36.133,25.391,29.785,47.363,0.000,0.000,0.000
495140.850,37.598,32.227,28.320,33.203,41.016,0.000,0.000,0.000
495140.854,26.855,34.668,26.367,20.996,47.363,0.000,0.000,0.000
495140.858,25.391,31.250,31.250,12.695,45.898,0.000,0.000,0.000
495140.862,34.668,28.809,35.645,18.555,37.598,0.000,0.000,0.000
495140.866,43.457,30.762,29.297,29.297,42.969,0.000,0.000,0.000
495140.870,44.434,36.133,32.715,26.855,51.758,0.000,0.000,0.000
495140.874,31.738,37.109,39.551,14.160,50.781,0.000,0.000,0.000
495140.878,36.621,40.527,35.645,19.043,50.293,0.000,0.000,0.000
495140.882,47.363,40.039,34.668,30.273,48.828,0.000,0.000,0.000
495140.885,42.480,35.645,41.504,23.926,40.527,0.000,0.000,0.000
495140.889,28.320,41.504,40.039,9.766,23.438,0.000,0.000,0.000
495140.893,33.203,40.527,37.598,5.859,8.301,0.000,0.000,0.000
495140.897,47.852,44.434,44.922,22.949,22.461,0.000,0.000,0.000
495140.901,47.363,48.340,42.480,29.785,38.086,0.000,0.000,0.000
495140.905,31.738,45.410,35.645,8.789,33.203,0.000,0.000,0.000
495140.909,27.832,48.828,36.133,6.836,24.902,0.000,0.000,0.000
495140.913,39.062,47.363,31.738,20.996,23.926,0.000,0.000,0.000
495140.917,46.387,49.316,30.273,25.391,29.785,0.000,0.000,0.000
495140.921,30.273,48.828,34.668,17.578,32.227,0.000,0.000,0.000
495140.924,18.555,40.527,31.250,6.836,30.273,0.000,0.000,0.000
495140.928,32.227,41.504,31.250,17.090,32.715,0.000,0.000,0.000
495140.932,36.621,44.434,31.738,28.809,36.133,0.000,0.000,0.000
495140.936,20.508,32.715,29.785,14.648,24.902,0.000,0.000,0.000
495140.940,9.277,35.156,30.273,1.953,21.484,0.000,0.000,0.000
495140.944,23.438,41.504,27.344,10.254,36.133,0.000,0.000,0.000
495140.948,32.227,34.180,30.273,20.996,28.320,0.000,0.000,0.000
495140.952,21.973,34.180,33.691,12.695,11.230,0.000,0.000,0.000
495140.956,9.766,36.133,37.109,3.906,25.391,0.000,0.000,0.000
495140.960,8.301,37.109,37.109,4.883,38.086,0.000,0.000,0.000
495140.964,16.602,32.715,33.203,13.184,26.855,0.000,0.000,0.000
495140.967,20.508,32.227,36.133,23.438,21.973,0.000,0.000,0.000
495140.971,9.766,35.156,40.039,14.160,25.391,0.000,0.000,0.000
495140.975,5.859,34.180,43.945,9.277,32.227,0.000,0.000,0.000
495140.979,16.602,31.250,42.969,19.531,41.992,0.000,0.000,0.000
495140.983,19.531,25.879,37.598,22.949,37.598,0.000,0.000,0.000
495140.987,13.672,29.297,30.762,19.531,28.809,0.000,0.000,0.000
495140.991,12.695,29.785,34.668,17.578,41.992,0.000,0.000,0.000
495140.995,20.020,28.809,38.086,18.066,53.711,0.000,0.000,0.000
495140.999,27.344,34.180,39.062,28.809,26.367,0.000,0.000,0.000
495141.003,21.484,33.203,44.434,26.367,6.836,0.000,0.000,0.000
495141.007,12.207,28.809,43.945,13.184,15.625,0.000,0.000,0.000
495141.010,18.066,33.691,44.434,17.090,15.625,0.000,0.000,0.000
495141.014,24.414,37.109,41.016,30.273,14.160,0.000,0.000,0.000
495141.018,25.391,39.551,35.645,29.297,21.973,0.000,0.000,0.000
495141.022,5.859,32.227,31.738,9.277,19.531,0.000,0.000,0.000
495141.026,1.465,27.832,27.832,7.812,14.648,0.000,0.000,0.000
495141.030,18.066,34.668,25.391,20.996,17.578,0.000,0.000,0.000
495141.034,25.879,36.133,29.297,23.926,23.438,0.000,0.000,0.000
495141.038,24.414,41.016,38.086,18.555,33.691,0.000,0.000,0.000
495141.042,15.137,40.039,32.715,5.859,29.785,0.000,0.000,0.000
495141.046,16.602,31.250,23.438,11.719,33.691,0.000,0.000,0.000
495141.049,36.133,34.180,30.762,34.668,50.293,0.000,0.000,0.000
495141.053,28.809,36.621,38.574,24.414,38.086,0.000,0.000,0.000
495141.057,7.324,30.762,31.250,5.371,21.973,0.000,0.000,0.000
495141.061,28.320,34.668,29.785,16.113,42.480,0.000,0.000,0.000
495141.065,47.363,34.668,37.109,30.273,47.363,0.000,0.000,0.000
495141.069,40.527,37.598,37.598,24.902,32.715,0.000,0.000,0.000
495141.073,26.367,41.992,34.180,16.602,41.504,0.000,0.000,0.000
495141.077,29.297,37.598,38.574,19.043,31.738,0.000,0.000,0.000
495141.081,42.969,41.992,46.387,35.645,26.855,0.000,0.000,0.000
495141.085,41.504,44.922,48.828,41.016,48.828,0.000,0.000,0.000
495141.089,18.066,41.504,39.062,19.531,44.434,0.000,0.000,0.000
495141.092,16.113,37.109,33.691,16.602,27.344,0.000,0.000,0.000
495141.096,36.133,26.855,30.762,35.156,23.926,0.000,0.000,0.000
495141.100,31.250,28.320,28.320,33.203,28.809,0.000,0.000,0.000
495141.104,18.555,41.992,37.598,23.926,40.527,0.000,0.000,0.000
495141.108,19.531,46.387,41.992,20.020,47.363,0.000,0.000,0.000
495141.112,22.949,37.109,34.180,20.020,32.227,0.000,0.000,0.000
495141.116,31.738,35.645,33.203,31.250,25.391,0.000,0.000,0.000
495141.120,20.508,33.203,29.785,16.113,25.879,0.000,0.000,0.000
495141.124,2.930,27.344,29.297,0.977,27.344,0.000,0.000,0.000
495141.128,19.043,32.227,37.598,18.066,38.574,0.000,0.000,0.000
495141.132,28.320,38.086,38.086,29.785,38.574,0.000,0.000,0.000
495141.135,16.113,32.227,34.668,22.461,35.156,0.000,0.000,0.000
495141.139,5.859,26.855,27.832,8.301,36.133,0.000,0.000,0.000
495141.143,14.160,34.668,25.391,5.859,32.715,0.000,0.000,0.000
495141.147,30.762,36.621,32.715,22.461,36.621,0.000,0.000,0.000
495141.151,31.738,34.180,33.691,23.926,39.551,0.000,0.000,0.000
495141.155,22.461,38.086,31.738,15.625,47.363,0.000,0.000,0.000
495141.159,19.043,40.527,36.133,12.207,45.410,0.000,0.000,0.000
495141.163,24.902,35.645,38.574,17.578,28.809,0.000,0.000,0.000
495141.167,33.691,31.738,35.156,24.902,29.785,0.000,0.000,0.000
495141.171,25.879,35.645,34.668,15.625,36.621,0.000,0.000,0.000
495141.174,13.672,35.645,37.598,7.324,37.109,0.000,0.000,0.000
495141.178,20.020,27.344,37.109,14.160,57.129,0.000,0.000,0.000
495141.182,29.785,29.297,28.809,26.367,68.848,0.000,0.000,0.000
495141.186,26.855,27.344,20.508,17.090,33.203,0.000,0.000,0.000
495141.190,6.836,21.484,21.484,-4.883,5.859,0.000,0.000,0.000
495141.194,10.742,31.738,20.996,1.465,4.395,0.000,0.000,0.000
495141.198,22.461,30.273,17.090,12.695,17.578,0.000,0.000,0.000
495141.202,16.602,21.484,15.137,10.742,30.273,0.000,0.000,0.000
495141.206,8.301,26.367,14.648,4.395,31.250,0.000,0.000,0.000
495141.210,17.578,27.832,19.531,8.301,32.227,0.000,0.000,0.000
495141.214,31.738,27.832,24.902,22.461,35.645,0.000,0.000,0.000
495141.217,25.391,24.902,17.090,17.090,28.320,0.000,0.000,0.000
495141.221,8.789,24.902,13.672,-1.465,22.949,0.000,0.000,0.000
495141.225,4.395,27.832,12.207,-10.742,13.672,0.000,0.000,0.000
495141.229,22.461,27.344,17.578,6.836,15.625,0.000,0.000,0.000
495141.233,30.273,26.367,22.461,17.578,21.484,0.000,0.000,0.000
495141.237,17.578,28.809,23.926,5.859,24.414,0.000,0.000,0.000
495141.241,9.766,28.320,23.926,0.977,30.273,0.000,0.000,0.000
495141.245,21.484,29.297,17.090,5.371,22.949,0.000,0.000,0.000
495141.249,34.668,31.738,15.625,18.066,17.578,0.000,0.000,0.000
495141.253,27.832,31.250,11.230,14.648,20.996,0.000,0.000,0.000
495141.257,14.160,33.691,6.836,2.441,23.926,0.000,0.000,0.000
495141.260,20.508,34.668,11.230,10.254,30.273,0.000,0.000,0.000
495141.264,35.156,37.598,14.160,23.438,37.598,0.000,0.000,0.000
495141.268,34.180,34.668,9.766,21.484,36.133,0.000,0.000,0.000
495141.272,20.996,27.832,14.160,16.113,41.504,0.000,0.000,0.000
495141.276,21.973,29.785,28.320,18.555,46.875,0.000,0.000,0.000
495141.280,22.949,28.809,28.320,20.508,39.062,0.000,0.000,0.000
495141.284,25.391,24.414,22.949,20.996,32.715,0.000,0.000,0.000
495141.288,17.090,20.508,22.949,11.719,25.391,0.000,0.000,0.000
495141.292,10.254,20.996,26.367,14.648,36.133,0.000,0.000,0.000
495141.296,26.855,31.250,32.227,31.738,36.133,0.000,0.000,0.000
495141.299,34.180,33.691,26.367,35.156,20.020,0.000,0.000,0.000
495141.303,20.508,25.879,25.879,20.020,17.090,0.000,0.000,0.000
495141.307,14.160,29.297,31.738,11.230,27.832,0.000,0.000,0.000
495141.311,28.809,33.203,35.645,18.555,27.344,0.000,0.000,0.000
495141.315,39.551,34.180,44.434,31.738,37.598,0.000,0.000,0.000
495141.319,33.203,29.785,49.805,34.180,50.781,0.000,0.000,0.000
495141.323,18.066,21.973,50.781,18.555,40.039,0.000,0.000,0.000
495141.327,19.043,24.414,42.969,9.277,39.551,0.000,0.000,0.000
495141.331,27.344,26.855,36.621,19.531,44.922,0.000,0.000,0.000
495141.335,26.367,28.320,41.016,26.367,37.598,0.000,0.000,0.000
495141.339,13.184,28.809,42.480,17.578,24.902,0.000,0.000,0.000
495141.342,10.254,31.250,40.527,12.207,25.879,0.000,0.000,0.000
495141.346,21.973,34.180,38.574,25.391,34.668,0.000,0.000,0.000
495141.350,26.367,33.203,37.109,29.785,37.598,0.000,0.000,0.000
495141.354,16.113,31.250,37.109,18.066,34.668,0.000,0.000,0.000
495141.358,17.090,33.691,42.480,17.578,31.250,0.000,0.000,0.000
495141.362,39.062,41.016,48.828,34.668,40.527,0.000,0.000,0.000
495141.366,41.992,44.922,45.410,43.457,45.898,0.000,0.000,0.000
495141.370,20.996,40.527,38.086,19.531,31.250,0.000,0.000,0.000
495141.374,11.719,34.668,41.504,5.859,21.973,0.000,0.000,0.000
495141.378,27.344,40.039,41.992,22.949,23.926,0.000,0.000,0.000
495141.381,37.598,43.457,38.086,30.762,24.902,0.000,0.000,0.000
495141.385,31.250,41.016,38.574,20.020,24.902,0.000,0.000,0.000
495141.389,16.113,41.016,44.434,10.254,20.996,0.000,0.000,0.000
495141.393,17.578,36.621,47.852,10.742,8.301,0.000,0.000,0.000
495141.397,29.297,37.598,44.922,23.926,9.766,0.000,0.000,0.000
495141.401,28.320,41.504,39.062,21.484,21.973,0.000,0.000,0.000
495141.405,17.090,37.109,37.109,7.812,16.602,0.000,0.000,0.000
495141.409,19.531,35.156,36.133,10.254,12.695,0.000,0.000,0.000
495141.413,22.949,32.227,36.133,20.508,19.043,0.000,0.000,0.000
495141.417,22.949,32.227,34.668,20.996,18.066,0.000,0.000,0.000
495141.421,18.555,38.086,34.180,13.184,21.484,0.000,0.000,0.000
495141.424,9.766,35.645,38.574,9.277,26.367,0.000,0.000,0.000
495141.428,24.414,35.645,41.504,19.043,30.273,0.000,0.000,0.000
495141.432,37.109,39.062,42.480,27.832,28.809,0.000,0.000,0.000
495141.436,27.832,41.016,49.316,23.438,32.715,0.000,0.000,0.000
495141.440,14.160,36.133,48.340,13.184,38.574,0.000,0.000,0.000
495141.444,20.020,31.738,32.227,10.742,36.133,0.000,0.000,0.000
495141.448,29.297,33.203,23.438,21.484,43.945,0.000,0.000,0.000
495141.452,30.762,33.203,23.926,22.461,58.105,0.000,0.000,0.000
495141.456,18.555,35.645,25.879,16.113,41.992,0.000,0.000,0.000
495141.460,15.137,33.203,25.391,11.230,29.297,0.000,0.000,0.000
495141.464,26.367,34.180,26.367,16.113,27.344,0.000,0.000,0.000
495141.467,35.156,41.504,33.691,26.367,20.508,0.000,0.000,0.000
495141.471,16.602,34.180,36.133,12.207,20.020,0.000,0.000,0.000
495141.475,1.465,27.832,34.668,-0.977,17.090,0.000,0.000,0.000
495141.479,21.973,37.598,32.715,12.695,28.809,0.000,0.000,0.000
495141.483,29.297,42.969,28.809,22.949,25.879,0.000,0.000,0.000
495141.487,16.602,38.574,20.508,10.742,22.949,0.000,0.000,0.000
495141.491,10.254,33.203,14.160,3.418,40.527,0.000,0.000,0.000
495141.495,21.973,37.598,17.090,13.672,31.250,0.000,0.000,0.000
495141.499,34.180,41.016,19.531,21.973,28.320,0.000,0.000,0.000
495141.503,28.809,37.109,19.043,21.973,34.180,0.000,0.000,0.000
495141.506,15.137,32.715,22.949,12.207,20.020,0.000,0.000,0.000
495141.510,21.484,35.156,25.879,14.160,23.926,0.000,0.000,0.000
495141.514,39.551,40.527,29.297,34.668,39.551,0.000,0.000,0.000
495141.518,28.320,32.715,28.809,25.879,36.621,0.000,0.000,0.000
495141.522,6.836,33.203,25.879,7.812,33.203,0.000,0.000,0.000
495141.526,17.578,40.527,29.785,17.578,46.875,0.000,0.000,0.000
495141.530,32.227,35.645,31.250,26.367,46.387,0.000,0.000,0.000
495141.534,32.715,36.621,32.227,28.809,47.363,0.000,0.000,0.000
495141.538,22.461,35.645,28.809,20.508,59.570,0.000,0.000,0.000
495141.542,23.926,38.574,30.273,14.160,60.059,0.000,0.000,0.000
495141.546,35.645,47.363,35.645,24.902,50.293,0.000,0.000,0.000
495141.549,34.180,36.621,25.391,26.367,46.875,0.000,0.000,0.000
495141.553,25.879,31.250,22.461,16.602,55.176,0.000,0.000,0.000
495141.557,22.461,39.551,23.438,12.695,54.688,0.000,0.000,0.000
495141.561,33.691,39.062,11.719,16.113,52.246,0.000,0.000,0.000
495141.565,37.109,38.574,6.348,20.996,44.922,0.000,0.000,0.000
495141.569,36.133,49.316,17.090,24.414,39.551,0.000,0.000,0.000
495141.573,23.438,45.898,21.484,15.625,38.574,0.000,0.000,0.000
495141.577,21.484,33.203,15.625,14.160,37.109,0.000,0.000,0.000
495141.581,38.574,35.156,19.043,29.785,40.039,0.000,0.000,0.000
495141.585,44.434,45.898,28.809,37.598,52.246,0.000,0.000,0.000
495141.589,32.227,46.875,30.273,26.367,45.410,0.000,0.000,0.000
495141.592,27.832,39.062,22.461,17.578,28.809,0.000,0.000,0.000
495141.596,33.203,32.715,21.484,23.926,30.762,0.000,0.000,0.000
495141.600,34.180,33.691,26.855,36.133,41.504,0.000,0.000,0.000
495141.604,21.484,36.133,25.391,25.879,46.875,0.000,0.000,0.000
495141.608,7.324,32.715,30.762,9.766,40.527,0.000,0.000,0.000
495141.612,17.578,37.598,35.156,14.160,31.738,0.000,0.000,0.000
495141.616,24.414,38.086,30.273,21.973,32.715,0.000,0.000,0.000
495141.620,18.555,41.016,30.762,20.508,32.715,0.000,0.000,0.000
495141.624,9.277,40.527,27.344,11.230,30.273,0.000,0.000,0.000
495141.628,22.949,37.109,24.414,12.695,35.645,0.000,0.000,0.000
495141.631,34.668,37.109,19.531,28.809,43.945,0.000,0.000,0.000
495141.635,31.250,33.691,17.090,32.227,41.992,0.000,0.000,0.000
495141.639,20.996,36.133,18.066,18.066,36.621,0.000,0.000,0.000
495141.643,28.320,42.480,21.973,19.531,44.922,0.000,0.000,0.000
495141.647,51.270,43.457,27.344,40.039,66.406,0.000,0.000,0.000
495141.651,44.434,40.039,23.438,37.598,58.105,0.000,0.000,0.000
495141.655,22.949,34.668,18.066,20.508,37.598,0.000,0.000,0.000
495141.659,20.508,27.344,14.648,16.113,49.805,0.000,0.000,0.000
495141.663,36.621,34.180,17.578,29.297,61.035,0.000,0.000,0.000
495141.667,42.480,35.645,17.578,37.598,50.781,0.000,0.000,0.000
495141.671,25.879,33.203,9.766,21.973,30.273,0.000,0.000,0.000
495141.674,15.625,34.668,16.113,14.648,29.297,0.000,0.000,0.000
495141.678,29.785,38.574,26.855,26.367,41.504,0.000,0.000,0.000
495141.682,31.738,40.527,23.438,36.621,47.363,0.000,0.000,0.000
495141.686,17.578,36.133,19.043,27.344,46.387,0.000,0.000,0.000
495141.690,10.254,37.598,21.484,18.555,45.410,0.000,0.000,0.000
495141.694,20.996,46.387,28.320,27.832,40.039,0.000,0.000,0.000
495141.698,24.414,43.945,28.320,29.785,26.367,0.000,0.000,0.000
495141.702,15.137,38.574,29.785,20.996,21.973,0.000,0.000,0.000
495141.706,4.883,35.645,28.320,11.719,30.273,0.000,0.000,0.000
495141.710,11.719,37.109,26.367,7.812,34.180,0.000,0.000,0.000
495141.714,27.344,42.480,27.832,19.043,32.227,0.000,0.000,0.000
495141.717,30.273,41.016,24.414,25.879,32.227,0.000,0.000,0.000
495141.721,20.508,45.410,20.508,13.672,29.785,0.000,0.000,0.000
495141.725,16.602,46.875,17.578,4.883,28.809,0.000,0.000,0.000
495141.729,24.902,37.598,20.996,13.184,25.879,0.000,0.000,0.000
495141.733,28.320,33.691,23.438,16.602,24.414,0.000,0.000,0.000
495141.737,23.438,37.598,26.367,15.625,37.109,0.000,0.000,0.000
495141.741,21.973,43.457,31.250,19.531,49.316,0.000,0.000,0.000
495141.745,21.973,45.898,29.785,19.043,45.898,0.000,0.000,0.000
495141.749,25.879,44.434,33.203,25.879,45.898,0.000,0.000,0.000
495141.753,24.902,41.016,30.273,23.438,55.664,0.000,0.000,0.000
495141.756,9.277,41.504,22.461,9.766,52.734,0.000,0.000,0.000
495141.760,7.324,38.086,19.531,6.348,29.297,0.000,0.000,0.000
495141.764,22.461,40.039,21.484,17.090,21.973,0.000,0.000,0.000
495141.768,22.949,42.480,30.273,16.602,23.438,0.000,0.000,0.000
495141.772,5.371,35.645,23.438,-1.465,33.203,0.000,0.000,0.000
495141.776,1.953,34.180,17.578,-2.930,36.621,0.000,0.000,0.000
495141.780,10.742,36.621,23.926,11.230,8.301,0.000,0.000,0.000
495141.784,19.043,38.086,26.367,21.484,4.395,0.000,0.000,0.000
495141.788,11.230,38.086,25.879,13.672,14.160,0.000,0.000,0.000
495141.792,-0.488,34.180,21.484,1.953,13.184,0.000,0.000,0.000
495141.796,2.930,27.832,20.020,5.859,28.809,0.000,0.000,0.000
495141.799,19.531,27.344,28.320,20.020,41.992,0.000,0.000,0.000
495141.803,14.160,37.109,29.297,17.090,26.367,0.000,0.000,0.000
495141.807,-0.977,36.621,23.926,2.930,13.184,0.000,0.000,0.000
495141.811,11.719,32.227,22.949,9.277,17.090,0.000,0.000,0.000
495141.815,24.902,32.715,21.973,25.879,25.879,0.000,0.000,0.000
495141.819,25.391,34.668,23.438,26.367,35.156,0.000,0.000,0.000
495141.823,16.602,41.016,26.855,20.020,41.504,0.000,0.000,0.000
495141.827,25.879,41.992,27.344,26.367,45.410,0.000,0.000,0.000
495141.831,41.992,39.551,30.762,41.016,45.898,0.000,0.000,0.000
495141.835,43.945,44.434,43.945,43.457,50.781,0.000,0.000,0.000
495141.838,27.344,41.504,54.688,28.320,46.875,0.000,0.000,0.000
495141.842,20.996,32.715,58.594,19.043,36.133,0.000,0.000,0.000
495141.846,39.062,32.227,61.035,30.273,45.898,0.000,0.000,0.000
495141.850,38.086,32.227,61.523,36.621,41.504,0.000,0.000,0.000
495141.854,22.461,32.227,65.430,27.832,35.645,2.000,1.000,90.000
495141.858,21.484,34.668,67.871,24.902,50.293,0.000,0.000,0.000
495141.862,31.250,37.598,62.500,31.250,59.570,0.000,0.000,0.000
495141.866,31.250,36.133,58.105,34.180,46.875,0.000,0.000,0.000
495141.870,26.367,33.203,56.641,24.414,44.434,0.000,0.000,0.000
495141.874,16.113,38.086,53.223,11.719,41.992,0.000,0.000,0.000
495141.878,22.461,36.621,56.641,16.602,39.551,0.000,0.000,0.000
495141.881,30.273,29.297,53.223,24.414,42.480,0.000,0.000,0.000
495141.885,25.391,31.738,47.363,20.508,40.527,0.000,0.000,0.000
495141.889,15.625,37.109,56.641,17.090,58.594,0.000,0.000,0.000
495141.893,18.066,35.156,60.059,14.648,59.082,0.000,0.000,0.000
495141.897,35.645,36.621,65.918,27.832,46.387,0.000,0.000,0.000
495141.901,40.527,42.480,74.707,37.598,50.293,0.000,0.000,0.000
495141.905,21.484,33.691,69.824,15.137,38.574,0.000,0.000,0.000
495141.909,18.555,37.109,65.430,8.301,35.156,0.000,0.000,0.000
495141.913,33.203,46.387,59.082,18.555,41.504,0.000,0.000,0.000
495141.917,36.621,39.551,58.594,24.902,36.621,0.000,0.000,0.000
495141.921,24.414,34.668,58.594,12.695,28.809,0.000,0.000,0.000
495141.924,14.648,41.992,59.082,5.371,34.180,0.000,0.000,0.000
495141.928,32.227,48.340,56.641,18.066,41.016,0.000,0.000,0.000
495141.932,38.086,37.109,45.410,29.297,41.016,0.000,0.000,0.000
495141.936,24.902,33.691,47.363,26.855,41.992,0.000,0.000,0.000
495141.940,7.324,34.668,49.805,11.719,45.898,0.000,0.000,0.000
495141.944,7.324,31.738,41.016,11.719,44.922,0.000,0.000,0.000
