timestamps,TP9,AF7,AF8,TP10,Right AUX,Frequency,Contrast,Orientation
621440.707,-43.945,-22.949,-22.949,-2.930,0.000,0.000,0.000,0.000
621440.711,-35.156,-11.230,-7.812,54.688,0.000,0.000,0.000,0.000
621440.715,-25.391,-51.758,-48.340,38.574,0.000,0.000,0.000,0.000
621440.719,-36.133,-59.570,-62.988,-20.508,0.000,0.000,0.000,0.000
621440.723,-44.922,-38.574,-42.480,-15.625,0.000,0.000,0.000,0.000
621440.727,-42.969,-17.578,-17.578,40.039,0.000,0.000,0.000,0.000
621440.731,-30.273,-22.461,-27.832,42.969,0.000,0.000,0.000,0.000
621440.735,-43.945,-68.359,-75.684,-11.719,0.000,0.000,0.000,0.000
621440.739,-58.105,-75.195,-75.684,-1.953,0.000,0.000,0.000,0.000
621440.743,-27.832,-49.316,-45.410,45.898,0.000,0.000,0.000,0.000
621440.747,-7.324,-30.273,-22.461,72.266,0.000,0.000,0.000,0.000
621440.751,-22.461,-54.199,-48.340,24.902,0.000,0.000,0.000,0.000
621440.754,-52.246,-88.379,-85.449,-21.484,0.000,0.000,0.000,0.000
621440.758,-46.875,-78.613,-72.266,12.207,0.000,0.000,0.000,0.000
621440.762,-20.508,-51.758,-47.363,62.500,0.000,0.000,0.000,0.000
621440.766,-12.207,-58.594,-63.965,28.809,0.000,0.000,0.000,0.000
621440.770,-40.527,-95.703,-101.074,-18.555,0.000,0.000,0.000,0.000
621440.774,-64.453,-101.074,-106.445,13.184,0.000,0.000,0.000,0.000
621440.778,-51.758,-86.914,-92.285,78.125,0.000,0.000,0.000,0.000
621440.782,-40.039,-95.703,-96.191,60.059,0.000,0.000,0.000,0.000
621440.786,-63.477,-121.582,-120.117,-27.832,0.000,0.000,0.000,0.000
621440.790,-78.613,-127.441,-127.441,-30.762,0.000,0.000,0.000,0.000
621440.794,-63.477,-109.375,-107.910,51.270,0.000,0.000,0.000,0.000
621440.798,-35.156,-118.652,-116.699,93.750,0.000,0.000,0.000,0.000
621440.801,-31.738,-159.668,-161.133,28.320,0.000,0.000,0.000,0.000
621440.805,-71.289,-173.340,-178.711,-25.879,0.000,0.000,0.000,0.000
621440.809,-74.707,-141.602,-146.973,21.484,0.000,0.000,0.000,0.000
621440.813,-54.199,-111.816,-115.234,62.988,0.000,0.000,0.000,0.000
621440.817,-41.016,-116.699,-123.535,20.508,0.000,0.000,0.000,0.000
621440.821,-65.430,-112.305,-117.676,-33.691,0.000,0.000,0.000,0.000
621440.825,-50.293,-49.316,-51.270,-31.250,0.000,0.000,0.000,0.000
621440.829,-6.836,-6.836,-11.230,35.156,0.000,0.000,0.000,0.000
621440.833,3.418,-21.484,-27.832,18.066,0.000,0.000,0.000,0.000
621440.837,-24.902,-47.363,-52.734,-35.645,0.000,0.000,0.000,0.000
621440.841,-62.988,-33.691,-40.527,-25.391,0.000,0.000,0.000,0.000
621440.845,-38.086,9.277,2.930,15.137,0.000,0.000,0.000,0.000
621440.848,-11.230,10.254,8.301,15.625,0.000,0.000,0.000,0.000
621440.852,-15.625,4.883,0.977,-31.738,0.000,0.000,0.000,0.000
621440.856,-16.602,20.996,12.207,-38.086,0.000,0.000,0.000,0.000
621440.860,-10.254,54.199,48.340,-13.672,0.000,0.000,0.000,0.000
621440.864,14.648,87.402,83.008,-9.277,0.000,0.000,0.000,0.000
621440.868,14.648,64.941,53.711,-43.457,0.000,0.000,0.000,0.000
621440.872,-9.766,46.387,37.598,-70.312,0.000,0.000,0.000,0.000
621440.876,-11.719,59.570,58.594,-18.066,0.000,0.000,0.000,0.000
621440.880,14.648,85.449,83.008,34.668,0.000,0.000,0.000,0.000
621440.884,25.391,95.703,89.844,-22.949,0.000,0.000,0.000,0.000
621440.888,1.465,63.965,55.664,-60.059,0.000,0.000,0.000,0.000
621440.892,6.836,64.941,62.988,-15.625,0.000,0.000,0.000,0.000
621440.896,27.832,87.402,83.496,38.574,0.000,0.000,0.000,0.000
621440.899,17.090,83.984,77.637,-8.301,0.000,0.000,0.000,0.000
621440.903,-19.531,46.875,45.898,-77.637,0.000,0.000,0.000,0.000
621440.907,-17.090,26.855,27.344,-63.965,0.000,0.000,0.000,0.000
621440.911,6.836,51.758,44.434,3.418,0.000,0.000,0.000,0.000
621440.915,18.066,52.246,45.410,28.809,0.000,0.000,0.000,0.000
621440.919,8.301,36.621,35.156,-49.316,0.000,0.000,0.000,0.000
621440.923,-11.719,21.973,20.508,-64.453,0.000,0.000,0.000,0.000
621440.927,-17.578,10.742,5.859,-3.906,0.000,0.000,0.000,0.000
621440.931,-6.348,26.367,23.438,31.250,0.000,0.000,0.000,0.000
621440.935,13.672,17.090,16.602,14.160,0.000,0.000,0.000,0.000
621440.939,-11.719,-6.836,-10.742,-45.410,0.000,0.000,0.000,0.000
621440.943,-17.578,45.898,39.062,-40.527,0.000,0.000,0.000,0.000
621440.946,4.883,83.496,81.543,11.719,0.000,0.000,0.000,0.000
621440.950,9.766,70.801,70.801,-11.719,0.000,0.000,0.000,0.000
621440.954,-8.789,54.688,51.758,-49.805,0.000,0.000,0.000,0.000
621440.958,-17.578,78.125,79.590,-40.039,0.000,0.000,0.000,0.000
621440.962,1.465,124.023,124.512,7.812,0.000,0.000,0.000,0.000
621440.966,19.043,106.445,106.445,-7.324,0.000,0.000,0.000,0.000
621440.970,-2.930,43.945,48.828,-66.895,0.000,0.000,0.000,0.000
621440.974,-24.902,40.039,43.945,-58.105,0.000,0.000,0.000,0.000
621440.978,-1.953,90.332,94.727,-20.996,0.000,0.000,0.000,0.000
621440.982,20.996,83.496,86.426,-27.344,0.000,0.000,0.000,0.000
621440.986,16.602,38.086,37.598,-61.035,0.000,0.000,0.000,0.000
621440.990,-9.277,27.832,29.785,-62.988,0.000,0.000,0.000,0.000
621440.993,-0.488,58.105,63.965,-4.395,0.000,0.000,0.000,0.000
621440.997,21.973,80.078,82.520,22.949,0.000,0.000,0.000,0.000
621441.001,10.254,51.758,50.781,-43.457,0.000,0.000,0.000,0.000
621441.005,-40.039,5.859,6.348,-79.590,0.000,0.000,0.000,0.000
621441.009,-40.527,21.973,22.949,-43.457,0.000,0.000,0.000,0.000
621441.013,-6.836,27.832,32.715,10.742,0.000,0.000,0.000,0.000
621441.017,-15.625,-3.906,-0.488,-41.992,0.000,0.000,0.000,0.000
621441.021,-32.227,-6.836,-6.836,-87.402,0.000,0.000,0.000,0.000
621441.025,-32.227,9.277,10.254,-54.688,0.000,0.000,0.000,0.000
621441.029,-15.625,26.855,29.297,9.766,0.000,0.000,0.000,0.000
621441.033,0.000,28.809,30.762,12.207,0.000,0.000,0.000,0.000
621441.037,-12.695,7.812,13.184,-67.383,0.000,0.000,0.000,0.000
621441.041,-20.020,3.906,5.859,-80.566,0.000,0.000,0.000,0.000
621441.044,-15.137,39.062,36.621,-9.277,0.000,0.000,0.000,0.000
621441.048,1.953,59.082,61.523,15.625,0.000,0.000,0.000,0.000
621441.052,10.254,46.875,47.852,-6.836,0.000,0.000,0.000,0.000
621441.056,-18.066,50.781,47.363,-17.090,0.000,0.000,0.000,0.000
621441.060,-11.719,88.867,89.355,27.344,0.000,0.000,0.000,0.000
621441.064,17.578,109.863,114.746,59.082,0.000,0.000,0.000,0.000
621441.068,3.906,71.289,73.242,0.488,0.000,0.000,0.000,0.000
621441.072,-6.836,49.316,55.176,-1.465,0.000,0.000,0.000,0.000
621441.076,0.000,75.684,84.473,40.527,0.000,0.000,0.000,0.000
621441.080,26.855,112.305,117.188,68.359,0.000,0.000,0.000,0.000
621441.084,24.902,87.891,88.867,26.367,0.000,0.000,0.000,0.000
621441.088,-17.578,51.758,56.641,8.789,0.000,0.000,0.000,0.000
621441.091,-1.953,95.215,96.680,58.105,0.000,0.000,0.000,0.000
621441.095,24.902,125.488,125.488,62.988,0.000,0.000,0.000,0.000
621441.099,15.625,80.078,83.984,24.414,0.000,0.000,0.000,0.000
621441.103,-18.066,34.668,35.645,-11.230,0.000,0.000,0.000,0.000
621441.107,-18.066,48.340,53.711,6.348,0.000,0.000,0.000,0.000
621441.111,32.715,90.820,100.586,74.219,0.000,0.000,0.000,0.000
621441.115,51.270,78.613,84.961,37.598,0.000,0.000,0.000,0.000
621441.119,0.488,16.113,18.555,-53.223,0.000,0.000,0.000,0.000
621441.123,-37.598,-0.488,2.441,-41.016,0.000,0.000,0.000,0.000
621441.127,-24.414,27.832,31.738,36.621,0.000,0.000,0.000,0.000
621441.131,-3.418,16.602,20.020,29.785,0.000,0.000,0.000,0.000
621441.135,-21.973,-29.785,-27.344,-46.875,0.000,0.000,0.000,0.000
621441.138,-47.852,-40.527,-40.039,-24.414,0.000,0.000,0.000,0.000
621441.142,-26.367,-8.789,-8.789,37.598,0.000,0.000,0.000,0.000
621441.146,6.836,5.859,8.789,42.969,0.000,0.000,0.000,0.000
621441.150,-12.695,-33.203,-37.598,-19.531,0.000,0.000,0.000,0.000
621441.154,-54.688,-60.547,-64.453,-55.176,0.000,0.000,0.000,0.000
621441.158,-55.176,-50.293,-45.898,-23.926,0.000,0.000,0.000,0.000
621441.162,-29.785,-27.344,-21.973,21.973,0.000,0.000,0.000,0.000
621441.166,-8.301,-35.645,-34.180,6.836,0.000,0.000,0.000,0.000
621441.170,-32.715,-62.500,-64.453,-57.617,0.000,0.000,0.000,0.000
621441.174,-48.340,-54.688,-59.082,-14.648,0.000,0.000,0.000,0.000
621441.178,-25.391,-47.852,-53.223,39.062,0.000,0.000,0.000,0.000
621441.182,-2.930,-58.594,-68.359,-15.137,0.000,0.000,0.000,0.000
621441.186,-30.762,-83.984,-95.703,-39.551,0.000,0.000,0.000,0.000
621441.189,-42.969,-67.871,-77.148,-22.949,0.000,0.000,0.000,0.000
621441.193,-10.742,-29.785,-40.527,1.953,0.000,0.000,0.000,0.000
621441.197,-11.230,-43.945,-57.617,-25.879,0.000,0.000,0.000,0.000
621441.201,-32.227,-89.844,-103.027,-54.688,0.000,0.000,0.000,0.000
621441.205,-30.273,-93.262,-100.098,-32.227,0.000,0.000,0.000,0.000
621441.209,-27.832,-59.082,-60.547,-22.461,0.000,0.000,0.000,0.000
621441.213,-19.043,-41.016,-48.340,-37.598,0.000,0.000,0.000,0.000
621441.217,-33.203,-85.938,-93.262,-78.125,0.000,0.000,0.000,0.000
621441.221,-51.270,-100.098,-103.027,-85.938,0.000,0.000,0.000,0.000
621441.225,-25.879,-59.082,-60.547,-33.691,0.000,0.000,0.000,0.000
621441.229,-16.113,-54.199,-54.688,-44.922,0.000,0.000,0.000,0.000
621441.233,-33.691,-105.957,-108.887,-118.652,0.000,0.000,0.000,0.000
621441.236,-69.336,-153.809,-158.203,-112.793,0.000,0.000,0.000,0.000
621441.240,-69.336,-115.234,-119.629,-42.480,0.000,0.000,0.000,0.000
621441.244,-50.293,-75.195,-80.078,-7.324,0.000,0.000,0.000,0.000
621441.248,-41.504,-104.004,-108.887,-71.777,0.000,0.000,0.000,0.000
621441.252,-58.105,-139.160,-144.043,-101.562,0.000,0.000,0.000,0.000
621441.256,-61.523,-107.422,-111.816,-37.598,0.000,0.000,0.000,0.000
621441.260,-29.297,-70.801,-75.684,-8.301,0.000,0.000,0.000,0.000
621441.264,-32.715,-105.469,-111.816,-77.637,0.000,0.000,0.000,0.000
621441.268,-52.246,-149.414,-156.738,-126.465,0.000,0.000,0.000,0.000
621441.272,-35.156,-118.164,-122.070,-86.914,0.000,0.000,0.000,0.000
621441.276,-22.461,-68.359,-72.266,-12.695,0.000,0.000,0.000,0.000
621441.280,-0.977,-77.637,-85.938,-8.301,0.000,0.000,0.000,0.000
621441.283,-20.996,-130.859,-140.625,-82.031,0.000,0.000,0.000,0.000
621441.287,-60.547,-134.766,-139.160,-88.867,0.000,0.000,0.000,0.000
621441.291,-59.082,-99.121,-100.586,-39.551,0.000,0.000,0.000,0.000
621441.295,-26.855,-88.379,-81.543,-20.020,0.000,0.000,0.000,0.000
621441.299,-24.414,-126.465,-118.652,-57.129,0.000,0.000,0.000,0.000
621441.303,-47.852,-136.230,-134.277,-67.871,0.000,0.000,0.000,0.000
621441.307,-40.039,-79.590,-82.031,-25.879,0.000,0.000,0.000,0.000
621441.311,-29.785,-63.965,-69.336,-7.324,0.000,0.000,0.000,0.000
621441.315,-30.762,-93.262,-98.145,-32.715,0.000,0.000,0.000,0.000
621441.319,-55.664,-127.930,-131.348,-46.875,0.000,0.000,0.000,0.000
621441.323,-61.523,-116.699,-116.211,-24.902,0.000,0.000,0.000,0.000
621441.327,-26.367,-60.547,-57.129,26.367,0.000,0.000,0.000,0.000
621441.331,-13.184,-53.711,-54.688,7.324,0.000,0.000,0.000,0.000
621441.334,-36.133,-100.586,-105.469,-68.848,0.000,0.000,0.000,0.000
621441.338,-53.711,-113.281,-119.629,-57.617,0.000,0.000,0.000,0.000
621441.342,-32.715,-71.777,-78.125,23.926,0.000,0.000,0.000,0.000
621441.346,-3.418,-32.715,-38.574,26.367,0.000,0.000,0.000,0.000
621441.350,-30.762,-64.941,-70.312,-22.949,0.000,0.000,0.000,0.000
621441.354,-39.062,-103.027,-106.445,-23.438,0.000,0.000,0.000,0.000
621441.358,-15.625,-69.336,-70.801,29.785,0.000,0.000,0.000,0.000
621441.362,4.395,-42.480,-41.016,49.805,0.000,0.000,0.000,0.000
621441.366,-6.348,-70.312,-68.359,-34.668,0.000,0.000,0.000,0.000
621441.370,-49.316,-101.074,-100.586,-66.406,0.000,0.000,0.000,0.000
621441.374,-58.105,-79.590,-77.637,-31.738,0.000,0.000,0.000,0.000
621441.378,-27.344,-44.434,-42.969,20.508,0.000,0.000,0.000,0.000
621441.381,-5.859,-47.852,-42.480,15.625,0.000,0.000,0.000,0.000
621441.385,-36.621,-82.520,-83.008,-42.969,0.000,0.000,0.000,0.000
621441.389,-55.664,-75.684,-82.031,-32.227,0.000,0.000,0.000,0.000
621441.393,-23.438,-20.508,-21.973,60.547,0.000,0.000,0.000,0.000
621441.397,3.906,-24.414,-24.902,41.504,0.000,0.000,0.000,0.000
621441.401,-23.926,-72.266,-75.684,-45.898,0.000,0.000,0.000,0.000
621441.405,-51.758,-64.941,-68.848,-35.645,0.000,0.000,0.000,0.000
621441.409,-28.809,-32.715,-34.668,9.766,0.000,0.000,0.000,0.000
621441.413,-10.742,-23.438,-26.367,2.930,0.000,0.000,0.000,0.000
621441.417,-25.391,-60.059,-63.477,-29.297,0.000,0.000,0.000,0.000
621441.421,-46.387,-79.102,-82.031,-31.250,0.000,0.000,0.000,0.000
621441.425,-51.758,-40.039,-41.504,4.883,0.000,0.000,0.000,0.000
621441.429,-31.738,-19.531,-13.672,47.363,0.000,0.000,0.000,0.000
621441.432,-23.438,-39.551,-40.527,2.930,0.000,0.000,0.000,0.000
621441.436,-38.574,-56.641,-61.035,-27.832,0.000,0.000,0.000,0.000
621441.440,-25.391,-23.926,-22.949,-6.836,0.000,0.000,0.000,0.000
621441.444,-19.043,2.441,4.395,12.695,0.000,0.000,0.000,0.000
621441.448,-18.066,-24.414,-22.949,-22.949,0.000,0.000,0.000,0.000
621441.452,-28.809,-59.570,-60.059,-46.875,0.000,0.000,0.000,0.000
621441.456,-45.898,-55.176,-55.664,-6.836,0.000,0.000,0.000,0.000
621441.460,-24.902,-15.625,-11.719,34.668,0.000,0.000,0.000,0.000
621441.464,-25.391,-6.836,-4.395,5.859,0.000,0.000,0.000,0.000
621441.468,-42.969,-42.480,-45.898,-19.531,0.000,0.000,0.000,0.000
621441.472,-45.410,-55.664,-55.176,-12.695,0.000,0.000,0.000,0.000
621441.476,-45.898,-19.043,-14.160,24.902,0.000,0.000,0.000,0.000
621441.479,-30.273,3.906,4.395,36.621,0.000,0.000,0.000,0.000
621441.483,-33.203,-13.672,-10.742,-38.574,0.000,0.000,0.000,0.000
621441.487,-70.312,-48.828,-43.457,-70.312,0.000,0.000,0.000,0.000
621441.491,-64.453,-40.527,-38.086,-13.184,0.000,0.000,0.000,0.000
621441.495,-26.367,15.137,16.113,54.688,0.000,0.000,0.000,0.000
621441.499,-13.672,7.812,14.160,2.930,0.000,0.000,0.000,0.000
621441.503,-30.273,-36.621,-30.762,-38.086,0.000,0.000,0.000,0.000
621441.507,-20.020,-24.902,-20.508,29.785,0.000,0.000,0.000,0.000
621441.511,16.113,28.320,33.203,76.660,0.000,0.000,0.000,0.000
621441.515,0.977,29.785,31.738,34.180,0.000,0.000,0.000,0.000
621441.519,-28.809,-17.090,-20.996,-17.578,0.000,0.000,0.000,0.000
621441.523,-28.320,-20.508,-31.738,-20.996,0.000,0.000,0.000,0.000
621441.526,-9.277,17.578,10.742,29.297,0.000,0.000,0.000,0.000
621441.530,9.766,14.648,15.137,34.668,0.000,0.000,0.000,0.000
621441.534,-4.883,-38.574,-39.062,-7.812,0.000,0.000,0.000,0.000
621441.538,-16.113,-50.293,-47.852,-13.184,0.000,0.000,0.000,0.000
621441.542,0.977,18.555,21.484,34.668,0.000,0.000,0.000,0.000
621441.546,25.879,62.500,64.941,69.824,0.000,0.000,0.000,0.000
621441.550,0.488,12.695,15.137,2.441,0.000,0.000,0.000,0.000
621441.554,-39.551,-54.199,-54.199,-27.832,0.000,0.000,0.000,0.000
621441.558,-31.738,-23.926,-23.438,3.418,0.000,0.000,0.000,0.000
621441.562,-4.395,20.508,19.043,29.785,0.000,0.000,0.000,0.000
621441.566,-8.301,-46.387,-41.504,-9.766,0.000,0.000,0.000,0.000
621441.570,-41.992,-119.629,-112.305,-40.527,0.000,0.000,0.000,0.000
621441.574,-42.480,-92.285,-90.332,4.395,0.000,0.000,0.000,0.000
621441.577,-39.551,-65.918,-63.477,16.602,0.000,0.000,0.000,0.000
621441.581,-31.250,-98.145,-98.633,-13.184,0.000,0.000,0.000,0.000
621441.585,-30.762,-133.301,-140.625,-4.883,0.000,0.000,0.000,0.000
621441.589,-53.223,-125.000,-130.859,-0.977,0.000,0.000,0.000,0.000
621441.593,-35.156,-84.961,-84.473,45.410,0.000,0.000,0.000,0.000
621441.597,0.488,-62.012,-60.059,49.316,0.000,0.000,0.000,0.000
621441.601,-1.465,-63.477,-67.383,-31.738,0.000,0.000,0.000,0.000
621441.605,-34.180,-80.566,-83.008,-35.156,0.000,0.000,0.000,0.000
621441.609,-51.270,-64.941,-67.383,2.441,0.000,0.000,0.000,0.000
621441.613,-19.043,-32.715,-39.062,25.879,0.000,0.000,0.000,0.000
621441.617,-1.953,-25.391,-24.414,-1.953,0.000,0.000,0.000,0.000
621441.621,-27.832,-35.645,-34.180,-25.391,0.000,0.000,0.000,0.000
621441.624,-37.598,-16.113,-17.578,-5.859,0.000,0.000,0.000,0.000
621441.628,-15.625,19.531,23.926,27.832,0.000,0.000,0.000,0.000
621441.632,2.441,25.391,28.809,35.645,0.000,0.000,0.000,0.000
621441.636,-14.160,38.574,41.016,-11.719,0.000,0.000,0.000,0.000
621441.640,-3.906,83.008,80.566,22.949,0.000,0.000,0.000,0.000
621441.644,21.973,126.465,123.047,70.312,0.000,0.000,0.000,0.000
621441.648,1.465,91.309,87.891,1.953,0.000,0.000,0.000,0.000
621441.652,-29.297,18.555,12.207,-28.809,0.000,0.000,0.000,0.000
621441.656,-29.297,23.926,21.484,-5.371,0.000,0.000,0.000,0.000
621441.660,-0.488,52.734,48.340,40.527,0.000,0.000,0.000,0.000
621441.664,14.160,11.230,1.465,15.625,0.000,0.000,0.000,0.000
621441.668,-31.250,-61.523,-68.848,-18.066,0.000,0.000,0.000,0.000
621441.671,-60.547,-92.285,-95.703,-15.137,0.000,0.000,0.000,0.000
621441.675,-54.199,-64.941,-69.336,2.441,0.000,0.000,0.000,0.000
621441.679,-19.531,-72.266,-71.777,22.461,0.000,0.000,0.000,0.000
621441.683,-26.367,-152.832,-150.879,-4.883,0.000,0.000,0.000,0.000
621441.687,-48.340,-182.129,-177.734,-7.324,0.000,0.000,0.000,0.000
621441.691,-41.504,-163.574,-157.227,33.691,0.000,0.000,0.000,0.000
621441.695,-30.762,-155.762,-153.809,25.391,0.000,0.000,0.000,0.000
621441.699,-23.926,-200.195,-200.195,-27.344,0.000,0.000,0.000,0.000
621441.703,-51.270,-260.254,-261.719,-47.852,0.000,0.000,0.000,0.000
621441.707,-75.195,-239.258,-244.141,1.465,0.000,0.000,0.000,0.000
621441.711,-50.781,-204.102,-205.566,45.410,0.000,0.000,0.000,0.000
621441.715,-56.641,-229.004,-224.609,-11.230,0.000,0.000,0.000,0.000
621441.719,-92.285,-264.160,-263.184,-41.992,0.000,0.000,0.000,0.000
621441.722,-87.891,-216.309,-217.285,1.953,0.000,0.000,0.000,0.000
621441.726,-60.059,-126.465,-121.582,57.617,0.000,0.000,0.000,0.000
621441.730,-28.809,-92.773,-89.355,46.875,0.000,0.000,0.000,0.000
621441.734,-40.527,-113.770,-111.328,-16.602,0.000,0.000,0.000,0.000
621441.738,-55.664,-83.008,-80.566,-10.254,0.000,0.000,0.000,0.000
621441.742,-35.645,-34.668,-30.273,48.340,0.000,0.000,0.000,0.000
621441.746,-0.977,-39.551,-35.156,59.570,0.000,0.000,0.000,0.000
621441.750,-24.414,-58.594,-56.641,-0.488,0.000,0.000,0.000,0.000
621441.754,-69.824,-28.809,-28.809,-11.230,0.000,0.000,0.000,0.000
621441.758,-47.363,19.043,22.461,49.805,0.000,0.000,0.000,0.000
621441.762,8.301,45.898,52.734,59.570,0.000,0.000,0.000,0.000
621441.766,-6.348,39.062,40.039,0.977,0.000,0.000,0.000,0.000
621441.769,-30.273,17.578,18.066,-13.672,0.000,0.000,0.000,0.000
621441.773,-3.418,47.363,51.270,16.113,0.000,0.000,0.000,0.000
621441.777,6.348,78.125,81.055,33.691,0.000,0.000,0.000,0.000
621441.781,-27.344,54.688,54.199,-21.484,0.000,0.000,0.000,0.000
621441.785,-59.082,0.000,-6.836,-41.992,0.000,0.000,0.000,0.000
621441.789,-49.805,9.277,4.883,-13.184,0.000,0.000,0.000,0.000
621441.793,-12.207,75.684,76.172,28.320,0.000,0.000,0.000,0.000
621441.797,2.930,75.195,77.148,8.789,0.000,0.000,0.000,0.000
621441.801,-12.207,20.508,20.508,-46.875,0.000,0.000,0.000,0.000
621441.805,-8.789,29.785,24.902,-15.625,0.000,0.000,0.000,0.000
621441.809,2.930,83.008,80.566,36.621,0.000,0.000,0.000,0.000
621441.813,8.301,94.238,94.727,7.812,0.000,0.000,0.000,0.000
621441.816,-11.230,45.898,46.875,-43.945,0.000,0.000,0.000,0.000
621441.820,-14.648,24.902,26.367,-28.320,0.000,0.000,0.000,0.000
621441.824,-4.883,65.918,65.918,4.395,0.000,0.000,0.000,0.000
621441.828,18.066,113.770,114.746,24.414,0.000,0.000,0.000,0.000
621441.832,38.086,83.496,83.496,10.742,0.000,0.000,0.000,0.000
621441.836,20.508,25.391,23.438,-13.672,0.000,0.000,0.000,0.000
621441.840,14.160,52.734,49.805,-7.324,0.000,0.000,0.000,0.000
621441.844,16.602,81.543,81.055,29.297,0.000,0.000,0.000,0.000
621441.848,16.113,61.523,59.570,-15.625,0.000,0.000,0.000,0.000
621441.852,0.977,31.250,28.809,-60.547,0.000,0.000,0.000,0.000
621441.856,-7.324,47.363,48.828,-17.090,0.000,0.000,0.000,0.000
621441.860,-2.930,91.797,91.797,37.598,0.000,0.000,0.000,0.000
621441.864,24.414,98.633,94.727,27.832,0.000,0.000,0.000,0.000
621441.867,9.277,51.270,43.457,-35.156,0.000,0.000,0.000,0.000
621441.871,-20.020,29.297,24.414,-35.156,0.000,0.000,0.000,0.000
621441.875,-2.441,68.359,71.777,28.809,0.000,0.000,0.000,0.000
621441.879,17.578,79.590,81.055,20.508,0.000,0.000,0.000,0.000
621441.883,5.371,58.105,54.688,-47.363,0.000,0.000,0.000,0.000
621441.887,-12.207,42.480,38.086,-38.574,0.000,0.000,0.000,0.000
621441.891,2.441,70.312,69.336,-4.883,0.000,0.000,0.000,0.000
621441.895,26.855,89.355,90.820,4.883,0.000,0.000,0.000,0.000
621441.899,39.551,69.336,66.406,-19.531,0.000,0.000,0.000,0.000
621441.903,-5.371,40.039,36.133,-31.738,0.000,0.000,0.000,0.000
621441.907,-28.809,42.969,46.387,-31.738,0.000,0.000,0.000,0.000
621441.911,3.906,98.633,105.957,-12.207,0.000,0.000,0.000,0.000
621441.914,18.066,92.773,96.680,-31.738,0.000,0.000,0.000,0.000
621441.918,5.371,61.523,59.570,-54.688,0.000,0.000,0.000,0.000
621441.922,-5.371,58.105,58.105,-13.672,0.000,0.000,0.000,0.000
621441.926,1.953,76.660,82.031,17.578,0.000,0.000,0.000,0.000
621441.930,16.602,88.867,88.867,-10.742,0.000,0.000,0.000,0.000
621441.934,9.766,47.852,43.457,-40.527,0.000,0.000,0.000,0.000
621441.938,-23.438,14.648,14.648,-34.668,0.000,0.000,0.000,0.000
621441.942,-22.949,41.016,43.945,7.324,0.000,0.000,0.000,0.000
621441.946,-0.977,52.246,56.641,17.090,0.000,0.000,0.000,0.000
621441.950,-5.859,20.020,22.461,-38.574,0.000,0.000,0.000,0.000
621441.954,-20.996,-20.020,-17.578,-37.109,0.000,0.000,0.000,0.000
621441.958,-38.574,-4.395,-2.930,-17.578,0.000,0.000,0.000,0.000
621441.961,-27.344,21.484,18.555,13.184,0.000,0.000,0.000,0.000
621441.965,-3.906,1.953,1.465,-16.113,0.000,0.000,0.000,0.000
621441.969,-41.504,-41.504,-35.156,-67.871,0.000,0.000,0.000,0.000
621441.973,-50.293,-34.668,-26.855,-24.414,0.000,0.000,0.000,0.000
621441.977,-7.324,0.977,9.277,48.340,0.000,0.000,0.000,0.000
621441.981,-0.488,-8.789,0.488,6.836,0.000,0.000,0.000,0.000
621441.985,-38.086,-63.965,-61.035,-75.195,0.000,0.000,0.000,0.000
621441.989,-35.156,-55.176,-55.664,-17.578,0.000,0.000,0.000,0.000
621441.993,-28.320,-30.762,-31.738,19.043,0.000,0.000,0.000,0.000
621441.997,-33.691,-56.641,-61.035,-31.250,0.000,0.000,0.000,0.000
621442.001,-41.504,-106.445,-109.375,-35.645,0.000,0.000,0.000,0.000
621442.005,-46.875,-93.262,-94.727,-16.602,0.000,0.000,0.000,0.000
621442.009,-20.508,-46.875,-51.270,28.809,0.000,0.000,0.000,0.000
621442.012,-3.418,-76.172,-80.078,8.301,0.000,0.000,0.000,0.000
621442.016,-47.852,-130.859,-132.324,-33.691,0.000,0.000,0.000,0.000
621442.020,-75.195,-133.789,-136.719,-18.066,0.000,0.000,0.000,0.000
621442.024,-52.734,-90.332,-93.750,3.906,0.000,0.000,0.000,0.000
621442.028,-21.973,-92.285,-94.238,0.000,0.000,0.000,0.000,0.000
621442.032,-6.348,-126.465,-132.324,-21.973,0.000,0.000,0.000,0.000
621442.036,-36.621,-139.160,-147.949,-8.789,0.000,0.000,0.000,0.000
621442.040,-45.410,-110.840,-115.234,27.344,0.000,0.000,0.000,0.000
621442.044,0.000,-86.914,-90.332,50.781,0.000,0.000,0.000,0.000
621442.048,-21.973,-126.953,-131.836,-9.277,0.000,0.000,0.000,0.000
621442.052,-72.754,-168.945,-177.734,-41.504,0.000,0.000,0.000,0.000
621442.056,-38.086,-143.066,-147.949,28.320,0.000,0.000,0.000,0.000
621442.059,-13.672,-125.977,-127.930,50.293,0.000,0.000,0.000,0.000
621442.063,-27.344,-157.227,-161.133,-14.648,0.000,0.000,0.000,0.000
621442.067,-56.641,-199.707,-204.102,-22.949,0.000,0.000,0.000,0.000
621442.071,-68.359,-205.078,-213.867,9.277,0.000,0.000,0.000,0.000
621442.075,-41.992,-167.969,-173.828,46.875,0.000,0.000,0.000,0.000
621442.079,-39.551,-146.484,-147.461,23.926,0.000,0.000,0.000,0.000
621442.083,-68.848,-160.156,-161.133,-30.762,0.000,0.000,0.000,0.000
621442.087,-79.102,-158.203,-159.180,-19.043,0.000,0.000,0.000,0.000
621442.091,-72.266,-101.074,-105.469,20.020,0.000,0.000,0.000,0.000
621442.095,-42.969,-61.523,-65.918,27.344,0.000,0.000,0.000,0.000
621442.099,-33.691,-91.309,-90.820,-26.367,0.000,0.000,0.000,0.000
621442.103,-47.852,-100.586,-104.492,-59.570,0.000,0.000,0.000,0.000
621442.106,-27.344,-57.129,-61.523,-2.930,0.000,0.000,0.000,0.000
621442.110,-13.672,-34.180,-39.062,24.414,0.000,0.000,0.000,0.000
621442.114,-2.930,-46.387,-53.223,-16.113,0.000,0.000,0.000,0.000
621442.118,-35.645,-65.918,-70.312,-60.059,0.000,2.000,1.000,45.000
621442.122,-38.086,-29.785,-33.203,-35.645,0.000,0.000,0.000,0.000
621442.126,2.930,21.973,20.508,33.203,0.000,0.000,0.000,0.000
621442.130,9.277,19.531,18.066,-14.648,0.000,0.000,0.000,0.000
621442.134,-20.020,-24.414,-23.438,-62.012,0.000,0.000,0.000,0.000
621442.138,-34.180,-23.926,-20.996,-47.852,0.000,0.000,0.000,0.000
621442.142,-15.625,43.945,44.434,-13.672,0.000,0.000,0.000,0.000
621442.146,8.789,52.734,53.711,-1.465,0.000,0.000,0.000,0.000
621442.150,2.930,-13.672,-15.625,-36.133,0.000,0.000,0.000,0.000
621442.154,-27.344,-21.484,-27.344,-35.645,0.000,0.000,0.000,0.000
621442.157,-22.461,33.203,29.785,-3.418,0.000,0.000,0.000,0.000
621442.161,12.695,57.129,57.129,-0.977,0.000,0.000,0.000,0.000
621442.165,14.648,22.461,21.973,-42.480,0.000,0.000,0.000,0.000
621442.169,-17.090,-1.465,-1.465,-65.430,0.000,0.000,0.000,0.000
621442.173,-3.418,44.922,45.898,-27.344,0.000,0.000,0.000,0.000
621442.177,51.758,90.820,90.332,20.508,0.000,0.000,0.000,0.000
621442.181,42.969,38.086,34.180,-41.992,0.000,0.000,0.000,0.000
621442.185,-10.742,-1.465,-7.812,-75.684,0.000,0.000,0.000,0.000
621442.189,-6.348,41.016,41.992,-33.203,0.000,0.000,0.000,0.000
621442.193,28.809,67.383,72.266,7.324,0.000,0.000,0.000,0.000
621442.197,47.852,60.059,59.570,-21.484,0.000,0.000,0.000,0.000
621442.201,19.531,36.133,35.156,-56.641,0.000,0.000,0.000,0.000
621442.204,-15.625,9.277,10.742,-42.969,0.000,0.000,0.000,0.000
621442.208,0.000,31.738,31.738,-1.953,0.000,0.000,0.000,0.000
621442.212,40.039,52.734,50.293,28.320,0.000,0.000,0.000,0.000
621442.216,14.648,26.855,21.484,-28.809,0.000,0.000,0.000,0.000
621442.220,-11.719,16.602,11.230,-44.922,0.000,0.000,0.000,0.000
621442.224,21.973,42.480,41.504,21.973,0.000,0.000,0.000,0.000
621442.228,33.203,73.242,74.219,42.480,0.000,0.000,0.000,0.000
621442.232,21.973,27.832,27.344,-11.719,0.000,0.000,0.000,0.000
621442.236,15.625,-10.254,-9.277,-39.551,0.000,0.000,0.000,0.000
621442.240,11.230,29.297,33.203,1.465,0.000,0.000,0.000,0.000
621442.244,26.367,54.688,55.176,25.879,0.000,0.000,0.000,0.000
621442.248,27.344,39.062,37.598,-14.160,0.000,0.000,0.000,0.000
621442.251,22.949,5.859,3.418,-18.555,0.000,0.000,0.000,0.000
621442.255,35.645,23.926,20.508,-4.883,0.000,0.000,0.000,0.000
621442.259,36.621,74.707,78.125,24.902,0.000,0.000,0.000,0.000
621442.263,30.273,60.547,64.941,2.441,0.000,0.000,0.000,0.000
621442.267,7.324,-9.766,-10.254,-41.992,0.000,0.000,0.000,0.000
621442.271,-20.996,-57.129,-53.223,-35.645,0.000,0.000,0.000,0.000
621442.275,-6.836,-12.695,-8.301,-1.465,0.000,0.000,0.000,0.000
621442.279,-4.395,-6.836,-5.859,-18.555,0.000,0.000,0.000,0.000
621442.283,-39.062,-83.984,-84.961,-69.336,0.000,0.000,0.000,0.000
621442.287,-42.969,-94.727,-99.609,-57.617,0.000,0.000,0.000,0.000
621442.291,-28.320,-39.551,-42.969,-1.465,0.000,0.000,0.000,0.000
621442.295,-2.441,8.789,9.277,22.461,0.000,0.000,0.000,0.000
621442.299,7.812,-11.230,-12.207,-25.391,0.000,0.000,0.000,0.000
621442.302,-8.301,-41.504,-43.457,-17.578,0.000,0.000,0.000,0.000
621442.306,-20.020,-14.648,-12.695,13.184,0.000,0.000,0.000,0.000
621442.310,0.488,18.066,22.461,41.992,0.000,0.000,0.000,0.000
621442.314,27.832,6.348,8.789,-1.465,0.000,0.000,0.000,0.000
621442.318,0.488,-32.715,-33.691,-51.270,0.000,0.000,0.000,0.000
621442.322,-24.414,-17.090,-19.043,-6.836,0.000,0.000,0.000,0.000
621442.326,-6.836,40.039,38.086,48.340,0.000,0.000,0.000,0.000
621442.330,20.020,68.848,67.871,20.508,0.000,0.000,0.000,0.000
621442.334,20.996,69.824,62.988,-36.133,0.000,0.000,0.000,0.000
621442.338,4.395,82.520,75.684,-19.531,0.000,0.000,0.000,0.000
621442.342,14.648,118.652,117.676,32.227,0.000,0.000,0.000,0.000
621442.346,41.992,120.117,117.188,21.484,0.000,0.000,0.000,0.000
621442.349,41.504,80.078,75.195,-10.254,0.000,0.000,0.000,0.000
621442.353,16.602,53.711,44.434,-8.789,0.000,0.000,0.000,0.000
621442.357,5.859,84.473,75.684,16.113,0.000,0.000,0.000,0.000
621442.361,20.508,112.793,107.422,52.246,0.000,0.000,0.000,0.000
621442.365,30.273,65.918,61.035,34.180,0.000,0.000,0.000,0.000
621442.369,0.488,22.949,21.484,9.277,0.000,0.000,0.000,0.000
621442.373,-14.160,51.758,55.176,46.387,0.000,0.000,0.000,0.000
621442.377,8.789,56.152,64.941,81.055,0.000,0.000,0.000,0.000
621442.381,8.301,23.438,28.320,45.410,0.000,0.000,0.000,0.000
621442.385,-33.203,-24.414,-24.414,17.578,0.000,0.000,0.000,0.000
621442.389,-33.203,-0.488,1.953,56.152,0.000,0.000,0.000,0.000
621442.393,9.766,24.902,23.926,71.777,0.000,0.000,0.000,0.000
621442.397,3.906,-42.969,-44.434,20.020,0.000,0.000,0.000,0.000
621442.400,-40.039,-62.012,-61.523,21.484,0.000,0.000,0.000,0.000
621442.404,-27.344,-21.973,-19.531,80.078,0.000,0.000,0.000,0.000
621442.408,1.953,-5.371,-4.883,82.520,0.000,0.000,0.000,0.000
621442.412,-17.578,-53.711,-60.059,3.906,0.000,0.000,0.000,0.000
621442.416,-47.852,-91.309,-97.656,-20.020,0.000,0.000,0.000,0.000
621442.420,-39.551,-57.129,-62.012,13.672,0.000,0.000,0.000,0.000
621442.424,-18.555,-23.438,-23.438,50.293,0.000,0.000,0.000,0.000
621442.428,-16.113,-53.711,-46.387,1.953,0.000,0.000,0.000,0.000
621442.432,-42.480,-110.352,-105.469,-41.016,0.000,0.000,0.000,0.000
621442.436,-64.453,-103.027,-101.074,-8.789,0.000,0.000,0.000,0.000
621442.440,-37.109,-54.688,-56.152,36.621,0.000,0.000,0.000,0.000
621442.444,-24.414,-61.035,-64.941,15.625,0.000,0.000,0.000,0.000
621442.447,-55.176,-101.074,-104.004,-52.246,0.000,0.000,0.000,0.000
621442.451,-72.754,-86.914,-85.938,-62.500,0.000,0.000,0.000,0.000
621442.455,-49.316,-47.363,-43.457,-19.043,0.000,0.000,0.000,0.000
621442.459,-20.996,-35.156,-35.156,-12.695,0.000,0.000,0.000,0.000
621442.463,-29.785,-68.359,-67.383,-42.969,0.000,0.000,0.000,0.000
621442.467,-57.617,-75.195,-68.359,-55.664,0.000,0.000,0.000,0.000
621442.471,-41.992,-29.297,-20.020,-22.949,0.000,0.000,0.000,0.000
621442.475,-10.742,-10.254,-3.418,-9.277,0.000,0.000,0.000,0.000
621442.479,-24.902,-47.363,-38.574,-53.711,0.000,0.000,0.000,0.000
621442.483,-42.969,-64.453,-55.664,-53.711,0.000,0.000,0.000,0.000
621442.487,-22.949,-21.973,-20.996,-34.180,0.000,0.000,0.000,0.000
621442.491,2.930,17.578,21.484,-20.996,0.000,0.000,0.000,0.000
621442.494,-0.488,-23.926,-20.996,-60.547,0.000,0.000,0.000,0.000
621442.498,-19.531,-72.754,-77.637,-71.777,0.000,0.000,0.000,0.000
621442.502,-40.527,-58.594,-62.988,-28.809,0.000,0.000,0.000,0.000
621442.506,-41.992,-26.855,-28.320,-41.016,0.000,0.000,0.000,0.000
621442.510,-22.461,-19.043,-20.508,-49.805,0.000,0.000,0.000,0.000
621442.514,-33.203,-51.758,-54.199,-48.828,0.000,0.000,0.000,0.000
621442.518,-44.434,-51.758,-54.199,-73.730,0.000,0.000,0.000,0.000
621442.522,-30.273,-4.883,-8.301,-25.879,0.000,0.000,0.000,0.000
621442.526,-9.277,23.438,14.160,-11.230,0.000,0.000,0.000,0.000
621442.530,-3.418,1.953,-4.883,-61.035,0.000,0.000,0.000,0.000
621442.534,-32.715,-38.086,-38.574,-75.684,0.000,0.000,0.000,0.000
621442.538,-32.715,-30.273,-29.785,-35.156,0.000,0.000,0.000,0.000
621442.542,-1.465,14.160,13.184,16.602,0.000,0.000,0.000,0.000
621442.545,-11.230,-3.418,-5.371,-49.805,0.000,0.000,0.000,0.000
621442.549,-33.691,-16.602,-18.066,-58.594,0.000,0.000,0.000,0.000
621442.553,-35.156,18.555,20.020,18.066,0.000,0.000,0.000,0.000
621442.557,0.000,126.465,124.023,68.359,0.000,0.000,0.000,0.000
621442.561,75.684,467.285,463.867,128.906,0.000,0.000,0.000,0.000
621442.565,110.352,778.809,779.785,175.781,0.000,0.000,0.000,0.000
621442.569,128.418,836.426,835.938,204.590,0.000,0.000,0.000,0.000
621442.573,143.066,809.570,809.082,254.883,0.000,0.000,0.000,0.000
621442.577,146.973,707.031,706.055,225.586,0.000,0.000,0.000,0.000
621442.581,124.512,538.574,541.016,124.023,0.000,0.000,0.000,0.000
621442.585,82.520,419.434,420.410,94.238,0.000,0.000,0.000,0.000
621442.589,82.031,351.562,349.121,108.887,0.000,0.000,0.000,0.000
621442.592,75.684,286.133,284.180,80.566,0.000,0.000,0.000,0.000
621442.596,45.898,177.734,176.758,6.348,0.000,0.000,0.000,0.000
621442.600,1.465,71.289,68.848,-35.645,0.000,0.000,0.000,0.000
621442.604,-24.414,40.527,38.086,-32.227,0.000,0.000,0.000,0.000
621442.608,6.836,59.082,57.617,-2.441,0.000,0.000,0.000,0.000
621442.612,6.348,7.324,6.348,-36.621,0.000,0.000,0.000,0.000
621442.616,-32.227,-86.426,-83.496,-63.965,0.000,0.000,0.000,0.000
621442.620,-42.969,-100.586,-96.191,-38.574,0.000,0.000,0.000,0.000
621442.624,-18.066,-71.289,-62.500,-3.418,0.000,0.000,0.000,0.000
621442.628,-15.625,-114.746,-107.910,-31.738,0.000,0.000,0.000,0.000
621442.632,-46.875,-199.219,-198.730,-101.562,0.000,0.000,0.000,0.000
621442.636,-65.430,-202.637,-202.637,-93.750,0.000,0.000,0.000,0.000
621442.639,-58.105,-167.969,-167.480,-41.016,0.000,0.000,0.000,0.000
621442.643,-39.062,-174.805,-176.758,-55.176,0.000,0.000,0.000,0.000
621442.647,-62.500,-230.957,-234.375,-102.539,0.000,0.000,0.000,0.000
621442.651,-97.656,-258.301,-257.812,-91.309,0.000,0.000,0.000,0.000
621442.655,-89.844,-227.051,-229.004,-39.062,0.000,0.000,0.000,0.000
621442.659,-88.379,-239.746,-242.188,-40.527,0.000,0.000,0.000,0.000
621442.663,-86.426,-282.227,-281.738,-93.750,0.000,0.000,0.000,0.000
621442.667,-81.055,-285.156,-291.504,-71.777,0.000,0.000,0.000,0.000
621442.671,-86.426,-278.809,-286.133,-51.270,0.000,0.000,0.000,0.000
621442.675,-58.594,-254.395,-261.719,-18.066,0.000,0.000,0.000,0.000
621442.679,-59.082,-251.465,-258.301,-45.410,0.000,0.000,0.000,0.000
621442.683,-96.191,-275.879,-284.180,-102.539,0.000,0.000,0.000,0.000
621442.687,-99.609,-282.715,-289.062,-82.031,0.000,0.000,0.000,0.000
621442.690,-83.984,-244.629,-250.977,-28.320,0.000,0.000,0.000,0.000
621442.694,-83.008,-221.680,-232.422,-50.781,0.000,0.000,0.000,0.000
621442.698,-91.309,-244.141,-253.418,-85.449,0.000,0.000,0.000,0.000
621442.702,-92.773,-224.121,-232.422,-61.035,0.000,0.000,0.000,0.000
621442.706,-71.289,-154.785,-161.621,-19.531,0.000,0.000,0.000,0.000
621442.710,-34.668,-114.746,-118.652,-6.836,0.000,0.000,0.000,0.000
621442.714,-49.316,-154.297,-158.203,-40.527,0.000,0.000,0.000,0.000
621442.718,-94.238,-186.035,-190.430,-59.570,0.000,0.000,0.000,0.000
621442.722,-78.125,-125.977,-126.953,-36.621,0.000,0.000,0.000,0.000
621442.726,-42.480,-83.984,-81.055,-7.324,0.000,0.000,0.000,0.000
621442.730,-40.039,-111.328,-110.352,-46.387,0.000,0.000,0.000,0.000
621442.734,-56.152,-139.648,-138.672,-57.617,0.000,0.000,0.000,0.000
621442.737,-57.617,-104.980,-101.562,-38.574,0.000,0.000,0.000,0.000
621442.741,-32.227,-63.965,-61.035,-25.391,0.000,0.000,0.000,0.000
621442.745,-32.715,-87.402,-90.820,-57.129,0.000,0.000,0.000,0.000
621442.749,-83.008,-113.281,-122.070,-97.656,0.000,0.000,0.000,0.000
621442.753,-78.613,-72.754,-78.125,-58.594,0.000,0.000,0.000,0.000
621442.757,-43.457,-14.648,-19.531,-18.555,0.000,0.000,0.000,0.000
621442.761,-16.602,-9.277,-12.695,-57.617,0.000,0.000,0.000,0.000
621442.765,-24.902,-41.504,-41.992,-85.938,0.000,0.000,0.000,0.000
621442.769,-41.992,-20.996,-22.461,-58.105,0.000,0.000,0.000,0.000
621442.773,-12.695,28.809,28.320,-7.324,0.000,0.000,0.000,0.000
621442.777,-13.672,24.414,20.508,-25.879,0.000,0.000,0.000,0.000
621442.781,-41.504,-13.672,-20.996,-103.516,0.000,0.000,0.000,0.000
621442.784,-42.480,-37.598,-40.039,-91.309,0.000,0.000,0.000,0.000
621442.788,-9.766,-5.371,-2.930,-27.344,0.000,0.000,0.000,0.000
621442.792,10.742,21.484,18.066,15.137,0.000,0.000,0.000,0.000
621442.796,9.766,-0.977,-8.301,-29.785,0.000,0.000,0.000,0.000
621442.800,-22.949,-38.574,-43.945,-87.891,0.000,0.000,0.000,0.000
621442.804,-40.039,-29.297,-38.574,-37.598,0.000,0.000,0.000,0.000
621442.808,-25.391,-14.648,-25.391,-2.441,0.000,0.000,0.000,0.000
621442.812,-13.184,-43.945,-54.199,-44.922,0.000,0.000,0.000,0.000
621442.816,-34.668,-91.309,-98.145,-86.914,0.000,0.000,0.000,0.000
621442.820,-58.594,-100.586,-104.004,-76.660,0.000,0.000,0.000,0.000
621442.824,-32.227,-67.871,-68.359,-28.809,0.000,0.000,0.000,0.000
621442.828,-12.695,-62.500,-62.988,-22.949,0.000,0.000,0.000,0.000
621442.832,-36.133,-93.750,-95.703,-38.574,0.000,0.000,0.000,0.000
621442.835,-50.293,-90.820,-91.309,-65.430,0.000,0.000,0.000,0.000
621442.839,-34.180,-38.086,-40.527,-43.945,0.000,0.000,0.000,0.000
621442.843,-10.742,-2.441,-4.883,0.000,0.000,0.000,0.000,0.000
621442.847,-11.230,-27.344,-24.414,-39.062,0.000,0.000,0.000,0.000
621442.851,-34.180,-61.035,-55.176,-55.664,0.000,0.000,0.000,0.000
621442.855,-20.996,-28.809,-20.996,-21.973,0.000,0.000,0.000,0.000
621442.859,-13.184,3.418,8.789,1.465,0.000,0.000,0.000,0.000
621442.863,-17.090,-22.949,-19.531,-42.969,0.000,0.000,0.000,0.000
621442.867,-31.738,-75.684,-75.195,-53.711,0.000,0.000,0.000,0.000
621442.871,-39.062,-64.941,-62.988,6.836,0.000,0.000,0.000,0.000
621442.875,-8.301,-9.766,-5.859,23.438,0.000,0.000,0.000,0.000
621442.879,15.137,-8.789,-9.277,-5.371,0.000,0.000,0.000,0.000
621442.882,-11.719,-68.848,-73.242,-16.602,0.000,0.000,0.000,0.000
621442.886,-48.340,-83.984,-84.961,-15.625,0.000,0.000,0.000,0.000
621442.890,-23.438,-38.086,-36.133,37.598,0.000,0.000,0.000,0.000
621442.894,-7.324,-43.457,-42.480,9.277,0.000,0.000,0.000,0.000
621442.898,-47.852,-86.426,-82.031,-77.148,0.000,0.000,0.000,0.000
621442.902,-71.289,-112.793,-116.699,-56.152,0.000,0.000,0.000,0.000
621442.906,-27.832,-74.219,-79.102,24.414,0.000,0.000,0.000,0.000
621442.910,0.000,-47.363,-41.504,68.359,0.000,0.000,0.000,0.000
621442.914,-24.902,-83.008,-74.707,-20.996,0.000,0.000,0.000,0.000
621442.918,-56.641,-102.051,-99.609,-58.594,0.000,0.000,0.000,0.000
621442.922,-53.711,-63.965,-64.453,2.930,0.000,0.000,0.000,0.000
621442.926,-23.438,-27.832,-24.902,32.715,0.000,0.000,0.000,0.000
621442.929,-6.836,-47.852,-44.922,4.395,0.000,0.000,0.000,0.000
621442.933,-21.973,-62.500,-62.012,-23.926,0.000,0.000,0.000,0.000
621442.937,-19.043,-37.109,-35.156,-4.883,0.000,0.000,0.000,0.000
621442.941,-6.836,-15.137,-6.836,35.645,0.000,0.000,0.000,0.000
621442.945,-2.930,-31.738,-28.320,26.367,0.000,0.000,0.000,0.000
621442.949,-24.902,-78.125,-81.055,-24.414,0.000,0.000,0.000,0.000
621442.953,-28.809,-55.664,-53.711,-24.414,0.000,0.000,0.000,0.000
621442.957,10.742,-0.977,4.395,36.133,0.000,0.000,0.000,0.000
621442.961,15.625,2.441,5.859,41.992,0.000,0.000,0.000,0.000
621442.965,-1.953,-35.645,-36.133,-17.090,0.000,0.000,0.000,0.000
621442.969,-28.320,-63.965,-62.012,-20.020,0.000,0.000,0.000,0.000
621442.973,-17.090,-22.461,-18.066,9.277,0.000,0.000,0.000,0.000
621442.977,7.324,7.812,9.277,6.348,0.000,0.000,0.000,0.000
621442.980,-7.324,-28.320,-30.273,-22.461,0.000,0.000,0.000,0.000
621442.984,-34.668,-61.523,-64.453,-31.250,0.000,0.000,0.000,0.000
621442.988,-35.156,-40.039,-42.969,-8.789,0.000,0.000,0.000,0.000
621442.992,1.953,8.301,5.859,29.785,0.000,0.000,0.000,0.000
621442.996,-2.441,4.395,0.977,-3.906,0.000,0.000,0.000,0.000
621443.000,-42.969,-57.129,-59.570,-49.316,0.000,0.000,0.000,0.000
621443.004,-19.531,-43.457,-41.992,5.859,0.000,0.000,0.000,0.000
621443.008,-6.836,13.184,14.160,55.664,0.000,0.000,0.000,0.000
621443.012,-8.789,-1.465,-2.441,12.207,0.000,0.000,0.000,0.000
621443.016,-21.484,-61.035,-62.500,-49.805,0.000,0.000,0.000,0.000
621443.020,-47.363,-74.219,-77.148,-39.062,0.000,0.000,0.000,0.000
621443.024,-32.715,-22.461,-22.949,31.250,0.000,0.000,0.000,0.000
621443.027,-1.953,5.371,6.836,47.852,0.000,0.000,0.000,0.000
621443.031,-31.738,-37.109,-40.527,-42.480,0.000,0.000,0.000,0.000
621443.035,-56.641,-40.039,-44.922,-49.805,0.000,0.000,0.000,0.000
621443.039,-25.391,9.277,8.301,14.648,0.000,0.000,0.000,0.000
621443.043,-0.488,10.742,11.719,22.949,0.000,0.000,0.000,0.000
621443.047,-20.508,-35.645,-39.062,-25.879,0.000,0.000,0.000,0.000
621443.051,-22.461,-31.738,-34.668,-33.203,0.000,0.000,0.000,0.000
621443.055,-12.695,4.395,3.418,34.668,0.000,0.000,0.000,0.000
621443.059,-19.043,-10.254,-6.836,43.457,0.000,0.000,0.000,0.000
621443.063,-37.109,-55.664,-53.223,-31.250,0.000,0.000,0.000,0.000
621443.067,-53.223,-73.730,-74.707,-23.438,0.000,0.000,0.000,0.000
621443.071,-45.410,-30.273,-30.762,5.859,0.000,0.000,0.000,0.000
621443.074,-31.738,2.441,1.953,-0.977,0.000,0.000,0.000,0.000
621443.078,-28.320,-22.949,-20.508,-40.039,0.000,0.000,0.000,0.000
621443.082,-48.340,-57.129,-54.688,-43.945,0.000,0.000,0.000,0.000
621443.086,-51.758,-39.062,-37.109,-20.508,0.000,0.000,0.000,0.000
621443.090,-35.156,-8.789,-8.301,-17.578,0.000,0.000,0.000,0.000
621443.094,-20.020,-23.926,-20.996,-15.137,0.000,0.000,0.000,0.000
621443.098,-35.156,-70.801,-63.965,-34.180,0.000,0.000,0.000,0.000
621443.102,-31.738,-65.918,-61.523,-21.973,0.000,0.000,0.000,0.000
621443.106,-22.461,-27.344,-24.414,5.859,0.000,0.000,0.000,0.000
621443.110,-24.414,-11.719,-13.672,-33.203,0.000,0.000,0.000,0.000
621443.114,-40.039,-48.828,-52.734,-76.660,0.000,0.000,0.000,0.000
621443.118,-66.406,-84.961,-88.867,-72.266,0.000,0.000,0.000,0.000
621443.122,-50.293,-46.387,-48.828,-14.160,0.000,0.000,0.000,0.000
621443.125,-19.043,-8.789,-9.277,8.789,0.000,0.000,0.000,0.000
621443.129,-12.207,-38.086,-35.645,-65.430,0.000,0.000,0.000,0.000
621443.133,-54.199,-84.961,-82.031,-72.266,0.000,0.000,0.000,0.000
621443.137,-68.359,-74.219,-75.195,-30.762,0.000,0.000,0.000,0.000
621443.141,-24.414,-27.832,-32.227,5.859,0.000,0.000,0.000,0.000
621443.145,-21.973,-32.227,-35.156,-30.762,0.000,0.000,0.000,0.000
621443.149,-71.289,-76.172,-80.566,-98.633,0.000,0.000,0.000,0.000
621443.153,-74.707,-78.613,-82.031,-87.891,0.000,0.000,0.000,0.000
621443.157,-41.992,-31.738,-31.250,-7.324,0.000,0.000,0.000,0.000
621443.161,-20.996,-14.648,-14.648,-9.766,0.000,0.000,0.000,0.000
621443.165,-39.062,-52.246,-51.270,-70.801,0.000,0.000,0.000,0.000
621443.169,-63.965,-66.406,-63.965,-72.754,0.000,0.000,0.000,0.000
621443.172,-44.922,-29.297,-24.902,-7.812,0.000,0.000,0.000,0.000
621443.176,-20.996,-7.812,-5.371,0.000,0.000,0.000,0.000,0.000
621443.180,-9.277,-34.668,-35.645,-51.270,0.000,0.000,0.000,0.000
621443.184,-26.855,-47.363,-46.387,-37.598,0.000,0.000,0.000,0.000
621443.188,-28.809,-18.555,-17.090,-14.160,0.000,0.000,0.000,0.000
621443.192,-10.254,-2.930,-0.488,-2.441,0.000,0.000,0.000,0.000
621443.196,-6.836,-30.762,-25.879,-17.578,0.000,0.000,0.000,0.000
621443.200,-27.832,-59.570,-54.688,-47.852,0.000,0.000,0.000,0.000
621443.204,-69.336,-40.527,-36.621,-60.059,0.000,0.000,0.000,0.000
621443.208,-39.551,6.836,10.254,-15.137,0.000,0.000,0.000,0.000
621443.212,8.301,4.883,7.812,-6.836,0.000,0.000,0.000,0.000
621443.216,-21.484,-57.617,-60.059,-32.227,0.000,0.000,0.000,0.000
621443.220,-41.016,-49.316,-54.199,-16.113,0.000,0.000,0.000,0.000
621443.223,-23.438,-2.930,-3.418,3.906,0.000,0.000,0.000,0.000
621443.227,-5.859,-4.395,-8.301,-30.273,0.000,0.000,0.000,0.000
621443.231,-28.809,-51.758,-58.594,-73.242,0.000,0.000,0.000,0.000
621443.235,-55.664,-55.176,-56.641,-37.109,0.000,0.000,0.000,0.000
621443.239,-36.133,-6.836,-4.883,21.973,0.000,0.000,0.000,0.000
621443.243,-11.230,9.277,7.324,15.137,0.000,0.000,0.000,0.000
621443.247,0.488,-30.762,-36.133,-51.270,0.000,0.000,0.000,0.000
621443.251,-15.137,-47.852,-53.711,-33.691,0.000,0.000,0.000,0.000
621443.255,-35.645,-30.762,-39.551,14.648,0.000,0.000,0.000,0.000
621443.259,-26.367,-21.484,-29.785,20.508,0.000,0.000,0.000,0.000
621443.263,-2.930,-33.691,-41.016,-33.691,0.000,0.000,0.000,0.000
621443.267,-21.484,-53.223,-61.035,-59.082,0.000,0.000,0.000,0.000
621443.270,-33.203,-41.504,-47.363,-18.066,0.000,0.000,0.000,0.000
621443.274,-4.395,-30.273,-35.645,27.344,0.000,0.000,0.000,0.000
621443.278,-7.324,-36.621,-45.410,3.418,0.000,0.000,0.000,0.000
621443.282,-47.363,-69.336,-72.754,-55.664,0.000,0.000,0.000,0.000
621443.286,-53.711,-74.707,-72.266,-43.457,0.000,0.000,0.000,0.000
621443.290,-47.363,-46.387,-44.922,6.836,0.000,0.000,0.000,0.000
621443.294,-19.043,-32.715,-31.250,20.508,0.000,0.000,0.000,0.000
621443.298,-5.371,-51.270,-54.688,-14.160,0.000,0.000,0.000,0.000
621443.302,-58.105,-77.148,-83.496,-44.434,0.000,0.000,0.000,0.000
621443.306,-50.781,-40.039,-43.945,-1.465,0.000,0.000,0.000,0.000
621443.310,4.395,-4.395,-5.859,43.457,0.000,0.000,0.000,0.000
621443.314,-2.441,-38.086,-39.062,-13.672,0.000,0.000,0.000,0.000
621443.317,-29.297,-75.195,-75.195,-38.086,0.000,0.000,0.000,0.000
621443.321,-42.969,-26.367,-27.344,-2.930,0.000,0.000,0.000,0.000
621443.325,-20.020,2.930,-1.953,-6.348,0.000,0.000,0.000,0.000
621443.329,-2.441,-44.922,-49.805,-46.387,0.000,0.000,0.000,0.000
621443.333,-41.504,-61.523,-64.453,-37.598,0.000,0.000,0.000,0.000
621443.337,-34.180,-22.949,-22.461,4.395,0.000,0.000,0.000,0.000
621443.341,4.883,0.488,-0.488,2.930,0.000,0.000,0.000,0.000
621443.345,-11.719,-34.180,-38.574,-24.902,0.000,0.000,0.000,0.000
621443.349,-41.016,-71.777,-74.707,-18.555,0.000,0.000,0.000,0.000
621443.353,-28.809,-48.340,-47.363,16.113,0.000,0.000,0.000,0.000
621443.357,-14.648,-17.090,-13.184,22.949,0.000,0.000,0.000,0.000
621443.361,-29.297,-39.551,-32.715,-47.852,0.000,0.000,0.000,0.000
621443.365,-63.477,-86.914,-82.520,-76.172,0.000,0.000,0.000,0.000
621443.368,-72.754,-69.336,-65.918,-27.832,0.000,0.000,0.000,0.000
621443.372,-45.898,-29.297,-27.344,31.738,0.000,0.000,0.000,0.000
621443.376,-9.277,-16.113,-19.531,13.184,0.000,0.000,0.000,0.000
621443.380,-18.555,-43.457,-50.293,-23.926,0.000,0.000,0.000,0.000
621443.384,-42.969,-53.711,-57.617,-1.953,0.000,0.000,0.000,0.000
621443.388,-27.344,-22.461,-20.996,37.109,0.000,0.000,0.000,0.000
621443.392,6.348,-34.180,-34.180,46.875,0.000,0.000,0.000,0.000
621443.396,-3.906,-55.664,-61.523,-25.391,0.000,0.000,0.000,0.000
621443.400,-38.574,-59.082,-64.453,-51.758,0.000,0.000,0.000,0.000
621443.404,-20.508,-32.715,-28.809,6.836,0.000,0.000,0.000,0.000
621443.408,11.230,-3.906,1.465,37.109,0.000,0.000,0.000,0.000
621443.412,6.348,-18.066,-16.602,14.160,0.000,0.000,0.000,0.000
621443.415,-27.832,-41.016,-39.062,-24.902,0.000,0.000,0.000,0.000
621443.419,-32.715,-18.555,-18.066,-11.719,0.000,0.000,0.000,0.000
621443.423,-9.277,5.371,7.812,45.410,0.000,0.000,0.000,0.000
621443.427,-9.766,-16.602,-15.137,16.602,0.000,0.000,0.000,0.000
621443.431,-25.391,-39.551,-37.598,-16.113,0.000,0.000,0.000,0.000
621443.435,-9.766,-1.953,2.930,16.602,0.000,0.000,0.000,0.000
621443.439,6.836,47.852,45.898,43.457,0.000,0.000,0.000,0.000
621443.443,10.742,33.691,26.855,19.531,0.000,0.000,0.000,0.000
621443.447,-8.301,-30.762,-30.762,-22.461,0.000,0.000,0.000,0.000
621443.451,-38.574,-43.457,-45.898,-19.043,0.000,0.000,0.000,0.000
621443.455,-28.809,21.973,17.578,17.090,0.000,0.000,0.000,0.000
621443.459,12.695,47.363,45.410,34.668,0.000,0.000,0.000,0.000
621443.462,10.254,-14.160,-16.113,1.465,0.000,0.000,0.000,0.000
621443.466,-19.531,-39.551,-38.574,-34.180,0.000,0.000,0.000,0.000
621443.470,-22.949,12.695,11.230,-1.465,0.000,0.000,0.000,0.000
621443.474,0.488,36.621,33.691,10.254,0.000,0.000,0.000,0.000
621443.478,20.996,-3.418,-3.906,-40.039,0.000,0.000,0.000,0.000
621443.482,2.441,-40.039,-36.133,-36.133,0.000,0.000,0.000,0.000
621443.486,-4.883,-2.930,0.488,15.625,0.000,0.000,0.000,0.000
621443.490,8.789,39.062,41.992,45.898,0.000,0.000,0.000,0.000
621443.494,13.184,16.113,19.043,-17.578,0.000,0.000,0.000,0.000
621443.498,-16.113,-32.715,-30.762,-51.270,0.000,0.000,0.000,0.000
621443.502,-35.156,-25.879,-28.320,-19.531,0.000,0.000,0.000,0.000
621443.506,-25.879,2.441,3.906,4.883,0.000,0.000,0.000,0.000
621443.510,-5.371,-20.508,-13.184,-7.812,0.000,0.000,0.000,0.000
621443.513,-14.160,-60.059,-54.688,-63.477,0.000,0.000,0.000,0.000
621443.517,-30.762,-34.180,-32.227,-43.945,0.000,0.000,0.000,0.000
621443.521,-18.555,27.832,30.273,41.992,0.000,0.000,0.000,0.000
621443.525,-10.742,0.488,5.859,24.414,0.000,0.000,0.000,0.000
621443.529,-11.230,-57.617,-56.641,-20.996,0.000,0.000,0.000,0.000
621443.533,-31.738,-55.176,-56.641,-31.250,0.000,0.000,0.000,0.000
621443.537,-33.691,-12.207,-8.789,-3.906,0.000,0.000,0.000,0.000
621443.541,8.301,20.508,24.902,46.387,0.000,0.000,0.000,0.000
621443.545,27.832,-7.812,-6.348,9.766,0.000,0.000,0.000,0.000
621443.549,-23.926,-56.641,-60.547,-21.484,0.000,0.000,0.000,0.000
621443.553,-56.641,-39.062,-44.434,-18.555,0.000,0.000,0.000,0.000
621443.557,-36.621,2.441,-1.465,11.230,0.000,0.000,0.000,0.000
621443.560,-24.902,-10.254,-10.254,15.625,0.000,0.000,0.000,0.000
621443.564,-35.156,-66.406,-66.406,-9.766,0.000,0.000,0.000,0.000
621443.568,-45.898,-75.684,-79.590,7.324,0.000,0.000,0.000,0.000
621443.572,-36.621,-18.066,-20.996,30.273,0.000,0.000,0.000,0.000
621443.576,-10.254,-17.578,-18.066,6.348,0.000,0.000,0.000,0.000
621443.580,-48.340,-75.195,-74.707,-50.781,0.000,0.000,0.000,0.000
621443.584,-74.219,-77.637,-79.102,-36.133,0.000,0.000,0.000,0.000
621443.588,-43.945,-22.949,-20.996,39.062,0.000,0.000,0.000,0.000
621443.592,-21.973,4.395,8.301,22.949,0.000,0.000,0.000,0.000
621443.596,-39.551,-34.668,-33.203,-39.551,0.000,0.000,0.000,0.000
621443.600,-69.824,-63.965,-64.453,-24.902,0.000,0.000,0.000,0.000
621443.604,-57.617,-20.020,-20.508,21.973,0.000,0.000,0.000,0.000
621443.607,-22.949,20.996,23.438,62.988,0.000,0.000,0.000,0.000
621443.611,0.000,5.371,10.254,10.254,0.000,0.000,0.000,0.000
621443.615,-33.691,-31.250,-30.273,-27.344,0.000,0.000,0.000,0.000
621443.619,-64.941,-25.391,-27.344,13.184,0.000,0.000,0.000,0.000
621443.623,-18.066,33.203,31.738,53.223,0.000,0.000,0.000,0.000
621443.627,-2.441,24.902,20.508,42.969,0.000,0.000,0.000,0.000
621443.631,-35.645,-13.672,-19.531,-21.973,0.000,0.000,0.000,0.000
621443.635,-51.758,2.930,-1.465,-20.996,0.000,0.000,0.000,0.000
621443.639,-18.066,36.621,34.668,61.035,0.000,0.000,0.000,0.000
621443.643,5.859,51.758,47.852,53.711,0.000,0.000,0.000,0.000
621443.647,-28.809,-7.324,-10.742,-21.484,0.000,4.000,1.000,45.000
621443.651,-41.016,-16.602,-18.066,-15.625,0.000,0.000,0.000,0.000
621443.655,-11.719,75.195,72.266,28.320,0.000,0.000,0.000,0.000
621443.658,11.230,95.215,92.773,41.016,0.000,0.000,0.000,0.000
621443.662,7.324,37.109,28.809,1.465,0.000,0.000,0.000,0.000
621443.666,-9.277,9.766,3.906,-9.277,0.000,0.000,0.000,0.000
621443.670,-12.695,60.547,61.035,13.184,0.000,0.000,0.000,0.000
621443.674,1.953,98.145,101.562,45.898,0.000,0.000,0.000,0.000
621443.678,15.625,34.668,42.480,21.484,0.000,0.000,0.000,0.000
621443.682,-13.184,-1.465,-2.441,-13.184,0.000,0.000,0.000,0.000
621443.686,-16.602,50.781,47.363,21.973,0.000,0.000,0.000,0.000
621443.690,9.277,67.383,70.801,19.043,0.000,0.000,0.000,0.000
621443.694,-10.742,0.488,1.465,-56.152,0.000,0.000,0.000,0.000
621443.698,-33.691,-25.879,-23.438,-48.340,0.000,0.000,0.000,0.000
621443.702,-30.762,18.066,23.438,12.695,0.000,0.000,0.000,0.000
621443.705,-5.371,53.223,56.641,37.109,0.000,0.000,0.000,0.000
621443.709,10.254,30.762,31.738,-1.953,0.000,0.000,0.000,0.000
621443.713,0.488,7.324,11.230,-20.508,0.000,0.000,0.000,0.000
621443.717,-12.695,11.719,18.555,0.977,0.000,0.000,0.000,0.000
621443.721,1.465,25.879,27.344,13.184,0.000,0.000,0.000,0.000
621443.725,14.648,13.672,13.672,-22.461,0.000,0.000,0.000,0.000
621443.729,-8.789,-26.855,-22.949,-70.801,0.000,0.000,0.000,0.000
621443.733,-21.484,-29.297,-24.902,-48.828,0.000,0.000,0.000,0.000
621443.737,-18.066,6.836,6.836,-15.625,0.000,0.000,0.000,0.000
621443.741,13.184,15.137,12.207,-0.977,0.000,0.000,0.000,0.000
621443.745,22.461,-10.254,-11.719,-37.109,0.000,0.000,0.000,0.000
621443.749,-26.367,-47.363,-47.363,-71.777,0.000,0.000,0.000,0.000
621443.752,-25.391,-17.090,-18.555,-33.691,0.000,0.000,0.000,0.000
621443.756,4.395,13.672,11.230,-16.602,0.000,0.000,0.000,0.000
621443.760,4.883,-33.691,-38.574,-52.246,0.000,0.000,0.000,0.000
621443.764,-8.301,-44.922,-48.340,-56.152,0.000,0.000,0.000,0.000
621443.768,-5.371,-1.953,-1.953,-21.484,0.000,0.000,0.000,0.000
621443.772,13.672,33.691,34.180,11.230,0.000,0.000,0.000,0.000
621443.776,18.066,-19.531,-21.973,-18.555,0.000,0.000,0.000,0.000
621443.780,-8.789,-81.055,-84.961,-54.688,0.000,0.000,0.000,0.000
621443.784,-48.340,-49.316,-49.316,-43.457,0.000,0.000,0.000,0.000
621443.788,-32.227,-19.531,-14.648,5.371,0.000,0.000,0.000,0.000
621443.792,12.695,-58.594,-60.547,0.977,0.000,0.000,0.000,0.000
621443.796,-4.395,-113.770,-119.629,-74.707,0.000,0.000,0.000,0.000
621443.800,-41.992,-109.375,-115.723,-68.359,0.000,0.000,0.000,0.000
621443.803,-35.645,-49.316,-60.547,-8.789,0.000,0.000,0.000,0.000
621443.807,-22.949,-62.012,-72.266,-37.109,0.000,0.000,0.000,0.000
621443.811,-28.320,-125.488,-133.789,-99.609,0.000,0.000,0.000,0.000
621443.815,-34.180,-114.746,-122.559,-50.293,0.000,0.000,0.000,0.000
621443.819,-40.039,-79.102,-85.449,-10.742,0.000,0.000,0.000,0.000
621443.823,-30.273,-89.844,-93.750,-29.297,0.000,0.000,0.000,0.000
621443.827,-27.344,-125.000,-136.230,-69.824,0.000,0.000,0.000,0.000
621443.831,-63.477,-151.367,-165.039,-80.078,0.000,0.000,0.000,0.000
621443.835,-76.660,-121.582,-127.441,-63.477,0.000,0.000,0.000,0.000
621443.839,-47.363,-97.168,-104.492,-39.551,0.000,0.000,0.000,0.000
621443.843,-40.039,-117.188,-128.418,-74.707,0.000,0.000,0.000,0.000
621443.847,-55.664,-165.039,-171.387,-123.047,0.000,0.000,0.000,0.000
621443.850,-63.965,-156.250,-159.668,-83.496,0.000,0.000,0.000,0.000
621443.854,-46.387,-87.402,-90.332,-5.859,0.000,0.000,0.000,0.000
621443.858,-27.344,-90.820,-99.121,-13.184,0.000,0.000,0.000,0.000
621443.862,-30.762,-138.184,-147.949,-79.102,0.000,0.000,0.000,0.000
621443.866,-70.801,-152.344,-159.668,-90.332,0.000,0.000,0.000,0.000
621443.870,-80.078,-116.699,-125.000,-59.570,0.000,0.000,0.000,0.000
621443.874,-33.691,-89.355,-97.656,-30.762,0.000,0.000,0.000,0.000
621443.878,-37.598,-134.277,-143.555,-58.594,0.000,0.000,0.000,0.000
621443.882,-70.312,-160.645,-172.363,-79.590,0.000,0.000,0.000,0.000
621443.886,-67.383,-115.723,-127.930,-54.199,0.000,0.000,0.000,0.000
621443.890,-44.434,-79.102,-90.820,-7.812,0.000,0.000,0.000,0.000
621443.894,-44.434,-94.238,-104.004,-18.066,0.000,0.000,0.000,0.000
621443.897,-68.359,-139.160,-145.020,-70.801,0.000,0.000,0.000,0.000
621443.901,-80.078,-118.164,-120.605,-82.520,0.000,0.000,0.000,0.000
621443.905,-69.336,-63.965,-68.359,-36.621,0.000,0.000,0.000,0.000
621443.909,-45.898,-81.543,-84.473,-40.039,0.000,0.000,0.000,0.000
621443.913,-55.664,-133.789,-137.695,-83.496,0.000,0.000,0.000,0.000
621443.917,-70.801,-126.465,-127.441,-50.293,0.000,0.000,0.000,0.000
621443.921,-59.082,-65.918,-60.547,6.836,0.000,0.000,0.000,0.000
621443.925,-25.879,-49.316,-47.852,-4.883,0.000,0.000,0.000,0.000
621443.929,-20.996,-90.332,-91.797,-43.945,0.000,0.000,0.000,0.000
621443.933,-44.922,-110.840,-115.234,-30.762,0.000,0.000,0.000,0.000
621443.937,-33.691,-65.430,-70.312,8.301,0.000,0.000,0.000,0.000
621443.941,-13.672,-29.785,-29.297,15.625,0.000,0.000,0.000,0.000
621443.945,-17.090,-62.012,-60.059,-53.223,0.000,0.000,0.000,0.000
621443.948,-26.855,-91.309,-88.867,-51.270,0.000,0.000,0.000,0.000
621443.952,-42.969,-48.828,-43.457,-4.883,0.000,0.000,0.000,0.000
621443.956,-37.598,-16.602,-8.789,27.832,0.000,0.000,0.000,0.000
621443.960,-12.207,-41.504,-39.062,0.488,0.000,0.000,0.000,0.000
621443.964,-20.020,-70.312,-77.148,-36.621,0.000,0.000,0.000,0.000
621443.968,-41.016,-44.434,-52.734,1.953,0.000,0.000,0.000,0.000
621443.972,-35.645,6.348,-0.488,46.387,0.000,0.000,0.000,0.000
621443.976,-0.977,-6.348,-11.230,30.762,0.000,0.000,0.000,0.000
621443.980,-3.906,-48.340,-47.852,-30.273,0.000,0.000,0.000,0.000
621443.984,-32.715,-30.762,-31.250,-17.090,0.000,0.000,0.000,0.000
621443.988,-7.812,15.625,14.160,37.598,0.000,0.000,0.000,0.000
621443.992,25.391,16.113,17.090,56.641,0.000,0.000,0.000,0.000
621443.995,1.953,-25.391,-21.973,17.090,0.000,0.000,0.000,0.000
621443.999,-44.434,-46.387,-46.875,-38.086,0.000,0.000,0.000,0.000
621444.003,-48.340,-2.930,-2.441,7.812,0.000,0.000,0.000,0.000
621444.007,-11.719,35.156,40.527,49.805,0.000,0.000,0.000,0.000
621444.011,2.930,-8.789,-11.230,-2.930,0.000,0.000,0.000,0.000
621444.015,-20.508,-46.387,-52.734,-26.855,0.000,0.000,0.000,0.000
621444.019,-28.809,15.137,13.184,1.465,0.000,0.000,0.000,0.000
621444.023,4.395,48.828,48.340,22.461,0.000,0.000,0.000,0.000
621444.027,2.441,5.371,0.977,-11.719,0.000,0.000,0.000,0.000
621444.031,-41.016,-18.066,-24.902,-27.832,0.000,0.000,0.000,0.000
621444.035,-45.898,17.090,12.207,4.883,0.000,0.000,0.000,0.000
621444.039,-12.207,44.922,45.898,16.602,0.000,0.000,0.000,0.000
621444.042,22.949,27.344,22.461,0.000,0.000,0.000,0.000,0.000
621444.046,0.488,-8.301,-15.137,-9.766,0.000,0.000,0.000,0.000
621444.050,-23.438,6.836,2.441,-5.371,0.000,0.000,0.000,0.000
621444.054,-5.859,57.129,53.223,22.461,0.000,0.000,0.000,0.000
621444.058,31.250,49.805,49.805,18.555,0.000,0.000,0.000,0.000
621444.062,11.230,-1.953,-5.371,-19.043,0.000,0.000,0.000,0.000
621444.066,-28.320,-0.977,-2.930,-10.742,0.000,0.000,0.000,0.000
621444.070,-0.977,59.570,59.570,51.270,0.000,0.000,0.000,0.000
621444.074,30.273,79.102,77.148,47.852,0.000,0.000,0.000,0.000
621444.078,30.273,41.504,38.574,-6.348,0.000,0.000,0.000,0.000
621444.082,7.324,9.277,6.348,11.230,0.000,0.000,0.000,0.000
621444.086,15.625,47.852,49.805,41.504,0.000,0.000,0.000,0.000
621444.090,48.828,96.191,96.191,61.035,0.000,0.000,0.000,0.000
621444.093,44.434,66.895,63.477,16.602,0.000,0.000,0.000,0.000
621444.097,3.418,29.297,22.949,-25.391,0.000,0.000,0.000,0.000
621444.101,-8.789,60.059,55.664,13.672,0.000,0.000,0.000,0.000
621444.105,27.832,83.984,82.520,81.055,0.000,0.000,0.000,0.000
621444.109,43.457,49.805,45.898,55.664,0.000,0.000,0.000,0.000
621444.113,-8.301,1.953,-5.859,-21.484,0.000,0.000,0.000,0.000
621444.117,-30.762,15.625,10.742,-21.484,0.000,0.000,0.000,0.000
621444.121,5.859,60.059,58.105,27.344,0.000,0.000,0.000,0.000
621444.125,35.645,26.855,21.484,8.301,0.000,0.000,0.000,0.000
621444.129,2.441,-30.273,-38.574,-17.578,0.000,0.000,0.000,0.000
621444.133,-30.273,-7.324,-14.160,-3.418,0.000,0.000,0.000,0.000
621444.137,-8.789,46.387,44.922,29.785,0.000,0.000,0.000,0.000
621444.140,-4.883,-0.977,-1.465,2.930,0.000,0.000,0.000,0.000
621444.144,-20.020,-60.059,-65.430,-26.367,0.000,0.000,0.000,0.000
621444.148,-20.508,-37.598,-45.410,1.465,0.000,0.000,0.000,0.000
621444.152,-17.578,20.020,14.648,10.742,0.000,0.000,0.000,0.000
621444.156,-0.488,-7.812,-11.719,-14.648,0.000,0.000,0.000,0.000
621444.160,-28.809,-76.660,-83.008,-42.480,0.000,0.000,0.000,0.000
621444.164,-53.223,-71.777,-74.707,-41.504,0.000,0.000,0.000,0.000
621444.168,-24.902,-33.691,-33.691,-11.230,0.000,0.000,0.000,0.000
621444.172,0.488,-22.461,-21.973,-3.418,0.000,0.000,0.000,0.000
621444.176,5.371,-48.828,-46.387,-34.180,0.000,0.000,0.000,0.000
621444.180,-26.855,-75.684,-78.613,-51.758,0.000,0.000,0.000,0.000
621444.184,-51.270,-41.992,-44.922,-17.090,0.000,0.000,0.000,0.000
621444.188,-20.996,-14.160,-15.137,14.160,0.000,0.000,0.000,0.000
621444.191,-4.883,-22.461,-22.949,-18.555,0.000,0.000,0.000,0.000
621444.195,-42.480,-70.801,-69.336,-52.734,0.000,0.000,0.000,0.000
621444.199,-54.688,-62.988,-58.594,-41.504,0.000,0.000,0.000,0.000
621444.203,-30.273,-15.137,-7.812,16.602,0.000,0.000,0.000,0.000
621444.207,-7.324,-24.414,-17.090,5.859,0.000,0.000,0.000,0.000
621444.211,-32.227,-79.590,-69.824,-54.199,0.000,0.000,0.000,0.000
621444.215,-66.895,-90.332,-81.543,-46.387,0.000,0.000,0.000,0.000
621444.219,-33.203,-11.230,-11.230,19.043,0.000,0.000,0.000,0.000
621444.223,29.297,26.367,22.949,52.734,0.000,0.000,0.000,0.000
621444.227,22.461,-45.410,-46.875,-2.930,0.000,0.000,0.000,0.000
621444.231,-27.832,-65.430,-64.453,-38.086,0.000,0.000,0.000,0.000
621444.235,-28.320,5.371,2.930,-14.160,0.000,0.000,0.000,0.000
621444.238,6.348,16.602,13.184,8.301,0.000,0.000,0.000,0.000
621444.242,2.930,-42.480,-47.363,-13.184,0.000,0.000,0.000,0.000
621444.246,-39.062,-84.473,-89.844,-35.156,0.000,0.000,0.000,0.000
621444.250,-48.828,-36.133,-37.598,-13.672,0.000,0.000,0.000,0.000
621444.254,1.953,15.137,16.602,44.434,0.000,0.000,0.000,0.000
621444.258,7.324,-29.297,-28.320,3.906,0.000,0.000,0.000,0.000
621444.262,-53.223,-99.609,-97.656,-54.199,0.000,0.000,0.000,0.000
621444.266,-59.570,-63.477,-58.105,-25.879,0.000,0.000,0.000,0.000
621444.270,-18.066,7.812,12.207,8.301,0.000,0.000,0.000,0.000
621444.274,3.418,-21.973,-26.367,-11.719,0.000,0.000,0.000,0.000
621444.278,-42.969,-96.680,-104.492,-63.965,0.000,0.000,0.000,0.000
621444.282,-70.801,-95.215,-102.539,-39.062,0.000,0.000,0.000,0.000
621444.285,-41.504,-34.668,-41.504,21.973,0.000,0.000,0.000,0.000
621444.289,-13.672,-20.020,-24.414,7.324,0.000,0.000,0.000,0.000
621444.293,-20.020,-64.941,-69.824,-32.227,0.000,0.000,0.000,0.000
621444.297,-70.312,-91.309,-97.168,-36.621,0.000,0.000,0.000,0.000
621444.301,-61.035,-34.180,-40.039,-4.883,0.000,0.000,0.000,0.000
621444.305,-9.766,-7.812,-15.625,11.230,0.000,0.000,0.000,0.000
621444.309,-9.277,-44.434,-53.223,-31.738,0.000,0.000,0.000,0.000
621444.313,-37.598,-71.777,-80.078,-37.598,0.000,0.000,0.000,0.000
621444.317,-51.270,-60.059,-64.453,-18.555,0.000,0.000,0.000,0.000
621444.321,-22.461,-15.625,-19.043,27.344,0.000,0.000,0.000,0.000
621444.325,-5.859,-39.551,-45.898,-5.371,0.000,0.000,0.000,0.000
621444.329,-42.480,-100.586,-103.516,-74.219,0.000,0.000,0.000,0.000
621444.333,-40.527,-77.148,-74.707,-31.250,0.000,0.000,0.000,0.000
621444.336,-7.324,-11.230,-5.859,22.461,0.000,0.000,0.000,0.000
621444.340,-4.883,-22.461,-13.184,1.953,0.000,0.000,0.000,0.000
621444.344,-10.254,-76.660,-69.336,-39.062,0.000,0.000,0.000,0.000
621444.348,-24.414,-78.125,-73.730,-53.711,0.000,0.000,0.000,0.000
621444.352,-32.227,-27.832,-24.414,-19.531,0.000,0.000,0.000,0.000
621444.356,-9.766,-11.230,-7.812,4.395,0.000,0.000,0.000,0.000
621444.360,-25.879,-74.707,-70.312,-45.410,0.000,0.000,0.000,0.000
621444.364,-68.848,-93.262,-87.891,-56.641,0.000,0.000,0.000,0.000
621444.368,-66.406,-33.691,-27.832,-20.996,0.000,0.000,0.000,0.000
621444.372,-21.484,-5.371,-2.930,28.809,0.000,0.000,0.000,0.000
621444.376,-0.488,-32.227,-33.691,-14.160,0.000,0.000,0.000,0.000
621444.380,-39.551,-83.496,-88.379,-66.895,0.000,0.000,0.000,0.000
621444.383,-47.363,-39.551,-43.457,-37.598,0.000,0.000,0.000,0.000
621444.387,-13.672,32.227,32.227,6.836,0.000,0.000,0.000,0.000
621444.391,1.953,2.441,4.883,-10.254,0.000,0.000,0.000,0.000
621444.395,-23.926,-53.223,-53.223,-43.945,0.000,0.000,0.000,0.000
621444.399,-44.922,-34.180,-39.551,-26.855,0.000,0.000,0.000,0.000
621444.403,-24.414,34.180,27.344,37.598,0.000,0.000,0.000,0.000
621444.407,-1.953,25.391,22.949,25.391,0.000,0.000,0.000,0.000
621444.411,-26.855,-53.223,-53.711,-44.922,0.000,0.000,0.000,0.000
621444.415,-64.941,-58.105,-55.664,-41.504,0.000,0.000,0.000,0.000
621444.419,-43.945,5.371,8.301,13.672,0.000,0.000,0.000,0.000
621444.423,1.953,33.203,32.715,29.297,0.000,0.000,0.000,0.000
621444.427,11.230,10.742,8.301,-14.160,0.000,0.000,0.000,0.000
621444.430,-18.066,-31.738,-34.180,-12.695,0.000,0.000,0.000,0.000
621444.434,-29.785,0.977,1.953,29.297,0.000,0.000,0.000,0.000
621444.438,-8.789,43.457,46.387,43.945,0.000,0.000,0.000,0.000
621444.442,-14.648,-0.977,-0.977,-13.184,0.000,0.000,0.000,0.000
621444.446,-51.758,-48.340,-49.316,-59.082,0.000,0.000,0.000,0.000
621444.450,-40.039,-15.137,-18.066,-20.996,0.000,0.000,0.000,0.000
621444.454,-13.672,32.715,26.367,20.508,0.000,0.000,0.000,0.000
621444.458,6.348,7.324,-0.488,14.648,0.000,0.000,0.000,0.000
621444.462,-6.836,-46.387,-49.805,-20.508,0.000,0.000,0.000,0.000
621444.466,-50.781,-61.035,-60.059,-36.621,0.000,0.000,0.000,0.000
621444.470,-38.574,-20.996,-15.137,13.184,0.000,0.000,0.000,0.000
621444.474,-13.672,-5.859,-0.488,21.973,0.000,0.000,0.000,0.000
621444.478,-43.457,-66.406,-69.336,-52.734,0.000,0.000,0.000,0.000
621444.481,-83.496,-97.168,-101.074,-71.777,0.000,0.000,0.000,0.000
621444.485,-68.848,-31.250,-31.738,-25.879,0.000,0.000,0.000,0.000
621444.489,-24.414,17.578,19.531,5.859,0.000,0.000,0.000,0.000
621444.493,-16.602,-30.762,-30.273,-38.086,0.000,0.000,0.000,0.000
621444.497,-50.293,-91.797,-99.609,-32.227,0.000,0.000,0.000,0.000
621444.501,-53.711,-50.781,-56.641,-12.207,0.000,0.000,0.000,0.000
621444.505,-33.203,6.348,5.371,-2.441,0.000,0.000,0.000,0.000
621444.509,-20.020,-34.668,-33.691,-20.996,0.000,0.000,0.000,0.000
621444.513,-39.551,-105.957,-104.980,-50.781,0.000,0.000,0.000,0.000
621444.517,-77.148,-84.473,-85.449,-22.461,0.000,0.000,0.000,0.000
621444.521,-47.363,-6.836,-6.836,8.301,0.000,0.000,0.000,0.000
621444.525,-12.207,-20.020,-20.996,-20.996,0.000,0.000,0.000,0.000
621444.528,-42.969,-85.938,-90.820,-56.641,0.000,0.000,0.000,0.000
621444.532,-67.871,-83.008,-87.891,-40.527,0.000,0.000,0.000,0.000
621444.536,-42.969,-25.879,-24.902,15.137,0.000,0.000,0.000,0.000
621444.540,-20.508,-41.504,-41.504,-20.996,0.000,0.000,0.000,0.000
621444.544,-29.785,-89.355,-95.703,-74.707,0.000,0.000,0.000,0.000
621444.548,-41.504,-103.516,-107.422,-30.762,0.000,0.000,0.000,0.000
621444.552,-32.227,-52.246,-50.781,-3.906,0.000,0.000,0.000,0.000
621444.556,-20.020,-25.879,-25.879,2.930,0.000,0.000,0.000,0.000
621444.560,-13.672,-69.336,-70.801,-44.922,0.000,0.000,0.000,0.000
621444.564,-35.645,-103.516,-105.469,-83.496,0.000,0.000,0.000,0.000
621444.568,-52.734,-62.012,-64.941,-29.785,0.000,0.000,0.000,0.000
621444.572,-30.273,-28.809,-30.273,19.043,0.000,0.000,0.000,0.000
621444.575,-2.441,-78.613,-80.566,-20.996,0.000,0.000,0.000,0.000
621444.579,-47.852,-129.883,-133.789,-69.336,0.000,0.000,0.000,0.000
621444.583,-76.172,-107.910,-111.816,-55.176,0.000,0.000,0.000,0.000
621444.587,-44.434,-57.617,-58.105,-27.832,0.000,0.000,0.000,0.000
621444.591,-8.789,-63.965,-66.406,-30.762,0.000,0.000,0.000,0.000
621444.595,-14.160,-104.004,-109.863,-53.711,0.000,0.000,0.000,0.000
621444.599,-40.527,-83.984,-90.332,-70.312,0.000,0.000,0.000,0.000
621444.603,-22.949,-37.109,-42.480,-40.527,0.000,0.000,0.000,0.000
621444.607,6.836,-35.156,-40.527,-13.184,0.000,0.000,0.000,0.000
621444.611,-10.742,-61.035,-68.848,-31.738,0.000,0.000,0.000,0.000
621444.615,-39.551,-87.891,-92.285,-41.504,0.000,0.000,0.000,0.000
621444.619,-48.828,-47.852,-50.293,-40.527,0.000,0.000,0.000,0.000
621444.623,-24.414,-0.977,-4.395,-5.371,0.000,0.000,0.000,0.000
621444.626,1.465,-25.391,-29.785,-17.578,0.000,0.000,0.000,0.000
621444.630,-22.949,-56.641,-66.406,-29.785,0.000,0.000,0.000,0.000
621444.634,-26.855,-19.043,-32.227,-25.391,0.000,0.000,0.000,0.000
621444.638,3.418,20.508,9.766,-12.695,0.000,0.000,0.000,0.000
621444.642,3.418,10.742,-0.488,-18.555,0.000,0.000,0.000,0.000
621444.646,-45.898,-54.688,-65.430,-47.363,0.000,0.000,0.000,0.000
621444.650,-48.340,-64.941,-70.801,-25.391,0.000,0.000,0.000,0.000
621444.654,-22.461,-0.488,-2.441,24.414,0.000,0.000,0.000,0.000
621444.658,-10.254,24.414,19.043,3.418,0.000,0.000,0.000,0.000
621444.662,-26.855,-38.086,-42.480,-33.203,0.000,0.000,0.000,0.000
621444.666,-56.641,-94.238,-97.656,-49.316,0.000,0.000,0.000,0.000
621444.670,-37.109,-38.086,-40.039,-18.555,0.000,0.000,0.000,0.000
621444.673,-7.812,18.066,18.555,19.043,0.000,0.000,0.000,0.000
621444.677,-9.766,-14.648,-20.996,-42.480,0.000,0.000,0.000,0.000
621444.681,-23.926,-45.898,-53.711,-66.895,0.000,0.000,0.000,0.000
621444.685,-13.672,7.812,11.719,0.488,0.000,0.000,0.000,0.000
621444.689,0.977,62.988,69.824,51.270,0.000,0.000,0.000,0.000
621444.693,7.812,16.113,17.578,-2.930,0.000,0.000,0.000,0.000
621444.697,-5.371,-16.113,-13.184,-33.691,0.000,0.000,0.000,0.000
621444.701,-4.395,27.344,32.715,15.625,0.000,0.000,0.000,0.000
621444.705,11.719,78.613,84.473,59.570,0.000,0.000,0.000,0.000
621444.709,17.578,54.199,57.617,20.996,0.000,0.000,0.000,0.000
621444.713,3.418,-5.371,-3.418,-10.742,0.000,0.000,0.000,0.000
621444.717,-25.879,5.859,12.207,-15.137,0.000,0.000,0.000,0.000
621444.720,-23.926,52.734,56.152,2.441,0.000,0.000,0.000,0.000
621444.724,9.766,62.500,63.477,30.762,0.000,0.000,0.000,0.000
621444.728,23.926,35.156,35.156,9.766,0.000,0.000,0.000,0.000
621444.732,-4.883,3.906,1.465,2.441,0.000,0.000,0.000,0.000
621444.736,0.488,55.176,57.129,26.367,0.000,0.000,0.000,0.000
621444.740,29.297,78.125,81.543,46.875,0.000,0.000,0.000,0.000
621444.744,19.531,17.578,20.508,-9.766,0.000,0.000,0.000,0.000
621444.748,-21.973,-15.625,-14.648,-24.414,0.000,0.000,0.000,0.000
621444.752,-22.461,20.996,23.438,28.809,0.000,0.000,0.000,0.000
621444.756,-8.789,48.828,50.293,19.531,0.000,0.000,0.000,0.000
621444.760,-6.348,-1.465,-2.441,-21.973,0.000,0.000,0.000,0.000
621444.764,-29.785,-60.059,-53.711,-29.297,0.000,0.000,0.000,0.000
621444.768,-43.457,-34.180,-31.250,-7.812,0.000,0.000,0.000,0.000
621444.771,-13.184,26.367,26.367,43.457,0.000,0.000,0.000,0.000
621444.775,6.348,35.156,39.551,21.973,0.000,0.000,0.000,0.000
621444.779,-18.066,-29.297,-30.762,-32.715,0.000,0.000,0.000,0.000
621444.783,-43.945,-65.430,-70.801,-36.133,0.000,0.000,0.000,0.000
621444.787,-37.109,-11.719,-13.184,8.301,0.000,0.000,0.000,0.000
621444.791,-15.625,15.137,13.184,35.156,0.000,0.000,0.000,0.000
621444.795,-34.180,-33.203,-36.133,-36.621,0.000,0.000,0.000,0.000
621444.799,-49.805,-62.500,-65.918,-28.320,0.000,0.000,0.000,0.000
621444.803,-42.969,-16.602,-17.578,22.949,0.000,0.000,0.000,0.000
621444.807,-23.438,7.812,8.301,32.715,0.000,0.000,0.000,0.000
621444.811,-7.324,-41.992,-41.016,-28.809,0.000,0.000,0.000,0.000
621444.815,-26.367,-80.078,-78.613,-61.035,0.000,0.000,0.000,0.000
621444.818,-51.758,-45.898,-41.016,-7.324,0.000,0.000,0.000,0.000
621444.822,-22.461,14.648,22.461,37.109,0.000,0.000,0.000,0.000
621444.826,9.277,-4.395,-2.930,11.719,0.000,0.000,0.000,0.000
621444.830,-42.969,-82.031,-84.473,-54.199,0.000,0.000,0.000,0.000
621444.834,-69.336,-65.918,-66.406,-63.477,0.000,0.000,0.000,0.000
621444.838,-39.062,1.953,0.977,4.883,0.000,0.000,0.000,0.000
621444.842,-21.484,-10.742,-9.766,10.254,0.000,0.000,0.000,0.000
621444.846,-32.715,-69.336,-70.312,-53.223,0.000,0.000,0.000,0.000
621444.850,-54.688,-62.012,-65.918,-32.227,0.000,0.000,0.000,0.000
621444.854,-38.086,-0.488,-0.977,17.578,0.000,0.000,0.000,0.000
621444.858,-6.348,9.277,11.230,7.812,0.000,0.000,0.000,0.000
621444.862,-27.344,-55.176,-51.270,-32.227,0.000,0.000,0.000,0.000
621444.865,-62.500,-77.637,-76.660,-15.137,0.000,0.000,0.000,0.000
621444.869,-53.711,-6.836,-8.789,7.324,0.000,0.000,0.000,0.000
621444.873,-32.715,15.137,10.742,-15.625,0.000,0.000,0.000,0.000
621444.877,-26.855,-33.691,-38.574,-49.805,0.000,0.000,0.000,0.000
621444.881,-42.480,-60.547,-65.430,-52.246,0.000,0.000,0.000,0.000
621444.885,-46.387,-33.691,-35.645,-0.488,0.000,0.000,0.000,0.000
621444.889,-20.508,8.789,11.230,37.598,0.000,0.000,0.000,0.000
621444.893,-10.254,-12.695,-6.348,-17.090,0.000,0.000,0.000,0.000
621444.897,-51.758,-71.777,-66.406,-71.777,0.000,0.000,0.000,0.000
621444.901,-80.566,-76.172,-69.336,-55.664,0.000,0.000,0.000,0.000
621444.905,-41.992,-12.207,-2.441,5.859,0.000,0.000,0.000,0.000
621444.909,-14.160,0.977,5.859,14.648,0.000,0.000,0.000,0.000
621444.913,-45.410,-52.734,-54.688,-49.316,0.000,0.000,0.000,0.000
621444.916,-71.289,-73.242,-74.707,-48.340,0.000,0.000,0.000,0.000
621444.920,-50.781,-15.137,-13.184,-11.719,0.000,0.000,0.000,0.000
621444.924,-15.625,4.395,7.324,-1.465,0.000,0.000,0.000,0.000
621444.928,-11.230,-28.320,-29.297,-36.621,0.000,0.000,0.000,0.000
621444.932,-44.434,-46.387,-49.805,-66.895,0.000,0.000,0.000,0.000
621444.936,-31.738,-4.395,-11.230,-17.578,0.000,0.000,0.000,0.000
621444.940,6.348,30.762,22.949,31.250,0.000,0.000,0.000,0.000
621444.944,3.906,-17.090,-25.391,-18.555,0.000,0.000,0.000,0.000
621444.948,-36.133,-47.363,-56.641,-60.547,0.000,0.000,0.000,0.000
621444.952,-44.434,6.836,0.000,-18.555,0.000,0.000,0.000,0.000
621444.956,-16.113,17.578,17.578,-1.465,0.000,0.000,0.000,0.000
621444.960,-13.184,-34.668,-34.180,-56.641,0.000,0.000,0.000,0.000
621444.963,-48.340,-90.332,-97.656,-71.289,0.000,0.000,0.000,0.000
621444.967,-47.363,-54.688,-58.105,-49.316,0.000,0.000,0.000,0.000
621444.971,-6.836,9.766,8.789,-26.367,0.000,0.000,0.000,0.000
621444.975,9.766,-19.531,-20.508,-32.715,0.000,0.000,0.000,0.000
621444.979,-13.184,-71.289,-68.848,-41.992,0.000,0.000,0.000,0.000
621444.983,-30.762,-61.035,-61.523,-28.809,0.000,0.000,0.000,0.000
621444.987,-3.418,20.996,20.020,5.371,0.000,0.000,0.000,0.000
621444.991,-1.953,9.277,7.812,-29.785,0.000,0.000,0.000,0.000
621444.995,-26.367,-70.312,-73.242,-89.355,0.000,0.000,0.000,0.000
621444.999,-32.715,-59.082,-60.547,-55.664,0.000,0.000,0.000,0.000
621445.003,-11.719,9.766,5.859,20.020,0.000,0.000,0.000,0.000
621445.007,17.578,23.438,20.020,17.090,0.000,2.000,1.000,0.000
621445.011,6.836,-32.227,-31.738,-24.902,0.000,0.000,0.000,0.000
621445.014,-25.391,-51.758,-47.852,-11.230,0.000,0.000,0.000,0.000
621445.018,-29.785,-2.441,4.883,1.953,0.000,0.000,0.000,0.000
621445.022,-3.906,8.789,16.602,8.301,0.000,0.000,0.000,0.000
621445.026,-5.371,-39.551,-34.180,-43.457,0.000,0.000,0.000,0.000
621445.030,-17.578,-76.172,-67.383,-73.730,0.000,0.000,0.000,0.000
621445.034,-15.625,-37.109,-30.273,-33.691,0.000,0.000,0.000,0.000
621445.038,-8.301,6.348,7.812,5.859,0.000,0.000,0.000,0.000
621445.042,-3.418,-23.438,-24.414,-16.602,0.000,0.000,0.000,0.000
621445.046,-29.785,-66.895,-67.871,-66.406,0.000,0.000,0.000,0.000
621445.050,-45.410,-49.805,-46.387,-42.969,0.000,0.000,0.000,0.000
621445.054,-25.879,8.789,12.695,35.156,0.000,0.000,0.000,0.000
621445.058,18.066,16.113,17.578,33.691,0.000,0.000,0.000,0.000
621445.061,0.977,-43.945,-41.504,-31.738,0.000,0.000,0.000,0.000
621445.065,-39.062,-51.270,-49.316,-55.664,0.000,0.000,0.000,0.000
621445.069,-25.879,0.488,3.418,-20.020,0.000,0.000,0.000,0.000
621445.073,6.348,8.789,10.254,8.789,0.000,0.000,0.000,0.000
621445.077,10.742,-37.598,-43.945,-40.039,0.000,0.000,0.000,0.000
621445.081,-38.574,-75.195,-79.102,-68.359,0.000,0.000,0.000,0.000
621445.085,-48.828,-27.344,-24.902,-48.828,0.000,0.000,0.000,0.000
621445.089,-10.254,21.484,27.344,-4.883,0.000,0.000,0.000,0.000
621445.093,21.973,-11.719,-6.836,-8.789,0.000,0.000,0.000,0.000
621445.097,7.324,-63.477,-66.406,-22.949,0.000,0.000,0.000,0.000
621445.101,-2.930,-31.250,-39.551,2.441,0.000,0.000,0.000,0.000
621445.105,17.578,34.180,28.809,21.484,0.000,0.000,0.000,0.000
621445.108,17.578,13.184,13.184,-15.137,0.000,0.000,0.000,0.000
621445.112,-19.531,-62.500,-64.453,-57.617,0.000,0.000,0.000,0.000
621445.116,-46.387,-63.965,-63.477,-17.090,0.000,0.000,0.000,0.000
621445.120,-21.484,3.906,10.742,1.953,0.000,0.000,0.000,0.000
621445.124,22.461,19.043,19.043,-27.832,0.000,0.000,0.000,0.000
621445.128,16.113,-50.781,-54.199,-37.109,0.000,0.000,0.000,0.000
621445.132,-32.227,-87.891,-86.426,-25.879,0.000,0.000,0.000,0.000
621445.136,-22.461,-12.207,-11.230,16.113,0.000,0.000,0.000,0.000
621445.140,3.418,19.531,21.973,16.113,0.000,0.000,0.000,0.000
621445.144,-12.207,-37.109,-33.691,-48.340,0.000,0.000,0.000,0.000
621445.148,-39.062,-81.543,-82.520,-69.824,0.000,0.000,0.000,0.000
621445.152,-31.250,-28.809,-32.715,-19.043,0.000,0.000,0.000,0.000
621445.156,-7.812,12.207,10.254,51.758,0.000,0.000,0.000,0.000
621445.159,8.301,-35.645,-36.133,-9.766,0.000,0.000,0.000,0.000
621445.163,-27.344,-72.266,-76.660,-69.336,0.000,0.000,0.000,0.000
621445.167,-54.688,-45.410,-49.805,-14.648,0.000,0.000,0.000,0.000
621445.171,-5.371,11.230,12.207,34.180,0.000,0.000,0.000,0.000
621445.175,13.672,-9.277,-12.695,0.000,0.000,0.000,0.000,0.000
621445.179,-18.555,-69.824,-72.754,-51.270,0.000,0.000,0.000,0.000
621445.183,-30.762,-51.758,-50.293,-41.016,0.000,0.000,0.000,0.000
621445.187,-11.719,-1.465,-2.441,9.277,0.000,0.000,0.000,0.000
621445.191,6.348,-7.812,-9.277,27.344,0.000,0.000,0.000,0.000
621445.195,7.324,-52.734,-59.082,-11.230,0.000,0.000,0.000,0.000
621445.199,-19.043,-60.547,-64.941,-39.551,0.000,0.000,0.000,0.000
621445.203,-10.254,-5.859,-2.930,6.348,0.000,0.000,0.000,0.000
621445.206,15.137,9.766,13.672,34.668,0.000,0.000,0.000,0.000
621445.210,3.418,-29.785,-30.273,-15.625,0.000,0.000,0.000,0.000
621445.214,-41.016,-76.660,-83.496,-43.945,0.000,0.000,0.000,0.000
621445.218,-33.691,-32.715,-36.133,-26.367,0.000,0.000,0.000,0.000
621445.222,16.113,37.109,38.086,13.184,0.000,0.000,0.000,0.000
621445.226,12.695,-8.789,-7.324,-5.859,0.000,0.000,0.000,0.000
621445.230,-36.621,-87.402,-81.055,-38.086,0.000,0.000,0.000,0.000
621445.234,-51.270,-66.406,-60.547,-30.762,0.000,0.000,0.000,0.000
621445.238,-28.320,0.488,0.488,8.789,0.000,0.000,0.000,0.000
621445.242,-15.625,-1.465,-2.441,0.488,0.000,0.000,0.000,0.000
621445.246,-33.691,-60.059,-63.477,-46.875,0.000,0.000,0.000,0.000
621445.250,-57.129,-75.684,-79.590,-42.969,0.000,0.000,0.000,0.000
621445.253,-34.668,-22.461,-25.879,18.066,0.000,0.000,0.000,0.000
621445.257,-21.973,0.000,-2.930,17.578,0.000,0.000,0.000,0.000
621445.261,-28.809,-51.270,-53.223,-74.219,0.000,0.000,0.000,0.000
621445.265,-48.828,-83.496,-83.984,-55.176,0.000,0.000,0.000,0.000
621445.269,-60.547,-26.855,-28.320,1.953,0.000,0.000,0.000,0.000
621445.273,-12.695,17.090,12.207,16.602,0.000,0.000,0.000,0.000
621445.277,-11.719,-38.086,-40.527,-40.527,0.000,0.000,0.000,0.000
621445.281,-45.898,-93.750,-95.215,-78.613,0.000,0.000,0.000,0.000
621445.285,-53.223,-53.223,-54.688,-26.855,0.000,0.000,0.000,0.000
621445.289,-23.926,-3.906,-3.418,11.230,0.000,0.000,0.000,0.000
621445.293,-3.418,-43.457,-42.480,-34.668,0.000,0.000,0.000,0.000
621445.297,-28.809,-99.609,-96.680,-65.918,0.000,0.000,0.000,0.000
621445.301,-46.875,-55.176,-53.711,-43.945,0.000,0.000,0.000,0.000
621445.304,-26.367,10.742,12.207,22.461,0.000,0.000,0.000,0.000
621445.308,6.836,-11.230,-13.184,22.949,0.000,0.000,0.000,0.000
621445.312,-13.184,-70.801,-73.242,-34.668,0.000,0.000,0.000,0.000
621445.316,-50.293,-71.289,-72.266,-35.645,0.000,0.000,0.000,0.000
621445.320,-48.340,-18.066,-22.461,-10.742,0.000,0.000,0.000,0.000
621445.324,-16.602,3.906,0.000,2.441,0.000,0.000,0.000,0.000
621445.328,-7.812,-31.250,-35.645,-30.273,0.000,0.000,0.000,0.000
621445.332,-20.508,-67.383,-70.312,-19.531,0.000,0.000,0.000,0.000
621445.336,-21.973,-24.414,-24.902,4.395,0.000,0.000,0.000,0.000
621445.340,-19.531,0.977,4.395,-1.953,0.000,0.000,0.000,0.000
621445.344,-3.418,-29.785,-29.297,-10.742,0.000,0.000,0.000,0.000
621445.348,-24.414,-58.105,-62.012,-13.184,0.000,0.000,0.000,0.000
621445.351,-59.082,-49.316,-50.293,-3.906,0.000,0.000,0.000,0.000
621445.355,-31.250,-2.441,-5.859,8.789,0.000,0.000,0.000,0.000
621445.359,-12.207,-18.555,-27.344,-15.625,0.000,0.000,0.000,0.000
621445.363,-56.152,-83.008,-87.402,-52.734,0.000,0.000,0.000,0.000
621445.367,-39.062,-50.293,-47.363,1.953,0.000,0.000,0.000,0.000
621445.371,-2.930,8.301,7.324,41.992,0.000,0.000,0.000,0.000
621445.375,-12.207,-8.301,-12.207,-36.133,0.000,0.000,0.000,0.000
621445.379,-43.945,-62.012,-68.359,-49.316,0.000,0.000,0.000,0.000
621445.383,-56.641,-31.250,-38.086,-16.602,0.000,0.000,0.000,0.000
621445.387,-14.160,17.578,15.137,16.113,0.000,0.000,0.000,0.000
621445.391,1.465,5.859,2.930,1.465,0.000,0.000,0.000,0.000
621445.395,-33.203,-35.156,-42.969,-60.059,0.000,0.000,0.000,0.000
621445.398,-62.988,-51.270,-58.594,-48.828,0.000,0.000,0.000,0.000
621445.402,-39.551,7.324,1.953,14.160,0.000,0.000,0.000,0.000
621445.406,6.348,33.203,25.879,42.969,0.000,0.000,0.000,0.000
621445.410,1.953,-30.762,-40.527,-20.996,0.000,0.000,0.000,0.000
621445.414,-49.805,-59.082,-63.965,-49.316,0.000,0.000,0.000,0.000
621445.418,-47.852,3.418,-2.930,14.648,0.000,0.000,0.000,0.000
621445.422,-2.930,23.926,17.578,31.250,0.000,0.000,0.000,0.000
621445.426,-14.648,-35.645,-38.574,-35.645,0.000,0.000,0.000,0.000
621445.430,-66.895,-89.355,-96.191,-64.941,0.000,0.000,0.000,0.000
621445.434,-56.641,-38.574,-47.363,-33.691,0.000,0.000,0.000,0.000
621445.438,-25.391,19.043,18.555,14.648,0.000,0.000,0.000,0.000
621445.442,-15.625,-25.391,-28.809,-13.184,0.000,0.000,0.000,0.000
621445.446,-42.480,-85.938,-90.332,-48.340,0.000,0.000,0.000,0.000
621445.449,-60.059,-68.848,-67.871,-30.762,0.000,0.000,0.000,0.000
621445.453,-19.531,5.371,2.441,-1.465,0.000,0.000,0.000,0.000
621445.457,9.766,9.277,0.488,-19.531,0.000,0.000,0.000,0.000
621445.461,-25.879,-71.289,-76.660,-55.176,0.000,0.000,0.000,0.000
621445.465,-61.035,-74.707,-76.172,-47.852,0.000,0.000,0.000,0.000
621445.469,-46.387,-4.395,-9.277,-7.324,0.000,0.000,0.000,0.000
621445.473,-13.184,17.578,13.184,-0.977,0.000,0.000,0.000,0.000
621445.477,-29.297,-35.645,-39.551,-38.574,0.000,0.000,0.000,0.000
621445.481,-55.664,-63.477,-72.266,-33.691,0.000,0.000,0.000,0.000
621445.485,-44.922,-8.301,-14.648,9.277,0.000,0.000,0.000,0.000
621445.489,-20.020,15.137,12.695,-0.977,0.000,0.000,0.000,0.000
621445.493,-21.484,-26.367,-27.832,-48.340,0.000,0.000,0.000,0.000
621445.496,-43.945,-74.219,-74.707,-34.668,0.000,0.000,0.000,0.000
621445.500,-43.457,-42.969,-48.340,-26.855,0.000,0.000,0.000,0.000
621445.504,-31.738,9.766,2.441,-1.953,0.000,0.000,0.000,0.000
621445.508,-22.461,-22.461,-28.809,-16.602,0.000,0.000,0.000,0.000
621445.512,-41.504,-69.824,-82.031,-61.035,0.000,0.000,0.000,0.000
621445.516,-52.734,-55.176,-66.406,-38.574,0.000,0.000,0.000,0.000
621445.520,-20.996,-3.906,-9.277,26.855,0.000,0.000,0.000,0.000
621445.524,4.395,-4.395,-11.230,14.648,0.000,0.000,0.000,0.000
621445.528,-20.996,-64.941,-76.172,-54.688,0.000,0.000,0.000,0.000
621445.532,-51.758,-64.453,-79.590,-35.645,0.000,0.000,0.000,0.000
621445.536,-37.109,-4.883,-20.508,14.648,0.000,0.000,0.000,0.000
621445.540,0.977,18.555,8.301,18.555,0.000,0.000,0.000,0.000
621445.543,-1.465,-19.531,-27.832,-12.695,0.000,0.000,0.000,0.000
621445.547,-46.875,-72.754,-83.984,-37.109,0.000,0.000,0.000,0.000
621445.551,-58.105,-23.438,-32.715,-26.855,0.000,0.000,0.000,0.000
621445.555,-26.855,13.672,10.742,-8.789,0.000,0.000,0.000,0.000
621445.559,-14.160,-31.738,-36.133,-52.246,0.000,0.000,0.000,0.000
621445.563,-47.363,-93.262,-98.145,-65.430,0.000,0.000,0.000,0.000
621445.567,-43.945,-56.152,-59.570,-29.785,0.000,0.000,0.000,0.000
621445.571,-10.742,34.668,34.668,26.367,0.000,0.000,0.000,0.000
621445.575,4.883,4.395,2.930,2.441,0.000,0.000,0.000,0.000
621445.579,-21.973,-70.801,-76.172,-63.477,0.000,0.000,0.000,0.000
621445.583,-46.387,-58.105,-60.547,-26.367,0.000,0.000,0.000,0.000
621445.587,-31.250,9.277,8.301,24.902,0.000,0.000,0.000,0.000
621445.591,-3.906,21.973,20.996,-1.953,0.000,0.000,0.000,0.000
621445.594,-8.301,-57.617,-58.594,-44.434,0.000,0.000,0.000,0.000
621445.598,-40.039,-95.215,-99.609,-47.852,0.000,0.000,0.000,0.000
621445.602,-42.480,-27.344,-30.273,-9.766,0.000,0.000,0.000,0.000
621445.606,-5.371,-3.418,0.488,15.137,0.000,0.000,0.000,0.000
621445.610,-14.648,-54.688,-44.922,-30.762,0.000,0.000,0.000,0.000
621445.614,-56.641,-96.191,-89.355,-67.871,0.000,0.000,0.000,0.000
621445.618,-53.711,-44.434,-41.992,-27.344,0.000,0.000,0.000,0.000
621445.622,-17.090,-1.465,5.371,32.227,0.000,0.000,0.000,0.000
621445.626,-13.672,-46.387,-40.039,-22.461,0.000,0.000,0.000,0.000
621445.630,-61.523,-93.750,-96.191,-73.242,0.000,0.000,0.000,0.000
621445.634,-66.895,-57.129,-59.570,-23.926,0.000,0.000,0.000,0.000
621445.638,-28.809,-7.812,-6.348,32.715,0.000,0.000,0.000,0.000
621445.641,11.719,-16.113,-16.113,19.531,0.000,0.000,0.000,0.000
621445.645,-23.438,-74.707,-78.125,-37.109,0.000,0.000,0.000,0.000
621445.649,-59.570,-71.289,-67.383,-29.297,0.000,0.000,0.000,0.000
621445.653,-22.949,-15.137,-1.953,26.855,0.000,0.000,0.000,0.000
621445.657,-1.465,-12.695,-2.441,12.695,0.000,0.000,0.000,0.000
621445.661,-19.043,-58.105,-54.688,-51.758,0.000,0.000,0.000,0.000
621445.665,-56.152,-88.379,-87.891,-41.992,0.000,0.000,0.000,0.000
621445.669,-41.992,-35.645,-32.227,-15.625,0.000,0.000,0.000,0.000
621445.673,-6.348,-6.348,-0.977,7.812,0.000,0.000,0.000,0.000
621445.677,-15.137,-44.922,-44.434,-21.484,0.000,0.000,0.000,0.000
621445.681,-73.242,-109.375,-108.398,-69.336,0.000,0.000,0.000,0.000
621445.685,-68.848,-63.965,-62.500,-39.062,0.000,0.000,0.000,0.000
621445.688,-19.043,5.371,5.859,-15.625,0.000,0.000,0.000,0.000
621445.692,-10.742,-34.180,-31.250,-37.598,0.000,0.000,0.000,0.000
621445.696,-41.504,-103.516,-100.586,-58.594,0.000,0.000,0.000,0.000
621445.700,-64.941,-96.680,-98.145,-56.152,0.000,0.000,0.000,0.000
621445.704,-46.875,-25.391,-26.855,-3.906,0.000,0.000,0.000,0.000
621445.708,-23.438,-25.879,-23.926,-11.230,0.000,0.000,0.000,0.000
621445.712,-49.805,-98.633,-97.656,-65.430,0.000,0.000,0.000,0.000
621445.716,-92.773,-110.840,-108.398,-74.219,0.000,0.000,0.000,0.000
621445.720,-82.031,-51.758,-51.270,-20.020,0.000,0.000,0.000,0.000
621445.724,-29.297,-10.254,-12.207,18.066,0.000,0.000,0.000,0.000
621445.728,-33.691,-66.895,-65.430,-53.711,0.000,0.000,0.000,0.000
621445.732,-80.078,-108.398,-107.910,-72.266,0.000,0.000,0.000,0.000
621445.736,-64.453,-48.828,-49.805,-9.277,0.000,0.000,0.000,0.000
621445.739,-31.738,-12.695,-9.766,17.090,0.000,0.000,0.000,0.000
621445.743,-35.645,-54.199,-49.805,-43.945,0.000,0.000,0.000,0.000
621445.747,-81.055,-102.051,-102.539,-87.891,0.000,0.000,0.000,0.000
621445.751,-72.266,-57.129,-58.594,-35.156,0.000,0.000,0.000,0.000
621445.755,-20.020,5.859,4.395,30.273,0.000,0.000,0.000,0.000
621445.759,-2.930,-17.578,-21.484,3.418,0.000,0.000,0.000,0.000
621445.763,-20.508,-60.547,-64.941,-45.898,0.000,0.000,0.000,0.000
621445.767,-13.672,-27.832,-34.668,-28.809,0.000,0.000,0.000,0.000
621445.771,0.000,22.461,16.602,17.578,0.000,0.000,0.000,0.000
621445.775,8.301,-2.930,-6.348,22.949,0.000,0.000,0.000,0.000
621445.779,-23.926,-67.871,-72.754,-26.367,0.000,0.000,0.000,0.000
621445.783,-45.410,-47.852,-57.129,-41.016,0.000,0.000,0.000,0.000
621445.786,-7.324,26.367,13.672,25.391,0.000,0.000,0.000,0.000
621445.790,22.949,21.973,12.207,42.480,0.000,0.000,0.000,0.000
621445.794,14.648,-26.367,-38.574,-24.414,0.000,0.000,0.000,0.000
621445.798,-10.254,-56.152,-65.430,-22.949,0.000,0.000,0.000,0.000
621445.802,-3.906,-11.230,-17.090,18.066,0.000,0.000,0.000,0.000
621445.806,23.438,41.504,35.645,35.156,0.000,0.000,0.000,0.000
621445.810,28.809,8.789,2.930,-6.348,0.000,0.000,0.000,0.000
621445.814,-10.742,-44.434,-48.828,-25.879,0.000,0.000,0.000,0.000
621445.818,-22.461,-28.809,-30.273,10.254,0.000,0.000,0.000,0.000
621445.822,17.090,38.574,33.203,51.270,0.000,0.000,0.000,0.000
621445.826,34.668,23.926,15.137,38.086,0.000,0.000,0.000,0.000
621445.830,-2.930,-53.711,-60.059,-13.672,0.000,0.000,0.000,0.000
621445.833,-29.297,-57.129,-59.570,-17.090,0.000,0.000,0.000,0.000
621445.837,-4.883,15.625,14.160,34.180,0.000,0.000,0.000,0.000
621445.841,38.086,50.781,48.828,30.762,0.000,0.000,0.000,0.000
621445.845,34.180,-3.418,-6.348,-21.973,0.000,0.000,0.000,0.000
621445.849,-9.277,-45.898,-50.293,-8.301,0.000,0.000,0.000,0.000
621445.853,-0.977,1.953,0.488,30.273,0.000,0.000,0.000,0.000
621445.857,23.438,38.086,35.645,55.664,0.000,0.000,0.000,0.000
621445.861,6.348,8.789,1.465,-13.184,0.000,0.000,0.000,0.000
621445.865,-21.484,-46.875,-50.781,-44.434,0.000,0.000,0.000,0.000
621445.869,-16.113,-15.625,-11.719,7.812,0.000,0.000,0.000,0.000
621445.873,24.414,43.945,48.340,59.570,0.000,0.000,0.000,0.000
621445.877,36.621,-3.906,-0.488,44.434,0.000,0.000,0.000,0.000
621445.881,-10.254,-56.152,-55.176,-26.855,0.000,0.000,0.000,0.000
621445.884,-27.832,-28.320,-29.785,-20.508,0.000,0.000,0.000,0.000
621445.888,5.859,18.555,18.555,53.223,0.000,0.000,0.000,0.000
621445.892,26.855,8.789,9.277,43.945,0.000,0.000,0.000,0.000
621445.896,-3.906,-46.387,-48.340,-23.926,0.000,0.000,0.000,0.000
621445.900,-20.996,-35.645,-37.598,-23.438,0.000,0.000,0.000,0.000
621445.904,-2.930,30.273,27.832,5.859,0.000,0.000,0.000,0.000
621445.908,16.602,23.926,20.996,15.625,0.000,0.000,0.000,0.000
621445.912,10.742,-25.391,-24.902,9.277,0.000,0.000,0.000,0.000
621445.916,-17.578,-48.340,-46.387,6.836,0.000,0.000,0.000,0.000
621445.920,-6.348,5.371,7.324,10.254,0.000,0.000,0.000,0.000
621445.924,13.184,33.203,36.621,42.969,0.000,0.000,0.000,0.000
621445.928,6.836,-20.996,-20.996,9.277,0.000,0.000,0.000,0.000
621445.931,-16.113,-62.500,-62.988,-24.902,0.000,0.000,0.000,0.000
621445.935,-23.926,-23.926,-24.414,0.000,0.000,0.000,0.000,0.000
621445.939,4.883,34.668,31.738,34.668,0.000,0.000,0.000,0.000
621445.943,15.137,6.836,2.930,-1.953,0.000,0.000,0.000,0.000
621445.947,-32.227,-54.688,-60.547,-44.434,0.000,0.000,0.000,0.000
621445.951,-38.086,-40.527,-45.898,-0.488,0.000,0.000,0.000,0.000
621445.955,5.859,10.254,5.859,31.738,0.000,0.000,0.000,0.000
621445.959,19.531,17.578,16.113,7.324,0.000,0.000,0.000,0.000
621445.963,-6.836,-32.227,-36.621,-18.555,0.000,0.000,0.000,0.000
621445.967,-38.086,-63.965,-68.848,-14.160,0.000,0.000,0.000,0.000
621445.971,-21.973,-7.812,-8.301,-5.859,0.000,0.000,0.000,0.000
621445.975,6.836,17.090,17.578,14.648,0.000,0.000,0.000,0.000
621445.979,-9.766,-33.203,-33.203,-35.156,0.000,0.000,0.000,0.000
621445.982,-37.109,-70.312,-71.289,-54.199,0.000,0.000,0.000,0.000
621445.986,-29.785,-20.996,-23.926,4.883,0.000,0.000,0.000,0.000
621445.990,-3.906,20.020,15.137,40.527,0.000,0.000,0.000,0.000
621445.994,0.977,-23.926,-34.668,-11.719,0.000,0.000,0.000,0.000
621445.998,-29.297,-58.594,-67.871,-56.152,0.000,0.000,0.000,0.000
621446.002,-35.156,-23.926,-28.320,-15.137,0.000,0.000,0.000,0.000
621446.006,4.883,17.578,15.625,40.039,0.000,0.000,0.000,0.000
621446.010,23.438,6.348,5.371,15.625,0.000,0.000,0.000,0.000
621446.014,-8.789,-54.688,-55.176,-33.203,0.000,0.000,0.000,0.000
621446.018,-43.945,-57.129,-59.082,-41.016,0.000,0.000,0.000,0.000
621446.022,-35.156,9.277,5.859,-19.531,0.000,0.000,0.000,0.000
621446.026,2.441,17.090,16.602,-8.301,0.000,0.000,0.000,0.000
621446.029,7.812,-55.176,-51.758,-28.809,0.000,0.000,0.000,0.000
621446.033,-25.391,-76.172,-73.242,-40.039,0.000,0.000,0.000,0.000
621446.037,-15.137,3.906,4.395,-6.836,0.000,0.000,0.000,0.000
621446.041,18.555,32.715,37.598,47.363,0.000,0.000,0.000,0.000
621446.045,12.207,-36.621,-35.156,5.371,0.000,0.000,0.000,0.000
621446.049,-23.438,-80.078,-82.520,-41.992,0.000,0.000,0.000,0.000
621446.053,-18.555,-8.789,-10.742,7.324,0.000,0.000,0.000,0.000
621446.057,11.719,37.598,35.156,46.387,0.000,0.000,0.000,0.000
621446.061,17.090,-26.367,-28.809,-29.785,0.000,0.000,0.000,0.000
621446.065,-21.973,-86.426,-88.379,-60.547,0.000,0.000,0.000,0.000
621446.069,-54.688,-47.852,-50.293,-21.973,0.000,0.000,0.000,0.000
621446.073,-32.227,6.836,3.906,11.719,0.000,0.000,0.000,0.000
621446.076,-1.953,-1.953,-7.324,-7.812,0.000,0.000,0.000,0.000
621446.080,-26.367,-60.547,-64.453,-56.641,0.000,0.000,0.000,0.000
621446.084,-47.363,-67.383,-71.777,-70.312,0.000,0.000,0.000,0.000
621446.088,-16.113,-2.930,-9.766,-2.441,0.000,0.000,0.000,0.000
621446.092,3.418,-2.441,-5.371,22.949,0.000,0.000,0.000,0.000
621446.096,-22.949,-64.941,-68.848,-57.129,0.000,0.000,0.000,0.000
621446.100,-40.527,-63.965,-71.777,-44.922,0.000,0.000,0.000,0.000
621446.104,-21.484,-12.207,-18.066,32.715,0.000,0.000,0.000,0.000
621446.108,4.883,8.301,11.230,42.969,0.000,0.000,0.000,0.000
621446.112,5.371,-20.996,-17.090,-13.672,0.000,0.000,0.000,0.000
621446.116,-23.438,-65.430,-68.359,-42.969,0.000,0.000,0.000,0.000
621446.120,-25.879,-39.062,-41.016,-5.859,0.000,0.000,0.000,0.000
621446.124,-1.465,1.465,6.348,22.461,0.000,0.000,0.000,0.000
621446.127,16.113,-5.859,-4.883,4.883,0.000,0.000,0.000,0.000
621446.131,-20.020,-65.918,-65.918,-32.227,0.000,0.000,0.000,0.000
621446.135,-37.109,-49.805,-44.922,-40.039,0.000,0.000,0.000,0.000
621446.139,-1.953,21.973,22.949,18.066,0.000,0.000,0.000,0.000
621446.143,25.391,20.508,17.578,36.133,0.000,0.000,0.000,0.000
621446.147,12.207,-35.156,-38.086,-13.184,0.000,0.000,0.000,0.000
621446.151,-17.578,-56.152,-61.523,-17.578,0.000,0.000,0.000,0.000
621446.155,-3.418,19.531,15.625,34.668,0.000,0.000,0.000,0.000
621446.159,16.113,34.180,33.203,23.926,0.000,0.000,0.000,0.000
621446.163,8.789,-37.598,-41.504,-42.969,0.000,0.000,0.000,0.000
621446.167,-15.625,-63.477,-66.406,-32.227,0.000,0.000,0.000,0.000
621446.171,-33.203,-16.602,-13.184,8.301,0.000,0.000,0.000,0.000
621446.174,-9.766,19.531,26.367,16.113,0.000,0.000,0.000,0.000
621446.178,15.625,-10.742,-9.277,-14.160,0.000,0.000,0.000,0.000
621446.182,-5.371,-65.430,-63.965,-14.648,0.000,0.000,0.000,0.000
621446.186,-28.320,-48.828,-41.504,-9.277,0.000,0.000,0.000,0.000
621446.190,-15.625,9.766,17.090,16.113,0.000,0.000,0.000,0.000
621446.194,22.461,1.465,6.836,8.301,0.000,0.000,0.000,0.000
621446.198,0.000,-58.594,-62.012,-45.898,0.000,0.000,0.000,0.000
621446.202,-40.039,-55.664,-61.035,-48.340,0.000,0.000,0.000,0.000
621446.206,-17.090,-2.930,-2.441,9.277,0.000,0.000,0.000,0.000
621446.210,18.555,-10.254,-6.348,27.344,0.000,0.000,0.000,0.000
621446.214,-30.273,-77.148,-74.219,-55.664,0.000,0.000,0.000,0.000
621446.218,-62.988,-82.031,-84.473,-49.805,0.000,0.000,0.000,0.000
621446.221,-22.949,-20.020,-22.461,18.066,0.000,0.000,0.000,0.000
621446.225,1.953,-7.324,-8.789,30.762,0.000,0.000,0.000,0.000
621446.229,0.488,-45.410,-55.664,-5.371,0.000,0.000,0.000,0.000
621446.233,-29.785,-70.312,-80.078,-48.340,0.000,0.000,0.000,0.000
621446.237,-46.387,-38.574,-43.945,-42.480,0.000,0.000,0.000,0.000
621446.241,-14.648,-20.020,-19.531,6.348,0.000,0.000,0.000,0.000
621446.245,-9.766,-61.035,-61.035,4.395,0.000,0.000,0.000,0.000
621446.249,-47.363,-90.820,-95.215,-36.621,0.000,0.000,0.000,0.000
621446.253,-54.688,-60.547,-60.547,-39.062,0.000,0.000,0.000,0.000
621446.257,-34.180,-25.879,-19.531,20.996,0.000,0.000,0.000,0.000
621446.261,-12.207,-37.109,-32.715,5.859,0.000,0.000,0.000,0.000
621446.265,-50.293,-100.586,-94.727,-60.059,0.000,0.000,0.000,0.000
621446.269,-90.332,-106.445,-96.191,-59.082,0.000,0.000,0.000,0.000
621446.272,-45.410,-28.809,-15.625,10.742,0.000,0.000,0.000,0.000
621446.276,-0.488,-13.184,-2.441,15.137,0.000,0.000,0.000,0.000
621446.280,-30.762,-66.895,-61.523,-57.129,0.000,0.000,0.000,0.000
621446.284,-70.312,-109.375,-106.934,-49.805,0.000,0.000,0.000,0.000
621446.288,-57.129,-55.664,-56.152,-13.184,0.000,0.000,0.000,0.000
621446.292,-21.973,-11.230,-12.695,0.000,0.000,0.000,0.000,0.000
621446.296,-18.066,-58.594,-59.082,-12.207,0.000,0.000,0.000,0.000
621446.300,-63.965,-101.074,-97.656,-53.223,0.000,0.000,0.000,0.000
621446.304,-55.176,-57.129,-53.223,-35.645,0.000,0.000,0.000,0.000
621446.308,-15.137,-1.953,-1.465,17.578,0.000,0.000,0.000,0.000
621446.312,-11.719,-20.996,-21.484,-15.137,0.000,0.000,0.000,0.000
621446.316,-58.105,-90.820,-87.402,-62.500,0.000,0.000,0.000,0.000
621446.319,-68.359,-81.543,-80.078,-35.156,0.000,0.000,0.000,0.000
621446.323,-11.719,0.488,0.977,30.273,0.000,0.000,0.000,0.000
621446.327,-6.836,-18.066,-15.137,-4.395,0.000,0.000,0.000,0.000
621446.331,-44.922,-92.285,-93.750,-58.594,0.000,0.000,0.000,0.000
621446.335,-60.547,-87.402,-93.262,-25.391,0.000,0.000,0.000,0.000
621446.339,-39.062,0.000,-6.836,17.090,0.000,0.000,0.000,0.000
621446.343,-21.484,0.977,-7.324,11.719,0.000,0.000,0.000,0.000
621446.347,-52.734,-79.590,-87.891,-56.152,0.000,0.000,0.000,0.000
621446.351,-92.285,-94.727,-103.027,-79.590,0.000,0.000,0.000,0.000
621446.355,-75.195,-36.621,-44.922,-27.832,0.000,0.000,0.000,0.000
621446.359,-44.922,-4.883,-7.324,20.020,0.000,0.000,0.000,0.000
621446.363,-44.434,-66.406,-68.359,-25.879,0.000,0.000,0.000,0.000
621446.366,-74.707,-114.258,-117.676,-72.754,0.000,0.000,0.000,0.000
621446.370,-74.707,-58.594,-60.547,-34.180,0.000,0.000,0.000,0.000
621446.374,-19.043,-7.324,-4.395,41.504,0.000,0.000,0.000,0.000
621446.378,-6.836,-49.805,-43.945,8.789,0.000,0.000,0.000,0.000
621446.382,-50.781,-97.656,-95.215,-58.594,0.000,0.000,0.000,0.000
621446.386,-80.566,-66.895,-70.312,-51.270,0.000,0.000,0.000,0.000
621446.390,-50.293,-17.090,-22.461,-10.742,0.000,0.000,0.000,0.000
621446.394,-31.738,-32.227,-32.227,-14.160,0.000,0.000,0.000,0.000
621446.398,-65.430,-93.262,-92.773,-57.129,0.000,0.000,0.000,0.000
621446.402,-83.496,-97.656,-94.727,-49.805,0.000,0.000,0.000,0.000
621446.406,-64.941,-25.879,-23.926,-12.207,0.000,0.000,0.000,0.000
621446.410,-31.738,-10.254,-10.742,-3.906,0.000,0.000,0.000,0.000
621446.414,-13.672,-54.199,-56.641,-38.086,0.000,0.000,0.000,0.000
621446.417,-44.434,-75.195,-82.031,-53.223,0.000,0.000,0.000,0.000
621446.421,-59.082,-48.340,-57.129,-9.277,0.000,0.000,0.000,0.000
621446.425,-20.996,-23.438,-25.391,16.602,0.000,0.000,0.000,0.000
621446.429,4.883,-28.809,-27.832,1.465,0.000,0.000,0.000,0.000
621446.433,-22.461,-74.219,-75.195,7.812,0.000,0.000,0.000,0.000
621446.437,-35.645,-50.781,-49.805,15.625,0.000,0.000,0.000,0.000
621446.441,-6.348,4.395,6.348,53.223,0.000,0.000,0.000,0.000
621446.445,15.625,-15.137,-13.672,20.020,0.000,0.000,0.000,0.000
621446.449,-9.277,-58.105,-55.664,-33.691,0.000,0.000,0.000,0.000
621446.453,-41.016,-64.453,-61.035,-17.578,0.000,0.000,0.000,0.000
621446.457,-21.973,-18.555,-16.602,22.461,0.000,0.000,0.000,0.000
621446.461,16.602,-7.324,-10.742,41.992,0.000,0.000,0.000,0.000
621446.464,-0.977,-55.664,-64.453,-3.418,0.000,0.000,0.000,0.000
621446.468,-32.715,-74.219,-78.613,-27.344,0.000,0.000,0.000,0.000
621446.472,-28.320,-26.367,-27.344,6.348,0.000,0.000,0.000,0.000
621446.476,0.488,-2.930,-2.930,30.273,0.000,0.000,0.000,0.000
621446.480,-11.719,-60.059,-59.570,-25.391,0.000,0.000,0.000,0.000
621446.484,-60.547,-95.215,-92.773,-71.777,0.000,0.000,0.000,0.000
621446.488,-62.988,-30.273,-25.879,-15.137,0.000,0.000,0.000,0.000
621446.492,-31.250,17.578,19.043,29.785,0.000,0.000,0.000,0.000
621446.496,-9.766,-28.320,-33.203,-11.230,0.000,0.000,0.000,0.000
621446.500,-30.762,-76.172,-77.637,-34.668,0.000,0.000,0.000,0.000
621446.504,-34.668,-19.043,-19.531,-20.020,0.000,0.000,0.000,0.000
621446.508,-8.789,32.715,27.344,35.156,0.000,0.000,0.000,0.000
621446.511,-9.766,-8.301,-7.324,27.344,0.000,0.000,0.000,0.000
621446.515,-37.598,-57.129,-58.105,-25.879,0.000,0.000,0.000,0.000
621446.519,-48.828,-29.297,-34.180,-5.371,0.000,0.000,0.000,0.000
621446.523,-12.695,52.246,52.246,32.715,0.000,0.000,0.000,0.000
621446.527,35.156,64.941,68.848,34.668,0.000,0.000,0.000,0.000
621446.531,7.812,15.137,16.113,-1.465,0.000,4.000,1.000,0.000
621446.535,-32.227,18.066,14.160,18.066,0.000,0.000,0.000,0.000
621446.539,5.859,75.195,73.730,79.590,0.000,0.000,0.000,0.000
621446.543,25.879,95.703,91.797,75.195,0.000,0.000,0.000,0.000
621446.547,-1.953,52.734,43.945,31.250,0.000,0.000,0.000,0.000
621446.551,-19.043,19.531,8.789,19.531,0.000,0.000,0.000,0.000
621446.555,-11.230,62.012,56.152,51.758,0.000,0.000,0.000,0.000
621446.559,-3.906,93.750,94.238,72.754,0.000,0.000,0.000,0.000
621446.562,-4.395,65.430,67.383,12.695,0.000,0.000,0.000,0.000
621446.566,-14.648,33.203,36.133,-10.742,0.000,0.000,0.000,0.000
621446.570,-18.066,53.711,55.664,23.438,0.000,0.000,0.000,0.000
621446.574,15.625,111.328,108.887,94.727,0.000,0.000,0.000,0.000
621446.578,55.664,107.910,103.516,91.797,0.000,0.000,0.000,0.000
621446.582,23.438,63.477,55.176,13.672,0.000,0.000,0.000,0.000
621446.586,-17.578,45.898,36.621,19.531,0.000,0.000,0.000,0.000
621446.590,0.977,84.473,77.637,74.707,0.000,0.000,0.000,0.000
621446.594,41.016,96.680,81.543,85.449,0.000,0.000,0.000,0.000
621446.598,29.785,41.504,30.273,36.621,0.000,0.000,0.000,0.000
621446.602,-14.160,9.766,6.348,-0.977,0.000,0.000,0.000,0.000
621446.606,18.555,73.242,69.824,47.363,0.000,0.000,0.000,0.000
621446.609,50.293,114.258,110.352,101.562,0.000,0.000,0.000,0.000
621446.613,37.598,46.875,44.922,70.312,0.000,0.000,0.000,0.000
621446.617,3.906,1.953,5.859,19.043,0.000,0.000,0.000,0.000
621446.621,-13.184,48.828,56.152,26.367,0.000,0.000,0.000,0.000
621446.625,17.578,94.238,100.586,85.938,0.000,0.000,0.000,0.000
621446.629,43.457,62.500,64.453,60.547,0.000,0.000,0.000,0.000
621446.633,1.465,17.090,14.160,19.531,0.000,0.000,0.000,0.000
621446.637,-17.578,40.039,40.527,40.039,0.000,0.000,0.000,0.000
621446.641,9.766,96.680,99.609,74.707,0.000,0.000,0.000,0.000
621446.645,19.043,71.777,70.801,52.734,0.000,0.000,0.000,0.000
621446.649,7.812,11.230,11.230,11.230,0.000,0.000,0.000,0.000
621446.653,-10.254,22.949,23.438,43.457,0.000,0.000,0.000,0.000
621446.656,-6.348,73.242,77.637,80.078,0.000,0.000,0.000,0.000
621446.660,14.160,66.895,72.754,58.594,0.000,0.000,0.000,0.000
621446.664,2.441,11.719,14.160,21.973,0.000,0.000,0.000,0.000
621446.668,-38.574,-5.859,-1.465,8.789,0.000,0.000,0.000,0.000
621446.672,-20.508,41.016,43.945,24.902,0.000,0.000,0.000,0.000
621446.676,17.090,59.082,57.617,56.641,0.000,0.000,0.000,0.000
621446.680,13.184,34.668,33.203,18.066,0.000,0.000,0.000,0.000
621446.684,-13.184,-0.977,-4.883,-11.719,0.000,0.000,0.000,0.000
621446.688,-29.785,11.719,11.719,19.531,0.000,0.000,0.000,0.000
621446.692,-13.184,38.086,38.086,52.734,0.000,0.000,0.000,0.000
621446.696,4.883,-0.977,-2.441,28.320,0.000,0.000,0.000,0.000
621446.700,-25.391,-23.926,-24.902,-22.461,0.000,0.000,0.000,0.000
621446.704,-62.988,-5.859,-4.395,-9.766,0.000,0.000,0.000,0.000
621446.707,-36.621,22.949,26.855,38.574,0.000,0.000,0.000,0.000
621446.711,-20.996,-5.371,-1.953,22.461,0.000,0.000,0.000,0.000
621446.715,-32.715,-43.945,-44.922,-13.672,0.000,0.000,0.000,0.000
621446.719,-33.203,-39.551,-37.598,-12.695,0.000,0.000,0.000,0.000
621446.723,-36.133,-8.789,-6.836,15.137,0.000,0.000,0.000,0.000
621446.727,-6.836,0.000,2.441,63.477,0.000,0.000,0.000,0.000
621446.731,14.160,-19.043,-16.113,17.090,0.000,0.000,0.000,0.000
621446.735,-29.785,-44.434,-47.363,-26.367,0.000,0.000,0.000,0.000
621446.739,-46.387,-5.859,-13.184,-1.953,0.000,0.000,0.000,0.000
621446.743,-27.832,9.277,6.348,8.789,0.000,0.000,0.000,0.000
621446.747,-19.531,-30.273,-32.227,-24.902,0.000,0.000,0.000,0.000
621446.751,-34.668,-62.012,-65.918,-32.227,0.000,0.000,0.000,0.000
621446.754,-55.176,-50.293,-54.688,-24.902,0.000,0.000,0.000,0.000
621446.758,-35.156,-6.836,-15.625,3.418,0.000,0.000,0.000,0.000
621446.762,-22.461,-6.348,-10.742,31.250,0.000,0.000,0.000,0.000
621446.766,-46.875,-67.383,-70.801,-22.461,0.000,0.000,0.000,0.000
621446.770,-47.852,-66.895,-67.383,-24.902,0.000,0.000,0.000,0.000
621446.774,-17.578,-3.418,1.465,31.250,0.000,0.000,0.000,0.000
621446.778,-15.137,-12.695,-13.184,4.395,0.000,0.000,0.000,0.000
621446.782,-31.250,-57.617,-63.477,-49.805,0.000,0.000,0.000,0.000
621446.786,-55.176,-65.430,-67.871,-44.922,0.000,0.000,0.000,0.000
621446.790,-46.387,-21.973,-24.414,6.348,0.000,0.000,0.000,0.000
621446.794,-20.996,-18.066,-26.367,18.555,0.000,0.000,0.000,0.000
621446.798,-22.949,-65.918,-72.266,-49.316,0.000,0.000,0.000,0.000
621446.802,-49.805,-104.492,-106.445,-41.992,0.000,0.000,0.000,0.000
621446.805,-60.059,-64.941,-59.570,-7.324,0.000,0.000,0.000,0.000
621446.809,-43.945,-53.711,-42.480,18.555,0.000,0.000,0.000,0.000
621446.813,-54.199,-112.793,-106.445,-28.320,0.000,0.000,0.000,0.000
621446.817,-77.637,-130.371,-126.465,-78.125,0.000,0.000,0.000,0.000
621446.821,-76.660,-97.656,-94.727,-61.035,0.000,0.000,0.000,0.000
621446.825,-44.922,-76.660,-71.289,-22.461,0.000,0.000,0.000,0.000
621446.829,-20.020,-102.051,-95.703,0.977,0.000,0.000,0.000,0.000
621446.833,-62.500,-129.395,-126.465,-44.434,0.000,0.000,0.000,0.000
621446.837,-69.336,-84.961,-89.844,-49.316,0.000,0.000,0.000,0.000
621446.841,-32.715,-36.621,-45.898,-0.488,0.000,0.000,0.000,0.000
621446.845,-32.227,-70.801,-77.148,-4.883,0.000,0.000,0.000,0.000
621446.849,-34.668,-105.957,-113.770,-43.945,0.000,0.000,0.000,0.000
621446.852,-51.758,-82.520,-86.914,-46.875,0.000,0.000,0.000,0.000
621446.856,-42.480,-27.832,-26.855,-25.879,0.000,0.000,0.000,0.000
621446.860,-24.902,-20.996,-23.438,-3.906,0.000,0.000,0.000,0.000
621446.864,-23.438,-49.805,-53.223,-12.695,0.000,0.000,0.000,0.000
621446.868,-44.434,-68.848,-73.242,-20.020,0.000,0.000,0.000,0.000
621446.872,-36.621,-17.578,-19.043,-1.465,0.000,0.000,0.000,0.000
621446.876,0.000,16.602,20.996,21.973,0.000,0.000,0.000,0.000
621446.880,2.930,-17.578,-16.602,11.230,0.000,0.000,0.000,0.000
621446.884,-27.344,-35.156,-35.645,-10.254,0.000,0.000,0.000,0.000
621446.888,-33.691,2.930,7.812,0.000,0.000,0.000,0.000,0.000
621446.892,-10.742,37.109,44.922,28.320,0.000,0.000,0.000,0.000
621446.896,14.648,23.926,26.855,7.324,0.000,0.000,0.000,0.000
621446.899,13.184,23.438,25.879,-15.137,0.000,0.000,0.000,0.000
621446.903,-36.621,28.809,32.227,8.301,0.000,0.000,0.000,0.000
621446.907,-21.484,53.223,56.152,43.457,0.000,0.000,0.000,0.000
621446.911,7.324,53.223,57.617,47.363,0.000,0.000,0.000,0.000
621446.915,-6.836,21.973,23.438,-8.301,0.000,0.000,0.000,0.000
621446.919,-22.461,31.738,35.645,-0.488,0.000,0.000,0.000,0.000
621446.923,-26.367,78.613,88.867,48.340,0.000,0.000,0.000,0.000
621446.927,-25.879,47.363,53.711,26.367,0.000,0.000,0.000,0.000
621446.931,-38.574,-5.859,-2.930,-33.691,0.000,0.000,0.000,0.000
621446.935,-51.758,3.418,5.859,-30.273,0.000,0.000,0.000,0.000
621446.939,-35.645,55.664,55.664,19.043,0.000,0.000,0.000,0.000
621446.943,-22.461,63.965,66.895,48.340,0.000,0.000,0.000,0.000
621446.947,0.000,14.160,21.484,30.273,0.000,0.000,0.000,0.000
621446.950,-12.207,1.953,7.324,-19.531,0.000,0.000,0.000,0.000
621446.954,-34.668,50.293,54.199,-1.953,0.000,0.000,0.000,0.000
621446.958,-13.672,61.035,69.824,57.129,0.000,0.000,0.000,0.000
621446.962,-8.789,2.930,11.230,20.996,0.000,0.000,0.000,0.000
621446.966,-27.344,-32.715,-29.785,-32.715,0.000,0.000,0.000,0.000
621446.970,-38.574,4.395,5.859,-32.715,0.000,0.000,0.000,0.000
621446.974,-8.789,62.988,66.895,-6.348,0.000,0.000,0.000,0.000
621446.978,6.348,45.410,48.828,30.273,0.000,0.000,0.000,0.000
621446.982,-1.465,20.996,20.508,26.367,0.000,0.000,0.000,0.000
621446.986,-3.906,42.480,41.504,29.785,0.000,0.000,0.000,0.000
621446.990,-2.441,101.562,105.957,35.645,0.000,0.000,0.000,0.000
621446.994,1.465,87.891,87.891,30.273,0.000,0.000,0.000,0.000
621446.997,0.488,32.227,29.297,3.418,0.000,0.000,0.000,0.000
621447.001,-28.320,50.293,48.828,-12.207,0.000,0.000,0.000,0.000
621447.005,-36.621,91.797,95.215,36.133,0.000,0.000,0.000,0.000
621447.009,-18.555,74.707,81.543,49.805,0.000,0.000,0.000,0.000
621447.013,-14.160,25.879,22.461,-2.930,0.000,0.000,0.000,0.000
621447.017,-18.555,15.625,8.301,15.137,0.000,0.000,0.000,0.000
621447.021,-24.414,57.617,59.082,41.504,0.000,0.000,0.000,0.000
621447.025,-6.836,76.172,80.078,57.617,0.000,0.000,0.000,0.000
621447.029,11.719,21.973,23.926,50.293,0.000,0.000,0.000,0.000
621447.033,-3.418,-7.812,-8.301,3.906,0.000,0.000,0.000,0.000
621447.037,-18.066,0.000,0.488,-13.184,0.000,0.000,0.000,0.000
621447.041,1.953,34.668,33.691,19.043,0.000,0.000,0.000,0.000
621447.044,14.648,-34.180,-34.180,27.832,0.000,0.000,0.000,0.000
621447.048,14.648,-95.703,-93.750,-41.016,0.000,0.000,0.000,0.000
621447.052,-3.418,-66.406,-64.941,-45.898,0.000,0.000,0.000,0.000
621447.056,-15.137,-16.113,-10.742,15.137,0.000,0.000,0.000,0.000
621447.060,-15.137,-41.992,-40.039,26.855,0.000,0.000,0.000,0.000
621447.064,-8.789,-102.051,-104.980,-10.742,0.000,0.000,0.000,0.000
621447.068,-17.578,-82.520,-83.008,-37.109,0.000,0.000,0.000,0.000
621447.072,-35.156,-25.391,-22.949,-9.766,0.000,0.000,0.000,0.000
621447.076,-28.320,-26.855,-22.461,33.203,0.000,0.000,0.000,0.000
621447.080,-3.418,-101.562,-102.539,31.250,0.000,0.000,0.000,0.000
621447.084,-16.113,-124.023,-128.906,25.879,0.000,0.000,0.000,0.000
621447.088,-55.176,-57.617,-56.152,27.832,0.000,0.000,0.000,0.000
621447.092,-23.438,-23.926,-21.484,32.715,0.000,0.000,0.000,0.000
621447.095,-20.996,-107.422,-111.328,30.762,0.000,0.000,0.000,0.000
621447.099,-37.109,-136.719,-135.254,4.883,0.000,0.000,0.000,0.000
621447.103,-16.113,-69.824,-63.965,9.277,0.000,0.000,0.000,0.000
621447.107,3.418,-3.418,-3.418,40.527,0.000,0.000,0.000,0.000
621447.111,9.277,-39.551,-43.945,50.293,0.000,0.000,0.000,0.000
621447.115,14.160,-94.238,-95.215,20.996,0.000,0.000,0.000,0.000
621447.119,11.719,-52.246,-50.781,41.504,0.000,0.000,0.000,0.000
621447.123,-6.348,40.039,38.574,83.984,0.000,0.000,0.000,0.000
621447.127,-4.395,20.508,23.926,77.148,0.000,0.000,0.000,0.000
621447.131,-10.742,-79.102,-73.730,46.875,0.000,0.000,0.000,0.000
621447.135,-18.066,-40.527,-34.668,49.316,0.000,0.000,0.000,0.000
621447.139,-17.090,64.453,71.777,78.125,0.000,0.000,0.000,0.000
621447.142,-29.297,33.203,37.109,97.168,0.000,0.000,0.000,0.000
621447.146,-13.672,-45.410,-45.410,38.086,0.000,0.000,0.000,0.000
621447.150,-9.766,-41.016,-44.434,-7.812,0.000,0.000,0.000,0.000
621447.154,-14.160,19.531,16.602,28.809,0.000,0.000,0.000,0.000
621447.158,0.977,50.781,47.852,78.125,0.000,0.000,0.000,0.000
621447.162,-20.020,-34.180,-34.668,75.195,0.000,0.000,0.000,0.000
621447.166,-36.621,-68.359,-65.430,34.180,0.000,0.000,0.000,0.000
621447.170,-45.410,-13.184,-12.695,36.133,0.000,0.000,0.000,0.000
621447.174,-28.320,35.645,36.133,51.758,0.000,0.000,0.000,0.000
621447.178,-29.297,-57.617,-57.617,49.316,0.000,0.000,0.000,0.000
621447.182,-39.062,-129.883,-131.836,2.930,0.000,0.000,0.000,0.000
621447.186,-21.973,-61.523,-60.059,-11.230,0.000,0.000,0.000,0.000
621447.189,-32.715,-2.441,-1.953,2.441,0.000,0.000,0.000,0.000
621447.193,-34.668,-51.270,-50.781,30.762,0.000,0.000,0.000,0.000
621447.197,-47.363,-154.297,-154.785,37.598,0.000,0.000,0.000,0.000
621447.201,-76.172,-158.691,-162.598,-7.812,0.000,0.000,0.000,0.000
621447.205,-68.359,-62.988,-62.988,-12.207,0.000,0.000,0.000,0.000
621447.209,-45.898,-56.641,-56.641,15.625,0.000,0.000,0.000,0.000
621447.213,-58.594,-169.922,-171.875,-0.977,0.000,0.000,0.000,0.000
621447.217,-53.711,-174.805,-180.176,-29.785,0.000,0.000,0.000,0.000
621447.221,-66.895,-104.492,-114.746,-24.414,0.000,0.000,0.000,0.000
621447.225,-87.402,-56.152,-67.383,-0.977,0.000,0.000,0.000,0.000
621447.229,-65.430,-119.629,-125.977,8.789,0.000,0.000,0.000,0.000
621447.233,-69.336,-166.016,-166.504,-11.230,0.000,0.000,0.000,0.000
621447.237,-69.824,-103.516,-105.469,-4.395,0.000,0.000,0.000,0.000
621447.240,-57.129,-46.387,-48.340,-3.906,0.000,0.000,0.000,0.000
621447.244,-54.199,-106.934,-108.398,-7.324,0.000,0.000,0.000,0.000
621447.248,-38.574,-172.363,-168.945,-8.301,0.000,0.000,0.000,0.000
621447.252,-61.035,-123.535,-121.582,-34.180,0.000,0.000,0.000,0.000
621447.256,-92.285,-48.340,-50.781,-25.391,0.000,0.000,0.000,0.000
621447.260,-84.473,-77.148,-81.055,-17.578,0.000,0.000,0.000,0.000
621447.264,-86.914,-165.527,-174.316,-63.965,0.000,0.000,0.000,0.000
621447.268,-94.727,-139.648,-146.973,-76.172,0.000,0.000,0.000,0.000
621447.272,-91.797,-57.617,-59.570,-25.391,0.000,0.000,0.000,0.000
621447.276,-83.496,-75.684,-76.172,-16.113,0.000,0.000,0.000,0.000
621447.280,-97.168,-174.316,-179.199,-65.918,0.000,0.000,0.000,0.000
621447.284,-94.238,-158.203,-167.480,-95.215,0.000,0.000,0.000,0.000
621447.287,-112.793,-74.219,-85.449,-90.820,0.000,0.000,0.000,0.000
621447.291,-98.145,-33.691,-42.969,-45.410,0.000,0.000,0.000,0.000
621447.295,-69.336,-106.934,-114.746,-4.395,0.000,0.000,0.000,0.000
621447.299,-86.914,-154.785,-164.062,-42.969,0.000,0.000,0.000,0.000
621447.303,-81.543,-68.848,-80.566,-53.711,0.000,0.000,0.000,0.000
621447.307,-56.641,14.648,4.883,-10.742,0.000,0.000,0.000,0.000
621447.311,-79.590,-66.406,-77.148,-16.602,0.000,0.000,0.000,0.000
621447.315,-99.121,-152.832,-168.945,-60.059,0.000,0.000,0.000,0.000
621447.319,-99.121,-95.215,-105.469,-50.293,0.000,0.000,0.000,0.000
621447.323,-84.961,-13.672,-20.020,-36.621,0.000,0.000,0.000,0.000
621447.327,-46.875,-48.828,-57.617,-19.043,0.000,0.000,0.000,0.000
621447.331,-35.156,-133.789,-141.113,-35.645,0.000,0.000,0.000,0.000
621447.334,-62.988,-119.629,-124.512,-40.039,0.000,0.000,0.000,0.000
621447.338,-72.754,-36.621,-41.504,-20.020,0.000,0.000,0.000,0.000
621447.342,-70.801,-15.625,-23.926,-26.367,0.000,0.000,0.000,0.000
621447.346,-62.988,-115.234,-125.488,-25.879,0.000,0.000,0.000,0.000
621447.350,-80.566,-141.113,-151.367,-62.988,0.000,0.000,0.000,0.000
621447.354,-103.516,-64.941,-72.754,-46.875,0.000,0.000,0.000,0.000
621447.358,-58.594,-1.953,-3.906,-2.441,0.000,0.000,0.000,0.000
621447.362,-40.039,-62.012,-62.500,-23.926,0.000,0.000,0.000,0.000
621447.366,-68.848,-121.582,-127.441,-50.293,0.000,0.000,0.000,0.000
621447.370,-90.820,-57.129,-62.500,-59.082,0.000,0.000,0.000,0.000
621447.374,-68.848,36.621,36.621,-9.277,0.000,0.000,0.000,0.000
621447.378,-72.754,-8.789,-7.812,11.719,0.000,0.000,0.000,0.000
621447.382,-77.637,-89.844,-89.355,-56.152,0.000,0.000,0.000,0.000
621447.385,-76.172,-53.711,-53.711,-53.711,0.000,0.000,0.000,0.000
621447.389,-79.590,46.387,45.410,-10.254,0.000,0.000,0.000,0.000
621447.393,-70.312,45.410,42.969,-10.254,0.000,0.000,0.000,0.000
621447.397,-64.941,-47.852,-50.781,-19.043,0.000,0.000,0.000,0.000
621447.401,-65.430,-19.043,-26.367,-39.062,0.000,0.000,0.000,0.000
621447.405,-51.270,74.707,67.383,-18.066,0.000,0.000,0.000,0.000
621447.409,-9.277,111.328,110.352,37.109,0.000,0.000,0.000,0.000
621447.413,-11.230,3.906,2.441,35.156,0.000,0.000,0.000,0.000
621447.417,-60.059,-33.691,-35.645,-31.738,0.000,0.000,0.000,0.000
621447.421,-86.914,58.594,58.105,-40.527,0.000,0.000,0.000,0.000
621447.425,-43.457,130.859,130.371,20.508,0.000,0.000,0.000,0.000
621447.429,-17.578,38.574,36.621,31.250,0.000,0.000,0.000,0.000
621447.432,-41.992,-57.617,-60.547,-23.438,0.000,0.000,0.000,0.000
621447.436,-66.406,3.906,2.930,-28.809,0.000,0.000,0.000,0.000
621447.440,-68.359,84.473,84.473,-8.301,0.000,0.000,0.000,0.000
621447.444,-52.246,30.273,29.785,-10.254,0.000,0.000,0.000,0.000
621447.448,-47.363,-61.523,-60.059,-22.949,0.000,0.000,0.000,0.000
621447.452,-59.570,-34.668,-29.297,-31.250,0.000,0.000,0.000,0.000
621447.456,-62.012,29.785,39.062,-15.625,0.000,0.000,0.000,0.000
621447.460,-56.152,12.207,18.555,-13.184,0.000,0.000,0.000,0.000
621447.464,-76.660,-104.004,-103.027,-43.457,0.000,0.000,0.000,0.000
621447.468,-76.172,-119.141,-116.211,-77.148,0.000,0.000,0.000,0.000
621447.472,-74.219,-33.203,-25.879,-60.059,0.000,0.000,0.000,0.000
621447.476,-74.219,1.953,6.836,-42.480,0.000,0.000,0.000,0.000
621447.479,-74.219,-100.586,-94.238,-64.941,0.000,0.000,0.000,0.000
621447.483,-80.566,-150.391,-144.043,-82.031,0.000,0.000,0.000,0.000
621447.487,-94.238,-76.660,-74.707,-68.359,0.000,0.000,0.000,0.000
621447.491,-68.359,2.441,2.930,-32.715,0.000,0.000,0.000,0.000
621447.495,-37.109,-48.828,-47.852,-9.277,0.000,0.000,0.000,0.000
621447.499,-59.570,-117.188,-115.723,-43.945,0.000,0.000,0.000,0.000
621447.503,-81.055,-63.965,-64.941,-53.711,0.000,0.000,0.000,0.000
621447.507,-65.918,7.812,5.371,-41.016,0.000,0.000,0.000,0.000
621447.511,-53.223,-20.996,-23.438,-28.320,0.000,0.000,0.000,0.000
621447.515,-47.363,-95.215,-96.191,-29.297,0.000,0.000,0.000,0.000
621447.519,-55.664,-75.195,-79.102,-53.711,0.000,0.000,0.000,0.000
621447.523,-33.203,18.555,14.648,-25.879,0.000,0.000,0.000,0.000
621447.527,-9.766,34.180,34.180,26.367,0.000,0.000,0.000,0.000
621447.530,-22.949,-69.824,-68.359,15.137,0.000,0.000,0.000,0.000
621447.534,-25.391,-101.562,-101.074,-26.855,0.000,0.000,0.000,0.000
621447.538,-34.668,-34.668,-31.738,-12.695,0.000,0.000,0.000,0.000
621447.542,-27.344,13.672,18.555,8.789,0.000,0.000,0.000,0.000
621447.546,-31.250,-71.777,-72.266,-2.930,0.000,0.000,0.000,0.000
621447.550,-49.316,-145.996,-147.461,-38.574,0.000,0.000,0.000,0.000
621447.554,-62.988,-92.285,-95.703,-57.129,0.000,0.000,0.000,0.000
621447.558,-57.617,2.930,-2.441,-46.387,0.000,0.000,0.000,0.000
621447.562,-34.668,-47.363,-49.316,-17.090,0.000,0.000,0.000,0.000
621447.566,-20.996,-144.531,-149.902,-23.438,0.000,0.000,0.000,0.000
621447.570,-32.227,-105.469,-105.957,-32.715,0.000,0.000,0.000,0.000
621447.574,-11.719,-4.883,0.488,-15.625,0.000,0.000,0.000,0.000
621447.577,0.000,-13.184,-11.230,-28.809,0.000,0.000,0.000,0.000
621447.581,-26.367,-127.441,-123.047,-53.711,0.000,0.000,0.000,0.000
621447.585,-43.945,-133.301,-125.977,-64.941,0.000,0.000,0.000,0.000
621447.589,-39.062,-34.668,-32.715,-17.578,0.000,0.000,0.000,0.000
621447.593,-27.344,0.977,0.000,12.207,0.000,0.000,0.000,0.000
621447.597,-13.184,-71.777,-67.871,-6.836,0.000,0.000,0.000,0.000
621447.601,-7.324,-103.516,-99.121,-32.227,0.000,0.000,0.000,0.000
621447.605,-19.043,-27.344,-20.996,-3.418,0.000,0.000,0.000,0.000
621447.609,-15.137,29.297,35.645,23.438,0.000,0.000,0.000,0.000
621447.613,-7.324,-33.691,-33.691,12.207,0.000,0.000,0.000,0.000
621447.617,-5.371,-82.031,-83.008,-12.695,0.000,0.000,0.000,0.000
621447.621,-20.996,-51.270,-52.246,-35.645,0.000,0.000,0.000,0.000
621447.624,-5.859,17.578,18.066,7.812,0.000,0.000,0.000,0.000
621447.628,11.230,0.977,4.883,61.523,0.000,0.000,0.000,0.000
621447.632,-2.441,-78.613,-77.148,9.277,0.000,0.000,0.000,0.000
621447.636,-18.555,-66.895,-65.918,-38.574,0.000,0.000,0.000,0.000
621447.640,-21.484,9.277,13.184,20.020,0.000,0.000,0.000,0.000
621447.644,13.672,40.039,43.457,57.129,0.000,0.000,0.000,0.000
621447.648,34.180,-37.598,-33.203,43.457,0.000,0.000,0.000,0.000
621447.652,17.578,-53.223,-48.828,-0.488,0.000,0.000,0.000,0.000
621447.656,4.883,23.926,27.832,0.000,0.000,0.000,0.000,0.000
621447.660,19.043,72.754,81.543,45.410,0.000,0.000,0.000,0.000
621447.664,39.062,21.973,30.273,75.684,0.000,0.000,0.000,0.000
621447.668,27.344,-28.809,-25.879,43.945,0.000,0.000,0.000,0.000
621447.672,1.465,26.367,28.809,14.160,0.000,0.000,0.000,0.000
621447.675,7.324,103.027,108.887,55.176,0.000,0.000,0.000,0.000
621447.679,23.438,62.012,65.430,92.285,0.000,0.000,0.000,0.000
621447.683,35.645,15.625,19.043,68.359,0.000,0.000,0.000,0.000
621447.687,20.996,56.152,59.570,59.570,0.000,0.000,0.000,0.000
621447.691,4.395,130.859,130.859,62.500,0.000,0.000,0.000,0.000
621447.695,16.113,132.812,135.254,66.895,0.000,0.000,0.000,0.000
621447.699,20.020,56.641,57.129,51.758,0.000,0.000,0.000,0.000
621447.703,8.789,48.828,47.363,44.922,0.000,0.000,0.000,0.000
621447.707,3.418,116.699,120.117,70.312,0.000,0.000,0.000,0.000
621447.711,9.766,182.617,185.547,79.590,0.000,0.000,0.000,0.000
621447.715,39.551,175.781,178.711,118.652,0.000,0.000,0.000,0.000
621447.719,41.992,151.855,156.738,106.445,0.000,0.000,0.000,0.000
621447.722,19.531,180.664,185.547,83.496,0.000,0.000,0.000,0.000
621447.726,28.320,229.980,232.910,114.746,0.000,0.000,0.000,0.000
621447.730,21.973,152.832,154.785,101.562,0.000,0.000,0.000,0.000
621447.734,7.812,21.973,23.438,18.555,0.000,0.000,0.000,0.000
621447.738,-29.297,19.043,23.438,-10.742,0.000,0.000,0.000,0.000
621447.742,-18.555,143.555,147.461,58.105,0.000,0.000,0.000,0.000
621447.746,14.648,91.797,91.797,77.148,0.000,0.000,0.000,0.000
621447.750,-7.324,-76.660,-79.590,-7.324,0.000,0.000,0.000,0.000
621447.754,-30.273,-60.547,-67.383,-23.438,0.000,0.000,0.000,0.000
621447.758,-24.414,52.734,51.270,30.762,0.000,0.000,0.000,0.000
621447.762,-10.254,79.590,82.031,64.453,0.000,0.000,0.000,0.000
621447.766,-9.766,19.043,20.996,33.203,0.000,0.000,0.000,0.000
621447.770,-41.992,-2.930,-2.441,-37.598,0.000,0.000,0.000,0.000
621447.773,-55.176,43.457,39.062,-24.414,0.000,0.000,0.000,0.000
621447.777,-16.113,68.359,62.012,36.621,0.000,0.000,0.000,0.000
621447.781,-22.949,-32.227,-36.621,30.762,0.000,0.000,0.000,0.000
621447.785,-54.199,-110.352,-108.887,-44.922,0.000,0.000,0.000,0.000
621447.789,-76.660,-92.773,-93.262,-88.379,0.000,0.000,0.000,0.000
621447.793,-65.918,-49.805,-48.828,-41.992,0.000,0.000,0.000,0.000
621447.797,-50.781,-97.168,-96.680,-23.438,0.000,0.000,0.000,0.000
621447.801,-55.176,-159.668,-164.062,-77.148,0.000,0.000,0.000,0.000
621447.805,-67.871,-140.625,-142.578,-90.820,0.000,0.000,0.000,0.000
621447.809,-65.918,-72.266,-73.242,-69.824,0.000,0.000,0.000,0.000
621447.813,-53.711,-68.848,-74.707,-44.922,0.000,0.000,0.000,0.000
621447.817,-45.410,-135.254,-146.973,-66.895,0.000,0.000,0.000,0.000
621447.820,-40.527,-151.855,-161.133,-77.637,0.000,0.000,0.000,0.000
621447.824,-49.316,-110.352,-110.352,-71.777,0.000,0.000,0.000,0.000
621447.828,-59.082,-90.332,-85.938,-72.266,0.000,0.000,0.000,0.000
621447.832,-72.266,-166.992,-167.480,-92.773,0.000,0.000,0.000,0.000
621447.836,-86.914,-224.609,-223.633,-115.234,0.000,0.000,0.000,0.000
621447.840,-84.961,-200.195,-194.824,-95.215,0.000,0.000,0.000,0.000
621447.844,-54.199,-126.465,-123.535,-69.824,0.000,0.000,0.000,0.000
621447.848,-58.594,-160.156,-158.203,-85.938,0.000,0.000,0.000,0.000
621447.852,-82.520,-234.375,-237.305,-131.836,0.000,0.000,0.000,0.000
621447.856,-86.426,-210.449,-215.820,-121.094,0.000,0.000,0.000,0.000
621447.860,-82.031,-152.832,-155.762,-87.891,0.000,0.000,0.000,0.000
621447.864,-66.895,-187.988,-193.848,-64.941,0.000,0.000,0.000,0.000
621447.867,-78.613,-254.395,-257.324,-131.348,0.000,0.000,0.000,0.000
621447.871,-116.699,-263.672,-269.531,-187.500,0.000,0.000,0.000,0.000
621447.875,-118.652,-245.605,-256.836,-166.504,0.000,0.000,0.000,0.000
621447.879,-98.633,-284.668,-293.945,-134.766,0.000,0.000,0.000,0.000
621447.883,-102.539,-362.793,-369.629,-162.598,0.000,0.000,0.000,0.000
621447.887,-137.207,-371.094,-378.906,-214.844,0.000,0.000,0.000,0.000
