timestamps,TP9,AF7,AF8,TP10,Right AUX,Frequency,Contrast,Orientation
483974.359,10.254,26.855,35.645,-1.465,-19.531,0.000,0.000,0.000
483974.363,20.508,26.367,28.809,9.766,22.461,0.000,0.000,0.000
483974.367,27.832,27.344,29.785,42.969,353.516,0.000,0.000,0.000
483974.371,19.531,30.273,34.180,33.203,349.609,0.000,0.000,0.000
483974.374,13.672,31.738,33.691,4.883,-56.641,0.000,0.000,0.000
483974.378,26.855,26.855,29.297,11.719,-197.266,0.000,0.000,0.000
483974.382,36.621,22.461,25.391,43.457,75.684,0.000,0.000,0.000
483974.386,24.902,25.879,22.461,46.387,239.746,0.000,0.000,0.000
483974.390,13.672,32.227,30.762,22.949,36.621,0.000,0.000,0.000
483974.394,26.367,35.156,30.762,17.578,-146.484,0.000,0.000,0.000
483974.398,41.504,34.180,22.949,49.805,56.641,0.000,0.000,0.000
483974.402,34.668,31.738,23.438,68.359,273.926,0.000,0.000,0.000
483974.406,16.113,33.203,27.832,38.086,72.266,0.000,0.000,0.000
483974.410,15.625,32.227,32.715,21.484,-171.387,0.000,0.000,0.000
483974.413,30.273,33.203,35.645,49.316,-35.645,0.000,0.000,0.000
483974.417,31.250,34.668,29.785,73.730,265.137,0.000,0.000,0.000
483974.421,22.949,34.668,26.367,55.664,157.715,0.000,0.000,0.000
483974.425,22.949,34.180,31.250,30.762,-185.547,0.000,0.000,0.000
483974.429,30.762,30.273,30.273,41.016,-151.367,0.000,0.000,0.000
483974.433,33.203,29.785,29.785,74.707,210.938,0.000,0.000,0.000
483974.437,25.391,30.273,32.715,75.684,250.977,0.000,0.000,0.000
483974.441,21.973,29.785,40.527,45.410,-75.684,0.000,0.000,0.000
483974.445,31.250,32.227,38.574,37.598,-186.035,0.000,0.000,0.000
483974.449,35.156,29.297,28.809,62.988,30.762,0.000,0.000,0.000
483974.453,27.344,24.902,23.926,71.289,187.012,0.000,0.000,0.000
483974.456,12.695,25.391,27.344,39.062,-46.387,0.000,0.000,0.000
483974.460,15.625,26.855,35.645,26.367,-264.160,0.000,0.000,0.000
483974.464,35.156,28.809,37.109,61.035,-91.797,0.000,0.000,0.000
483974.468,36.133,28.320,35.645,81.055,186.035,0.000,0.000,0.000
483974.472,14.648,24.902,35.156,48.828,31.250,0.000,0.000,0.000
483974.476,17.090,27.344,34.668,20.508,-239.746,0.000,0.000,0.000
483974.480,28.320,27.832,34.180,38.574,-107.910,0.000,0.000,0.000
483974.484,40.527,25.879,29.785,73.730,181.641,0.000,0.000,0.000
483974.488,37.109,38.574,28.320,60.059,170.410,0.000,0.000,0.000
483974.492,18.555,43.945,29.297,19.043,-119.141,0.000,0.000,0.000
483974.496,25.879,34.668,20.996,24.414,-181.641,0.000,0.000,0.000
483974.499,42.969,35.645,6.836,63.477,82.520,0.000,0.000,0.000
483974.503,41.504,43.945,10.254,63.965,181.641,0.000,0.000,0.000
483974.507,30.273,46.387,22.461,29.297,-90.332,0.000,0.000,0.000
483974.511,37.109,45.410,24.414,29.297,-248.535,0.000,0.000,0.000
483974.515,42.480,37.598,29.785,62.500,4.395,0.000,0.000,0.000
483974.519,45.410,38.086,30.273,72.266,216.797,0.000,0.000,0.000
483974.523,36.133,43.457,23.438,41.992,-0.488,0.000,0.000,0.000
483974.527,32.715,43.457,26.367,28.320,-254.395,0.000,0.000,0.000
483974.531,44.434,43.457,27.344,51.758,-126.953,0.000,0.000,0.000
483974.535,37.109,39.551,19.043,64.941,172.363,0.000,0.000,0.000
483974.538,16.113,39.551,25.391,41.016,99.121,0.000,0.000,0.000
483974.542,21.973,45.898,34.180,20.996,-214.844,0.000,0.000,0.000
483974.546,45.410,47.363,35.156,42.969,-148.926,0.000,0.000,0.000
483974.550,49.316,41.992,33.691,69.824,208.008,0.000,0.000,0.000
483974.554,33.691,41.504,28.320,53.711,209.961,0.000,0.000,0.000
483974.558,23.926,41.992,27.344,22.461,-128.906,0.000,0.000,0.000
483974.562,32.227,42.480,24.902,22.949,-177.246,0.000,0.000,0.000
483974.566,41.992,39.551,20.020,48.828,149.902,0.000,0.000,0.000
483974.570,36.133,38.086,17.578,50.293,286.621,0.000,0.000,0.000
483974.574,16.602,39.062,21.973,17.578,-41.992,0.000,0.000,0.000
483974.578,19.531,39.062,27.832,8.301,-250.977,0.000,0.000,0.000
483974.581,37.109,39.551,27.344,42.480,51.270,0.000,0.000,0.000
483974.585,39.551,38.574,29.297,59.570,353.516,0.000,0.000,0.000
483974.589,20.020,40.039,23.438,26.367,150.879,0.000,0.000,0.000
483974.593,19.531,43.945,23.438,4.883,-128.906,0.000,0.000,0.000
483974.597,33.691,42.480,20.996,28.320,28.809,0.000,0.000,0.000
483974.601,34.180,40.039,16.602,54.688,266.602,0.000,0.000,0.000
483974.605,26.367,40.039,27.832,41.016,114.258,0.000,0.000,0.000
483974.609,25.391,40.039,31.738,11.719,-190.918,0.000,0.000,0.000
483974.613,33.691,31.738,20.508,19.531,-178.223,0.000,0.000,0.000
483974.617,40.527,27.832,16.113,53.223,170.898,0.000,0.000,0.000
483974.620,30.762,33.203,28.320,44.434,224.121,0.000,0.000,0.000
483974.624,16.113,30.762,38.574,12.207,-152.344,0.000,0.000,0.000
483974.628,25.391,28.809,35.645,14.648,-202.637,0.000,0.000,0.000
483974.632,39.062,34.180,29.785,47.363,161.133,0.000,0.000,0.000
483974.636,38.574,36.133,26.855,55.176,257.812,0.000,0.000,0.000
483974.640,26.855,38.574,29.297,21.973,-73.242,0.000,0.000,0.000
483974.644,29.785,37.598,30.762,8.789,-236.816,0.000,0.000,0.000
483974.648,45.410,37.109,25.391,41.016,-8.789,0.000,0.000,0.000
483974.652,41.016,37.109,23.438,54.688,205.566,0.000,0.000,0.000
483974.656,18.066,37.109,26.855,22.949,47.363,0.000,0.000,0.000
483974.660,16.602,35.645,30.273,6.836,-227.539,0.000,0.000,0.000
483974.663,35.156,31.738,34.668,35.645,-139.648,0.000,0.000,0.000
483974.667,36.621,33.691,29.297,58.105,181.641,0.000,0.000,0.000
483974.671,20.996,37.598,25.391,38.574,168.945,0.000,0.000,0.000
483974.675,15.137,33.691,28.809,13.184,-136.719,0.000,0.000,0.000
483974.679,27.344,32.227,26.367,22.461,-180.176,0.000,0.000,0.000
483974.683,33.203,35.645,23.926,52.246,93.750,0.000,0.000,0.000
483974.687,22.949,34.668,31.250,45.898,162.598,0.000,0.000,0.000
483974.691,20.508,38.574,37.109,17.090,-113.770,0.000,0.000,0.000
483974.695,23.926,34.668,28.320,13.672,-213.867,0.000,0.000,0.000
483974.699,26.855,29.297,25.879,47.852,42.969,0.000,0.000,0.000
483974.703,22.949,30.762,24.414,55.176,254.883,0.000,0.000,0.000
483974.706,12.207,29.785,22.461,19.043,45.898,0.000,0.000,0.000
483974.710,22.461,28.809,27.344,5.371,-205.078,0.000,0.000,0.000
483974.714,35.156,25.879,21.484,26.367,20.508,0.000,0.000,0.000
483974.718,39.062,29.297,21.484,48.340,295.410,0.000,0.000,0.000
483974.722,27.832,34.668,29.785,25.879,119.141,0.000,0.000,0.000
483974.726,27.832,39.062,36.133,4.883,-147.949,0.000,0.000,0.000
483974.730,37.598,37.598,32.715,24.902,-95.703,0.000,0.000,0.000
483974.734,36.621,24.414,22.461,50.781,218.262,0.000,0.000,0.000
483974.738,28.320,22.949,27.832,45.410,192.871,0.000,0.000,0.000
483974.742,19.531,32.715,34.180,20.020,-139.160,0.000,0.000,0.000
483974.745,31.738,35.645,26.855,27.832,-179.688,0.000,0.000,0.000
483974.749,44.434,34.668,22.949,61.035,108.398,0.000,0.000,0.000
483974.753,35.645,36.133,32.227,58.594,213.379,0.000,0.000,0.000
483974.757,19.531,34.668,35.645,20.996,-81.055,0.000,0.000,0.000
483974.761,21.484,27.832,32.715,8.301,-243.164,0.000,0.000,0.000
483974.765,28.809,25.879,31.738,34.668,-2.441,0.000,0.000,0.000
483974.769,26.367,29.785,30.762,46.387,224.609,0.000,0.000,0.000
483974.773,15.625,33.691,35.156,20.996,27.832,0.000,0.000,0.000
483974.777,21.484,39.062,36.133,3.418,-237.305,0.000,0.000,0.000
483974.781,38.086,35.645,27.832,33.691,-107.422,0.000,0.000,0.000
483974.785,31.250,27.832,27.832,54.199,169.922,0.000,0.000,0.000
483974.788,3.906,28.320,33.203,22.461,94.727,0.000,0.000,0.000
483974.792,3.906,32.715,33.203,-1.953,-202.148,0.000,0.000,0.000
483974.796,24.414,34.180,32.227,17.578,-110.352,0.000,0.000,0.000
483974.800,35.645,34.668,35.156,51.758,212.891,0.000,0.000,0.000
483974.804,23.926,35.645,33.691,41.504,186.523,0.000,0.000,0.000
483974.808,11.719,32.715,34.668,3.418,-76.172,0.000,0.000,0.000
483974.812,24.902,31.250,37.109,10.254,-113.770,0.000,0.000,0.000
483974.816,34.180,31.250,33.203,45.410,195.312,0.000,0.000,0.000
483974.820,22.949,29.297,29.297,42.480,330.078,0.000,0.000,0.000
483974.824,11.230,29.297,32.715,11.719,5.859,0.000,0.000,0.000
483974.828,22.461,29.297,29.297,7.324,-190.430,0.000,0.000,0.000
483974.831,36.621,28.320,25.391,38.574,14.648,0.000,0.000,0.000
483974.835,34.180,28.809,31.738,50.293,218.750,0.000,0.000,0.000
483974.839,23.926,32.715,40.527,26.855,16.113,0.000,0.000,0.000
483974.843,26.367,32.715,35.156,7.812,-262.207,0.000,0.000,0.000
483974.847,36.621,25.879,27.832,25.879,-133.789,0.000,0.000,0.000
483974.851,36.133,23.438,28.320,49.316,188.477,0.000,0.000,0.000
483974.855,22.461,27.832,32.715,25.391,150.391,0.000,0.000,0.000
483974.859,22.949,25.879,41.992,2.441,-127.441,0.000,0.000,0.000
483974.863,33.203,22.949,38.086,18.066,-123.047,0.000,0.000,0.000
483974.867,34.180,29.297,26.367,44.434,145.508,0.000,0.000,0.000
483974.870,24.414,33.203,27.832,35.645,235.840,0.000,0.000,0.000
483974.874,16.602,32.227,35.156,7.324,-0.488,0.000,0.000,0.000
483974.878,30.273,33.203,31.738,13.672,-105.957,0.000,0.000,0.000
483974.882,41.992,30.273,26.855,45.410,138.184,0.000,0.000,0.000
483974.886,31.738,25.391,28.809,45.410,266.113,0.000,0.000,0.000
483974.890,22.949,26.367,31.738,15.625,-67.871,0.000,0.000,0.000
483974.894,31.250,29.785,34.668,7.812,-311.035,0.000,0.000,0.000
483974.898,37.598,32.715,32.715,37.598,-39.551,0.000,0.000,0.000
483974.902,41.016,31.250,33.691,59.082,229.004,0.000,0.000,0.000
483974.906,27.344,28.809,33.203,31.250,29.297,0.000,0.000,0.000
483974.910,20.020,26.855,27.832,1.953,-254.395,0.000,0.000,0.000
483974.913,32.715,28.320,28.320,25.879,-120.605,0.000,0.000,0.000
483974.917,40.527,23.926,27.344,53.711,195.801,0.000,0.000,0.000
483974.921,31.738,20.508,30.273,36.621,140.625,0.000,0.000,0.000
483974.925,23.926,31.250,36.133,8.301,-147.461,0.000,0.000,0.000
483974.929,31.738,33.203,26.855,14.160,-130.371,0.000,0.000,0.000
483974.933,43.945,32.715,19.531,49.805,151.855,0.000,0.000,0.000
483974.937,37.109,34.180,26.855,45.410,201.172,0.000,0.000,0.000
483974.941,24.902,31.250,33.203,16.602,-66.406,0.000,0.000,0.000
483974.945,33.691,30.762,31.250,20.020,-205.566,0.000,0.000,0.000
483974.949,42.969,28.320,29.785,48.340,18.066,0.000,0.000,0.000
483974.953,30.273,27.344,24.902,48.340,206.055,0.000,0.000,0.000
483974.956,9.766,33.203,22.461,10.742,-43.945,0.000,0.000,0.000
483974.960,19.043,35.645,27.832,0.977,-226.562,0.000,0.000,0.000
483974.964,34.180,31.738,28.809,31.250,35.156,0.000,0.000,0.000
483974.968,31.250,28.320,26.367,48.340,312.988,0.000,0.000,0.000
483974.972,18.555,27.344,27.344,21.973,189.453,0.000,0.000,0.000
483974.976,17.578,24.414,29.297,-3.906,-169.922,0.000,0.000,0.000
483974.980,32.715,27.344,20.020,14.160,-178.711,0.000,0.000,0.000
483974.984,39.551,33.203,11.719,39.551,153.320,0.000,0.000,0.000
483974.988,30.762,37.109,20.020,26.367,120.117,0.000,0.000,0.000
483974.992,25.879,36.621,31.250,-3.418,-232.910,0.000,0.000,0.000
483974.995,39.551,36.621,30.273,3.418,-247.070,0.000,0.000,0.000
483974.999,49.316,38.086,25.391,37.598,122.559,0.000,0.000,0.000
483975.003,41.504,39.062,25.879,40.039,231.445,0.000,0.000,0.000
483975.007,28.320,40.039,27.344,11.719,-41.992,0.000,0.000,0.000
483975.011,31.738,36.133,26.367,9.766,-136.230,0.000,0.000,0.000
483975.015,41.992,33.203,23.926,46.387,142.578,0.000,0.000,0.000
483975.019,39.062,31.738,22.949,58.594,342.773,0.000,0.000,0.000
483975.023,26.855,33.203,29.785,27.832,29.785,0.000,0.000,0.000
483975.027,26.855,33.203,33.691,14.648,-273.438,0.000,0.000,0.000
483975.031,33.691,27.344,21.484,37.109,-56.152,0.000,0.000,0.000
483975.035,37.109,30.762,23.438,58.594,244.141,0.000,0.000,0.000
483975.038,27.832,31.738,35.645,39.062,136.230,0.000,0.000,0.000
483975.042,21.973,29.785,31.250,11.230,-88.379,0.000,0.000,0.000
483975.046,34.180,33.203,23.438,19.531,-32.227,0.000,0.000,0.000
483975.050,35.156,28.809,21.484,49.316,221.191,0.000,0.000,0.000
483975.054,20.020,28.809,22.949,50.293,180.664,0.000,0.000,0.000
483975.058,16.602,30.762,20.996,17.578,-171.875,0.000,0.000,0.000
483975.062,23.926,32.227,21.484,14.160,-197.266,0.000,0.000,0.000
483975.066,32.715,33.203,24.902,44.922,139.648,0.000,0.000,0.000
483975.070,32.227,33.203,28.320,41.016,218.262,0.000,0.000,0.000
483975.074,18.066,35.156,32.715,0.000,-60.059,0.000,0.000,0.000
483975.078,19.531,30.273,27.344,-13.672,-210.449,0.000,0.000,0.000
483975.081,36.621,27.832,24.902,23.438,-16.113,0.000,0.000,0.000
483975.085,39.062,30.273,23.926,46.387,213.379,0.000,0.000,0.000
483975.089,23.438,31.250,24.414,21.484,42.480,0.000,0.000,0.000
483975.093,18.066,27.832,25.391,0.977,-206.543,0.000,0.000,0.000
483975.097,38.574,35.156,30.273,34.668,-62.500,0.000,0.000,0.000
483975.101,35.156,31.738,26.367,57.617,294.434,0.000,0.000,0.000
483975.105,8.301,17.578,26.367,25.879,307.617,0.000,0.000,0.000
483975.109,7.812,30.762,35.156,6.836,-6.836,0.000,0.000,0.000
483975.113,19.043,34.668,26.855,21.973,-85.938,0.000,0.000,0.000
483975.117,29.297,26.855,25.879,48.828,181.641,0.000,0.000,0.000
483975.120,23.438,31.738,32.715,41.504,245.117,0.000,0.000,0.000
483975.124,15.137,34.668,30.273,7.324,-84.473,0.000,0.000,0.000
483975.128,30.273,32.227,27.832,8.789,-166.504,0.000,0.000,0.000
483975.132,31.738,32.227,33.203,42.969,89.844,0.000,0.000,0.000
483975.136,12.207,31.250,32.715,44.922,237.305,0.000,0.000,0.000
483975.140,3.906,33.203,37.109,19.531,13.672,0.000,0.000,0.000
483975.144,12.207,33.203,33.691,9.766,-220.703,0.000,0.000,0.000
483975.148,21.484,35.156,27.344,35.156,10.742,0.000,0.000,0.000
483975.152,20.996,36.133,30.762,54.688,353.516,0.000,0.000,0.000
483975.156,7.324,35.156,32.227,24.414,258.789,0.000,0.000,0.000
483975.160,5.371,34.668,29.785,-0.488,-72.266,0.000,0.000,0.000
483975.163,20.020,32.227,25.391,24.414,13.672,0.000,0.000,0.000
483975.167,25.391,30.762,20.996,51.270,339.844,0.000,0.000,0.000
483975.171,10.254,26.855,20.020,26.855,273.926,0.000,0.000,0.000
483975.175,13.184,30.762,29.297,6.348,-39.062,0.000,0.000,0.000
483975.179,26.367,36.133,35.156,24.414,-65.430,0.000,0.000,0.000
483975.183,25.391,32.715,35.645,50.293,217.773,0.000,0.000,0.000
483975.187,20.996,26.855,35.645,44.922,197.754,0.000,0.000,0.000
483975.191,15.625,30.762,34.668,6.836,-174.316,0.000,0.000,0.000
483975.195,24.902,38.086,33.691,-0.488,-271.973,0.000,0.000,0.000
483975.199,34.180,36.133,23.438,35.156,45.410,0.000,0.000,0.000
483975.202,28.809,31.738,20.508,44.922,222.656,0.000,0.000,0.000
483975.206,9.277,32.227,25.391,11.719,-49.805,0.000,0.000,0.000
483975.210,9.766,32.227,26.367,-3.418,-269.043,0.000,0.000,0.000
483975.214,28.809,33.203,26.855,31.250,-60.059,0.000,0.000,0.000
483975.218,33.203,36.133,29.297,54.688,208.984,0.000,0.000,0.000
483975.222,11.719,33.691,32.715,22.949,93.262,0.000,0.000,0.000
483975.226,5.859,29.297,35.156,0.488,-192.383,0.000,0.000,0.000
483975.230,22.461,30.273,27.832,24.902,-140.625,0.000,0.000,0.000
483975.234,33.691,32.227,24.902,54.199,211.426,0.000,0.000,0.000
483975.238,21.973,32.715,32.715,39.062,195.801,0.000,0.000,0.000
483975.242,11.719,36.133,31.250,4.395,-172.363,0.000,0.000,0.000
483975.245,26.855,36.621,22.949,12.207,-184.570,0.000,0.000,0.000
483975.249,37.598,32.227,18.555,47.363,141.602,0.000,0.000,0.000
483975.253,33.203,36.133,25.391,47.363,212.891,0.000,0.000,0.000
483975.257,13.672,44.434,39.062,7.812,-79.590,0.000,0.000,0.000
483975.261,13.184,39.551,31.738,0.977,-256.348,0.000,0.000,0.000
483975.265,20.508,28.809,20.996,33.203,-7.324,0.000,0.000,0.000
483975.269,12.207,31.738,21.484,36.133,211.914,0.000,0.000,0.000
483975.273,-2.930,33.203,24.902,4.395,-20.020,0.000,0.000,0.000
483975.277,-3.906,30.762,28.809,-14.160,-270.508,0.000,0.000,0.000
483975.281,10.254,30.762,26.855,7.324,-134.277,0.000,0.000,0.000
483975.285,9.277,28.320,22.949,23.926,166.016,0.000,0.000,0.000
483975.288,-11.719,30.762,24.414,-2.930,156.250,0.000,0.000,0.000
483975.292,-8.301,32.715,29.785,-27.832,-114.258,0.000,0.000,0.000
483975.296,8.789,29.785,21.973,-17.578,-82.520,0.000,0.000,0.000
483975.300,8.789,33.203,18.555,4.395,229.492,0.000,0.000,0.000
483975.304,-2.930,35.156,28.809,-6.348,193.359,0.000,0.000,0.000
483975.308,-14.160,32.715,34.668,-41.016,-136.719,0.000,0.000,0.000
483975.312,-8.789,37.109,34.668,-42.969,-180.664,0.000,0.000,0.000
483975.316,2.930,37.598,33.691,-8.789,111.816,0.000,0.000,0.000
483975.320,-7.324,32.227,30.762,-14.648,242.676,0.000,0.000,0.000
483975.324,-18.555,30.273,28.809,-50.781,-49.805,0.000,0.000,0.000
483975.327,-8.301,28.320,23.926,-55.664,-219.238,0.000,0.000,0.000
483975.331,9.766,33.691,18.555,-18.066,13.672,0.000,0.000,0.000
483975.335,14.648,40.527,25.879,5.371,252.930,0.000,0.000,0.000
483975.339,-2.441,39.062,27.344,-26.367,101.074,0.000,0.000,0.000
483975.343,9.766,34.180,28.809,-39.062,-211.914,0.000,0.000,0.000
483975.347,26.855,33.691,31.250,-6.836,-48.828,0.000,0.000,0.000
483975.351,27.344,37.598,31.250,21.973,351.074,0.000,0.000,0.000
483975.355,24.902,40.039,37.598,13.672,275.879,0.000,0.000,0.000
483975.359,23.438,36.133,36.621,-10.742,-102.539,0.000,0.000,0.000
483975.363,39.062,32.227,33.691,4.395,-102.051,0.000,0.000,0.000
483975.367,46.387,38.086,28.320,38.574,204.590,0.000,0.000,0.000
483975.370,30.273,37.598,25.879,22.949,226.074,0.000,0.000,0.000
483975.374,16.602,29.297,28.809,-10.742,-68.359,0.000,0.000,0.000
483975.378,32.227,30.762,30.762,-1.465,-156.250,0.000,0.000,0.000
483975.382,47.852,32.227,28.809,31.738,127.441,0.000,0.000,0.000
483975.386,38.086,26.855,26.367,31.738,246.582,0.000,0.000,0.000
483975.390,24.902,27.832,27.832,-1.465,-26.367,0.000,0.000,0.000
483975.394,26.855,28.320,26.367,-10.742,-140.137,0.000,0.000,0.000
483975.398,33.203,25.879,22.461,20.020,111.328,0.000,0.000,0.000
483975.402,34.180,24.414,24.414,37.598,360.840,0.000,0.000,0.000
483975.406,23.438,29.297,31.250,14.648,139.160,0.000,0.000,0.000
483975.410,21.973,30.273,33.691,-0.977,-208.008,0.000,0.000,0.000
483975.413,34.180,26.367,30.762,23.438,-94.727,0.000,0.000,0.000
483975.417,39.551,31.738,29.297,51.270,183.105,0.000,0.000,0.000
483975.421,19.043,28.320,24.414,25.391,139.160,0.000,0.000,0.000
483975.425,9.277,21.973,21.973,-2.441,-166.992,0.000,0.000,0.000
483975.429,27.344,28.809,23.926,15.625,-209.473,0.000,0.000,0.000
483975.433,38.574,33.691,25.879,47.363,102.051,0.000,0.000,0.000
483975.437,27.344,34.180,23.438,36.621,180.664,0.000,0.000,0.000
483975.441,20.020,35.645,27.832,3.418,-95.703,0.000,0.000,0.000
483975.445,32.715,29.785,32.715,7.324,-204.102,0.000,0.000,0.000
483975.449,47.852,27.344,29.785,43.945,82.520,0.000,0.000,0.000
483975.452,46.387,32.715,31.738,55.664,260.742,0.000,0.000,0.000
483975.456,31.250,31.738,33.691,28.320,68.359,0.000,0.000,0.000
483975.460,38.086,29.297,32.715,14.648,-150.391,0.000,0.000,0.000
483975.464,45.898,24.902,26.367,36.133,-8.789,0.000,0.000,0.000
483975.468,43.945,28.809,26.855,56.641,274.902,0.000,0.000,0.000
483975.472,32.715,35.156,37.109,38.574,102.539,0.000,0.000,0.000
483975.476,24.902,31.738,40.527,12.695,-211.914,0.000,0.000,0.000
483975.480,39.062,25.391,36.133,30.762,-101.074,0.000,0.000,0.000
483975.484,47.363,25.391,27.832,62.500,269.043,0.000,0.000,0.000
483975.488,28.809,31.738,27.344,43.945,198.730,0.000,0.000,0.000
483975.492,14.160,34.180,34.180,6.348,-190.918,0.000,0.000,0.000
483975.495,28.809,34.180,34.668,11.230,-222.168,0.000,0.000,0.000
483975.499,34.668,32.715,30.273,43.945,113.281,0.000,0.000,0.000
483975.503,29.785,31.738,35.645,42.969,249.512,0.000,0.000,0.000
483975.507,29.297,36.133,40.039,12.207,-17.578,0.000,0.000,0.000
483975.511,31.738,38.574,27.832,3.418,-224.609,0.000,0.000,0.000
483975.515,36.133,34.668,24.902,34.180,-0.488,0.000,0.000,0.000
483975.519,32.227,36.621,27.832,47.852,231.934,0.000,0.000,0.000
483975.523,19.043,41.016,31.250,14.160,38.574,0.000,0.000,0.000
483975.527,19.043,36.133,30.273,-6.836,-169.434,0.000,0.000,0.000
483975.531,29.785,29.297,22.461,18.066,18.555,0.000,0.000,0.000
483975.535,28.320,24.902,23.926,40.039,306.641,0.000,0.000,0.000
483975.538,17.578,27.832,28.809,20.996,140.625,0.000,0.000,0.000
483975.542,14.648,32.715,27.832,-1.465,-227.539,0.000,0.000,0.000
483975.546,32.227,32.227,29.785,20.508,-190.430,0.000,0.000,0.000
483975.550,44.434,32.227,28.809,56.152,102.051,0.000,0.000,0.000
483975.554,32.227,35.645,26.367,39.062,126.953,0.000,0.000,0.000
483975.558,22.949,35.645,31.738,1.953,-168.457,0.000,0.000,0.000
483975.562,29.785,31.250,29.297,9.277,-243.652,0.000,0.000,0.000
483975.566,40.039,27.832,28.809,47.363,40.039,0.000,0.000,0.000
483975.570,32.227,29.297,25.391,46.387,205.078,0.000,0.000,0.000
483975.574,22.949,39.062,24.414,14.160,-62.500,0.000,0.000,0.000
483975.577,43.945,38.086,30.273,11.230,-259.766,0.000,0.000,0.000
483975.581,53.223,27.832,24.902,41.504,34.668,0.000,0.000,0.000
483975.585,44.434,31.250,19.043,51.270,274.414,0.000,0.000,0.000
483975.589,33.691,41.016,24.414,22.949,74.707,0.000,0.000,0.000
483975.593,37.598,37.598,25.879,2.930,-206.055,0.000,0.000,0.000
483975.597,50.781,36.621,32.715,29.297,-100.586,0.000,0.000,0.000
483975.601,44.434,36.133,33.691,54.199,213.867,0.000,0.000,0.000
483975.605,19.043,25.879,23.926,25.391,117.188,0.000,0.000,0.000
483975.609,18.066,23.926,31.250,0.000,-239.258,0.000,0.000,0.000
483975.613,38.086,28.320,32.715,12.207,-204.590,0.000,0.000,0.000
483975.617,34.180,29.785,24.902,36.621,177.246,0.000,0.000,0.000
483975.620,14.160,28.809,21.973,24.414,287.109,0.000,0.000,0.000
483975.624,6.348,27.832,25.391,-6.348,10.254,0.000,0.000,0.000
483975.628,15.625,26.367,25.879,-2.441,-120.605,0.000,0.000,0.000
483975.632,30.273,29.297,26.855,33.203,122.559,0.000,0.000,0.000
483975.636,35.156,30.273,26.855,47.363,229.980,0.000,0.000,0.000
483975.640,15.625,22.461,23.926,12.207,-43.945,0.000,0.000,0.000
483975.644,10.254,18.066,22.461,-6.348,-229.492,0.000,0.000,0.000
483975.648,26.855,23.926,29.785,25.879,16.602,0.000,0.000,0.000
483975.652,28.809,30.762,34.180,42.969,288.086,0.000,0.000,0.000
483975.656,18.555,31.250,29.785,16.602,70.312,0.000,0.000,0.000
483975.660,19.043,31.250,33.691,-5.371,-217.773,0.000,0.000,0.000
483975.663,24.902,31.738,33.203,13.672,-78.125,0.000,0.000,0.000
483975.667,30.273,28.809,26.855,37.598,236.816,0.000,0.000,0.000
483975.671,20.020,24.414,26.855,18.066,169.434,0.000,0.000,0.000
483975.675,20.020,25.879,33.203,-6.836,-156.250,0.000,0.000,0.000
483975.679,33.691,31.250,36.621,9.277,-175.781,0.000,0.000,0.000
483975.683,34.668,29.785,31.738,43.457,163.086,0.000,0.000,0.000
483975.687,24.414,28.320,34.668,36.133,232.910,0.000,0.000,0.000
483975.691,15.137,30.762,39.551,0.488,-97.168,0.000,0.000,0.000
483975.695,22.949,26.855,29.297,-2.930,-187.988,0.000,0.000,0.000
483975.699,35.645,28.809,26.855,26.855,95.703,0.000,0.000,0.000
483975.702,29.297,31.738,34.180,36.621,254.883,0.000,0.000,0.000
483975.706,9.766,31.738,30.762,6.836,31.250,0.000,0.000,0.000
483975.710,20.020,37.598,28.320,-2.930,-159.180,0.000,0.000,0.000
483975.714,41.504,38.574,28.809,30.762,79.102,0.000,0.000,0.000
483975.718,35.156,31.250,22.461,44.922,407.715,0.000,0.000,0.000
483975.722,18.555,27.344,25.879,18.066,213.379,0.000,0.000,0.000
483975.726,23.926,30.762,31.250,0.488,-153.320,0.000,0.000,0.000
483975.730,30.762,29.297,24.414,14.160,-58.594,0.000,0.000,0.000
483975.734,30.273,25.879,20.020,35.156,210.938,0.000,0.000,0.000
483975.738,21.484,27.832,25.391,21.973,213.867,0.000,0.000,0.000
483975.742,12.695,31.250,25.391,-11.230,-24.414,0.000,0.000,0.000
483975.745,30.273,32.227,24.902,-3.418,-113.770,0.000,0.000,0.000
483975.749,40.527,30.762,22.949,27.344,217.285,0.000,0.000,0.000
483975.753,25.879,35.645,14.160,27.832,370.117,0.000,0.000,0.000
483975.757,16.602,37.598,20.020,3.906,51.758,0.000,0.000,0.000
483975.761,25.879,32.715,27.832,0.000,-92.773,0.000,0.000,0.000
483975.765,39.062,31.250,25.391,33.203,158.691,0.000,0.000,0.000
483975.769,40.527,36.133,31.738,48.340,286.621,0.000,0.000,0.000
483975.773,22.949,37.109,36.133,16.602,34.668,0.000,0.000,0.000
483975.777,25.391,33.203,31.738,-2.930,-231.445,0.000,0.000,0.000
483975.781,38.086,30.762,30.762,25.879,-1.465,0.000,0.000,0.000
483975.785,31.738,32.227,24.902,47.363,318.848,0.000,0.000,0.000
483975.788,15.625,30.762,23.438,20.020,166.504,0.000,0.000,0.000
483975.792,16.602,27.832,29.785,-5.371,-137.207,0.000,0.000,0.000
483975.796,26.367,29.297,21.484,11.230,-93.262,0.000,0.000,0.000
483975.800,32.227,28.809,18.555,42.480,250.000,0.000,0.000,0.000
483975.804,24.902,30.762,24.902,34.668,250.488,0.000,0.000,0.000
483975.808,18.555,33.691,26.855,7.324,-93.750,0.000,0.000,0.000
483975.812,31.250,33.203,28.320,11.230,-177.246,0.000,0.000,0.000
483975.816,37.598,34.180,27.832,37.598,169.922,0.000,0.000,0.000
483975.820,29.785,35.645,25.879,35.156,345.703,0.000,0.000,0.000
483975.824,19.531,37.598,36.621,0.488,34.668,0.000,0.000,0.000
483975.827,20.996,34.668,36.133,-10.742,-153.809,0.000,0.000,0.000
483975.831,28.320,32.227,28.809,21.484,77.637,0.000,0.000,0.000
483975.835,25.391,34.180,34.668,37.598,280.762,0.000,0.000,0.000
483975.839,9.766,31.250,37.109,2.441,82.031,0.000,0.000,0.000
483975.843,16.113,27.832,37.109,-15.625,-168.457,0.000,0.000,0.000
483975.847,33.203,24.902,37.598,14.648,-43.945,0.000,0.000,0.000
483975.851,33.691,17.578,34.180,39.062,241.699,0.000,0.000,0.000
483975.855,15.137,20.020,30.762,15.137,162.109,0.000,0.000,0.000
483975.859,9.277,27.344,33.691,-14.160,-122.070,0.000,0.000,0.000
483975.863,25.879,24.414,33.203,-0.977,-87.891,0.000,0.000,0.000
483975.867,34.668,26.855,24.902,26.855,201.172,0.000,0.000,0.000
483975.870,22.461,27.832,22.949,14.648,242.676,0.000,0.000,0.000
483975.874,17.090,25.879,35.645,-14.160,-62.012,0.000,0.000,0.000
483975.878,30.273,24.414,41.504,-4.883,-109.863,0.000,0.000,0.000
483975.882,31.738,19.531,31.738,21.484,198.730,0.000,0.000,0.000
483975.886,19.043,22.461,26.855,21.484,344.727,2.000,1.000,45.000
483975.890,10.254,27.344,28.809,0.977,95.215,0.000,0.000,0.000
483975.894,20.996,30.762,31.250,2.441,-93.750,0.000,0.000,0.000
483975.898,27.832,25.879,26.367,35.645,123.047,0.000,0.000,0.000
483975.902,25.391,24.902,26.367,52.734,341.309,0.000,0.000,0.000
483975.906,21.484,33.203,41.992,32.227,122.559,0.000,0.000,0.000
483975.909,24.414,29.785,42.969,11.230,-173.828,0.000,0.000,0.000
483975.913,37.598,25.391,24.902,28.809,-40.527,0.000,0.000,0.000
483975.917,46.875,32.227,20.020,54.199,296.875,0.000,0.000,0.000
483975.921,38.086,37.109,27.832,33.691,204.102,0.000,0.000,0.000
483975.925,28.809,34.668,27.832,2.930,-168.457,0.000,0.000,0.000
483975.929,37.109,30.273,19.531,9.766,-177.246,0.000,0.000,0.000
483975.933,40.039,30.273,20.996,40.039,181.152,0.000,0.000,0.000
483975.937,26.367,33.691,25.879,30.762,265.625,0.000,0.000,0.000
483975.941,25.391,37.598,30.273,-0.977,-70.801,0.000,0.000,0.000
483975.945,38.574,38.086,32.715,6.348,-166.016,0.000,0.000,0.000
483975.949,45.410,38.574,25.391,43.457,142.090,0.000,0.000,0.000
483975.952,50.781,42.480,24.902,56.152,271.973,0.000,0.000,0.000
483975.956,36.133,42.969,36.621,27.344,16.113,0.000,0.000,0.000
483975.960,30.762,37.598,33.203,11.719,-143.555,0.000,0.000,0.000
483975.964,44.434,35.645,27.344,39.062,68.359,0.000,0.000,0.000
483975.968,40.527,37.109,22.949,54.199,334.473,0.000,0.000,0.000
483975.972,29.297,39.551,27.344,29.785,194.824,0.000,0.000,0.000
483975.976,29.785,41.016,37.109,0.977,-123.047,0.000,0.000,0.000
483975.980,38.574,38.574,27.832,11.719,-42.969,0.000,0.000,0.000
483975.984,43.945,37.598,19.531,38.086,252.441,0.000,0.000,0.000
483975.988,33.203,39.551,26.367,21.484,208.008,0.000,0.000,0.000
483975.992,17.578,37.109,22.461,-13.672,-77.148,0.000,0.000,0.000
483975.995,26.855,33.203,18.066,-5.371,-101.074,0.000,0.000,0.000
483975.999,38.574,36.621,18.555,28.320,189.453,0.000,0.000,0.000
483976.003,32.227,41.504,24.414,28.320,291.504,0.000,0.000,0.000
483976.007,17.578,39.062,29.297,-7.812,-13.672,0.000,0.000,0.000
483976.011,19.531,30.273,20.508,-20.996,-204.590,0.000,0.000,0.000
483976.015,37.598,31.250,17.090,13.184,83.496,0.000,0.000,0.000
483976.019,39.551,39.062,19.531,27.832,296.387,0.000,0.000,0.000
483976.023,20.996,37.598,23.926,-3.418,47.852,0.000,0.000,0.000
483976.027,17.578,35.645,21.484,-18.066,-121.094,0.000,0.000,0.000
483976.031,27.832,32.715,16.602,7.324,65.918,0.000,0.000,0.000
483976.034,24.902,28.320,15.137,25.391,357.422,0.000,0.000,0.000
483976.038,8.301,30.273,16.602,7.324,215.820,0.000,0.000,0.000
483976.042,11.230,31.738,26.367,-8.301,-184.082,0.000,0.000,0.000
483976.046,27.344,28.320,29.785,13.672,-166.016,0.000,0.000,0.000
483976.050,29.297,25.391,23.438,42.969,211.426,0.000,0.000,0.000
483976.054,20.508,24.414,25.879,37.598,268.555,0.000,0.000,0.000
483976.058,20.020,25.879,35.156,17.578,-66.895,0.000,0.000,0.000
483976.062,26.855,25.391,33.203,21.484,-134.766,0.000,0.000,0.000
483976.066,31.250,24.414,29.297,51.758,154.297,0.000,0.000,0.000
483976.070,20.996,23.926,32.227,52.734,208.496,0.000,0.000,0.000
483976.074,8.301,21.973,37.598,16.113,-76.172,0.000,0.000,0.000
483976.077,17.578,25.391,35.156,8.301,-225.586,0.000,0.000,0.000
483976.081,18.066,19.531,25.879,35.645,44.434,0.000,0.000,0.000
483976.085,11.230,13.672,22.461,46.387,297.852,0.000,0.000,0.000
483976.089,3.906,25.391,33.691,19.531,133.789,0.000,0.000,0.000
483976.093,6.836,27.344,31.250,0.000,-127.441,0.000,0.000,0.000
483976.097,23.438,24.902,19.043,20.996,-5.371,0.000,0.000,0.000
483976.101,29.297,28.809,19.043,42.480,304.688,0.000,0.000,0.000
483976.105,20.508,34.668,18.066,24.902,198.242,0.000,0.000,0.000
483976.109,16.602,36.621,20.020,-2.930,-108.398,0.000,0.000,0.000
483976.113,26.367,34.180,20.020,8.789,-87.402,0.000,0.000,0.000
483976.117,40.527,32.715,16.602,42.969,246.094,0.000,0.000,0.000
483976.120,35.645,33.691,23.926,35.156,234.375,0.000,0.000,0.000
483976.124,21.973,34.180,32.715,0.488,-99.121,0.000,0.000,0.000
483976.128,31.738,30.762,28.320,7.812,-155.762,0.000,0.000,0.000
483976.132,44.922,32.715,23.438,45.898,153.320,0.000,0.000,0.000
483976.136,34.668,34.668,22.949,45.410,299.805,0.000,0.000,0.000
483976.140,21.973,34.668,29.785,18.066,17.578,0.000,0.000,0.000
483976.144,30.273,34.668,29.785,8.789,-154.297,0.000,0.000,0.000
483976.148,42.480,29.785,22.461,33.203,79.590,0.000,0.000,0.000
483976.152,43.945,30.273,25.391,49.316,302.734,0.000,0.000,0.000
483976.156,33.203,34.668,28.320,19.043,130.371,0.000,0.000,0.000
483976.159,33.203,36.133,29.785,-1.465,-150.879,0.000,0.000,0.000
483976.163,50.293,36.133,28.320,25.879,-25.391,0.000,0.000,0.000
483976.167,54.199,36.133,27.344,50.293,303.223,0.000,0.000,0.000
483976.171,24.902,33.691,27.344,20.996,217.285,0.000,0.000,0.000
483976.175,9.277,27.832,26.855,-15.137,-93.750,0.000,0.000,0.000
483976.179,24.902,23.926,23.926,-4.883,-102.539,0.000,0.000,0.000
483976.183,29.785,23.438,17.578,24.414,191.406,0.000,0.000,0.000
483976.187,20.020,29.785,21.484,16.602,215.820,0.000,0.000,0.000
483976.191,13.184,33.203,31.738,-8.789,-77.148,0.000,0.000,0.000
483976.195,24.902,34.668,33.203,0.000,-179.199,0.000,0.000,0.000
483976.199,36.133,35.156,31.738,35.156,65.918,0.000,0.000,0.000
483976.202,31.250,29.297,30.762,42.969,263.184,0.000,0.000,0.000
483976.206,19.531,27.832,27.344,11.719,80.078,0.000,0.000,0.000
483976.210,24.414,26.855,30.762,2.930,-99.121,0.000,0.000,0.000
483976.214,38.086,26.367,30.762,32.227,66.895,0.000,0.000,0.000
483976.218,33.691,25.391,26.367,46.387,298.340,0.000,0.000,0.000
483976.222,15.137,23.438,25.391,19.043,163.574,0.000,0.000,0.000
483976.226,15.137,29.297,34.668,-0.488,-173.340,0.000,0.000,0.000
483976.230,21.973,28.809,29.297,15.137,-83.984,0.000,0.000,0.000
483976.234,27.344,26.367,29.785,47.363,252.930,0.000,0.000,0.000
483976.238,20.996,27.832,37.109,34.668,213.867,0.000,0.000,0.000
483976.242,12.695,27.344,33.691,0.977,-96.680,0.000,0.000,0.000
483976.245,26.367,28.809,33.203,12.207,-133.789,0.000,0.000,0.000
483976.249,35.156,25.879,31.738,44.922,163.574,0.000,0.000,0.000
483976.253,31.738,21.973,32.715,46.387,256.348,0.000,0.000,0.000
483976.257,23.438,26.855,36.133,10.742,-49.316,0.000,0.000,0.000
483976.261,25.391,28.809,35.156,5.859,-125.000,0.000,0.000,0.000
483976.265,32.227,25.391,30.273,35.645,211.426,0.000,0.000,0.000
483976.269,27.832,26.367,28.320,40.527,339.844,0.000,0.000,0.000
483976.273,16.113,30.273,33.203,9.277,83.008,0.000,0.000,0.000
483976.277,21.973,31.738,33.691,-8.301,-176.758,0.000,0.000,0.000
483976.281,32.227,30.762,26.367,12.207,-48.340,0.000,0.000,0.000
483976.284,32.227,30.762,20.996,33.203,229.492,0.000,0.000,0.000
483976.288,19.043,29.297,27.344,15.625,103.516,0.000,0.000,0.000
483976.292,8.789,28.809,23.926,-13.672,-191.406,0.000,0.000,0.000
483976.296,24.414,32.227,18.066,8.789,-129.883,0.000,0.000,0.000
483976.300,34.180,32.715,30.273,46.875,218.750,0.000,0.000,0.000
483976.304,19.531,33.691,30.762,32.715,237.793,0.000,0.000,0.000
483976.308,14.160,34.668,29.297,3.418,-79.590,0.000,0.000,0.000
483976.312,30.273,32.715,31.250,12.207,-143.066,0.000,0.000,0.000
483976.316,41.504,29.297,33.691,49.805,144.531,0.000,0.000,0.000
483976.320,31.250,28.320,39.062,51.270,220.215,0.000,0.000,0.000
483976.324,17.578,29.297,40.527,17.090,-37.598,0.000,0.000,0.000
483976.327,27.832,28.320,34.668,12.695,-150.391,0.000,0.000,0.000
483976.331,37.109,26.855,27.832,40.039,41.016,0.000,0.000,0.000
483976.335,28.809,23.438,25.879,45.410,266.113,0.000,0.000,0.000
483976.339,13.672,26.855,25.879,20.020,83.008,0.000,0.000,0.000
483976.343,18.066,27.344,29.785,2.930,-207.031,0.000,0.000,0.000
483976.347,34.668,21.484,26.855,27.344,-62.012,0.000,0.000,0.000
483976.351,32.715,23.438,22.949,54.199,290.527,0.000,0.000,0.000
483976.355,15.625,23.438,22.461,31.738,234.863,0.000,0.000,0.000
483976.359,19.043,23.926,27.832,9.766,-125.000,0.000,0.000,0.000
483976.363,29.785,25.879,29.785,21.973,-189.941,0.000,0.000,0.000
483976.367,24.414,24.414,26.855,51.758,138.184,0.000,0.000,0.000
483976.370,13.184,21.484,30.273,48.340,229.980,0.000,0.000,0.000
483976.374,9.277,22.949,31.250,15.137,-118.164,0.000,0.000,0.000
483976.378,18.066,25.879,27.344,15.137,-188.965,0.000,0.000,0.000
483976.382,29.785,29.297,24.414,48.340,208.008,0.000,0.000,0.000
483976.386,31.250,35.156,27.832,56.152,392.578,0.000,0.000,0.000
483976.390,20.996,36.621,25.879,21.973,46.875,0.000,0.000,0.000
483976.394,28.320,36.621,30.273,10.742,-281.250,0.000,0.000,0.000
483976.398,41.504,35.645,29.297,41.504,-34.180,0.000,0.000,0.000
483976.402,40.039,33.203,18.066,56.641,281.738,0.000,0.000,0.000
483976.406,29.297,33.691,27.832,32.715,64.453,0.000,0.000,0.000
483976.409,26.367,36.133,32.227,10.254,-206.543,0.000,0.000,0.000
483976.413,37.598,38.574,24.902,31.738,-26.855,0.000,0.000,0.000
483976.417,43.457,38.574,28.320,61.035,267.090,0.000,0.000,0.000
483976.421,27.344,39.062,27.832,38.574,191.406,0.000,0.000,0.000
483976.425,18.555,41.992,23.926,9.277,-90.332,0.000,0.000,0.000
483976.429,34.180,40.527,31.738,26.855,-72.754,0.000,0.000,0.000
483976.433,41.016,37.109,34.668,57.129,217.285,0.000,0.000,0.000
483976.437,30.762,30.762,34.668,45.898,258.789,0.000,0.000,0.000
483976.441,18.066,28.320,39.062,14.160,-104.980,0.000,0.000,0.000
483976.445,14.160,28.809,34.668,10.742,-229.004,0.000,0.000,0.000
483976.449,26.367,26.367,30.273,39.062,88.867,0.000,0.000,0.000
483976.452,30.762,28.809,32.715,42.969,321.777,0.000,0.000,0.000
483976.456,12.207,31.738,36.133,6.836,123.535,0.000,0.000,0.000
483976.460,15.137,35.156,31.738,-4.395,-163.574,0.000,0.000,0.000
483976.464,30.762,38.086,29.785,22.461,18.066,0.000,0.000,0.000
483976.468,34.180,41.504,34.668,37.598,275.879,0.000,0.000,0.000
483976.472,17.578,40.039,38.574,4.395,120.117,0.000,0.000,0.000
483976.476,15.137,36.621,40.039,-19.043,-203.125,0.000,0.000,0.000
483976.480,27.832,33.691,33.691,1.465,-134.277,0.000,0.000,0.000
483976.484,25.391,29.297,27.344,20.508,223.145,0.000,0.000,0.000
483976.488,12.695,30.273,29.785,1.465,221.680,0.000,0.000,0.000
483976.491,11.230,32.227,29.785,-27.832,-84.473,0.000,0.000,0.000
483976.495,30.762,34.180,28.320,-14.648,-151.367,0.000,0.000,0.000
483976.499,36.133,32.715,23.926,17.090,149.414,0.000,0.000,0.000
483976.503,21.484,32.715,20.508,11.230,310.059,0.000,0.000,0.000
483976.507,9.766,36.621,29.297,-18.066,26.855,0.000,0.000,0.000
483976.511,13.672,34.180,29.785,-20.996,-138.672,0.000,0.000,0.000
483976.515,19.043,26.855,18.555,7.324,139.160,0.000,0.000,0.000
483976.519,16.602,25.391,17.090,16.602,351.074,0.000,0.000,0.000
483976.523,9.766,30.273,28.809,-7.324,78.125,0.000,0.000,0.000
483976.527,16.602,32.227,34.180,-20.996,-167.969,0.000,0.000,0.000
483976.531,31.250,32.227,33.691,3.906,40.039,0.000,0.000,0.000
483976.534,33.203,30.762,32.227,26.367,346.191,0.000,0.000,0.000
483976.538,23.438,33.203,36.621,6.836,201.660,0.000,0.000,0.000
483976.542,23.926,38.574,38.086,-14.160,-143.555,0.000,0.000,0.000
483976.546,34.180,34.180,24.414,0.000,-78.125,0.000,0.000,0.000
483976.550,39.551,30.273,18.066,30.273,254.883,0.000,0.000,0.000
483976.554,32.227,34.668,26.367,23.438,250.977,0.000,0.000,0.000
483976.558,20.508,33.203,30.762,-12.695,-73.242,0.000,0.000,0.000
483976.562,30.273,27.832,25.879,-8.301,-108.887,0.000,0.000,0.000
483976.566,45.898,33.691,27.832,32.227,211.914,0.000,0.000,0.000
483976.570,34.668,35.645,33.691,37.109,280.762,0.000,0.000,0.000
483976.574,14.648,24.902,33.691,2.930,16.113,0.000,0.000,0.000
483976.577,25.879,29.785,35.156,1.465,-167.969,0.000,0.000,0.000
483976.581,41.504,35.156,37.109,41.992,39.551,0.000,0.000,0.000
483976.585,35.156,34.180,31.738,47.852,298.340,0.000,0.000,0.000
483976.589,22.949,37.598,33.691,15.137,108.887,0.000,0.000,0.000
483976.593,23.926,37.109,30.762,3.418,-140.625,0.000,0.000,0.000
483976.597,39.062,36.133,23.438,33.203,-3.418,0.000,0.000,0.000
483976.601,43.457,38.086,26.855,57.129,242.188,0.000,0.000,0.000
483976.605,23.926,37.109,29.785,30.762,147.949,0.000,0.000,0.000
483976.609,14.160,32.715,27.832,-2.441,-148.926,0.000,0.000,0.000
483976.613,29.297,29.297,21.973,11.719,-135.742,0.000,0.000,0.000
483976.616,39.551,32.227,17.578,44.922,164.551,0.000,0.000,0.000
483976.620,26.855,32.715,23.926,36.621,197.266,0.000,0.000,0.000
483976.624,11.719,33.203,31.738,4.395,-98.145,0.000,0.000,0.000
483976.628,20.508,30.273,30.273,4.883,-235.352,0.000,0.000,0.000
483976.632,32.715,22.461,21.973,39.551,87.891,0.000,0.000,0.000
483976.636,26.855,29.297,21.973,43.945,352.539,0.000,0.000,0.000
483976.640,13.184,33.691,26.367,7.812,116.699,0.000,0.000,0.000
483976.644,21.973,30.762,26.367,4.395,-114.258,0.000,0.000,0.000
483976.648,35.645,32.715,28.320,38.574,30.273,0.000,0.000,0.000
483976.652,24.902,30.762,22.461,44.922,274.902,0.000,0.000,0.000
483976.656,6.348,24.902,22.949,14.160,104.492,0.000,0.000,0.000
483976.659,5.859,23.926,32.227,-1.953,-178.223,0.000,0.000,0.000
483976.663,16.602,24.414,23.926,21.484,-56.641,0.000,0.000,0.000
483976.667,24.902,22.461,15.625,46.387,265.137,0.000,0.000,0.000
483976.671,21.484,22.461,29.297,34.180,217.285,0.000,0.000,0.000
483976.675,22.461,28.809,36.133,9.277,-111.328,0.000,0.000,0.000
483976.679,36.133,30.762,33.203,22.461,-95.703,0.000,0.000,0.000
483976.683,43.457,28.809,29.785,53.223,190.918,0.000,0.000,0.000
483976.687,33.203,27.344,27.832,45.898,224.121,0.000,0.000,0.000
483976.691,20.508,29.297,32.715,18.066,-53.223,0.000,0.000,0.000
483976.695,29.785,33.203,29.297,20.020,-151.855,0.000,0.000,0.000
483976.699,33.691,33.203,22.461,53.223,162.598,0.000,0.000,0.000
483976.702,20.996,26.367,25.879,60.547,337.891,0.000,0.000,0.000
483976.706,8.789,25.879,32.227,30.273,29.297,0.000,0.000,0.000
483976.710,14.160,26.367,33.691,18.555,-227.051,0.000,0.000,0.000
483976.714,26.855,25.391,26.855,46.387,-41.504,0.000,0.000,0.000
483976.718,29.785,31.250,25.391,65.918,231.445,0.000,0.000,0.000
483976.722,21.484,31.250,29.297,43.457,72.754,0.000,0.000,0.000
483976.726,27.344,30.273,31.738,20.508,-199.219,0.000,0.000,0.000
483976.730,40.039,35.645,28.809,36.621,-69.824,0.000,0.000,0.000
483976.734,43.457,34.180,25.391,63.965,208.496,0.000,0.000,0.000
483976.738,35.156,31.738,27.832,46.387,136.230,0.000,0.000,0.000
483976.741,18.555,32.227,29.297,7.324,-147.949,0.000,0.000,0.000
483976.745,27.832,32.715,29.297,16.602,-159.668,0.000,0.000,0.000
483976.749,37.109,33.203,30.273,49.805,128.906,0.000,0.000,0.000
483976.753,25.879,30.273,33.203,40.039,251.953,0.000,0.000,0.000
483976.757,11.230,26.855,28.809,5.371,-44.922,0.000,0.000,0.000
483976.761,23.926,28.809,24.414,6.348,-172.852,0.000,0.000,0.000
483976.765,37.598,30.762,25.391,43.457,85.938,0.000,0.000,0.000
483976.769,36.621,31.250,28.809,56.641,274.902,0.000,0.000,0.000
483976.773,28.809,34.668,31.250,22.461,51.758,0.000,0.000,0.000
483976.777,25.391,31.738,25.879,-1.953,-183.594,0.000,0.000,0.000
483976.781,40.039,31.250,23.438,25.391,-10.742,0.000,0.000,0.000
483976.784,40.039,33.691,26.855,45.898,243.652,0.000,0.000,0.000
483976.788,17.090,30.762,25.879,17.578,100.098,0.000,0.000,0.000
483976.792,9.277,26.855,20.996,-10.742,-202.148,0.000,0.000,0.000
483976.796,19.531,28.809,18.555,1.465,-94.238,0.000,0.000,0.000
483976.800,22.461,33.203,15.137,30.273,277.832,0.000,0.000,0.000
483976.804,11.230,34.180,20.020,19.043,278.320,0.000,0.000,0.000
483976.808,5.859,32.715,23.926,-10.254,-76.660,0.000,0.000,0.000
483976.812,21.484,30.762,18.066,0.488,-141.602,0.000,0.000,0.000
483976.816,34.180,36.621,20.020,41.992,183.594,0.000,0.000,0.000
483976.820,26.855,40.527,26.367,41.504,309.082,0.000,0.000,0.000
483976.824,17.090,35.156,31.250,4.883,-9.277,0.000,0.000,0.000
483976.827,19.531,29.297,25.879,-4.883,-228.516,0.000,0.000,0.000
483976.831,21.484,28.320,22.461,22.461,83.496,0.000,0.000,0.000
483976.835,17.578,26.367,25.391,36.621,346.191,0.000,0.000,0.000
483976.839,3.906,27.344,26.855,3.418,104.004,0.000,0.000,0.000
483976.843,2.441,27.344,32.715,-15.137,-225.098,0.000,0.000,0.000
483976.847,12.695,22.461,29.297,13.184,-50.293,0.000,0.000,0.000
483976.851,20.020,27.832,27.832,42.969,304.199,0.000,0.000,0.000
483976.855,11.719,32.715,27.832,24.902,136.719,0.000,0.000,0.000
483976.859,11.230,31.738,27.832,-2.441,-171.875,0.000,0.000,0.000
483976.863,25.391,28.809,28.809,16.113,-143.066,0.000,0.000,0.000
483976.866,30.762,29.297,23.438,51.270,155.762,0.000,0.000,0.000
483976.870,20.508,28.809,25.879,41.016,207.520,0.000,0.000,0.000
483976.874,10.254,28.809,30.273,6.348,-87.891,0.000,0.000,0.000
483976.878,20.996,25.391,30.762,8.789,-103.027,0.000,0.000,0.000
483976.882,34.180,23.438,34.668,44.922,205.078,0.000,0.000,0.000
483976.886,23.926,25.391,32.227,46.875,282.227,0.000,0.000,0.000
483976.890,3.906,23.926,31.250,5.371,-21.484,0.000,0.000,0.000
483976.894,4.395,25.879,27.832,-10.254,-164.062,0.000,0.000,0.000
483976.898,19.043,29.297,23.926,21.484,68.359,0.000,0.000,0.000
483976.902,27.344,32.715,26.367,42.969,249.023,0.000,0.000,0.000
483976.906,10.742,27.832,31.738,14.648,91.797,0.000,0.000,0.000
483976.909,9.277,22.949,30.762,-7.812,-137.695,0.000,0.000,0.000
483976.913,38.086,30.762,34.180,24.902,-12.695,0.000,0.000,0.000
483976.917,43.945,34.180,31.250,49.316,266.602,0.000,0.000,0.000
483976.921,20.508,32.227,24.902,20.508,235.352,0.000,0.000,0.000
483976.925,17.090,30.273,30.762,-5.371,-35.645,0.000,0.000,0.000
483976.929,30.762,26.367,31.250,7.812,-62.500,0.000,0.000,0.000
483976.933,34.668,25.391,25.879,37.598,277.832,0.000,0.000,0.000
483976.937,26.367,27.344,26.367,36.133,286.133,0.000,0.000,0.000
483976.941,17.578,31.250,35.156,7.324,-69.336,0.000,0.000,0.000
483976.945,22.949,32.227,28.809,2.930,-177.734,0.000,0.000,0.000
483976.949,32.227,29.785,23.438,36.133,92.285,0.000,0.000,0.000
483976.952,26.367,31.250,28.809,44.922,273.926,0.000,0.000,0.000
483976.956,13.672,33.691,30.762,14.648,31.250,0.000,0.000,0.000
483976.960,29.785,34.180,35.645,8.301,-208.496,0.000,0.000,0.000
483976.964,43.457,31.738,28.320,34.668,17.090,0.000,0.000,0.000
483976.968,37.598,31.250,21.484,55.176,307.617,0.000,0.000,0.000
483976.972,30.762,33.691,32.715,42.480,145.020,0.000,0.000,0.000
483976.976,32.227,28.809,37.109,22.949,-93.750,0.000,0.000,0.000
483976.980,47.363,31.738,33.691,48.828,7.812,0.000,0.000,0.000
483976.984,49.316,37.109,27.344,77.637,279.785,0.000,0.000,0.000
483976.988,33.203,38.086,25.879,56.641,202.148,0.000,0.000,0.000
483976.991,28.320,39.062,26.367,26.367,-173.828,0.000,0.000,0.000
483976.995,39.062,39.062,28.809,34.180,-191.895,0.000,0.000,0.000
483976.999,43.457,38.086,25.879,65.918,163.086,0.000,0.000,0.000
483977.003,31.738,32.715,23.926,59.082,212.891,0.000,0.000,0.000
483977.007,22.461,33.203,27.344,23.438,-93.750,0.000,0.000,0.000
483977.011,34.180,36.133,28.320,24.902,-120.117,0.000,0.000,0.000
483977.015,43.945,30.762,24.902,58.105,136.719,0.000,0.000,0.000
483977.019,38.086,29.785,26.367,67.383,257.812,0.000,0.000,0.000
483977.023,25.879,31.738,32.227,34.668,16.113,0.000,0.000,0.000
483977.027,21.484,26.855,25.879,15.625,-184.570,0.000,0.000,0.000
483977.031,32.715,28.320,23.438,44.434,15.625,0.000,0.000,0.000
483977.034,35.645,29.297,26.367,62.012,254.883,0.000,0.000,0.000
483977.038,19.043,26.367,31.738,35.156,104.980,0.000,0.000,0.000
483977.042,10.742,25.879,32.227,9.277,-165.039,0.000,0.000,0.000
483977.046,23.438,28.320,27.344,31.250,-94.727,0.000,0.000,0.000
483977.050,35.156,28.809,27.832,67.383,216.797,0.000,0.000,0.000
483977.054,21.973,25.391,30.762,49.316,185.547,0.000,0.000,0.000
483977.058,12.207,27.344,33.691,16.113,-147.461,0.000,0.000,0.000
483977.062,25.391,21.973,32.715,28.320,-183.105,0.000,0.000,0.000
483977.066,37.109,20.020,31.738,62.500,103.516,0.000,0.000,0.000
483977.070,27.344,26.367,27.832,56.152,227.539,0.000,0.000,0.000
483977.073,20.020,32.227,34.180,25.391,-42.480,0.000,0.000,0.000
483977.077,32.227,30.273,35.156,22.949,-213.867,0.000,0.000,0.000
483977.081,36.621,24.414,23.926,49.316,59.570,0.000,0.000,0.000
483977.085,25.879,26.855,17.090,55.664,297.852,0.000,0.000,0.000
483977.089,13.184,31.738,19.043,26.367,87.891,0.000,0.000,0.000
483977.093,25.391,34.668,29.297,14.648,-209.473,0.000,0.000,0.000
483977.097,39.062,35.156,31.250,42.480,-70.801,0.000,0.000,0.000
483977.101,41.016,33.691,23.438,68.359,252.930,0.000,0.000,0.000
483977.105,27.832,29.785,27.832,46.875,163.574,0.000,0.000,0.000
483977.109,22.461,24.902,32.715,17.578,-168.945,0.000,0.000,0.000
483977.113,40.039,28.320,30.273,33.203,-161.621,0.000,0.000,0.000
483977.116,41.504,33.691,32.715,62.500,195.801,0.000,0.000,0.000
483977.120,25.879,32.227,35.156,53.223,237.793,0.000,0.000,0.000
483977.124,16.602,33.203,34.180,22.461,-73.242,0.000,0.000,0.000
483977.128,25.879,33.203,31.738,27.832,-154.785,0.000,0.000,0.000
483977.132,35.156,32.227,27.832,59.082,156.250,0.000,0.000,0.000
483977.136,28.320,30.762,28.320,58.594,313.965,0.000,0.000,0.000
483977.140,11.230,27.344,32.715,26.367,47.363,0.000,0.000,0.000
483977.144,21.484,29.297,35.156,22.949,-91.309,0.000,0.000,0.000
483977.148,41.504,31.738,33.691,58.105,154.785,0.000,0.000,0.000
483977.152,35.156,25.391,25.879,67.383,361.328,0.000,0.000,0.000
483977.156,25.879,28.809,28.320,37.598,92.285,0.000,0.000,0.000
483977.159,29.297,33.691,35.645,18.555,-225.586,0.000,0.000,0.000
483977.163,35.645,26.367,27.344,40.039,-57.129,0.000,0.000,0.000
483977.167,41.504,29.297,22.461,66.895,276.855,0.000,0.000,0.000
483977.171,29.785,33.691,33.203,51.270,218.262,0.000,0.000,0.000
483977.175,16.113,31.738,33.203,20.020,-99.609,0.000,0.000,0.000
483977.179,26.367,31.738,22.949,30.273,-145.020,0.000,0.000,0.000
483977.183,38.574,29.785,23.438,64.941,166.016,0.000,0.000,0.000
483977.187,29.297,30.273,35.645,62.988,238.770,0.000,0.000,0.000
483977.191,19.043,32.227,39.551,28.809,-122.559,0.000,0.000,0.000
483977.195,26.855,32.715,28.320,22.461,-250.000,0.000,0.000,0.000
483977.198,37.109,30.273,22.949,54.688,153.320,0.000,0.000,0.000
483977.202,33.203,28.809,26.367,60.059,384.766,0.000,0.000,0.000
483977.206,17.090,31.738,31.250,27.344,100.586,0.000,0.000,0.000
483977.210,25.879,34.180,36.621,23.926,-185.059,0.000,0.000,0.000
483977.214,35.645,30.273,29.297,50.293,-9.277,0.000,0.000,0.000
483977.218,30.273,31.250,24.902,62.012,265.625,0.000,0.000,0.000
483977.222,16.113,32.227,32.715,40.039,131.348,0.000,0.000,0.000
483977.226,13.184,31.250,37.598,20.020,-159.668,0.000,0.000,0.000
483977.230,29.297,32.227,33.691,40.527,-82.031,0.000,0.000,0.000
483977.234,34.180,34.180,32.227,66.406,256.348,0.000,0.000,0.000
483977.238,23.926,37.109,38.086,53.223,205.078,0.000,0.000,0.000
483977.241,18.555,35.645,37.109,23.438,-144.043,0.000,0.000,0.000
483977.245,28.809,33.203,30.273,25.391,-201.660,0.000,0.000,0.000
483977.249,39.551,29.785,26.367,59.570,120.605,0.000,0.000,0.000
483977.253,30.273,31.250,22.949,61.035,263.672,0.000,0.000,0.000
483977.257,18.555,29.785,31.738,28.809,-35.645,0.000,0.000,0.000
483977.261,25.391,26.367,36.133,25.391,-182.129,0.000,0.000,0.000
483977.265,33.203,31.738,28.320,55.664,102.539,0.000,0.000,0.000
483977.269,25.879,32.227,29.785,63.477,307.617,0.000,0.000,0.000
483977.273,12.695,33.203,35.645,30.762,26.855,0.000,0.000,0.000
483977.277,14.160,34.668,27.832,9.277,-228.027,0.000,0.000,0.000
483977.281,28.809,31.250,22.461,33.203,-8.789,0.000,0.000,0.000
483977.284,35.645,33.203,29.297,59.082,232.422,0.000,0.000,0.000
483977.288,25.879,37.109,41.504,41.016,117.188,0.000,0.000,0.000
483977.292,20.996,32.715,32.715,14.160,-112.305,0.000,0.000,0.000
483977.296,26.855,30.273,15.137,27.832,-20.508,0.000,0.000,0.000
483977.300,30.273,34.180,18.066,59.570,297.363,0.000,0.000,0.000
483977.304,23.926,39.551,26.367,50.293,243.164,0.000,0.000,0.000
483977.308,15.137,41.504,33.691,18.555,-130.859,0.000,0.000,0.000
483977.312,24.414,37.598,31.738,22.949,-197.266,0.000,0.000,0.000
483977.316,32.715,34.180,29.785,54.199,202.148,0.000,0.000,0.000
483977.320,20.996,34.180,33.203,50.293,398.438,0.000,0.000,0.000
483977.323,9.766,36.621,39.551,23.438,101.074,0.000,0.000,0.000
483977.327,13.672,28.809,37.109,19.043,-142.578,0.000,0.000,0.000
483977.331,27.832,22.461,32.227,45.410,27.832,0.000,0.000,0.000
483977.335,31.250,26.855,30.762,55.664,224.609,0.000,0.000,0.000
483977.339,10.742,29.297,32.715,20.996,5.371,0.000,0.000,0.000
483977.343,10.254,25.391,33.203,2.441,-234.375,0.000,0.000,0.000
483977.347,34.668,34.180,34.668,39.062,-83.008,0.000,0.000,0.000
483977.351,32.227,38.574,34.180,57.617,224.121,0.000,0.000,0.000
483977.355,13.672,34.668,37.598,33.203,155.762,0.000,0.000,0.000
483977.359,17.578,37.598,49.805,13.184,-153.809,0.000,0.000,0.000
483977.363,28.809,33.691,42.969,22.461,-103.516,0.000,0.000,0.000
483977.366,32.227,34.180,26.855,50.781,226.074,0.000,0.000,0.000
483977.370,20.020,34.668,22.461,39.551,237.305,0.000,0.000,0.000
483977.374,12.207,33.691,25.391,7.324,-82.520,0.000,0.000,0.000
483977.378,30.273,33.691,31.738,17.090,-117.676,0.000,0.000,0.000
483977.382,38.086,32.715,28.320,43.457,184.570,0.000,0.000,0.000
483977.386,27.832,32.227,24.902,41.016,272.461,0.000,0.000,0.000
483977.390,18.066,35.645,36.133,12.695,-17.090,0.000,0.000,0.000
483977.394,19.043,33.691,33.203,-2.930,-219.727,0.000,0.000,0.000
483977.398,25.391,29.785,24.902,22.461,21.484,0.000,0.000,0.000
483977.402,25.879,30.762,20.996,42.480,296.387,0.000,0.000,0.000
483977.406,14.648,31.250,25.879,17.090,114.258,4.000,1.000,45.000
483977.409,15.625,32.715,32.227,0.000,-220.215,0.000,0.000,0.000
483977.413,26.855,33.691,20.996,21.484,-96.191,0.000,0.000,0.000
483977.417,31.250,36.621,23.926,49.316,237.793,0.000,0.000,0.000
483977.421,24.414,40.527,36.133,38.086,183.594,0.000,0.000,0.000
483977.425,23.926,38.086,33.691,12.695,-124.512,0.000,0.000,0.000
483977.429,37.598,31.738,29.785,24.414,-143.555,0.000,0.000,0.000
483977.433,46.387,32.227,32.715,54.199,189.941,0.000,0.000,0.000
483977.437,30.762,31.250,28.809,41.504,245.605,0.000,0.000,0.000
483977.441,18.555,31.738,30.273,7.324,-75.195,0.000,0.000,0.000
483977.445,29.785,33.691,29.297,6.836,-168.457,0.000,0.000,0.000
483977.448,32.715,29.297,18.555,32.715,155.273,0.000,0.000,0.000
483977.452,28.809,32.715,20.508,40.039,343.262,0.000,0.000,0.000
483977.456,18.066,37.598,27.832,6.348,34.180,0.000,0.000,0.000
483977.460,13.672,31.250,22.461,-11.719,-179.688,0.000,0.000,0.000
483977.464,21.484,26.855,19.531,18.555,41.016,0.000,0.000,0.000
483977.468,22.949,31.250,23.926,40.527,293.945,0.000,0.000,0.000
483977.472,14.648,33.691,28.809,15.137,118.652,0.000,0.000,0.000
483977.476,11.719,32.715,25.879,-13.672,-168.945,0.000,0.000,0.000
483977.480,22.461,35.156,20.020,5.371,-40.039,0.000,0.000,0.000
483977.484,33.691,35.645,21.484,39.062,274.902,0.000,0.000,0.000
483977.488,27.344,34.668,21.973,26.367,177.734,0.000,0.000,0.000
483977.491,14.648,31.250,18.066,-9.766,-114.746,0.000,0.000,0.000
483977.495,29.297,27.344,22.949,3.906,-72.266,0.000,0.000,0.000
483977.499,39.062,25.391,24.902,44.434,214.844,0.000,0.000,0.000
483977.503,26.855,22.461,26.855,45.410,264.160,0.000,0.000,0.000
483977.507,17.578,22.949,32.715,15.625,-56.152,0.000,0.000,0.000
483977.511,24.414,19.531,29.785,8.789,-177.246,0.000,0.000,0.000
483977.515,34.180,15.137,20.020,39.551,96.680,0.000,0.000,0.000
483977.519,29.785,19.531,16.602,47.363,305.176,0.000,0.000,0.000
483977.523,16.602,28.320,20.996,15.625,68.848,0.000,0.000,0.000
483977.527,28.320,35.156,24.414,6.836,-204.590,0.000,0.000,0.000
483977.531,45.410,34.180,20.508,39.062,5.371,0.000,0.000,0.000
483977.534,36.133,29.297,12.695,53.711,291.992,0.000,0.000,0.000
483977.538,17.090,28.320,19.531,27.832,186.035,0.000,0.000,0.000
483977.542,19.043,27.832,31.738,10.254,-112.793,0.000,0.000,0.000
483977.546,34.180,25.391,30.273,32.227,-84.473,0.000,0.000,0.000
483977.550,35.645,22.949,28.320,57.129,241.699,0.000,0.000,0.000
483977.554,16.602,20.996,28.809,37.109,221.680,0.000,0.000,0.000
483977.558,7.324,22.461,22.949,4.883,-92.285,0.000,0.000,0.000
483977.562,20.996,22.949,20.996,9.766,-150.391,0.000,0.000,0.000
483977.566,34.668,21.973,27.832,46.387,136.230,0.000,0.000,0.000
483977.570,24.902,29.297,30.273,47.363,254.395,0.000,0.000,0.000
483977.573,11.230,37.598,29.785,11.719,-20.508,0.000,0.000,0.000
483977.577,24.902,34.180,29.297,11.719,-206.055,0.000,0.000,0.000
483977.581,36.133,28.809,22.461,41.504,55.176,0.000,0.000,0.000
483977.585,29.785,26.855,24.902,53.711,263.672,0.000,0.000,0.000
483977.589,14.160,27.344,31.738,27.344,-6.348,0.000,0.000,0.000
483977.593,17.090,28.809,28.809,8.301,-235.352,0.000,0.000,0.000
483977.597,30.762,30.762,27.832,35.156,-27.344,0.000,0.000,0.000
483977.601,32.715,31.738,28.809,56.641,215.332,0.000,0.000,0.000
483977.605,22.949,31.738,29.297,34.668,70.312,0.000,0.000,0.000
483977.609,21.484,34.180,22.461,8.789,-215.820,0.000,0.000,0.000
483977.613,39.062,30.273,18.066,23.438,-119.629,0.000,0.000,0.000
483977.616,47.852,31.738,17.090,58.594,229.980,0.000,0.000,0.000
483977.620,38.574,37.598,24.414,51.270,250.488,0.000,0.000,0.000
483977.624,28.809,35.645,32.715,17.090,-74.707,0.000,0.000,0.000
483977.628,28.320,34.180,37.109,21.973,-190.918,0.000,0.000,0.000
483977.632,32.715,32.715,34.180,55.664,111.816,0.000,0.000,0.000
483977.636,26.855,33.203,29.297,54.688,255.371,0.000,0.000,0.000
483977.640,13.672,35.156,39.062,20.996,-27.832,0.000,0.000,0.000
483977.644,14.648,30.762,37.598,10.742,-204.102,0.000,0.000,0.000
483977.648,31.250,29.785,31.250,38.574,47.363,0.000,0.000,0.000
483977.652,33.203,31.250,29.297,51.270,314.453,0.000,0.000,0.000
483977.656,12.695,28.809,25.879,20.020,116.699,0.000,0.000,0.000
483977.659,15.137,30.762,28.320,-0.977,-162.109,0.000,0.000,0.000
483977.663,33.691,33.691,31.250,24.902,-70.312,0.000,0.000,0.000
483977.667,36.621,34.180,28.809,50.293,277.344,0.000,0.000,0.000
483977.671,23.438,36.621,24.902,21.973,262.207,0.000,0.000,0.000
483977.675,18.555,39.062,28.320,-1.465,-56.641,0.000,0.000,0.000
483977.679,28.809,38.574,22.461,11.719,-12.207,0.000,0.000,0.000
483977.683,34.180,35.645,21.973,41.992,280.762,0.000,0.000,0.000
483977.687,27.344,36.133,30.273,36.621,237.305,0.000,0.000,0.000
483977.691,15.625,35.645,25.879,-2.930,-94.238,0.000,0.000,0.000
483977.695,21.484,30.273,21.973,-3.906,-221.191,0.000,0.000,0.000
483977.698,27.344,24.414,19.531,24.414,113.281,0.000,0.000,0.000
483977.702,19.043,27.344,22.461,27.344,356.445,0.000,0.000,0.000
483977.706,13.672,37.598,28.320,3.418,85.938,0.000,0.000,0.000
483977.710,25.879,39.062,29.297,-5.371,-128.418,0.000,0.000,0.000
483977.714,41.016,39.062,25.879,21.484,64.453,0.000,0.000,0.000
483977.718,36.621,37.598,19.043,39.062,284.668,0.000,0.000,0.000
483977.722,25.391,38.086,25.879,18.066,97.656,0.000,0.000,0.000
483977.726,29.297,37.598,31.738,-2.441,-169.434,0.000,0.000,0.000
483977.730,37.109,27.832,23.926,14.648,-91.797,0.000,0.000,0.000
483977.734,34.180,28.320,17.090,41.016,217.773,0.000,0.000,0.000
483977.738,20.996,33.203,20.508,26.855,175.293,0.000,0.000,0.000
483977.741,16.113,34.180,25.879,-1.465,-170.898,0.000,0.000,0.000
483977.745,26.367,34.668,23.438,3.906,-155.762,0.000,0.000,0.000
483977.749,34.668,35.645,21.973,36.133,195.801,0.000,0.000,0.000
483977.753,34.180,36.621,29.785,40.039,248.047,0.000,0.000,0.000
483977.757,29.297,38.086,40.039,12.207,-83.984,0.000,0.000,0.000
483977.761,29.785,38.574,34.180,7.812,-128.418,0.000,0.000,0.000
483977.765,39.551,37.598,33.203,45.410,147.461,0.000,0.000,0.000
483977.769,34.668,36.133,39.062,57.129,282.715,0.000,0.000,0.000
483977.773,14.648,30.762,36.621,20.508,47.852,0.000,0.000,0.000
483977.777,11.719,24.414,31.250,0.488,-191.895,0.000,0.000,0.000
483977.780,24.902,21.484,27.832,27.344,35.156,0.000,0.000,0.000
483977.784,28.320,22.461,24.902,43.945,295.410,0.000,0.000,0.000
483977.788,13.672,25.879,25.391,14.160,99.609,0.000,0.000,0.000
483977.792,11.719,30.273,28.320,-15.625,-201.660,0.000,0.000,0.000
483977.796,35.156,34.668,34.180,7.812,-102.051,0.000,0.000,0.000
483977.800,44.434,30.762,28.320,38.086,216.797,0.000,0.000,0.000
483977.804,29.297,28.320,25.879,20.996,196.289,0.000,0.000,0.000
483977.808,25.391,32.227,38.086,-4.395,-134.766,0.000,0.000,0.000
483977.812,39.062,28.809,34.180,2.441,-160.156,0.000,0.000,0.000
483977.816,47.852,27.344,21.484,35.156,154.297,0.000,0.000,0.000
483977.820,35.156,29.297,25.879,30.762,234.375,0.000,0.000,0.000
483977.823,24.902,29.785,28.809,-0.977,-53.223,0.000,0.000,0.000
483977.827,35.645,31.250,24.414,-0.977,-197.266,0.000,0.000,0.000
483977.831,42.969,29.785,27.832,31.250,67.383,0.000,0.000,0.000
483977.835,36.133,31.738,30.273,42.480,252.930,0.000,0.000,0.000
483977.839,20.020,35.645,30.273,9.277,42.480,0.000,0.000,0.000
483977.843,21.484,29.297,32.715,-12.207,-142.090,0.000,0.000,0.000
483977.847,41.016,26.855,30.762,19.043,15.625,0.000,0.000,0.000
483977.851,45.410,30.273,28.320,44.434,250.000,0.000,0.000,0.000
483977.855,26.367,32.715,29.785,17.090,169.922,0.000,0.000,0.000
483977.859,27.344,35.156,34.668,-7.324,-160.156,0.000,0.000,0.000
483977.863,45.898,36.133,35.156,8.301,-169.434,0.000,0.000,0.000
483977.866,41.992,33.203,29.297,30.762,198.730,0.000,0.000,0.000
483977.870,28.320,31.250,27.832,18.066,300.781,0.000,0.000,0.000
483977.874,24.902,31.250,29.297,-8.789,-63.477,0.000,0.000,0.000
483977.878,29.297,31.250,30.762,-4.883,-136.719,0.000,0.000,0.000
483977.882,38.086,28.320,27.832,26.367,190.430,0.000,0.000,0.000
483977.886,35.645,29.785,21.973,30.273,300.781,0.000,0.000,0.000
483977.890,23.438,37.109,26.367,1.465,27.344,0.000,0.000,0.000
483977.894,34.668,38.574,29.785,0.000,-226.074,0.000,0.000,0.000
483977.898,44.922,36.133,31.250,33.691,-21.484,0.000,0.000,0.000
483977.902,35.645,30.762,30.762,45.410,242.188,0.000,0.000,0.000
483977.905,22.949,28.809,37.598,19.531,38.086,0.000,0.000,0.000
483977.909,15.137,26.367,41.016,-3.906,-235.840,0.000,0.000,0.000
483977.913,22.949,20.996,31.250,16.113,-113.770,0.000,0.000,0.000
483977.917,33.203,20.508,33.691,48.340,173.828,0.000,0.000,0.000
483977.921,12.695,22.461,35.156,24.414,146.484,0.000,0.000,0.000
483977.925,3.418,20.508,26.855,-8.301,-106.934,0.000,0.000,0.000
483977.929,17.578,22.949,19.531,4.395,-17.578,0.000,0.000,0.000
483977.933,29.785,24.414,23.926,39.551,268.555,0.000,0.000,0.000
483977.937,23.926,20.508,31.738,38.574,265.625,0.000,0.000,0.000
483977.941,16.602,24.414,38.086,10.742,-21.973,0.000,0.000,0.000
483977.945,23.438,25.391,38.086,7.812,-137.695,0.000,0.000,0.000
483977.948,31.250,22.461,29.785,36.621,148.438,0.000,0.000,0.000
483977.952,27.344,25.879,22.461,39.062,301.270,0.000,0.000,0.000
483977.956,11.719,28.320,26.367,2.930,33.203,0.000,0.000,0.000
483977.960,18.555,25.879,30.273,-8.301,-145.020,0.000,0.000,0.000
483977.964,27.344,23.926,20.996,17.578,99.609,0.000,0.000,0.000
483977.968,29.297,27.344,21.973,37.598,365.234,0.000,0.000,0.000
483977.972,19.531,31.738,31.738,17.578,182.617,0.000,0.000,0.000
483977.976,20.020,33.691,34.668,-1.953,-166.504,0.000,0.000,0.000
483977.980,35.156,32.227,32.227,20.020,-134.277,0.000,0.000,0.000
483977.984,34.668,27.344,34.668,46.387,193.848,0.000,0.000,0.000
483977.988,23.438,30.273,39.551,28.809,222.168,0.000,0.000,0.000
483977.991,17.578,33.203,38.086,-5.371,-90.820,0.000,0.000,0.000
483977.995,27.344,26.367,35.645,1.953,-121.094,0.000,0.000,0.000
483977.999,29.785,22.949,29.297,33.203,208.496,0.000,0.000,0.000
483978.003,16.113,28.320,29.785,27.344,282.227,0.000,0.000,0.000
483978.007,10.254,31.250,37.109,0.488,-11.719,0.000,0.000,0.000
483978.011,27.832,31.738,33.691,3.906,-138.672,0.000,0.000,0.000
483978.015,39.551,32.715,25.879,31.250,142.090,0.000,0.000,0.000
483978.019,40.527,35.645,31.738,44.434,305.176,0.000,0.000,0.000
483978.023,33.203,37.109,38.086,20.508,-38.086,0.000,0.000,0.000
483978.027,34.180,31.738,40.039,3.418,-307.617,0.000,0.000,0.000
483978.030,50.293,30.762,41.992,37.598,-68.848,0.000,0.000,0.000
483978.034,46.387,26.367,33.691,54.688,244.629,0.000,0.000,0.000
483978.038,21.484,18.555,30.273,24.414,58.594,0.000,0.000,0.000
483978.042,18.066,24.414,29.297,0.488,-193.359,0.000,0.000,0.000
483978.046,29.785,32.227,28.320,14.648,-53.223,0.000,0.000,0.000
483978.050,33.203,31.738,28.320,42.480,214.844,0.000,0.000,0.000
483978.054,24.902,31.250,30.762,33.691,199.707,0.000,0.000,0.000
483978.058,17.090,30.762,34.180,3.906,-155.762,0.000,0.000,0.000
483978.062,23.926,30.273,24.414,6.836,-232.910,0.000,0.000,0.000
483978.066,34.180,30.273,23.926,38.086,122.559,0.000,0.000,0.000
483978.070,30.762,31.250,32.227,36.621,225.098,0.000,0.000,0.000
483978.073,20.508,32.227,31.738,9.277,-82.031,0.000,0.000,0.000
483978.077,28.320,34.180,33.203,7.324,-226.074,0.000,0.000,0.000
483978.081,42.480,34.668,33.691,38.086,12.695,0.000,0.000,0.000
483978.085,35.156,28.320,29.785,48.828,234.375,0.000,0.000,0.000
483978.089,17.090,26.367,33.203,15.625,15.625,0.000,0.000,0.000
483978.093,18.066,30.762,36.133,-4.395,-193.848,0.000,0.000,0.000
483978.097,32.227,32.227,34.180,25.879,57.617,0.000,0.000,0.000
483978.101,36.133,34.180,37.598,55.176,277.832,0.000,0.000,0.000
483978.105,21.484,35.645,43.457,29.785,79.102,0.000,0.000,0.000
483978.109,13.184,30.273,37.109,-3.418,-187.012,0.000,0.000,0.000
483978.113,34.668,29.785,33.691,20.996,-113.281,0.000,0.000,0.000
483978.116,49.316,36.133,34.668,57.617,183.594,0.000,0.000,0.000
483978.120,28.809,31.738,26.855,38.574,185.547,0.000,0.000,0.000
483978.124,16.113,32.227,27.344,7.812,-119.141,0.000,0.000,0.000
483978.128,35.645,34.668,35.645,16.113,-184.570,0.000,0.000,0.000
483978.132,43.945,33.691,31.738,44.922,110.840,0.000,0.000,0.000
483978.136,31.250,37.598,32.715,43.945,281.738,0.000,0.000,0.000
483978.140,16.113,31.738,33.203,9.766,20.020,0.000,0.000,0.000
483978.144,18.555,26.367,24.902,1.465,-180.176,0.000,0.000,0.000
483978.148,32.715,28.320,23.926,36.621,31.738,0.000,0.000,0.000
483978.152,34.668,32.715,24.902,51.758,270.020,0.000,0.000,0.000
483978.155,21.973,36.133,30.273,19.531,69.336,0.000,0.000,0.000
483978.159,21.973,32.227,36.621,1.953,-191.895,0.000,0.000,0.000
483978.163,37.109,30.762,29.785,27.344,-62.500,0.000,0.000,0.000
483978.167,36.621,35.645,27.344,51.270,203.125,0.000,0.000,0.000
483978.171,18.555,37.109,38.574,34.668,181.641,0.000,0.000,0.000
483978.175,13.184,29.785,39.551,3.906,-81.543,0.000,0.000,0.000
483978.179,23.438,26.367,32.227,13.184,-48.340,0.000,0.000,0.000
483978.183,29.785,30.762,23.438,41.992,313.965,0.000,0.000,0.000
483978.187,22.461,32.227,20.996,33.691,349.121,0.000,0.000,0.000
483978.191,14.160,33.691,30.762,3.906,-8.301,0.000,0.000,0.000
483978.195,26.367,31.250,31.250,7.812,-118.164,0.000,0.000,0.000
483978.198,33.203,27.344,19.531,39.062,162.598,0.000,0.000,0.000
483978.202,31.738,29.297,27.344,43.945,280.762,0.000,0.000,0.000
483978.206,17.090,29.785,36.133,10.254,13.184,0.000,0.000,0.000
483978.210,14.160,23.438,23.926,-6.348,-253.418,0.000,0.000,0.000
483978.214,30.273,22.461,21.484,27.832,-26.855,0.000,0.000,0.000
483978.218,32.227,27.832,26.855,51.270,298.340,0.000,0.000,0.000
483978.222,21.973,32.715,32.227,27.344,84.473,0.000,0.000,0.000
483978.226,14.648,28.320,30.762,-2.930,-236.816,0.000,0.000,0.000
483978.230,20.508,22.461,24.902,16.602,-114.746,0.000,0.000,0.000
483978.234,25.879,23.926,27.832,48.340,199.707,0.000,0.000,0.000
483978.238,11.719,27.344,34.668,29.297,207.031,0.000,0.000,0.000
483978.241,7.324,30.273,37.598,-1.953,-89.844,0.000,0.000,0.000
483978.245,25.391,24.414,32.715,13.184,-181.641,0.000,0.000,0.000
483978.249,32.715,24.902,26.855,50.781,112.305,0.000,0.000,0.000
483978.253,22.949,34.668,30.273,45.898,228.027,0.000,0.000,0.000
483978.257,8.789,35.156,35.156,12.207,-44.434,0.000,0.000,0.000
483978.261,9.277,28.320,27.832,8.789,-213.867,0.000,0.000,0.000
483978.265,28.320,27.344,29.297,48.828,-10.742,0.000,0.000,0.000
483978.269,34.180,31.250,37.598,67.871,218.750,0.000,0.000,0.000
483978.273,22.461,31.738,40.527,35.645,31.738,0.000,0.000,0.000
483978.277,25.391,31.738,37.598,15.625,-211.914,0.000,0.000,0.000
483978.280,41.016,31.738,34.180,41.992,-29.297,0.000,0.000,0.000
483978.284,46.875,36.621,35.645,66.895,268.555,0.000,0.000,0.000
483978.288,26.855,33.691,33.203,37.598,143.066,0.000,0.000,0.000
483978.292,27.832,27.344,30.273,12.207,-206.543,0.000,0.000,0.000
483978.296,41.992,29.297,33.691,33.691,-113.281,0.000,0.000,0.000
483978.300,40.039,27.832,28.809,57.129,228.027,0.000,0.000,0.000
483978.304,20.020,24.902,27.344,37.598,200.684,0.000,0.000,0.000
483978.308,11.230,29.785,35.156,8.789,-75.684,0.000,0.000,0.000
483978.312,25.879,33.203,33.203,18.066,-78.613,0.000,0.000,0.000
483978.316,33.203,30.273,30.273,48.340,270.020,0.000,0.000,0.000
483978.320,21.484,29.297,33.203,43.945,363.281,0.000,0.000,0.000
483978.323,6.348,27.832,35.645,11.230,-22.949,0.000,0.000,0.000
483978.327,11.230,22.461,33.691,0.488,-192.383,0.000,0.000,0.000
483978.331,24.902,24.414,28.809,31.738,91.309,0.000,0.000,0.000
483978.335,23.926,28.809,20.996,48.828,316.895,0.000,0.000,0.000
483978.339,6.836,24.902,21.484,18.066,82.520,0.000,0.000,0.000
483978.343,8.301,23.438,23.926,1.953,-219.727,0.000,0.000,0.000
483978.347,23.438,28.320,19.043,29.297,-40.527,0.000,0.000,0.000
483978.351,33.203,31.250,26.855,55.176,248.535,0.000,0.000,0.000
483978.355,20.508,23.926,28.809,34.180,153.809,0.000,0.000,0.000
483978.359,13.672,20.996,21.484,3.418,-77.637,0.000,0.000,0.000
483978.362,29.297,27.344,24.414,22.461,-49.316,0.000,0.000,0.000
483978.366,37.598,28.809,27.344,56.152,199.707,0.000,0.000,0.000
483978.370,30.762,30.273,30.273,45.898,171.875,0.000,0.000,0.000
483978.374,24.414,32.715,30.762,13.672,-154.785,0.000,0.000,0.000
483978.378,34.180,30.273,25.391,17.090,-180.664,0.000,0.000,0.000
483978.382,45.898,32.715,26.367,54.199,182.617,0.000,0.000,0.000
483978.386,41.504,34.668,30.273,58.105,340.820,0.000,0.000,0.000
483978.390,23.926,28.320,30.273,22.949,36.133,0.000,0.000,0.000
483978.394,20.508,24.902,22.461,9.277,-138.184,0.000,0.000,0.000
483978.398,32.715,28.320,20.508,40.039,141.602,0.000,0.000,0.000
483978.402,30.273,27.344,25.391,56.152,341.309,0.000,0.000,0.000
483978.405,15.625,33.203,31.250,33.691,60.547,0.000,0.000,0.000
483978.409,19.043,38.574,25.879,17.090,-226.074,0.000,0.000,0.000
483978.413,33.203,32.715,20.508,33.203,-74.707,0.000,0.000,0.000
483978.417,35.645,31.738,24.902,56.152,204.102,0.000,0.000,0.000
483978.421,20.996,32.227,30.273,35.156,162.598,0.000,0.000,0.000
483978.425,13.672,30.273,28.320,1.465,-163.574,0.000,0.000,0.000
483978.429,34.668,30.762,26.367,21.973,-162.598,0.000,0.000,0.000
483978.433,40.527,29.297,23.926,53.711,223.633,0.000,0.000,0.000
483978.437,26.855,31.738,22.949,41.504,291.016,0.000,0.000,0.000
483978.441,18.066,35.156,32.227,14.648,-52.246,0.000,0.000,0.000
483978.445,27.832,29.785,31.738,18.555,-238.770,0.000,0.000,0.000
483978.448,43.457,31.738,28.809,55.176,34.180,0.000,0.000,0.000
483978.452,31.738,36.133,27.832,54.688,246.094,0.000,0.000,0.000
483978.456,23.438,33.691,29.785,21.484,-13.672,0.000,0.000,0.000
483978.460,37.109,30.762,33.203,11.719,-243.164,0.000,0.000,0.000
483978.464,40.527,29.297,30.762,37.109,-31.738,0.000,0.000,0.000
483978.468,33.203,28.320,22.461,57.617,250.000,0.000,0.000,0.000
483978.472,25.391,33.691,28.320,39.062,115.234,0.000,0.000,0.000
483978.476,32.227,33.691,31.250,20.996,-109.375,0.000,0.000,0.000
483978.480,42.480,30.273,22.949,37.109,-39.551,0.000,0.000,0.000
483978.484,41.992,32.227,28.809,62.012,250.488,0.000,0.000,0.000
483978.487,38.086,36.133,40.527,52.246,245.117,0.000,0.000,0.000
483978.491,29.785,33.691,38.574,16.602,-40.527,0.000,0.000,0.000
483978.495,33.203,31.250,26.367,21.973,-78.125,0.000,0.000,0.000
483978.499,41.016,32.715,20.996,58.594,166.016,0.000,0.000,0.000
483978.503,30.762,32.227,34.180,54.688,245.605,0.000,0.000,0.000
483978.507,19.043,34.668,42.480,20.996,-96.680,0.000,0.000,0.000
483978.511,20.020,35.156,27.832,12.695,-210.449,0.000,0.000,0.000
483978.515,34.180,32.715,27.344,46.875,80.078,0.000,0.000,0.000
483978.519,37.109,32.227,32.715,60.547,267.090,0.000,0.000,0.000
483978.523,18.555,30.273,31.250,23.438,32.715,0.000,0.000,0.000
483978.527,21.484,29.785,31.738,9.277,-235.352,0.000,0.000,0.000
483978.530,38.086,30.273,24.902,45.410,-26.367,0.000,0.000,0.000
483978.534,36.621,24.902,24.414,65.430,235.352,0.000,0.000,0.000
483978.538,18.555,23.438,33.691,30.762,111.328,0.000,0.000,0.000
483978.542,18.555,33.203,31.738,-2.441,-158.691,0.000,0.000,0.000
483978.546,36.133,37.598,27.344,19.043,-69.336,0.000,0.000,0.000
483978.550,40.039,35.156,22.461,46.387,258.301,0.000,0.000,0.000
483978.554,25.879,35.156,17.090,28.809,225.098,0.000,0.000,0.000
483978.558,17.090,32.715,29.297,3.906,-136.230,0.000,0.000,0.000
483978.562,27.832,33.691,33.691,15.137,-187.988,0.000,0.000,0.000
483978.566,40.039,31.250,30.762,49.316,130.859,0.000,0.000,0.000
483978.570,27.832,29.297,30.273,43.945,251.465,0.000,0.000,0.000
483978.573,8.789,31.250,25.391,4.883,-8.789,0.000,0.000,0.000
483978.577,21.973,29.297,25.879,5.859,-181.641,0.000,0.000,0.000
483978.581,30.762,27.344,25.879,40.527,41.992,0.000,0.000,0.000
483978.585,21.484,28.809,23.926,48.340,249.023,0.000,0.000,0.000
483978.589,7.812,30.273,25.391,18.555,40.527,0.000,0.000,0.000
483978.593,14.648,29.297,22.949,3.906,-213.379,0.000,0.000,0.000
483978.597,35.645,33.203,24.414,30.273,-68.359,0.000,0.000,0.000
483978.601,33.691,34.180,27.344,49.316,229.004,0.000,0.000,0.000
483978.605,14.160,33.691,31.250,26.855,163.574,0.000,0.000,0.000
483978.609,18.555,37.109,41.504,5.371,-147.949,0.000,0.000,0.000
483978.612,35.156,34.180,37.109,22.461,-147.461,0.000,0.000,0.000
483978.616,30.762,25.879,23.926,46.875,192.383,0.000,0.000,0.000
483978.620,16.113,29.297,18.555,31.250,248.047,0.000,0.000,0.000
483978.624,12.207,32.227,28.320,3.418,-46.875,0.000,0.000,0.000
483978.628,26.367,27.832,27.832,10.254,-127.441,0.000,0.000,0.000
483978.632,37.598,30.273,18.555,40.527,135.254,0.000,0.000,0.000
483978.636,34.180,33.203,20.508,44.434,310.547,0.000,0.000,0.000
483978.640,22.949,33.203,28.320,16.113,65.430,0.000,0.000,0.000
483978.644,30.273,35.156,27.344,6.348,-216.797,0.000,0.000,0.000
483978.648,39.551,32.715,22.949,29.297,-1.953,0.000,0.000,0.000
483978.652,35.156,30.762,29.297,44.434,311.523,0.000,0.000,0.000
483978.655,23.926,31.738,38.086,19.043,125.977,0.000,0.000,0.000
483978.659,21.973,30.762,41.016,-2.930,-231.934,0.000,0.000,0.000
483978.663,33.691,29.297,32.227,19.531,-91.309,0.000,0.000,0.000
483978.667,41.992,30.273,34.668,50.293,255.371,0.000,0.000,0.000
483978.671,27.832,29.785,40.527,32.227,164.551,0.000,0.000,0.000
483978.675,19.043,27.344,31.738,-0.977,-195.801,0.000,0.000,0.000
483978.679,27.344,26.855,20.996,6.348,-152.832,0.000,0.000,0.000
483978.683,36.621,27.344,14.160,34.668,222.656,0.000,0.000,0.000
483978.687,32.715,29.785,23.926,35.156,242.188,0.000,0.000,0.000
483978.691,19.531,27.344,39.062,7.812,-104.980,0.000,0.000,0.000
483978.695,22.461,20.020,32.227,3.906,-172.852,0.000,0.000,0.000
483978.698,34.668,22.949,26.367,37.109,144.043,0.000,0.000,0.000
483978.702,30.273,28.320,31.250,40.039,249.512,0.000,0.000,0.000
483978.706,10.742,28.320,30.273,0.488,-29.785,0.000,0.000,0.000
483978.710,20.020,26.367,32.715,-3.906,-200.195,0.000,0.000,0.000
483978.714,37.598,24.414,31.250,31.738,42.969,0.000,0.000,0.000
483978.718,32.715,27.344,24.414,41.504,312.500,0.000,0.000,0.000
483978.722,14.160,27.344,31.250,12.207,144.531,0.000,0.000,0.000
483978.726,17.578,29.785,36.133,-3.906,-121.582,0.000,0.000,0.000
483978.730,36.621,36.133,31.738,21.973,-42.480,0.000,0.000,0.000
483978.734,33.691,30.273,25.391,40.039,217.773,0.000,0.000,0.000
483978.737,22.461,27.344,30.762,22.461,191.406,0.000,0.000,0.000
483978.741,20.508,31.738,37.109,-2.930,-90.820,0.000,0.000,0.000
483978.745,35.156,35.156,30.762,9.277,-123.047,0.000,0.000,0.000
483978.749,41.504,37.598,22.461,40.039,144.531,0.000,0.000,0.000
483978.753,31.738,41.016,23.438,36.621,226.562,0.000,0.000,0.000
483978.757,23.926,41.016,28.320,8.789,-43.457,0.000,0.000,0.000
483978.761,30.762,33.691,24.902,3.906,-146.484,0.000,0.000,0.000
483978.765,36.621,29.785,21.484,33.203,126.953,2.000,1.000,0.000
483978.769,31.250,34.180,22.949,40.527,285.645,0.000,0.000,0.000
483978.773,15.137,26.367,30.762,9.277,55.664,0.000,0.000,0.000
483978.777,18.555,21.973,32.227,-7.324,-154.785,0.000,0.000,0.000
483978.780,33.691,30.762,25.391,20.020,43.945,0.000,0.000,0.000
483978.784,31.250,30.762,19.043,39.551,300.781,0.000,0.000,0.000
483978.788,18.555,29.785,23.438,13.184,132.324,0.000,0.000,0.000
483978.792,14.648,31.250,30.273,-15.137,-232.422,0.000,0.000,0.000
483978.796,17.578,27.344,22.949,-2.930,-155.273,0.000,0.000,0.000
483978.800,21.484,30.762,21.973,27.344,229.980,0.000,0.000,0.000
483978.804,18.066,35.156,26.855,15.137,214.844,0.000,0.000,0.000
483978.808,8.301,25.391,27.344,-16.113,-126.465,0.000,0.000,0.000
483978.812,13.672,21.973,25.391,-7.324,-173.340,0.000,0.000,0.000
483978.816,25.879,24.902,24.414,27.344,187.500,0.000,0.000,0.000
483978.820,20.996,20.508,29.297,26.855,276.855,0.000,0.000,0.000
483978.823,12.207,24.414,31.250,-3.906,-37.598,0.000,0.000,0.000
483978.827,27.832,32.715,29.297,-3.906,-132.812,0.000,0.000,0.000
483978.831,45.410,32.227,24.414,31.738,154.785,0.000,0.000,0.000
483978.835,44.922,29.785,25.391,46.387,371.094,0.000,0.000,0.000
483978.839,28.809,29.785,25.391,12.695,86.426,0.000,0.000,0.000
483978.843,25.391,25.391,22.461,-7.812,-214.355,0.000,0.000,0.000
483978.847,38.574,25.391,26.367,24.414,8.789,0.000,0.000,0.000
483978.851,38.086,32.227,28.320,48.340,361.328,0.000,0.000,0.000
483978.855,18.066,36.621,34.180,20.508,213.867,0.000,0.000,0.000
483978.859,13.184,37.109,39.062,-2.930,-146.484,0.000,0.000,0.000
483978.862,26.855,32.227,30.273,13.184,-105.957,0.000,0.000,0.000
483978.866,32.715,33.203,25.879,41.504,174.805,0.000,0.000,0.000
483978.870,16.602,30.762,25.879,28.809,203.613,0.000,0.000,0.000
483978.874,7.324,27.344,26.855,-4.395,-77.148,0.000,0.000,0.000
483978.878,25.391,31.250,27.832,4.883,-171.387,0.000,0.000,0.000
483978.882,32.227,30.273,24.902,36.133,124.512,0.000,0.000,0.000
483978.886,19.043,27.344,20.020,28.809,263.672,0.000,0.000,0.000
483978.890,5.859,26.855,20.996,-2.441,30.762,0.000,0.000,0.000
483978.894,11.719,25.391,24.414,-7.324,-110.352,0.000,0.000,0.000
483978.898,31.250,29.297,30.273,32.715,116.699,0.000,0.000,0.000
483978.902,32.715,31.738,25.879,49.805,322.754,0.000,0.000,0.000
483978.905,17.578,29.297,27.832,20.996,89.844,0.000,0.000,0.000
483978.909,18.066,27.344,33.203,2.930,-160.645,0.000,0.000,0.000
483978.913,20.996,24.414,22.949,22.461,5.859,0.000,0.000,0.000
483978.917,24.414,24.902,20.020,48.340,322.266,0.000,0.000,0.000
483978.921,19.531,27.832,28.809,30.762,225.586,0.000,0.000,0.000
483978.925,10.254,26.855,34.180,-0.488,-148.438,0.000,0.000,0.000
483978.929,22.461,24.414,33.203,15.137,-144.043,0.000,0.000,0.000
483978.933,31.738,25.391,29.297,50.293,192.383,0.000,0.000,0.000
483978.937,19.531,26.855,24.414,37.109,218.262,0.000,0.000,0.000
483978.941,12.695,26.855,27.832,4.395,-124.023,0.000,0.000,0.000
483978.944,19.043,22.949,28.809,3.418,-153.320,0.000,0.000,0.000
483978.948,25.879,24.902,24.902,38.574,174.316,0.000,0.000,0.000
483978.952,20.508,28.809,23.438,45.410,254.395,0.000,0.000,0.000
483978.956,3.906,22.461,26.855,9.766,-47.852,0.000,0.000,0.000
483978.960,9.277,23.926,23.926,0.488,-256.348,0.000,0.000,0.000
483978.964,28.809,31.250,19.531,36.133,-62.988,0.000,0.000,0.000
483978.968,30.273,34.180,31.250,59.082,180.176,0.000,0.000,0.000
483978.972,10.254,36.621,36.621,27.832,37.598,0.000,0.000,0.000
483978.976,9.766,35.156,24.414,2.441,-246.582,0.000,0.000,0.000
483978.980,19.531,33.691,14.160,20.020,-146.484,0.000,0.000,0.000
483978.984,21.973,33.691,15.137,41.992,166.016,0.000,0.000,0.000
483978.987,13.672,35.156,23.438,21.973,108.887,0.000,0.000,0.000
483978.991,2.441,34.180,30.273,-12.207,-170.898,0.000,0.000,0.000
483978.995,17.578,31.250,20.996,0.977,-100.098,0.000,0.000,0.000
483978.999,29.785,30.273,12.695,36.133,226.562,0.000,0.000,0.000
483979.003,23.438,30.762,24.414,33.203,315.430,0.000,0.000,0.000
483979.007,16.602,30.762,33.203,1.953,30.273,0.000,0.000,0.000
483979.011,29.785,32.715,30.273,2.441,-100.098,0.000,0.000,0.000
483979.015,40.039,31.738,26.367,37.598,176.270,0.000,0.000,0.000
483979.019,26.855,23.926,21.484,41.504,354.004,0.000,0.000,0.000
483979.023,15.137,27.344,20.996,7.812,76.172,0.000,0.000,0.000
483979.027,26.367,31.738,23.926,-1.953,-161.621,0.000,0.000,0.000
483979.030,39.062,33.203,25.879,27.832,8.301,0.000,0.000,0.000
483979.034,38.574,40.527,32.715,50.293,227.539,0.000,0.000,0.000
483979.038,20.996,38.086,27.344,20.020,41.992,0.000,0.000,0.000
483979.042,14.648,30.273,20.508,-14.160,-253.418,0.000,0.000,0.000
483979.046,31.738,27.832,31.250,8.301,-173.340,0.000,0.000,0.000
483979.050,33.203,29.297,25.879,40.527,159.668,0.000,0.000,0.000
483979.054,22.949,34.180,19.531,32.227,158.203,0.000,0.000,0.000
483979.058,17.578,31.250,30.762,4.883,-172.363,0.000,0.000,0.000
483979.062,24.902,27.344,32.715,12.207,-200.684,0.000,0.000,0.000
483979.066,39.551,34.180,31.738,54.199,140.625,0.000,0.000,0.000
483979.069,28.320,33.203,34.180,49.805,250.000,0.000,0.000,0.000
483979.073,13.672,26.367,37.598,14.648,-63.477,0.000,0.000,0.000
483979.077,28.809,29.297,37.598,16.113,-222.168,0.000,0.000,0.000
483979.081,37.109,38.086,33.203,41.992,42.969,0.000,0.000,0.000
483979.085,30.273,38.574,32.227,48.828,300.293,0.000,0.000,0.000
483979.089,15.625,32.715,32.227,15.137,106.934,0.000,0.000,0.000
483979.093,17.090,34.668,33.691,-3.418,-142.090,0.000,0.000,0.000
483979.097,32.715,35.156,29.297,23.926,62.012,0.000,0.000,0.000
483979.101,39.062,26.367,27.832,44.434,293.945,0.000,0.000,0.000
483979.105,29.297,26.367,34.180,25.391,142.578,0.000,0.000,0.000
483979.109,32.715,31.250,37.109,3.906,-79.590,0.000,0.000,0.000
483979.112,46.875,29.785,36.621,22.461,-2.441,0.000,0.000,0.000
483979.116,46.875,30.762,38.574,57.617,286.133,0.000,0.000,0.000
483979.120,31.738,33.691,32.227,37.598,221.680,0.000,0.000,0.000
483979.124,18.555,36.133,30.762,-2.930,-115.234,0.000,0.000,0.000
483979.128,27.344,37.109,36.621,3.906,-192.871,0.000,0.000,0.000
483979.132,38.086,34.180,28.809,35.645,85.449,0.000,0.000,0.000
483979.136,25.879,29.297,20.996,33.203,224.121,0.000,0.000,0.000
483979.140,9.766,27.344,21.484,2.441,-0.977,0.000,0.000,0.000
483979.144,19.531,29.785,22.461,4.395,-128.418,0.000,0.000,0.000
483979.148,36.133,33.203,30.273,42.969,65.430,0.000,0.000,0.000
483979.152,34.668,34.668,32.227,57.617,247.559,0.000,0.000,0.000
483979.155,11.719,30.273,27.344,20.996,49.316,0.000,0.000,0.000
483979.159,8.789,20.996,28.809,-0.488,-201.660,0.000,0.000,0.000
483979.163,29.297,24.414,34.668,24.902,-78.125,0.000,0.000,0.000
483979.167,33.203,30.273,34.668,43.457,199.219,0.000,0.000,0.000
483979.171,15.137,32.227,36.133,20.020,133.789,0.000,0.000,0.000
483979.175,9.277,32.227,38.574,-7.812,-171.875,0.000,0.000,0.000
483979.179,18.555,29.297,35.156,2.930,-169.922,0.000,0.000,0.000
483979.183,30.762,26.855,32.715,39.062,163.086,0.000,0.000,0.000
483979.187,23.438,25.391,31.250,32.715,238.281,0.000,0.000,0.000
483979.191,7.324,26.855,30.273,-1.953,-33.203,0.000,0.000,0.000
483979.194,16.113,22.461,23.926,2.930,-68.848,0.000,0.000,0.000
483979.198,25.879,19.531,22.949,37.109,200.684,0.000,0.000,0.000
483979.202,14.648,22.949,29.785,38.574,333.496,0.000,0.000,0.000
483979.206,5.859,22.461,33.691,10.742,11.230,0.000,0.000,0.000
483979.210,17.578,24.414,36.133,2.930,-262.207,0.000,0.000,0.000
483979.214,20.020,27.344,30.762,21.973,-24.414,0.000,0.000,0.000
483979.218,14.648,27.344,23.926,29.785,275.391,0.000,0.000,0.000
483979.222,9.766,31.250,29.297,6.836,99.121,0.000,0.000,0.000
483979.226,16.113,32.715,32.715,-8.301,-216.797,0.000,0.000,0.000
483979.230,29.297,29.297,29.785,14.648,-64.453,0.000,0.000,0.000
483979.234,33.691,27.832,24.414,39.062,325.195,0.000,0.000,0.000
483979.237,29.297,30.762,28.320,28.809,236.328,0.000,0.000,0.000
483979.241,29.297,35.156,32.227,2.441,-99.609,0.000,0.000,0.000
483979.245,39.062,38.086,24.414,13.672,-79.590,0.000,0.000,0.000
483979.249,46.387,37.109,20.020,50.781,246.094,0.000,0.000,0.000
483979.253,38.086,33.691,17.578,41.504,258.301,0.000,0.000,0.000
483979.257,27.344,37.109,21.484,11.230,-67.383,0.000,0.000,0.000
483979.261,31.738,37.598,28.320,11.230,-197.266,0.000,0.000,0.000
483979.265,36.133,32.715,20.020,35.156,36.621,0.000,0.000,0.000
483979.269,32.227,33.203,21.973,41.016,218.262,0.000,0.000,0.000
483979.273,15.625,34.180,32.715,8.301,0.488,0.000,0.000,0.000
483979.277,13.672,34.180,29.785,-2.441,-182.617,0.000,0.000,0.000
483979.280,25.879,28.320,22.949,29.785,4.883,0.000,0.000,0.000
483979.284,23.926,23.926,20.996,42.969,229.004,0.000,0.000,0.000
483979.288,12.695,30.762,26.367,20.996,79.102,0.000,0.000,0.000
483979.292,16.602,29.785,29.785,0.000,-173.828,0.000,0.000,0.000
483979.296,34.668,28.809,26.367,24.902,-90.820,0.000,0.000,0.000
483979.300,42.480,32.715,23.438,59.570,224.609,0.000,0.000,0.000
483979.304,23.926,35.156,26.855,39.551,218.750,0.000,0.000,0.000
483979.308,13.184,36.133,33.203,8.301,-127.930,0.000,0.000,0.000
483979.312,25.879,33.691,36.621,17.090,-160.645,0.000,0.000,0.000
483979.316,34.180,27.344,31.738,48.340,141.113,0.000,0.000,0.000
483979.319,23.926,26.367,24.414,42.480,268.066,0.000,0.000,0.000
483979.323,15.625,37.109,29.297,12.207,35.156,0.000,0.000,0.000
483979.327,25.391,36.621,30.762,13.672,-158.203,0.000,0.000,0.000
483979.331,35.645,32.227,27.344,47.363,87.891,0.000,0.000,0.000
483979.335,27.832,31.250,20.996,48.340,336.426,0.000,0.000,0.000
483979.339,12.207,30.273,26.855,20.020,85.449,0.000,0.000,0.000
483979.343,21.484,30.273,36.133,12.207,-220.215,0.000,0.000,0.000
483979.347,32.227,22.949,30.273,35.156,-59.570,0.000,0.000,0.000
483979.351,35.645,21.484,28.809,57.129,221.680,0.000,0.000,0.000
483979.355,23.438,27.344,27.832,30.273,135.254,0.000,0.000,0.000
483979.359,21.973,29.785,31.738,4.395,-176.270,0.000,0.000,0.000
483979.362,36.621,30.273,33.203,23.926,-146.484,0.000,0.000,0.000
483979.366,36.133,29.297,20.996,50.781,220.215,0.000,0.000,0.000
483979.370,29.297,32.715,24.902,41.016,227.539,0.000,0.000,0.000
483979.374,27.832,32.715,32.227,12.207,-119.141,0.000,0.000,0.000
483979.378,35.156,30.273,26.855,13.672,-148.926,0.000,0.000,0.000
483979.382,41.504,33.691,19.531,44.922,159.668,0.000,0.000,0.000
483979.386,38.086,38.574,22.461,45.410,270.996,0.000,0.000,0.000
483979.390,25.879,37.598,28.320,9.766,-27.832,0.000,0.000,0.000
483979.394,35.645,41.016,27.832,8.301,-243.164,0.000,0.000,0.000
483979.398,46.875,41.504,21.973,40.527,29.785,0.000,0.000,0.000
483979.402,33.691,33.691,15.137,42.480,300.293,0.000,0.000,0.000
483979.405,23.926,37.109,25.879,13.672,67.871,0.000,0.000,0.000
483979.409,20.996,36.621,27.832,-6.836,-192.871,0.000,0.000,0.000
483979.413,24.414,32.715,20.020,14.648,9.277,0.000,0.000,0.000
483979.417,34.180,33.691,26.855,46.875,332.031,0.000,0.000,0.000
483979.421,23.926,26.367,35.645,30.762,218.262,0.000,0.000,0.000
483979.425,19.531,27.344,35.645,3.418,-98.145,0.000,0.000,0.000
483979.429,35.156,32.227,31.250,15.625,-103.027,0.000,0.000,0.000
483979.433,44.922,32.715,28.809,49.316,162.598,0.000,0.000,0.000
483979.437,28.809,32.715,27.832,41.016,209.961,0.000,0.000,0.000
483979.441,16.602,34.180,30.273,14.160,-94.238,0.000,0.000,0.000
483979.444,26.367,34.668,24.902,15.625,-185.059,0.000,0.000,0.000
483979.448,32.715,30.762,16.602,41.504,101.074,0.000,0.000,0.000
483979.452,33.203,33.203,24.902,51.270,297.852,0.000,0.000,0.000
483979.456,14.648,34.180,30.762,15.137,72.754,0.000,0.000,0.000
483979.460,14.160,27.344,23.926,2.930,-183.105,0.000,0.000,0.000
483979.464,36.133,27.344,20.508,41.504,7.812,0.000,0.000,0.000
483979.468,35.156,29.785,21.973,54.199,328.125,0.000,0.000,0.000
483979.472,19.043,31.250,31.250,29.297,157.715,0.000,0.000,0.000
483979.476,20.996,34.180,35.156,13.184,-165.527,0.000,0.000,0.000
483979.480,33.691,33.691,27.832,29.297,-56.152,0.000,0.000,0.000
483979.484,40.039,34.180,27.832,59.082,277.344,0.000,0.000,0.000
483979.487,23.438,34.668,27.344,39.551,284.180,0.000,0.000,0.000
483979.491,11.719,37.109,29.297,5.859,-11.719,0.000,0.000,0.000
483979.495,28.320,32.715,32.715,22.461,-65.918,0.000,0.000,0.000
483979.499,34.180,27.344,26.855,51.270,233.398,0.000,0.000,0.000
483979.503,18.555,31.738,23.926,41.016,271.973,0.000,0.000,0.000
483979.507,13.672,32.227,24.902,10.254,-83.496,0.000,0.000,0.000
483979.511,28.320,32.715,28.320,16.602,-217.773,0.000,0.000,0.000
483979.515,34.668,34.668,23.926,45.898,53.223,0.000,0.000,0.000
483979.519,33.691,32.715,21.484,51.758,243.164,0.000,0.000,0.000
483979.523,31.250,34.668,30.762,29.297,26.367,0.000,0.000,0.000
483979.527,32.227,34.180,30.762,13.184,-119.629,0.000,0.000,0.000
483979.530,39.062,33.691,24.902,36.621,86.426,0.000,0.000,0.000
483979.534,41.992,40.527,23.926,59.570,315.430,0.000,0.000,0.000
483979.538,26.855,39.551,31.738,34.668,85.938,0.000,0.000,0.000
483979.542,24.414,36.621,40.527,9.277,-259.277,0.000,0.000,0.000
483979.546,28.320,31.738,32.715,22.949,-60.059,0.000,0.000,0.000
483979.550,27.344,29.785,27.344,52.246,333.008,0.000,0.000,0.000
483979.554,13.184,28.809,27.832,42.969,312.500,0.000,0.000,0.000
483979.558,2.930,28.809,33.203,12.695,-21.973,0.000,0.000,0.000
483979.562,15.137,32.227,30.273,18.555,-68.359,0.000,0.000,0.000
483979.566,26.367,28.809,20.020,48.340,249.512,0.000,0.000,0.000
483979.569,24.414,31.738,28.809,51.758,337.402,0.000,0.000,0.000
483979.573,10.742,34.180,32.715,18.066,-22.461,0.000,0.000,0.000
483979.577,12.695,24.902,24.414,4.883,-238.281,0.000,0.000,0.000
483979.581,27.344,20.508,20.020,39.551,20.996,0.000,0.000,0.000
483979.585,33.203,24.902,21.973,53.223,187.500,0.000,0.000,0.000
483979.589,21.484,27.832,24.902,17.578,43.457,0.000,0.000,0.000
483979.593,19.531,32.715,29.297,1.953,-133.789,0.000,0.000,0.000
483979.597,30.762,27.832,28.320,30.762,-10.742,0.000,0.000,0.000
483979.601,31.250,22.949,22.949,53.223,240.723,0.000,0.000,0.000
483979.605,18.555,30.273,27.832,31.250,132.812,0.000,0.000,0.000
483979.609,14.648,29.785,32.715,5.859,-176.758,0.000,0.000,0.000
483979.612,30.273,29.785,32.715,24.414,-135.742,0.000,0.000,0.000
483979.616,34.180,26.855,24.414,50.781,179.199,0.000,0.000,0.000
483979.620,17.578,23.926,27.344,35.156,166.016,0.000,0.000,0.000
483979.624,6.836,28.320,33.203,-0.977,-140.625,0.000,0.000,0.000
483979.628,24.902,31.250,35.645,6.348,-229.004,0.000,0.000,0.000
483979.632,40.527,30.273,39.551,42.969,75.195,0.000,0.000,0.000
483979.636,26.855,26.367,30.762,34.180,291.016,0.000,0.000,0.000
483979.640,10.742,26.367,25.391,0.000,53.711,0.000,0.000,0.000
483979.644,18.555,26.367,30.762,-2.441,-131.348,0.000,0.000,0.000
483979.648,30.273,26.855,33.203,28.809,58.594,0.000,0.000,0.000
483979.651,22.949,28.809,28.320,40.039,284.668,0.000,0.000,0.000
483979.655,14.160,33.203,33.203,14.160,57.129,0.000,0.000,0.000
483979.659,17.090,31.738,31.738,-3.418,-238.770,0.000,0.000,0.000
483979.663,25.879,29.297,22.949,16.602,-22.461,0.000,0.000,0.000
483979.667,28.809,34.668,23.926,43.945,326.660,0.000,0.000,0.000
483979.671,16.602,35.645,25.879,27.344,192.871,0.000,0.000,0.000
483979.675,15.625,30.273,27.832,1.465,-172.852,0.000,0.000,0.000
483979.679,31.250,31.738,31.738,19.531,-135.742,0.000,0.000,0.000
483979.683,41.016,34.180,32.227,50.781,253.418,0.000,0.000,0.000
483979.687,33.691,31.250,27.832,39.062,298.340,0.000,0.000,0.000
483979.691,21.973,28.809,25.879,5.859,-75.195,0.000,0.000,0.000
483979.694,27.344,22.949,21.973,1.953,-200.195,0.000,0.000,0.000
483979.698,35.156,21.484,16.602,38.086,91.797,0.000,0.000,0.000
483979.702,31.738,29.297,19.043,51.758,236.816,0.000,0.000,0.000
483979.706,22.461,36.621,30.273,18.555,-27.344,0.000,0.000,0.000
483979.710,23.438,34.668,35.645,7.812,-211.914,0.000,0.000,0.000
483979.714,31.250,30.762,26.855,34.668,10.254,0.000,0.000,0.000
483979.718,28.809,33.203,21.484,51.758,288.086,0.000,0.000,0.000
483979.722,12.695,33.691,23.926,23.438,129.395,0.000,0.000,0.000
483979.726,14.160,30.273,24.902,-2.930,-143.066,0.000,0.000,0.000
483979.730,26.855,29.785,19.531,17.578,25.879,0.000,0.000,0.000
483979.734,30.273,33.691,24.902,47.363,330.078,0.000,0.000,0.000
483979.737,16.602,34.180,32.715,30.762,237.793,0.000,0.000,0.000
483979.741,3.906,30.762,27.344,-3.418,-61.523,0.000,0.000,0.000
483979.745,13.672,28.809,25.879,7.812,-106.934,0.000,0.000,0.000
483979.749,26.855,33.691,30.762,44.922,193.359,0.000,0.000,0.000
483979.753,17.090,37.109,27.832,39.062,272.949,0.000,0.000,0.000
483979.757,-0.977,35.156,19.043,0.000,-79.102,0.000,0.000,0.000
483979.761,15.625,34.180,23.926,2.930,-197.754,0.000,0.000,0.000
483979.765,31.738,34.180,25.879,39.551,78.613,0.000,0.000,0.000
483979.769,27.344,33.691,29.785,50.293,269.043,0.000,0.000,0.000
483979.773,16.602,32.715,37.109,22.949,30.273,0.000,0.000,0.000
483979.776,24.902,36.621,37.598,16.113,-217.773,0.000,0.000,0.000
483979.780,41.504,36.621,41.016,52.246,-41.992,0.000,0.000,0.000
483979.784,29.297,28.320,32.227,62.500,238.770,0.000,0.000,0.000
483979.788,10.742,26.855,26.855,34.180,125.000,0.000,0.000,0.000
483979.792,14.648,24.414,30.273,13.184,-201.172,0.000,0.000,0.000
483979.796,27.344,29.297,29.785,30.273,-131.348,0.000,0.000,0.000
483979.800,33.203,36.133,25.879,57.129,216.309,0.000,0.000,0.000
483979.804,20.508,35.156,25.879,38.574,195.801,0.000,0.000,0.000
483979.808,16.602,32.227,32.227,7.324,-155.762,0.000,0.000,0.000
483979.812,27.832,32.227,27.832,16.113,-218.262,0.000,0.000,0.000
483979.816,32.227,28.320,18.555,48.828,112.305,0.000,0.000,0.000
483979.819,28.809,29.297,23.438,47.363,184.082,0.000,0.000,0.000
483979.823,21.973,34.180,35.645,17.578,-115.234,0.000,0.000,0.000
483979.827,31.250,28.809,34.180,12.695,-241.211,0.000,0.000,0.000
483979.831,39.062,23.926,27.832,44.922,55.664,0.000,0.000,0.000
483979.835,32.715,27.344,24.902,59.570,298.828,0.000,0.000,0.000
483979.839,22.949,31.250,28.809,31.738,48.340,0.000,0.000,0.000
483979.843,29.297,30.273,33.203,14.648,-239.746,0.000,0.000,0.000
483979.847,41.992,37.109,28.809,37.598,-44.922,0.000,0.000,0.000
483979.851,41.504,40.039,28.320,57.617,284.668,0.000,0.000,0.000
483979.855,25.879,31.738,25.879,28.809,149.414,0.000,0.000,0.000
483979.859,21.973,28.320,27.832,-1.465,-157.715,0.000,0.000,0.000
483979.862,32.715,29.785,29.297,17.090,-95.703,0.000,0.000,0.000
483979.866,40.039,29.785,20.508,52.246,210.938,0.000,0.000,0.000
483979.870,30.762,32.227,25.391,41.992,234.863,0.000,0.000,0.000
483979.874,17.578,30.762,34.180,5.859,-83.496,0.000,0.000,0.000
483979.878,26.367,27.344,30.273,10.254,-168.945,0.000,0.000,0.000
483979.882,39.062,28.809,30.762,51.270,150.391,0.000,0.000,0.000
483979.886,32.227,30.273,34.668,58.594,289.062,0.000,0.000,0.000
483979.890,17.578,27.832,36.133,20.996,24.414,0.000,0.000,0.000
483979.894,24.414,28.320,37.598,8.789,-146.973,0.000,0.000,0.000
483979.898,38.574,33.203,34.668,41.504,57.617,0.000,0.000,0.000
483979.901,30.762,28.809,28.809,53.223,283.691,0.000,0.000,0.000
483979.905,15.137,29.297,36.621,23.926,111.816,0.000,0.000,0.000
483979.909,18.066,30.762,29.785,5.371,-149.902,0.000,0.000,0.000
483979.913,30.762,25.879,19.043,29.297,-4.395,0.000,0.000,0.000
483979.917,36.621,25.879,28.809,53.223,264.160,0.000,0.000,0.000
483979.921,18.066,26.367,34.180,31.250,162.598,0.000,0.000,0.000
483979.925,9.766,27.832,26.367,5.371,-136.230,0.000,0.000,0.000
483979.929,23.926,25.391,22.461,20.508,-115.234,0.000,0.000,0.000
483979.933,31.738,24.902,30.273,56.152,227.539,0.000,0.000,0.000
483979.937,21.484,26.367,29.297,47.852,255.371,0.000,0.000,0.000
483979.941,10.254,22.949,28.320,13.672,-101.562,0.000,0.000,0.000
483979.944,20.020,20.508,32.715,19.531,-233.398,0.000,0.000,0.000
483979.948,28.809,21.973,25.391,50.781,108.887,0.000,0.000,0.000
483979.952,25.879,28.320,23.438,58.594,308.594,0.000,0.000,0.000
483979.956,12.695,29.785,34.180,28.809,-36.621,0.000,0.000,0.000
483979.960,20.996,29.297,35.156,17.578,-263.672,0.000,0.000,0.000
483979.964,36.621,32.227,31.738,53.223,50.781,0.000,0.000,0.000
483979.968,27.832,32.715,30.762,66.406,282.715,0.000,0.000,0.000
483979.972,13.672,32.715,30.762,34.180,92.773,0.000,0.000,0.000
483979.976,19.531,33.691,36.621,16.602,-174.316,0.000,0.000,0.000
483979.980,29.785,32.715,35.645,42.480,-55.176,0.000,0.000,0.000
483979.984,34.668,33.691,28.809,70.312,324.219,0.000,0.000,0.000
483979.987,27.832,34.668,30.762,55.176,231.934,0.000,0.000,0.000
483979.991,22.461,29.297,42.969,23.438,-168.945,0.000,0.000,0.000
483979.995,31.250,23.438,35.156,29.785,-190.918,0.000,0.000,0.000
483979.999,36.621,27.344,29.785,62.988,136.230,0.000,0.000,0.000
483980.003,27.832,29.785,38.574,54.688,205.566,0.000,0.000,0.000
483980.007,17.578,28.320,41.992,13.672,-115.234,0.000,0.000,0.000
483980.011,17.578,20.996,29.785,3.906,-205.566,0.000,0.000,0.000
483980.015,26.855,17.578,25.391,37.598,108.398,0.000,0.000,0.000
483980.019,29.785,20.508,36.133,47.852,267.090,0.000,0.000,0.000
483980.023,22.461,24.414,42.480,17.578,14.648,0.000,0.000,0.000
483980.026,29.785,26.855,40.527,9.277,-208.008,0.000,0.000,0.000
483980.030,40.039,22.949,25.879,37.598,-24.902,0.000,0.000,0.000
483980.034,40.039,22.461,23.438,55.664,273.438,0.000,0.000,0.000
483980.038,20.996,24.414,28.809,23.438,174.805,0.000,0.000,0.000
483980.042,21.973,27.832,29.785,2.441,-144.531,0.000,0.000,0.000
483980.046,38.086,27.832,30.273,26.367,-98.145,0.000,0.000,0.000
483980.050,40.039,24.414,29.297,52.246,213.379,0.000,0.000,0.000
483980.054,25.879,25.391,26.367,38.086,185.059,0.000,0.000,0.000
483980.058,20.996,30.273,34.180,10.254,-130.371,0.000,0.000,0.000
483980.062,33.203,28.320,30.762,19.531,-122.559,0.000,0.000,0.000
483980.066,41.504,23.438,20.996,52.734,195.801,0.000,0.000,0.000
483980.069,27.832,21.484,19.043,44.922,259.766,0.000,0.000,0.000
483980.073,12.207,24.414,23.438,7.812,-39.551,0.000,0.000,0.000
483980.077,24.902,20.020,26.367,9.277,-162.598,0.000,0.000,0.000
483980.081,36.621,20.020,21.973,45.898,172.363,0.000,0.000,0.000
483980.085,34.180,26.855,25.391,57.617,340.332,0.000,0.000,0.000
483980.089,24.414,23.926,29.785,25.391,71.289,0.000,0.000,0.000
483980.093,29.785,28.320,31.250,8.301,-118.164,0.000,0.000,0.000
483980.097,43.945,28.320,29.785,37.598,74.707,0.000,0.000,0.000
483980.101,49.805,28.809,27.344,62.988,352.051,0.000,0.000,0.000
483980.105,25.879,28.809,30.273,32.715,174.316,0.000,0.000,0.000
483980.109,17.578,25.391,34.180,7.812,-197.754,0.000,0.000,0.000
483980.112,35.645,22.461,31.250,26.367,-154.297,0.000,0.000,0.000
483980.116,29.785,19.043,22.461,44.434,226.562,0.000,0.000,0.000
483980.120,23.926,18.555,25.879,34.668,196.777,0.000,0.000,0.000
483980.124,21.973,19.043,35.156,8.789,-131.836,0.000,0.000,0.000
483980.128,32.227,24.902,33.203,17.578,-162.598,0.000,0.000,0.000
483980.132,42.480,27.344,30.762,51.758,134.766,0.000,0.000,0.000
483980.136,30.762,23.438,32.715,52.246,247.070,0.000,0.000,0.000
483980.140,19.043,23.926,32.715,21.484,-79.590,0.000,0.000,0.000
483980.144,24.414,26.855,26.855,7.812,-200.195,0.000,0.000,0.000
483980.148,30.762,24.902,21.973,34.180,138.672,0.000,0.000,0.000
483980.151,22.461,25.391,20.996,46.875,399.902,0.000,0.000,0.000
483980.155,17.090,26.367,34.180,22.949,180.664,0.000,0.000,0.000
483980.159,24.902,21.484,31.738,5.371,-178.711,0.000,0.000,0.000
483980.163,35.156,19.043,19.043,30.273,-59.570,0.000,0.000,0.000
483980.167,44.434,21.484,30.273,65.430,226.074,0.000,0.000,0.000
483980.171,33.691,19.531,38.086,43.457,66.406,0.000,0.000,0.000
483980.175,23.926,22.461,31.738,7.812,-227.051,0.000,0.000,0.000
483980.179,34.668,26.367,25.879,20.020,-149.902,0.000,0.000,0.000
483980.183,42.480,26.855,23.438,53.223,176.758,0.000,0.000,0.000
483980.187,27.832,30.762,27.832,42.969,226.074,0.000,0.000,0.000
483980.191,16.602,29.297,28.320,5.859,-75.195,0.000,0.000,0.000
483980.194,32.227,27.344,26.367,10.254,-195.312,0.000,0.000,0.000
483980.198,42.480,33.691,30.273,44.922,83.496,0.000,0.000,0.000
483980.202,32.715,34.180,28.809,46.875,264.160,0.000,0.000,0.000
483980.206,18.555,30.273,34.668,14.160,-23.926,0.000,0.000,0.000
483980.210,24.902,26.367,35.156,2.441,-219.238,0.000,0.000,0.000
483980.214,43.945,25.391,23.438,38.574,5.859,0.000,0.000,0.000
483980.218,43.457,27.344,24.902,59.570,209.961,0.000,0.000,0.000
483980.222,15.137,30.762,28.320,20.996,18.066,0.000,0.000,0.000
483980.226,12.207,29.785,27.344,-5.859,-242.188,0.000,0.000,0.000
483980.230,27.832,24.414,26.855,20.508,-88.867,0.000,0.000,0.000
483980.233,30.273,23.438,24.902,45.898,226.562,0.000,0.000,0.000
483980.237,19.043,27.344,27.832,27.832,176.270,0.000,0.000,0.000
483980.241,12.207,24.902,33.691,1.953,-135.254,0.000,0.000,0.000
483980.245,20.508,22.949,27.832,7.812,-145.020,0.000,0.000,0.000
483980.249,26.367,25.879,19.043,38.086,136.230,0.000,0.000,0.000
483980.253,17.090,27.832,25.879,37.109,209.961,0.000,0.000,0.000
483980.257,8.301,29.297,30.273,4.883,-59.570,0.000,0.000,0.000
483980.261,20.996,27.832,30.273,4.883,-184.570,0.000,0.000,0.000
483980.265,28.320,22.949,31.250,32.227,133.301,0.000,0.000,0.000
483980.269,24.414,20.996,28.320,39.062,313.965,0.000,0.000,0.000
483980.273,10.254,22.949,29.785,7.324,29.785,0.000,0.000,0.000
483980.276,9.277,20.508,28.809,-7.812,-175.293,0.000,0.000,0.000
483980.280,26.855,21.973,24.902,24.414,56.641,0.000,0.000,0.000
483980.284,26.367,22.461,23.438,46.875,323.242,0.000,0.000,0.000
483980.288,14.648,24.414,30.762,22.461,135.742,0.000,0.000,0.000
483980.292,16.113,22.461,37.598,-0.488,-208.496,4.000,1.000,0.000
483980.296,25.391,20.508,31.738,21.484,-83.984,0.000,0.000,0.000
483980.300,29.297,25.391,20.508,48.340,258.789,0.000,0.000,0.000
483980.304,19.531,27.832,24.414,32.715,222.168,0.000,0.000,0.000
483980.308,16.602,31.738,36.621,5.859,-93.262,0.000,0.000,0.000
483980.312,27.344,30.273,31.738,14.648,-125.977,0.000,0.000,0.000
483980.316,34.668,28.809,22.949,48.340,184.082,0.000,0.000,0.000
483980.319,26.367,31.250,26.367,47.852,284.180,0.000,0.000,0.000
483980.323,16.113,32.715,32.227,16.113,-4.883,0.000,0.000,0.000
483980.327,20.996,30.762,28.320,5.859,-166.016,0.000,0.000,0.000
483980.331,32.715,30.762,23.926,36.133,78.125,0.000,0.000,0.000
483980.335,39.551,31.738,30.762,53.711,252.930,0.000,0.000,0.000
483980.339,28.320,31.250,33.691,21.973,45.898,0.000,0.000,0.000
483980.343,33.203,35.156,32.227,7.324,-153.320,0.000,0.000,0.000
483980.347,45.898,33.691,35.645,36.621,14.160,0.000,0.000,0.000
483980.351,43.457,29.297,33.203,58.594,296.875,0.000,0.000,0.000
483980.355,30.273,29.785,26.855,36.133,162.109,0.000,0.000,0.000
483980.358,24.902,32.227,24.414,4.883,-120.605,0.000,0.000,0.000
483980.362,35.645,30.273,19.531,21.973,-6.836,0.000,0.000,0.000
483980.366,41.992,28.320,20.020,49.316,297.363,0.000,0.000,0.000
483980.370,28.320,29.785,24.902,29.297,335.938,0.000,0.000,0.000
483980.374,20.508,30.762,28.320,0.977,15.625,0.000,0.000,0.000
483980.378,39.062,31.738,28.320,15.137,-125.977,0.000,0.000,0.000
483980.382,44.922,25.879,23.926,47.852,136.719,0.000,0.000,0.000
483980.386,33.203,28.809,27.344,46.387,240.723,0.000,0.000,0.000
483980.390,24.902,37.109,33.203,17.090,-36.133,0.000,0.000,0.000
483980.394,32.227,30.762,21.973,11.719,-198.730,0.000,0.000,0.000
483980.398,46.875,28.320,24.902,46.387,35.156,0.000,0.000,0.000
483980.401,37.598,30.762,31.738,56.641,279.785,0.000,0.000,0.000
483980.405,19.531,32.715,28.320,25.391,84.473,0.000,0.000,0.000
483980.409,23.926,31.738,32.227,9.766,-145.020,0.000,0.000,0.000
483980.413,33.691,29.297,30.762,30.762,6.348,0.000,0.000,0.000
483980.417,33.691,31.250,22.949,53.711,271.484,0.000,0.000,0.000
483980.421,19.531,33.203,27.832,32.715,168.457,0.000,0.000,0.000
483980.425,13.184,30.762,35.156,3.906,-146.484,0.000,0.000,0.000
483980.429,24.902,25.391,25.879,18.555,-156.250,0.000,0.000,0.000
483980.433,31.250,26.367,20.996,46.875,147.461,0.000,0.000,0.000
483980.437,23.926,29.297,28.809,40.039,194.336,0.000,0.000,0.000
483980.441,14.648,28.809,32.715,13.672,-107.910,0.000,0.000,0.000
483980.444,20.508,28.320,33.691,13.184,-201.660,0.000,0.000,0.000
483980.448,25.391,24.902,26.855,41.992,105.469,0.000,0.000,0.000
483980.452,13.184,22.949,20.996,41.504,266.602,0.000,0.000,0.000
483980.456,3.418,26.367,31.250,10.742,-20.020,0.000,0.000,0.000
483980.460,14.648,31.250,36.133,6.836,-211.426,0.000,0.000,0.000
483980.464,30.273,32.227,29.297,37.598,26.855,0.000,0.000,0.000
483980.468,31.738,32.227,26.855,56.152,283.691,0.000,0.000,0.000
483980.472,20.996,27.832,32.715,29.785,115.723,0.000,0.000,0.000
483980.476,18.555,29.785,36.133,7.324,-116.211,0.000,0.000,0.000
483980.480,29.297,31.738,36.621,31.250,39.062,0.000,0.000,0.000
483980.483,36.621,33.203,35.645,58.105,279.785,0.000,0.000,0.000
483980.487,21.973,34.668,34.180,33.691,197.266,0.000,0.000,0.000
483980.491,13.184,32.227,30.762,3.418,-79.590,0.000,0.000,0.000
483980.495,26.855,29.785,29.297,17.578,-135.742,0.000,0.000,0.000
483980.499,37.598,28.809,27.832,48.828,145.996,0.000,0.000,0.000
483980.503,25.879,29.297,27.344,42.969,217.285,0.000,0.000,0.000
483980.507,12.207,24.902,35.645,10.742,-103.027,0.000,0.000,0.000
483980.511,24.414,28.809,37.598,6.348,-247.070,0.000,0.000,0.000
483980.515,33.691,29.785,35.156,35.156,49.805,0.000,0.000,0.000
483980.519,27.344,27.832,34.668,42.480,267.578,0.000,0.000,0.000
483980.523,12.207,33.203,35.645,9.766,47.852,0.000,0.000,0.000
483980.526,17.090,34.180,36.621,-1.465,-169.434,0.000,0.000,0.000
483980.530,33.203,33.203,34.668,26.367,-25.391,0.000,0.000,0.000
483980.534,24.414,30.762,24.414,33.691,231.445,0.000,0.000,0.000
483980.538,5.371,29.297,23.438,5.859,130.371,0.000,0.000,0.000
483980.542,14.648,35.156,35.645,-9.766,-190.430,0.000,0.000,0.000
483980.546,29.297,38.086,32.715,8.789,-155.762,0.000,0.000,0.000
483980.550,30.273,35.645,24.902,32.227,163.086,0.000,0.000,0.000
483980.554,21.973,33.203,22.949,15.137,146.973,0.000,0.000,0.000
483980.558,20.020,32.227,25.879,-11.230,-187.500,0.000,0.000,0.000
483980.562,33.691,30.273,24.414,-0.488,-230.469,0.000,0.000,0.000
483980.566,44.922,33.203,24.414,32.715,101.074,0.000,0.000,0.000
483980.569,39.062,37.598,32.227,28.809,211.426,0.000,0.000,0.000
483980.573,27.832,36.621,33.691,-5.859,-53.223,0.000,0.000,0.000
483980.577,32.227,37.598,28.320,-15.137,-174.316,0.000,0.000,0.000
483980.581,36.133,37.598,21.484,13.184,123.047,0.000,0.000,0.000
483980.585,34.180,34.668,20.508,32.227,326.172,0.000,0.000,0.000
483980.589,20.508,34.668,20.996,0.977,41.016,0.000,0.000,0.000
483980.593,21.973,38.086,21.973,-18.555,-223.633,0.000,0.000,0.000
483980.597,39.062,39.551,24.414,13.184,-39.062,0.000,0.000,0.000
483980.601,39.062,38.574,26.367,36.621,274.414,0.000,0.000,0.000
483980.605,25.391,36.621,32.715,15.625,141.113,0.000,0.000,0.000
483980.608,20.508,29.785,31.738,-11.719,-185.059,0.000,0.000,0.000
483980.612,32.715,28.320,28.809,7.324,-119.629,0.000,0.000,0.000
483980.616,36.621,29.297,29.785,41.992,206.055,0.000,0.000,0.000
483980.620,26.367,32.715,31.738,28.809,144.531,0.000,0.000,0.000
483980.624,12.695,32.715,29.297,-9.277,-190.918,0.000,0.000,0.000
483980.628,16.113,26.855,25.391,-7.324,-195.312,0.000,0.000,0.000
483980.632,35.645,29.297,29.785,31.250,137.695,0.000,0.000,0.000
483980.636,34.668,32.715,31.250,36.621,236.816,0.000,0.000,0.000
483980.640,17.578,33.203,30.762,-2.441,-51.758,0.000,0.000,0.000
483980.644,24.414,33.203,34.668,-10.254,-143.066,0.000,0.000,0.000
483980.648,41.504,32.715,29.785,28.320,87.402,0.000,0.000,0.000
483980.651,36.621,33.203,20.996,39.551,260.254,0.000,0.000,0.000
483980.655,18.066,27.344,23.926,4.883,58.105,0.000,0.000,0.000
483980.659,23.438,23.438,32.715,-8.789,-228.027,0.000,0.000,0.000
483980.663,35.645,24.414,32.715,19.043,-72.754,0.000,0.000,0.000
483980.667,31.738,25.391,30.762,40.039,249.023,0.000,0.000,0.000
483980.671,16.113,29.785,35.156,15.625,166.016,0.000,0.000,0.000
483980.675,13.672,33.691,39.062,-7.812,-105.469,0.000,0.000,0.000
483980.679,31.250,35.645,39.551,14.160,-72.266,0.000,0.000,0.000
483980.683,41.992,36.621,34.180,50.781,217.285,0.000,0.000,0.000
483980.687,32.227,29.297,30.273,40.527,225.586,0.000,0.000,0.000
483980.691,25.879,26.855,32.227,9.277,-123.535,0.000,0.000,0.000
483980.694,35.645,28.809,28.320,13.672,-223.145,0.000,0.000,0.000
483980.698,41.992,27.832,25.879,46.875,112.793,0.000,0.000,0.000
483980.702,31.738,25.879,32.715,50.293,243.164,0.000,0.000,0.000
483980.706,19.043,27.832,40.527,17.578,-70.801,0.000,0.000,0.000
483980.710,27.832,30.273,35.156,5.371,-256.836,0.000,0.000,0.000
483980.714,33.203,27.344,33.691,28.320,-10.254,0.000,0.000,0.000
483980.718,24.414,28.809,32.227,42.969,299.316,0.000,0.000,0.000
483980.722,14.160,32.227,25.879,20.020,107.910,0.000,0.000,0.000
483980.726,21.484,30.762,33.691,2.930,-231.934,0.000,0.000,0.000
483980.730,38.574,29.297,41.016,26.855,-84.473,0.000,0.000,0.000
483980.733,36.133,29.785,34.180,50.781,257.324,0.000,0.000,0.000
483980.737,22.461,30.762,34.180,31.250,166.016,0.000,0.000,0.000
483980.741,15.137,30.273,42.480,3.418,-183.105,0.000,0.000,0.000
483980.745,27.832,31.250,36.133,10.742,-164.062,0.000,0.000,0.000
483980.749,33.203,30.762,27.832,38.086,189.453,0.000,0.000,0.000
483980.753,17.578,28.809,36.133,34.180,248.535,0.000,0.000,0.000
483980.757,8.789,30.762,41.504,0.488,-70.312,0.000,0.000,0.000
483980.761,10.742,29.297,25.879,-10.254,-138.184,0.000,0.000,0.000
483980.765,20.996,23.438,19.531,26.367,213.379,0.000,0.000,0.000
483980.769,22.461,24.902,26.855,38.574,373.047,0.000,0.000,0.000
483980.773,10.254,30.762,31.738,2.441,52.734,0.000,0.000,0.000
483980.776,14.160,30.762,25.391,-8.789,-156.738,0.000,0.000,0.000
483980.780,31.250,31.738,22.461,28.320,55.176,0.000,0.000,0.000
483980.784,35.645,33.203,28.320,49.316,316.406,0.000,0.000,0.000
483980.788,21.484,32.715,28.320,23.926,217.773,0.000,0.000,0.000
483980.792,22.461,32.715,29.297,0.488,-20.020,0.000,0.000,0.000
483980.796,32.715,29.785,29.785,14.160,6.348,0.000,0.000,0.000
483980.800,38.574,29.785,28.809,41.992,228.027,0.000,0.000,0.000
483980.804,30.762,31.250,28.809,28.320,198.242,0.000,0.000,0.000
483980.808,22.949,27.832,27.344,-3.906,-144.043,0.000,0.000,0.000
483980.812,34.668,24.902,24.902,4.395,-188.477,0.000,0.000,0.000
483980.815,45.898,28.320,27.832,40.039,127.441,0.000,0.000,0.000
483980.819,44.434,32.227,37.109,42.969,191.406,0.000,0.000,0.000
483980.823,28.320,30.273,35.156,7.324,-56.641,0.000,0.000,0.000
483980.827,33.691,32.227,30.273,2.930,-146.973,0.000,0.000,0.000
483980.831,44.922,33.203,27.344,37.598,98.633,0.000,0.000,0.000
483980.835,36.133,35.156,26.855,46.875,279.297,0.000,0.000,0.000
483980.839,24.902,37.598,31.738,14.648,71.777,0.000,0.000,0.000
483980.843,23.438,28.809,28.809,-2.930,-196.777,0.000,0.000,0.000
483980.847,36.621,29.785,26.855,30.273,-55.664,0.000,0.000,0.000
483980.851,39.062,33.691,21.484,47.852,258.789,0.000,0.000,0.000
483980.855,16.602,28.809,27.344,19.531,150.391,0.000,0.000,0.000
483980.858,19.043,29.297,38.086,1.953,-200.195,0.000,0.000,0.000
483980.862,36.621,31.738,33.203,19.531,-95.215,0.000,0.000,0.000
483980.866,33.691,29.297,28.320,43.945,287.109,0.000,0.000,0.000
483980.870,23.926,33.691,31.738,34.668,299.805,0.000,0.000,0.000
483980.874,20.020,34.668,42.480,9.277,-19.043,0.000,0.000,0.000
483980.878,29.785,29.297,38.574,11.719,-81.543,0.000,0.000,0.000
483980.882,36.621,31.250,26.367,40.039,254.395,0.000,0.000,0.000
483980.886,26.367,32.715,27.832,38.574,299.805,0.000,0.000,0.000
483980.890,13.184,30.273,27.832,2.441,-83.496,0.000,0.000,0.000
483980.894,20.996,24.902,24.414,-3.906,-256.348,0.000,0.000,0.000
483980.898,34.668,24.902,22.949,29.297,8.301,0.000,0.000,0.000
483980.901,32.227,26.855,21.484,39.062,250.977,0.000,0.000,0.000
483980.905,21.484,28.809,26.367,8.301,27.832,0.000,0.000,0.000
483980.909,23.926,33.691,32.715,-9.277,-233.887,0.000,0.000,0.000
483980.913,33.691,36.133,25.879,13.184,-78.125,0.000,0.000,0.000
483980.917,34.180,32.227,19.531,37.109,222.656,0.000,0.000,0.000
483980.921,21.973,31.250,27.832,22.461,143.555,0.000,0.000,0.000
483980.925,13.672,29.297,22.949,-5.371,-159.180,0.000,0.000,0.000
483980.929,17.090,21.484,15.137,0.488,-87.402,0.000,0.000,0.000
483980.933,26.855,22.949,21.484,35.645,270.508,0.000,0.000,0.000
483980.937,22.461,25.879,23.926,32.227,294.922,0.000,0.000,0.000
483980.940,16.602,27.832,29.785,3.418,-54.199,0.000,0.000,0.000
483980.944,26.367,27.832,29.785,9.766,-157.715,0.000,0.000,0.000
483980.948,37.109,25.391,26.855,41.504,115.234,0.000,0.000,0.000
483980.952,32.715,21.484,28.320,41.504,210.449,0.000,0.000,0.000
483980.956,16.113,21.973,27.344,4.883,-60.547,0.000,0.000,0.000
483980.960,25.391,31.250,32.715,2.441,-203.613,0.000,0.000,0.000
483980.964,37.109,31.738,23.438,33.691,66.406,0.000,0.000,0.000
483980.968,35.645,29.297,21.973,45.898,312.988,0.000,0.000,0.000
483980.972,20.996,34.180,32.227,19.531,94.727,0.000,0.000,0.000
483980.976,20.508,36.133,34.668,-1.465,-220.703,0.000,0.000,0.000
483980.980,40.039,33.691,33.691,25.391,-105.469,0.000,0.000,0.000
483980.983,44.434,30.762,30.762,55.664,213.867,0.000,0.000,0.000
483980.987,29.297,33.691,37.598,38.574,166.504,0.000,0.000,0.000
483980.991,19.043,32.715,35.156,5.371,-155.762,0.000,0.000,0.000
483980.995,35.645,31.738,34.180,19.043,-199.707,0.000,0.000,0.000
483980.999,45.898,34.668,37.109,54.199,122.559,0.000,0.000,0.000
483981.003,29.297,33.203,29.785,42.480,195.801,0.000,0.000,0.000
483981.007,18.555,32.715,31.250,10.254,-129.395,0.000,0.000,0.000
483981.011,30.273,31.250,32.227,13.672,-242.676,0.000,0.000,0.000
483981.015,39.551,29.297,23.926,47.363,7.324,0.000,0.000,0.000
483981.019,30.273,32.227,23.926,53.711,175.781,0.000,0.000,0.000
483981.023,18.066,32.715,27.832,24.414,-78.125,0.000,0.000,0.000
483981.026,29.297,36.621,32.715,20.020,-293.457,0.000,0.000,0.000
483981.030,41.992,33.691,28.320,48.340,-55.664,0.000,0.000,0.000
483981.034,44.922,32.227,24.414,66.406,225.098,0.000,0.000,0.000
483981.038,34.668,35.645,27.832,44.434,31.738,0.000,0.000,0.000
483981.042,29.785,33.203,28.320,15.137,-278.809,0.000,0.000,0.000
483981.046,40.527,31.250,26.855,33.691,-165.527,0.000,0.000,0.000
483981.050,46.387,35.645,28.320,64.453,195.312,0.000,0.000,0.000
483981.054,34.668,36.621,33.203,47.852,192.383,0.000,0.000,0.000
483981.058,24.902,34.180,34.668,16.113,-145.020,0.000,0.000,0.000
483981.062,31.250,33.203,29.297,20.020,-148.438,0.000,0.000,0.000
483981.065,41.016,34.180,30.762,52.246,154.297,0.000,0.000,0.000
483981.069,34.180,39.062,27.832,51.758,234.375,0.000,0.000,0.000
483981.073,20.508,39.551,28.809,16.602,-53.711,0.000,0.000,0.000
483981.077,31.738,33.691,35.156,12.207,-207.031,0.000,0.000,0.000
483981.081,37.598,31.250,24.414,40.039,95.215,0.000,0.000,0.000
483981.085,32.227,33.203,25.391,51.270,350.586,0.000,0.000,0.000
483981.089,22.461,34.668,34.668,20.996,122.070,0.000,0.000,0.000
483981.093,21.484,35.156,34.668,3.906,-151.367,0.000,0.000,0.000
483981.097,34.180,33.203,30.273,35.156,-0.488,0.000,0.000,0.000
483981.101,37.598,33.203,24.902,59.082,245.117,0.000,0.000,0.000
483981.105,25.879,34.668,26.855,30.762,90.820,0.000,0.000,0.000
483981.108,24.414,31.250,31.738,2.441,-179.199,0.000,0.000,0.000
483981.112,39.551,31.738,31.250,26.855,-133.301,0.000,0.000,0.000
483981.116,41.992,31.250,26.367,54.199,170.898,0.000,0.000,0.000
483981.120,27.344,32.715,30.762,38.574,184.570,0.000,0.000,0.000
483981.124,20.508,35.645,39.062,11.230,-175.293,0.000,0.000,0.000
483981.128,31.738,30.273,40.527,20.508,-271.484,0.000,0.000,0.000
483981.132,39.062,25.879,38.086,54.688,71.777,0.000,0.000,0.000
483981.136,25.391,27.832,33.203,50.781,294.434,0.000,0.000,0.000
483981.140,9.277,28.809,34.668,13.184,-14.160,0.000,0.000,0.000
483981.144,23.438,28.809,41.992,11.719,-250.977,0.000,0.000,0.000
483981.148,35.645,29.297,35.156,41.016,-8.301,0.000,0.000,0.000
483981.151,25.391,27.344,22.949,45.410,240.723,0.000,0.000,0.000
483981.155,17.578,26.367,26.367,20.508,59.082,0.000,0.000,0.000
483981.159,26.367,27.832,34.180,7.812,-187.500,0.000,0.000,0.000
483981.163,39.062,27.344,31.250,30.273,21.484,0.000,0.000,0.000
483981.167,36.133,28.809,27.344,52.246,338.867,0.000,0.000,0.000
483981.171,25.879,34.180,29.785,37.598,174.805,0.000,0.000,0.000
483981.175,28.320,33.691,34.668,12.207,-193.848,0.000,0.000,0.000
483981.179,32.715,29.297,26.367,20.020,-150.391,0.000,0.000,0.000
483981.183,26.855,25.391,19.531,45.898,236.328,0.000,0.000,0.000
483981.187,22.461,31.250,23.926,47.363,242.676,0.000,0.000,0.000
483981.190,16.602,32.227,26.367,18.066,-118.652,0.000,0.000,0.000
483981.194,18.066,23.926,23.438,8.789,-164.551,0.000,0.000,0.000
483981.198,27.832,28.809,26.367,42.969,122.559,0.000,0.000,0.000
483981.202,25.879,34.668,32.227,51.270,270.508,0.000,0.000,0.000
483981.206,15.625,31.250,38.574,18.066,26.367,0.000,0.000,0.000
483981.210,15.625,22.949,35.645,4.395,-190.918,0.000,0.000,0.000
483981.214,27.832,20.996,32.715,40.527,23.926,0.000,0.000,0.000
483981.218,33.203,24.414,36.621,62.012,286.621,0.000,0.000,0.000
483981.222,22.461,25.879,39.062,35.645,89.355,0.000,0.000,0.000
483981.226,22.949,24.902,38.574,13.672,-211.426,0.000,0.000,0.000
483981.230,36.621,26.855,33.203,34.668,-24.902,0.000,0.000,0.000
483981.233,47.852,32.715,34.668,65.430,284.668,0.000,0.000,0.000
483981.237,36.621,33.203,37.109,41.504,207.031,0.000,0.000,0.000
483981.241,28.320,30.762,27.344,9.766,-60.059,0.000,0.000,0.000
483981.245,39.062,28.809,20.020,26.367,-87.402,0.000,0.000,0.000
483981.249,40.527,29.785,23.438,58.105,222.656,0.000,0.000,0.000
483981.253,29.785,35.156,30.762,48.340,287.109,0.000,0.000,0.000
483981.257,17.090,32.715,29.785,9.766,-32.227,0.000,0.000,0.000
483981.261,27.832,29.297,31.738,10.254,-164.551,0.000,0.000,0.000
483981.265,44.434,32.227,34.180,50.293,164.062,0.000,0.000,0.000
483981.269,35.156,32.715,32.715,57.617,367.188,0.000,0.000,0.000
483981.273,16.113,33.203,39.062,20.996,31.738,0.000,0.000,0.000
483981.276,21.973,33.691,40.039,10.742,-218.750,0.000,0.000,0.000
483981.280,35.645,29.785,34.668,42.480,-20.508,0.000,0.000,0.000
483981.284,34.180,33.203,29.297,59.082,235.352,0.000,0.000,0.000
483981.288,18.555,39.062,31.738,36.621,93.262,0.000,0.000,0.000
483981.292,23.926,40.527,36.621,13.672,-171.875,0.000,0.000,0.000
483981.296,34.668,37.598,26.367,26.367,-60.547,0.000,0.000,0.000
483981.300,32.715,36.133,21.973,52.734,226.074,0.000,0.000,0.000
483981.304,21.484,38.574,33.203,37.598,163.086,0.000,0.000,0.000
483981.308,15.137,33.203,34.668,4.395,-154.297,0.000,0.000,0.000
483981.312,28.809,30.762,34.180,13.672,-156.250,0.000,0.000,0.000
483981.315,34.180,32.715,30.273,44.922,197.754,0.000,0.000,0.000
483981.319,20.508,33.691,26.367,37.598,302.734,0.000,0.000,0.000
483981.323,9.766,36.133,27.832,5.371,-34.180,0.000,0.000,0.000
483981.327,14.648,31.250,24.902,0.000,-177.734,0.000,0.000,0.000
483981.331,21.973,29.785,26.367,30.762,103.027,0.000,0.000,0.000
483981.335,20.996,32.715,25.879,43.457,303.223,0.000,0.000,0.000
483981.339,11.719,28.320,28.320,9.766,50.293,0.000,0.000,0.000
483981.343,20.996,22.949,32.227,-4.883,-231.445,0.000,0.000,0.000
483981.347,37.598,20.508,26.855,29.785,-8.789,0.000,0.000,0.000
483981.351,37.598,21.484,22.949,58.105,289.551,0.000,0.000,0.000
483981.355,21.973,23.438,22.461,37.109,118.164,0.000,0.000,0.000
483981.358,22.461,20.020,27.344,12.207,-155.762,0.000,0.000,0.000
483981.362,34.668,16.113,31.738,28.809,-63.477,0.000,0.000,0.000
483981.366,40.527,18.555,29.785,62.500,212.891,0.000,0.000,0.000
483981.370,22.461,18.066,29.297,44.434,213.867,0.000,0.000,0.000
483981.374,7.812,17.090,27.832,1.465,-85.449,0.000,0.000,0.000
483981.378,24.414,14.648,27.832,7.324,-166.504,0.000,0.000,0.000
483981.382,34.180,13.672,26.855,44.922,139.648,0.000,0.000,0.000
483981.386,27.832,19.043,32.227,48.828,233.398,0.000,0.000,0.000
483981.390,9.277,18.555,34.180,12.207,15.625,0.000,0.000,0.000
483981.394,16.602,21.484,36.621,10.742,-32.227,0.000,0.000,0.000
483981.398,32.715,23.926,34.180,43.945,150.879,0.000,0.000,0.000
483981.401,24.902,20.508,27.832,52.246,295.410,0.000,0.000,0.000
483981.405,11.230,25.879,28.809,23.926,90.820,0.000,0.000,0.000
483981.409,16.602,33.691,27.344,2.441,-195.801,0.000,0.000,0.000
483981.413,41.992,43.457,28.809,33.691,-58.105,0.000,0.000,0.000
483981.417,42.480,38.574,28.809,55.664,230.957,0.000,0.000,0.000
483981.421,13.672,29.785,25.879,21.484,109.375,0.000,0.000,0.000
483981.425,9.766,40.527,27.832,-7.324,-192.383,0.000,0.000,0.000
483981.429,22.461,44.434,28.320,9.277,-169.434,0.000,0.000,0.000
483981.433,29.297,42.480,21.973,35.645,158.203,0.000,0.000,0.000
483981.437,21.484,43.945,17.578,22.949,215.332,0.000,0.000,0.000
483981.440,14.648,42.480,21.973,-7.812,-106.934,0.000,0.000,0.000
483981.444,23.926,41.504,24.414,-4.883,-224.121,0.000,0.000,0.000
483981.448,36.621,46.387,17.578,32.227,136.230,0.000,0.000,0.000
483981.452,33.691,46.875,14.648,36.621,317.383,0.000,0.000,0.000
483981.456,20.020,41.992,22.461,4.395,-22.949,0.000,0.000,0.000
483981.460,25.879,39.062,28.320,-1.953,-237.793,0.000,0.000,0.000
483981.464,34.180,38.574,24.902,28.809,30.273,0.000,0.000,0.000
483981.468,29.785,36.133,19.043,42.480,358.887,0.000,0.000,0.000
483981.472,18.066,36.621,22.461,18.066,176.758,0.000,0.000,0.000
483981.476,16.113,36.621,29.785,2.441,-115.723,0.000,0.000,0.000
483981.480,26.367,39.062,29.785,25.879,16.113,0.000,0.000,0.000
483981.483,28.809,44.434,28.809,51.270,291.504,0.000,0.000,0.000
483981.487,17.578,41.992,29.785,34.668,167.969,0.000,0.000,0.000
483981.491,10.742,37.598,21.484,1.953,-157.227,0.000,0.000,0.000
483981.495,27.832,35.156,16.602,8.789,-88.867,0.000,0.000,0.000
483981.499,37.109,34.668,16.602,39.551,255.859,0.000,0.000,0.000
483981.503,25.391,33.691,20.508,37.109,306.641,0.000,0.000,0.000
483981.507,18.066,30.273,25.879,7.812,-43.945,0.000,0.000,0.000
483981.511,29.785,31.250,26.367,4.883,-256.348,0.000,0.000,0.000
483981.515,42.480,32.227,27.344,41.992,27.832,0.000,0.000,0.000
483981.519,41.016,36.133,31.250,57.129,237.305,0.000,0.000,0.000
483981.522,25.391,34.180,30.762,24.902,-32.227,0.000,0.000,0.000
483981.526,27.344,30.762,30.762,13.184,-243.652,0.000,0.000,0.000
483981.530,43.457,34.668,33.691,46.387,0.977,0.000,0.000,0.000
483981.534,42.480,36.621,33.203,61.523,259.277,0.000,0.000,0.000
483981.538,34.180,40.039,30.762,35.156,100.098,0.000,0.000,0.000
483981.542,34.180,39.551,24.902,7.812,-165.527,0.000,0.000,0.000
483981.546,41.016,36.133,23.926,23.438,-53.223,0.000,0.000,0.000
483981.550,50.293,38.086,26.367,56.152,267.090,0.000,0.000,0.000
483981.554,39.551,40.527,27.832,37.598,206.055,0.000,0.000,0.000
483981.558,19.531,33.691,20.996,-2.441,-144.043,0.000,0.000,0.000
483981.562,25.391,27.344,11.719,2.441,-198.730,0.000,0.000,0.000
483981.565,38.574,28.320,16.602,35.645,129.395,0.000,0.000,0.000
