timestamps,TP9,AF7,AF8,TP10,Right AUX,Frequency,Contrast,Orientation
486182.930,80.078,36.621,20.508,40.527,-13.672,0.000,0.000,0.000
486182.934,208.984,35.156,19.043,139.160,113.770,0.000,0.000,0.000
486182.938,28.809,50.293,32.227,38.086,-85.449,0.000,0.000,0.000
486182.942,-146.973,53.711,32.715,-85.449,-204.102,0.000,0.000,0.000
486182.946,14.160,43.457,22.949,-6.836,-39.551,0.000,0.000,0.000
486182.950,219.238,46.875,20.508,149.414,154.785,0.000,0.000,0.000
486182.954,94.238,58.105,25.391,79.590,125.977,0.000,0.000,0.000
486182.958,-154.297,53.223,25.879,-94.727,-101.074,0.000,0.000,0.000
486182.962,-57.129,43.945,20.508,-60.547,-160.645,0.000,0.000,0.000
486182.966,186.035,42.969,17.090,110.352,30.273,0.000,0.000,0.000
486182.970,149.902,44.434,17.578,103.027,107.910,0.000,0.000,0.000
486182.973,-114.258,51.270,29.297,-60.059,-76.172,0.000,0.000,0.000
486182.977,-108.887,49.805,27.344,-84.961,-239.746,0.000,0.000,0.000
486182.981,130.859,39.551,13.672,66.406,-111.816,0.000,0.000,0.000
486182.985,197.754,41.504,12.695,131.348,18.555,0.000,0.000,0.000
486182.989,-37.598,55.176,20.996,-7.324,-178.711,0.000,0.000,0.000
486182.993,-144.531,54.199,21.973,-92.773,-319.336,0.000,0.000,0.000
486182.997,65.430,46.875,20.996,31.250,-113.281,0.000,0.000,0.000
486183.001,213.379,43.457,22.461,144.043,88.867,0.000,0.000,0.000
486183.005,38.574,54.688,32.227,43.457,-66.406,0.000,0.000,0.000
486183.009,-148.926,58.594,36.133,-90.820,-260.254,0.000,0.000,0.000
486183.012,8.301,43.945,29.785,-15.625,-260.254,0.000,0.000,0.000
486183.016,203.613,31.738,22.949,123.535,-28.320,0.000,0.000,0.000
486183.020,93.750,36.621,20.020,64.941,17.578,0.000,0.000,0.000
486183.024,-139.648,46.387,32.227,-73.242,-200.684,0.000,0.000,0.000
486183.028,-71.777,36.621,32.715,-56.152,-241.211,0.000,0.000,0.000
486183.032,156.738,24.414,22.461,92.285,-29.785,0.000,0.000,0.000
486183.036,159.180,31.738,26.855,115.234,61.523,0.000,0.000,0.000
486183.040,-82.520,51.270,41.016,-25.879,-147.949,0.000,0.000,0.000
486183.044,-109.375,47.363,41.016,-65.918,-256.348,0.000,0.000,0.000
486183.048,123.047,30.762,33.203,76.660,-82.520,0.000,0.000,0.000
486183.052,214.844,33.203,30.762,153.320,94.238,0.000,0.000,0.000
486183.055,3.906,47.363,36.621,29.785,-48.828,0.000,0.000,0.000
486183.059,-120.605,41.504,40.039,-67.383,-224.609,0.000,0.000,0.000
486183.063,63.965,25.391,26.367,22.461,-92.773,0.000,0.000,0.000
486183.067,233.398,24.414,20.020,151.367,130.859,0.000,0.000,0.000
486183.071,74.219,34.668,28.809,70.801,79.590,0.000,0.000,0.000
486183.075,-139.160,42.480,33.691,-74.707,-131.836,0.000,0.000,0.000
486183.079,-15.625,36.133,22.949,-25.879,-102.539,0.000,0.000,0.000
486183.083,200.195,30.273,18.066,134.766,117.188,0.000,0.000,0.000
486183.087,129.395,41.016,26.855,113.770,108.887,0.000,0.000,0.000
486183.091,-123.047,50.781,29.297,-45.898,-128.418,0.000,0.000,0.000
486183.095,-89.844,37.598,21.484,-59.570,-164.062,0.000,0.000,0.000
486183.098,142.578,27.344,14.160,97.656,47.363,0.000,0.000,0.000
486183.102,176.270,41.992,20.020,143.066,130.859,0.000,0.000,0.000
486183.106,-82.520,51.270,24.902,-28.809,-14.648,0.000,0.000,0.000
486183.110,-151.855,41.504,18.066,-106.445,-138.184,0.000,0.000,0.000
486183.114,91.309,39.062,19.043,48.340,-22.949,0.000,0.000,0.000
486183.118,206.055,37.598,13.184,148.926,90.820,0.000,0.000,0.000
486183.122,-17.090,40.527,11.719,15.625,-55.176,0.000,0.000,0.000
486183.126,-161.133,44.922,16.602,-93.750,-195.801,0.000,0.000,0.000
486183.130,30.273,33.691,9.277,6.348,-15.137,0.000,0.000,0.000
486183.134,213.379,28.320,4.883,135.742,197.266,0.000,0.000,0.000
486183.137,82.031,42.969,13.672,65.430,68.848,0.000,0.000,0.000
486183.141,-141.113,46.875,19.043,-85.449,-150.391,0.000,0.000,0.000
486183.145,-28.320,41.016,15.137,-41.504,-120.605,0.000,0.000,0.000
486183.149,197.754,36.133,14.160,120.117,128.418,0.000,0.000,0.000
486183.153,145.020,39.062,19.531,102.051,201.660,0.000,0.000,0.000
486183.157,-101.074,49.316,34.180,-45.898,1.953,0.000,0.000,0.000
486183.161,-60.547,50.293,35.156,-37.598,-112.793,0.000,0.000,0.000
486183.165,183.594,38.574,17.090,119.141,56.152,0.000,0.000,0.000
486183.169,208.008,26.855,8.301,141.113,218.750,0.000,0.000,0.000
486183.173,-25.391,43.945,22.949,11.230,38.574,0.000,0.000,0.000
486183.177,-101.074,48.828,25.879,-52.246,-121.094,0.000,0.000,0.000
486183.180,111.328,33.203,16.113,67.383,-2.441,0.000,0.000,0.000
486183.184,244.141,34.180,20.508,182.129,166.992,0.000,0.000,0.000
486183.188,51.270,50.293,32.227,68.848,82.520,0.000,0.000,0.000
486183.192,-110.840,51.270,39.551,-51.758,-155.273,0.000,0.000,0.000
486183.196,38.086,30.273,29.297,21.973,-68.848,0.000,0.000,0.000
486183.200,209.473,18.066,16.113,145.508,234.863,0.000,0.000,0.000
486183.204,98.633,29.785,24.902,95.703,198.242,0.000,0.000,0.000
486183.208,-133.789,41.016,37.109,-50.293,-62.500,0.000,0.000,0.000
486183.212,-57.129,30.762,32.227,-35.645,-84.961,0.000,0.000,0.000
486183.216,176.758,20.508,25.879,128.418,116.211,0.000,0.000,0.000
486183.219,163.086,31.738,34.668,148.438,187.012,0.000,0.000,0.000
486183.223,-93.750,47.363,43.945,-7.812,-7.812,0.000,0.000,0.000
486183.227,-102.051,37.598,39.551,-48.828,-34.668,0.000,0.000,0.000
486183.231,142.090,27.344,37.109,104.492,208.984,0.000,0.000,0.000
486183.235,218.262,34.668,37.598,181.152,309.570,0.000,0.000,0.000
486183.239,-24.414,44.922,40.039,28.809,90.820,0.000,0.000,0.000
486183.243,-154.785,39.062,32.715,-86.426,-99.121,0.000,0.000,0.000
486183.247,55.664,26.855,22.461,30.273,52.246,0.000,0.000,0.000
486183.251,217.285,29.297,24.902,152.832,243.652,0.000,0.000,0.000
486183.255,35.645,42.480,29.785,51.758,188.477,0.000,0.000,0.000
486183.259,-155.273,45.410,28.809,-85.938,17.578,0.000,0.000,0.000
486183.262,0.977,39.062,22.949,-11.719,53.223,0.000,0.000,0.000
486183.266,208.496,36.621,18.555,140.137,286.621,0.000,0.000,0.000
486183.270,110.840,46.875,25.391,90.820,270.508,0.000,0.000,0.000
486183.274,-130.371,57.617,36.133,-54.199,10.254,0.000,0.000,0.000
486183.278,-62.012,44.922,30.762,-40.527,-82.031,0.000,0.000,0.000
486183.282,175.781,36.133,24.902,119.629,93.262,0.000,0.000,0.000
486183.286,164.062,38.574,22.461,123.047,172.363,0.000,0.000,0.000
486183.290,-100.586,45.898,26.855,-48.828,-22.949,0.000,0.000,0.000
486183.294,-129.395,41.504,25.391,-79.102,-162.109,0.000,0.000,0.000
486183.298,108.398,31.738,17.578,73.730,-2.441,0.000,0.000,0.000
486183.302,201.660,32.227,23.438,154.297,178.223,0.000,0.000,0.000
486183.305,-26.855,39.062,27.344,17.090,63.477,0.000,0.000,0.000
486183.309,-147.461,45.898,27.344,-75.684,-125.000,0.000,0.000,0.000
486183.313,52.246,40.039,24.414,47.852,-2.441,0.000,0.000,0.000
486183.317,213.867,35.156,21.973,165.527,283.691,0.000,0.000,0.000
486183.321,56.641,44.434,31.738,76.660,261.230,0.000,0.000,0.000
486183.325,-135.742,53.223,41.016,-46.875,41.992,0.000,0.000,0.000
486183.329,-8.789,44.434,34.180,-0.488,41.992,0.000,0.000,0.000
486183.333,178.711,23.438,18.066,130.859,256.348,0.000,0.000,0.000
486183.337,107.910,26.855,24.902,105.469,270.020,0.000,0.000,0.000
486183.341,-132.324,39.062,40.527,-40.039,16.113,0.000,0.000,0.000
486183.344,-93.262,35.645,34.668,-48.340,-38.086,0.000,0.000,0.000
486183.348,152.832,25.879,27.344,103.027,183.105,0.000,0.000,0.000
486183.352,175.293,26.367,28.320,141.113,294.434,0.000,0.000,0.000
486183.356,-75.684,41.504,35.156,-11.230,92.285,0.000,0.000,0.000
486183.360,-132.324,40.527,34.180,-75.195,-102.539,0.000,0.000,0.000
486183.364,87.402,29.297,28.320,56.641,23.438,0.000,0.000,0.000
486183.368,193.848,25.879,28.809,151.855,260.254,0.000,0.000,0.000
486183.372,-12.695,35.645,34.668,42.969,167.969,0.000,0.000,0.000
486183.376,-160.156,41.016,35.156,-71.289,-102.051,0.000,0.000,0.000
486183.380,15.625,28.809,26.367,14.160,-57.129,0.000,0.000,0.000
486183.384,200.195,22.949,24.902,148.438,223.145,0.000,0.000,0.000
486183.387,73.242,40.527,37.598,88.867,170.898,0.000,0.000,0.000
486183.391,-163.574,44.434,38.086,-64.941,-104.004,0.000,0.000,0.000
486183.395,-65.918,31.738,22.461,-45.410,-90.820,0.000,0.000,0.000
486183.399,171.875,27.832,21.973,126.465,120.605,0.000,0.000,0.000
486183.403,124.512,33.691,32.227,117.188,172.852,0.000,0.000,0.000
486183.407,-136.230,43.945,37.598,-48.340,19.043,0.000,0.000,0.000
486183.411,-124.023,38.086,28.809,-61.035,-76.172,0.000,0.000,0.000
486183.415,116.211,32.715,21.973,97.168,46.875,0.000,0.000,0.000
486183.419,166.016,39.551,24.414,152.832,155.273,0.000,0.000,0.000
486183.423,-81.055,51.270,30.273,-6.348,-20.020,0.000,0.000,0.000
486183.427,-168.457,42.480,28.809,-100.098,-201.660,0.000,0.000,0.000
486183.430,54.688,30.762,26.855,37.109,-54.199,0.000,0.000,0.000
486183.434,185.059,34.180,27.344,142.578,141.113,0.000,0.000,0.000
486183.438,-29.297,35.645,29.297,12.207,37.598,0.000,0.000,0.000
486183.442,-202.148,39.551,37.598,-103.516,-133.301,0.000,0.000,0.000
486183.446,-30.273,36.621,31.738,-15.137,-14.160,0.000,0.000,0.000
486183.450,158.691,33.203,25.391,129.395,247.559,0.000,0.000,0.000
486183.454,31.738,39.062,31.250,59.570,160.645,0.000,0.000,0.000
486183.458,-196.777,49.316,37.109,-87.891,-165.039,0.000,0.000,0.000
486183.462,-105.957,46.387,33.691,-62.012,-181.641,0.000,0.000,0.000
486183.466,118.164,38.574,22.461,85.449,111.328,0.000,0.000,0.000
486183.469,89.355,41.504,19.531,90.820,170.410,0.000,0.000,0.000
486183.473,-166.992,50.293,31.250,-68.848,-66.895,0.000,0.000,0.000
486183.477,-165.527,50.293,34.180,-91.797,-148.926,0.000,0.000,0.000
486183.481,58.594,31.738,20.020,40.527,62.500,0.000,0.000,0.000
486183.485,122.559,24.414,19.043,98.633,209.473,0.000,0.000,0.000
486183.489,-97.168,43.457,35.156,-14.648,51.270,0.000,0.000,0.000
486183.493,-198.730,47.363,36.133,-103.516,-104.980,0.000,0.000,0.000
486183.497,0.000,33.691,21.973,2.930,25.391,0.000,0.000,0.000
486183.501,146.973,28.809,17.090,116.211,156.250,0.000,0.000,0.000
486183.505,-13.672,41.016,29.785,24.414,-21.973,0.000,0.000,0.000
486183.509,-208.496,45.410,35.156,-106.445,-223.633,0.000,0.000,0.000
486183.512,-58.105,36.133,25.879,-36.133,-194.336,0.000,0.000,0.000
486183.516,153.809,26.855,21.973,116.699,-20.508,0.000,0.000,0.000
486183.520,62.500,36.621,31.738,75.195,-21.973,0.000,0.000,0.000
486183.524,-171.387,50.293,41.016,-76.172,-221.680,0.000,0.000,0.000
486183.528,-121.582,38.086,27.832,-79.102,-211.914,0.000,0.000,0.000
486183.532,113.281,25.879,23.438,83.008,31.738,0.000,0.000,0.000
486183.536,122.559,31.250,31.250,114.746,87.891,0.000,0.000,0.000
486183.540,-133.301,38.086,35.645,-46.875,-142.578,0.000,0.000,0.000
486183.544,-171.387,28.809,29.297,-100.586,-214.355,0.000,0.000,0.000
486183.548,67.383,21.484,21.973,56.152,12.207,0.000,0.000,0.000
486183.552,161.133,23.438,22.461,138.672,193.848,0.000,0.000,0.000
486183.555,-59.570,35.156,32.227,1.953,36.133,0.000,0.000,0.000
486183.559,-183.594,38.086,35.156,-102.051,-187.988,0.000,0.000,0.000
486183.563,14.160,31.250,22.461,1.953,-162.598,0.000,0.000,0.000
486183.567,187.500,34.668,23.926,145.508,41.016,0.000,0.000,0.000
486183.571,27.344,36.621,27.344,48.828,-2.930,0.000,0.000,0.000
486183.575,-184.082,35.645,28.809,-97.168,-164.062,0.000,0.000,0.000
486183.579,-65.430,28.320,31.250,-42.480,-79.590,0.000,0.000,0.000
486183.583,145.508,20.020,20.996,100.586,116.699,0.000,0.000,0.000
486183.587,76.660,25.391,23.438,80.566,157.227,0.000,0.000,0.000
486183.591,-174.316,36.621,36.133,-78.125,-122.070,0.000,0.000,0.000
486183.594,-125.977,33.203,35.645,-76.172,-255.859,0.000,0.000,0.000
486183.598,108.398,24.414,29.785,70.312,-26.855,0.000,0.000,0.000
486183.602,120.117,26.855,25.391,85.938,81.055,0.000,0.000,0.000
486183.606,-130.371,34.668,30.273,-56.641,-142.090,0.000,0.000,0.000
486183.610,-178.711,33.691,31.738,-103.027,-304.688,0.000,0.000,0.000
486183.614,45.410,22.461,20.020,32.227,-145.996,0.000,0.000,0.000
486183.618,141.113,12.695,13.184,100.098,36.133,0.000,0.000,0.000
486183.622,-60.547,22.461,23.438,-17.578,-53.711,0.000,0.000,0.000
486183.626,-199.707,28.320,31.250,-110.840,-208.984,0.000,0.000,0.000
486183.630,-19.531,24.902,23.926,-15.625,-137.207,0.000,0.000,0.000
486183.634,160.645,18.066,18.066,118.164,55.664,0.000,0.000,0.000
486183.637,27.344,22.461,27.344,42.480,59.082,0.000,0.000,0.000
486183.641,-187.500,34.668,35.156,-105.469,-144.531,0.000,0.000,0.000
486183.645,-83.984,27.344,26.367,-67.383,-187.988,0.000,0.000,0.000
486183.649,135.742,18.555,18.066,90.332,31.250,0.000,0.000,0.000
486183.653,96.191,29.297,24.902,92.773,60.059,0.000,0.000,0.000
486183.657,-149.414,43.945,33.203,-59.082,-130.371,0.000,0.000,0.000
486183.661,-147.461,31.738,28.809,-91.309,-132.812,0.000,0.000,0.000
486183.665,83.984,21.973,22.949,58.594,72.754,0.000,0.000,0.000
486183.669,144.531,33.203,25.391,123.047,179.688,0.000,0.000,0.000
486183.673,-101.562,36.133,29.297,-22.949,10.742,0.000,0.000,0.000
486183.676,-185.059,32.227,26.367,-104.492,-103.516,0.000,0.000,0.000
486183.680,41.992,27.344,20.020,30.273,41.504,0.000,0.000,0.000
486183.684,181.641,28.320,20.996,145.020,171.387,0.000,0.000,0.000
486183.688,-14.160,41.016,26.855,24.414,72.266,0.000,0.000,0.000
486183.692,-198.242,42.969,26.367,-111.328,-94.727,0.000,0.000,0.000
486183.696,-34.180,33.203,22.949,-27.344,-54.688,0.000,0.000,0.000
486183.700,162.109,32.715,21.484,121.582,117.676,0.000,0.000,0.000
486183.704,39.551,36.133,24.902,59.570,78.613,0.000,0.000,0.000
486183.708,-205.566,35.645,24.414,-103.027,-165.039,0.000,0.000,0.000
486183.712,-124.023,28.320,22.949,-80.078,-160.645,0.000,0.000,0.000
486183.716,125.977,26.367,25.391,94.238,37.109,0.000,0.000,0.000
486183.719,107.422,36.133,25.391,97.168,17.090,0.000,0.000,0.000
486183.723,-170.898,34.180,23.438,-84.961,-170.410,0.000,0.000,0.000
486183.727,-168.457,31.738,20.996,-109.863,-263.672,0.000,0.000,0.000
486183.731,78.613,30.762,12.695,46.875,-109.863,0.000,0.000,0.000
486183.735,142.578,28.809,10.254,101.074,60.547,0.000,0.000,0.000
486183.739,-85.449,39.062,18.066,-33.691,-91.309,0.000,0.000,0.000
486183.743,-187.988,39.551,20.508,-114.258,-329.102,0.000,0.000,0.000
486183.747,23.926,28.320,17.090,8.789,-239.746,0.000,0.000,0.000
486183.751,172.363,25.391,16.113,126.465,-14.160,0.000,0.000,0.000
486183.755,-6.836,29.297,25.879,18.555,-82.031,0.000,0.000,0.000
486183.759,-186.523,39.062,31.250,-98.145,-325.195,0.000,0.000,0.000
486183.762,-34.180,36.621,24.902,-17.578,-262.695,0.000,0.000,0.000
486183.766,164.551,26.855,15.137,115.234,15.137,0.000,0.000,0.000
486183.770,72.754,28.809,18.555,64.941,-7.812,0.000,0.000,0.000
486183.774,-157.715,36.621,31.738,-83.984,-222.168,0.000,0.000,0.000
486183.778,-88.379,34.180,29.297,-63.477,-255.371,0.000,0.000,0.000
486183.782,145.996,25.879,22.949,94.238,-75.684,0.000,0.000,0.000
486183.786,146.973,26.367,23.926,113.770,48.828,0.000,0.000,0.000
486183.790,-101.562,37.598,35.156,-29.297,-108.887,0.000,0.000,0.000
486183.794,-134.766,38.574,32.227,-82.031,-247.559,0.000,0.000,0.000
486183.798,84.473,25.879,20.020,50.781,-62.500,0.000,0.000,0.000
486183.801,166.992,19.531,20.996,129.883,132.812,0.000,0.000,0.000
486183.805,-40.039,39.062,36.621,15.137,-42.969,0.000,0.000,0.000
486183.809,-166.992,41.992,33.691,-87.891,-268.555,0.000,0.000,0.000
486183.813,10.742,20.508,14.648,-7.812,-137.695,0.000,0.000,0.000
486183.817,178.223,17.578,11.719,125.977,90.332,0.000,0.000,0.000
486183.821,33.203,28.320,17.578,49.316,-21.973,0.000,0.000,0.000
486183.825,-171.387,37.598,27.344,-89.844,-226.074,0.000,0.000,0.000
486183.829,-52.734,34.668,19.043,-38.574,-196.289,0.000,0.000,0.000
486183.833,166.016,32.715,13.184,114.258,30.762,0.000,0.000,0.000
486183.837,98.633,39.062,19.043,91.797,59.082,0.000,0.000,0.000
486183.841,-151.855,46.387,26.855,-62.988,-181.641,0.000,0.000,0.000
486183.844,-125.000,30.762,21.973,-78.613,-274.902,0.000,0.000,0.000
486183.848,98.145,18.066,13.184,66.406,5.859,0.000,0.000,0.000
486183.852,133.789,30.273,23.926,112.305,146.484,0.000,0.000,0.000
486183.856,-124.512,40.039,30.273,-50.293,-97.656,0.000,0.000,0.000
486183.860,-192.871,36.133,21.484,-126.465,-218.750,0.000,0.000,0.000
486183.864,46.875,27.832,14.160,22.461,-81.543,0.000,0.000,0.000
486183.868,168.945,24.414,9.277,123.047,70.312,0.000,0.000,0.000
486183.872,-26.367,38.574,16.602,3.906,-73.730,0.000,0.000,0.000
486183.876,-165.039,42.480,21.973,-97.656,-283.691,0.000,0.000,0.000
486183.880,11.230,28.320,13.184,-4.395,-203.613,0.000,0.000,0.000
486183.884,191.406,21.484,12.207,135.254,34.180,0.000,0.000,0.000
486183.887,55.176,33.691,30.273,71.777,37.109,0.000,0.000,0.000
486183.891,-177.246,39.062,35.156,-88.379,-128.418,0.000,0.000,0.000
486183.895,-77.148,29.297,23.438,-53.711,-121.582,0.000,0.000,0.000
486183.899,144.531,24.414,19.531,102.539,6.348,0.000,0.000,0.000
486183.903,94.727,27.344,21.973,83.984,-7.812,0.000,0.000,0.000
486183.907,-155.762,40.039,30.273,-68.848,-206.055,0.000,0.000,0.000
486183.911,-128.418,43.945,33.691,-74.707,-316.406,0.000,0.000,0.000
486183.915,109.863,33.691,28.809,79.590,-114.746,0.000,0.000,0.000
486183.919,138.184,23.926,19.043,110.840,41.992,0.000,0.000,0.000
486183.923,-102.051,37.109,26.855,-29.297,-129.883,0.000,0.000,0.000
486183.926,-179.199,41.016,28.809,-98.633,-275.879,0.000,0.000,0.000
486183.930,37.109,26.367,19.043,20.020,-192.871,0.000,0.000,0.000
486183.934,167.969,23.438,16.602,125.488,6.348,0.000,0.000,0.000
486183.938,-20.020,40.527,26.855,23.926,12.695,0.000,0.000,0.000
486183.942,-176.758,48.340,39.551,-86.426,-250.488,0.000,0.000,0.000
486183.946,-23.926,30.762,31.250,-23.438,-272.461,0.000,0.000,0.000
486183.950,151.367,22.461,20.508,100.098,25.391,0.000,0.000,0.000
486183.954,55.176,38.574,31.250,64.941,26.855,0.000,0.000,0.000
486183.958,-176.270,46.387,36.621,-80.566,-238.770,0.000,0.000,0.000
486183.962,-109.375,30.762,23.926,-70.312,-202.148,0.000,0.000,0.000
486183.966,126.465,20.508,20.996,93.262,64.453,0.000,0.000,0.000
486183.969,121.094,32.715,30.273,111.328,110.840,0.000,0.000,0.000
486183.973,-134.277,46.387,37.109,-46.387,-99.121,0.000,0.000,0.000
486183.977,-145.508,38.086,27.832,-87.402,-251.465,0.000,0.000,0.000
486183.981,96.680,31.738,21.973,63.477,-41.504,0.000,0.000,0.000
486183.985,178.223,38.086,31.738,141.602,141.113,0.000,0.000,0.000
486183.989,-57.617,47.363,37.109,-2.930,-104.492,0.000,0.000,0.000
486183.993,-188.965,38.086,26.367,-109.863,-311.523,0.000,0.000,0.000
486183.997,16.602,23.926,18.555,11.230,-190.918,0.000,0.000,0.000
486184.001,172.363,24.414,18.555,134.766,-4.883,0.000,0.000,0.000
486184.005,0.000,38.086,28.320,33.691,-75.684,0.000,0.000,0.000
486184.008,-195.312,40.527,27.344,-111.328,-312.988,0.000,0.000,0.000
486184.012,-50.293,29.297,20.508,-40.039,-286.621,0.000,0.000,0.000
486184.016,157.715,20.996,18.555,117.676,22.949,0.000,0.000,0.000
486184.020,61.523,26.855,21.973,70.312,101.562,0.000,0.000,0.000
486184.024,-175.293,44.434,33.203,-83.008,-117.188,0.000,0.000,0.000
486184.028,-102.539,43.457,31.250,-67.383,-234.375,0.000,0.000,0.000
486184.032,142.090,33.203,23.438,100.098,-110.352,0.000,0.000,0.000
486184.036,132.324,27.832,21.484,108.887,-8.301,0.000,0.000,0.000
486184.040,-129.883,35.645,25.879,-57.129,-169.922,0.000,0.000,0.000
486184.044,-152.832,35.156,24.902,-87.891,-281.250,0.000,0.000,0.000
486184.048,93.262,32.715,20.996,67.383,-107.422,0.000,0.000,0.000
486184.051,176.758,37.598,20.996,131.836,39.551,0.000,0.000,0.000
486184.055,-52.734,46.387,26.367,-8.301,-117.676,0.000,0.000,0.000
486184.059,-166.504,49.805,30.273,-96.191,-278.809,0.000,0.000,0.000
486184.063,32.715,43.945,22.461,9.277,-181.641,0.000,0.000,0.000
486184.067,192.871,39.551,14.160,124.023,7.812,0.000,0.000,0.000
486184.071,36.621,42.969,20.020,39.062,-34.180,0.000,0.000,0.000
486184.075,-163.574,49.805,30.762,-81.543,-220.703,0.000,0.000,0.000
486184.079,-36.133,42.969,22.949,-28.320,-187.988,0.000,0.000,0.000
486184.083,166.992,26.367,14.160,104.980,90.820,0.000,0.000,0.000
486184.087,103.027,33.203,23.438,81.543,93.750,0.000,0.000,0.000
486184.091,-135.742,45.898,31.738,-67.383,-163.574,0.000,0.000,0.000
486184.094,-104.004,38.086,27.832,-71.777,-142.578,0.000,0.000,0.000
486184.098,131.348,29.785,20.996,83.496,28.809,0.000,0.000,0.000
486184.102,161.133,29.297,20.508,124.023,126.953,0.000,0.000,0.000
486184.106,-83.008,41.016,32.227,-17.578,-4.395,0.000,0.000,0.000
486184.110,-149.902,41.504,28.809,-82.520,-192.871,0.000,0.000,0.000
486184.114,73.730,29.297,18.555,45.898,-55.176,0.000,0.000,0.000
486184.118,203.125,31.738,22.461,148.438,151.367,0.000,0.000,0.000
486184.122,11.719,49.316,31.738,42.480,3.418,0.000,0.000,0.000
486184.126,-146.484,48.340,31.250,-77.637,-174.805,0.000,0.000,0.000
486184.130,26.367,36.133,22.949,1.465,-99.609,0.000,0.000,0.000
486184.133,214.355,33.203,20.508,142.578,97.656,0.000,0.000,0.000
486184.137,89.844,41.016,25.391,79.102,67.383,0.000,0.000,0.000
486184.141,-132.812,42.969,30.762,-76.172,-171.875,0.000,0.000,0.000
486184.145,-36.621,32.715,26.855,-41.016,-144.043,0.000,0.000,0.000
486184.149,190.430,27.832,25.879,128.906,85.449,0.000,0.000,0.000
486184.153,142.090,26.855,24.902,122.070,104.492,0.000,0.000,0.000
486184.157,-113.281,34.668,23.926,-41.992,-124.023,0.000,0.000,0.000
486184.161,-83.984,39.062,28.320,-56.152,-230.957,0.000,0.000,0.000
486184.165,177.734,32.227,23.926,102.051,-38.086,0.000,0.000,0.000
486184.169,242.188,31.250,20.020,162.598,63.965,0.000,0.000,0.000
486184.173,-4.883,40.039,28.809,13.184,-83.984,0.000,0.000,0.000
486184.176,-101.074,39.062,30.273,-68.359,-162.109,0.000,0.000,0.000
486184.180,127.930,31.738,23.926,67.383,-23.926,0.000,0.000,0.000
486184.184,271.484,31.738,22.461,166.992,188.965,0.000,0.000,0.000
486184.188,81.055,43.945,28.320,53.223,147.461,0.000,0.000,0.000
486184.192,-87.402,46.387,30.273,-67.383,-87.891,0.000,0.000,0.000
486184.196,53.711,39.551,30.762,33.203,-131.836,0.000,0.000,0.000
486184.200,220.703,35.156,31.738,178.223,62.500,0.000,0.000,0.000
486184.204,90.820,35.156,25.879,101.074,60.547,0.000,0.000,0.000
486184.208,-139.160,44.922,35.645,-39.551,-124.023,0.000,0.000,0.000
486184.212,-47.363,41.016,36.621,-13.672,-70.312,0.000,0.000,0.000
486184.216,196.289,32.715,27.832,141.113,170.410,0.000,0.000,0.000
486184.219,185.547,40.527,28.320,147.461,226.562,0.000,0.000,0.000
486184.223,-73.242,50.293,37.598,-17.578,0.488,0.000,0.000,0.000
486184.227,-72.754,50.293,38.574,-46.387,-160.645,0.000,0.000,0.000
486184.231,160.156,37.109,22.949,89.844,-13.672,0.000,0.000,0.000
486184.235,210.938,27.832,17.090,137.695,157.227,0.000,0.000,0.000
486184.239,-8.301,41.504,31.738,16.602,6.348,0.000,0.000,0.000
486184.243,-110.352,47.363,34.180,-66.895,-160.156,0.000,0.000,0.000
486184.247,83.008,34.668,23.438,33.691,-25.391,0.000,0.000,0.000
486184.251,230.469,30.273,19.531,150.391,225.098,0.000,0.000,0.000
486184.255,67.871,44.434,33.203,68.848,171.875,0.000,0.000,0.000
486184.258,-120.605,49.316,40.527,-62.500,-48.828,0.000,0.000,0.000
486184.262,16.113,36.621,29.785,-5.371,-9.277,0.000,0.000,0.000
486184.266,218.262,30.273,27.344,146.484,205.078,0.000,0.000,0.000
486184.270,136.230,41.016,36.133,115.723,174.316,0.000,0.000,0.000
486184.274,-106.445,47.363,40.039,-41.504,-52.734,0.000,0.000,0.000
486184.278,-65.918,31.250,27.832,-56.641,-99.609,0.000,0.000,0.000
486184.282,174.316,24.902,26.855,109.863,53.711,0.000,0.000,0.000
486184.286,187.012,33.691,30.273,144.043,159.668,0.000,0.000,0.000
486184.290,-69.824,41.016,32.715,-17.578,-31.250,0.000,0.000,0.000
486184.294,-113.770,34.180,28.320,-68.359,-141.113,0.000,0.000,0.000
486184.298,117.188,29.785,25.391,80.566,59.082,0.000,0.000,0.000
486184.301,217.773,38.086,31.250,164.062,162.109,0.000,0.000,0.000
486184.305,1.953,45.898,31.738,33.691,23.438,0.000,0.000,0.000
486184.309,-130.371,45.410,33.203,-55.176,-137.695,0.000,0.000,0.000
486184.313,52.246,33.203,27.832,46.875,-86.914,0.000,0.000,0.000
486184.317,226.074,31.738,25.391,180.176,97.656,0.000,0.000,0.000
486184.321,70.801,39.062,28.320,86.426,80.078,0.000,0.000,0.000
486184.325,-146.973,41.992,29.785,-66.406,-122.559,0.000,0.000,0.000
486184.329,-22.949,37.598,29.785,-1.465,-112.793,0.000,0.000,0.000
486184.333,187.988,29.785,22.461,151.855,125.977,2.000,1.000,45.000
486184.337,119.629,37.109,20.020,117.188,172.852,0.000,0.000,0.000
486184.341,-115.723,56.152,35.156,-34.180,-65.918,0.000,0.000,0.000
486184.344,-76.660,52.734,33.203,-33.203,-167.480,0.000,0.000,0.000
486184.348,149.902,31.250,17.578,110.352,43.945,0.000,0.000,0.000
486184.352,171.387,32.715,20.508,148.926,172.363,0.000,0.000,0.000
486184.356,-79.102,48.340,32.715,9.766,-14.648,0.000,0.000,0.000
486184.360,-138.184,47.363,38.086,-50.781,-185.059,0.000,0.000,0.000
486184.364,79.102,36.621,31.738,73.242,-1.953,0.000,0.000,0.000
486184.368,175.781,27.832,18.555,148.438,209.473,0.000,0.000,0.000
486184.372,-25.879,37.109,24.902,33.691,51.758,0.000,0.000,0.000
486184.376,-175.293,44.922,34.180,-74.219,-177.734,0.000,0.000,0.000
486184.380,-4.883,32.227,24.414,6.836,-88.867,0.000,0.000,0.000
486184.383,181.641,25.391,20.996,140.137,133.301,0.000,0.000,0.000
486184.387,59.570,36.621,30.762,77.148,66.406,0.000,0.000,0.000
486184.391,-165.039,42.480,36.133,-66.406,-183.594,0.000,0.000,0.000
486184.395,-78.125,29.785,25.879,-41.016,-154.297,0.000,0.000,0.000
486184.399,148.926,24.414,19.043,113.281,74.707,0.000,0.000,0.000
486184.403,108.398,33.203,27.832,113.770,128.906,0.000,0.000,0.000
486184.407,-139.648,49.805,44.922,-33.203,-95.215,0.000,0.000,0.000
486184.411,-126.465,48.340,35.645,-61.035,-210.938,0.000,0.000,0.000
486184.415,102.539,31.738,22.461,73.730,21.973,0.000,0.000,0.000
486184.419,166.992,33.203,27.344,133.789,142.090,0.000,0.000,0.000
486184.423,-62.500,44.922,28.809,-2.441,-39.062,0.000,0.000,0.000
486184.426,-155.273,42.480,26.367,-86.914,-158.691,0.000,0.000,0.000
486184.430,48.828,28.809,20.508,34.180,-8.301,0.000,0.000,0.000
486184.434,185.059,22.461,20.020,147.949,185.547,0.000,0.000,0.000
486184.438,0.977,35.645,31.250,44.922,39.062,0.000,0.000,0.000
486184.442,-187.012,39.551,36.621,-83.984,-186.035,0.000,0.000,0.000
486184.446,-32.227,30.273,26.367,-10.742,-90.332,0.000,0.000,0.000
486184.450,183.594,36.621,29.297,150.391,89.844,0.000,0.000,0.000
486184.454,74.219,43.945,35.645,86.914,38.086,0.000,0.000,0.000
486184.458,-166.992,46.387,37.109,-80.078,-133.789,0.000,0.000,0.000
486184.462,-96.191,40.527,28.809,-56.152,-126.465,0.000,0.000,0.000
486184.465,142.090,37.109,22.949,111.816,58.594,0.000,0.000,0.000
486184.469,139.160,41.992,27.832,132.324,106.445,0.000,0.000,0.000
486184.473,-132.812,40.039,29.785,-47.852,-40.039,0.000,0.000,0.000
486184.477,-142.090,42.969,32.715,-80.078,-140.625,0.000,0.000,0.000
486184.481,100.586,36.621,29.297,88.379,-9.277,0.000,0.000,0.000
486184.485,174.316,30.762,25.391,153.320,124.023,0.000,0.000,0.000
486184.489,-58.105,40.527,34.180,5.859,-27.344,0.000,0.000,0.000
486184.493,-169.434,42.969,39.062,-84.473,-160.645,0.000,0.000,0.000
486184.497,30.762,33.203,27.344,29.297,-44.434,0.000,0.000,0.000
486184.501,174.805,30.762,21.973,142.578,217.285,0.000,0.000,0.000
486184.505,4.883,36.133,26.855,39.062,183.105,0.000,0.000,0.000
486184.508,-193.848,42.969,31.738,-87.891,-40.527,0.000,0.000,0.000
486184.512,-52.734,41.016,30.762,-11.230,-45.898,0.000,0.000,0.000
486184.516,153.320,28.809,21.484,126.953,151.367,0.000,0.000,0.000
486184.520,66.406,35.156,23.926,81.055,180.664,0.000,0.000,0.000
486184.524,-166.016,49.316,37.598,-65.430,-36.133,0.000,0.000,0.000
486184.528,-115.723,38.086,31.250,-58.105,-110.352,0.000,0.000,0.000
486184.532,110.352,22.461,21.484,90.332,55.176,0.000,0.000,0.000
486184.536,125.000,27.832,21.484,111.816,118.164,0.000,0.000,0.000
486184.540,-111.328,46.875,36.621,-22.461,-68.359,0.000,0.000,0.000
486184.544,-147.949,42.969,37.109,-64.453,-105.957,0.000,0.000,0.000
486184.548,73.730,28.320,23.438,65.430,55.176,0.000,0.000,0.000
486184.551,166.504,26.855,25.391,137.695,167.969,0.000,0.000,0.000
486184.555,-26.367,47.852,41.504,28.809,-2.930,0.000,0.000,0.000
486184.559,-154.297,49.316,43.945,-68.848,-229.492,0.000,0.000,0.000
486184.563,5.371,27.344,27.344,6.348,-27.344,0.000,0.000,0.000
486184.567,174.805,21.484,18.066,134.277,238.770,0.000,0.000,0.000
486184.571,39.551,38.086,21.484,55.664,90.820,0.000,0.000,0.000
486184.575,-169.434,49.805,27.832,-83.496,-180.664,0.000,0.000,0.000
486184.579,-61.035,31.250,20.508,-38.086,-136.719,0.000,0.000,0.000
486184.583,151.855,23.926,16.113,117.188,101.562,0.000,0.000,0.000
486184.587,102.051,37.109,24.414,105.469,126.465,0.000,0.000,0.000
486184.590,-138.184,47.363,38.086,-46.387,-83.984,0.000,0.000,0.000
486184.594,-113.281,36.621,34.668,-62.988,-149.902,0.000,0.000,0.000
486184.598,123.535,26.367,22.949,91.309,81.055,0.000,0.000,0.000
486184.602,172.852,39.551,28.320,150.391,188.965,0.000,0.000,0.000
486184.606,-79.102,47.363,34.180,-9.766,0.000,0.000,0.000,0.000
486184.610,-159.668,34.668,27.344,-95.703,-128.906,0.000,0.000,0.000
486184.614,67.383,25.879,21.973,43.945,-12.207,0.000,0.000,0.000
486184.618,188.965,28.809,24.414,150.879,162.598,0.000,0.000,0.000
486184.622,-18.066,37.598,30.273,25.879,63.965,0.000,0.000,0.000
486184.626,-182.617,36.133,27.832,-94.238,-116.211,0.000,0.000,0.000
486184.630,-10.742,28.809,24.414,-0.488,-26.855,0.000,0.000,0.000
486184.633,173.828,26.367,23.438,139.160,161.621,0.000,0.000,0.000
486184.637,54.688,33.203,29.785,77.148,117.188,0.000,0.000,0.000
486184.641,-173.340,36.621,35.156,-75.195,-98.145,0.000,0.000,0.000
486184.645,-79.590,26.855,22.949,-39.551,-142.090,0.000,0.000,0.000
486184.649,160.645,24.414,17.578,123.535,23.926,0.000,0.000,0.000
486184.653,117.676,26.367,19.531,105.469,83.496,0.000,0.000,0.000
486184.657,-134.766,40.527,26.367,-41.992,-74.707,0.000,0.000,0.000
486184.661,-125.977,41.992,25.879,-61.035,-137.695,0.000,0.000,0.000
486184.665,104.004,28.320,15.137,81.543,58.594,0.000,0.000,0.000
486184.669,161.133,32.715,15.625,126.953,192.383,0.000,0.000,0.000
486184.673,-62.012,52.246,32.715,-10.742,65.918,0.000,0.000,0.000
486184.676,-158.203,49.805,31.250,-86.914,-66.406,0.000,0.000,0.000
486184.680,46.875,34.180,18.066,28.320,17.090,0.000,0.000,0.000
486184.684,196.777,35.645,20.508,148.438,158.691,0.000,0.000,0.000
486184.688,18.555,45.410,29.297,38.086,48.828,0.000,0.000,0.000
486184.692,-150.879,55.664,37.598,-80.078,-178.223,0.000,0.000,0.000
486184.696,-4.883,41.504,26.367,-0.488,-148.926,0.000,0.000,0.000
486184.700,172.852,23.926,17.578,127.441,100.586,0.000,0.000,0.000
486184.704,75.684,37.598,30.762,83.984,99.609,0.000,0.000,0.000
486184.708,-148.438,52.734,37.598,-68.359,-81.543,0.000,0.000,0.000
486184.712,-85.938,38.086,29.297,-65.918,-59.082,0.000,0.000,0.000
486184.715,137.207,24.414,18.555,91.309,140.625,0.000,0.000,0.000
486184.719,140.625,40.527,23.438,119.629,217.773,0.000,0.000,0.000
486184.723,-114.258,51.758,31.738,-36.621,20.508,0.000,0.000,0.000
486184.727,-150.391,40.527,28.320,-94.727,-76.660,0.000,0.000,0.000
486184.731,88.867,36.621,28.809,58.105,98.145,0.000,0.000,0.000
486184.735,178.223,38.086,34.180,151.855,178.223,0.000,0.000,0.000
486184.739,-54.688,39.551,39.551,12.695,13.672,0.000,0.000,0.000
486184.743,-193.359,29.785,30.762,-104.980,-136.719,0.000,0.000,0.000
486184.747,10.742,21.484,26.855,4.395,-96.191,0.000,0.000,0.000
486184.751,180.664,23.438,31.250,135.742,76.660,0.000,0.000,0.000
486184.755,18.555,33.203,31.250,48.340,-13.184,0.000,0.000,0.000
486184.758,-179.199,39.062,36.133,-89.355,-208.008,0.000,0.000,0.000
486184.762,-44.434,26.855,32.715,-25.879,-129.883,0.000,0.000,0.000
486184.766,164.062,21.484,29.785,123.535,111.328,0.000,0.000,0.000
486184.770,79.102,29.297,32.715,81.055,234.375,0.000,0.000,0.000
486184.774,-158.691,34.180,38.086,-63.477,40.527,0.000,0.000,0.000
486184.778,-104.004,30.762,37.598,-53.223,-135.254,0.000,0.000,0.000
486184.782,133.301,23.438,31.738,103.027,29.297,0.000,0.000,0.000
486184.786,143.066,25.391,26.855,112.793,130.859,0.000,0.000,0.000
486184.790,-110.840,39.062,29.297,-51.758,-39.062,0.000,0.000,0.000
486184.794,-144.043,40.527,30.273,-85.449,-175.781,0.000,0.000,0.000
486184.797,84.961,28.809,20.020,55.664,-35.156,0.000,0.000,0.000
486184.801,187.500,31.250,13.672,134.766,138.184,0.000,0.000,0.000
486184.805,-17.578,47.852,24.902,6.836,43.945,0.000,0.000,0.000
486184.809,-154.297,54.199,31.250,-91.309,-148.438,0.000,0.000,0.000
486184.813,20.996,40.527,23.438,9.766,-66.406,0.000,0.000,0.000
486184.817,182.129,29.297,19.043,129.395,175.293,0.000,0.000,0.000
486184.821,35.645,34.180,23.438,52.246,132.324,0.000,0.000,0.000
486184.825,-163.574,45.410,32.227,-73.242,-97.656,0.000,0.000,0.000
486184.829,-48.828,36.621,30.762,-24.414,-104.492,0.000,0.000,0.000
486184.833,151.855,17.090,21.484,115.723,145.020,0.000,0.000,0.000
486184.837,96.191,20.508,19.531,92.285,178.223,0.000,0.000,0.000
486184.840,-141.113,35.156,26.855,-49.316,-102.051,0.000,0.000,0.000
486184.844,-113.770,32.715,28.809,-54.688,-200.195,0.000,0.000,0.000
486184.848,111.328,20.020,23.438,87.891,57.129,0.000,0.000,0.000
486184.852,154.785,20.020,25.391,138.672,249.023,0.000,0.000,0.000
486184.856,-81.055,35.156,36.621,-4.883,41.016,0.000,0.000,0.000
486184.860,-157.715,36.621,32.715,-78.125,-190.918,0.000,0.000,0.000
486184.864,55.176,19.043,19.531,38.574,-58.594,0.000,0.000,0.000
486184.868,188.477,18.555,19.043,141.602,130.371,0.000,0.000,0.000
486184.872,1.465,37.598,32.227,47.363,17.090,0.000,0.000,0.000
486184.876,-171.875,38.086,33.691,-75.684,-147.461,0.000,0.000,0.000
486184.880,-13.672,20.508,22.461,-0.488,-54.688,0.000,0.000,0.000
486184.883,178.223,20.508,21.484,141.602,160.156,0.000,0.000,0.000
486184.887,67.871,34.180,33.203,83.008,92.285,0.000,0.000,0.000
486184.891,-160.645,35.645,35.645,-71.289,-162.598,0.000,0.000,0.000
486184.895,-75.684,26.367,24.414,-45.410,-162.109,0.000,0.000,0.000
486184.899,152.832,21.484,20.508,123.047,84.961,0.000,0.000,0.000
486184.903,123.047,25.879,23.438,119.629,146.484,0.000,0.000,0.000
486184.907,-129.883,36.621,29.297,-47.363,-32.715,0.000,0.000,0.000
486184.911,-125.488,35.645,28.320,-64.453,-129.395,0.000,0.000,0.000
486184.915,113.770,27.344,23.438,92.285,79.102,0.000,0.000,0.000
486184.919,180.664,33.203,25.879,154.297,210.938,0.000,0.000,0.000
486184.922,-61.523,41.992,33.691,2.441,15.137,0.000,0.000,0.000
486184.926,-165.039,37.598,30.762,-89.355,-136.230,0.000,0.000,0.000
486184.930,59.082,32.715,24.414,47.363,10.254,0.000,0.000,0.000
486184.934,201.660,34.668,23.926,155.762,211.914,0.000,0.000,0.000
486184.938,12.207,37.598,21.973,30.762,95.215,0.000,0.000,0.000
486184.942,-158.691,41.992,25.879,-93.750,-78.613,0.000,0.000,0.000
486184.946,-7.812,40.527,20.996,-15.137,-81.543,0.000,0.000,0.000
486184.950,181.152,33.691,16.602,135.742,64.453,0.000,0.000,0.000
486184.954,76.660,42.969,26.855,84.473,103.516,0.000,0.000,0.000
486184.958,-166.504,51.270,31.738,-70.312,-93.262,0.000,0.000,0.000
486184.962,-93.750,36.621,24.414,-53.223,-158.203,0.000,0.000,0.000
486184.965,134.766,25.391,18.066,103.516,62.012,0.000,0.000,0.000
486184.969,127.441,32.227,21.484,119.629,156.738,0.000,0.000,0.000
486184.973,-120.605,41.504,28.809,-40.527,-57.617,0.000,0.000,0.000
486184.977,-140.137,40.039,29.785,-68.359,-174.805,0.000,0.000,0.000
486184.981,97.168,30.762,21.973,69.336,-2.441,0.000,0.000,0.000
486184.985,186.523,29.785,17.578,132.324,162.598,0.000,0.000,0.000
486184.989,-24.414,42.480,31.250,17.090,49.316,0.000,0.000,0.000
486184.993,-145.508,41.016,32.715,-82.031,-62.012,0.000,0.000,0.000
486184.997,35.645,24.414,16.113,19.043,61.035,0.000,0.000,0.000
486185.001,193.848,21.484,13.184,142.090,243.164,0.000,0.000,0.000
486185.005,51.758,38.574,28.809,58.105,115.723,0.000,0.000,0.000
486185.008,-151.855,49.805,36.133,-73.242,-139.648,0.000,0.000,0.000
486185.012,-30.762,40.527,28.809,-15.625,-100.098,0.000,0.000,0.000
486185.016,187.012,27.344,24.414,131.348,123.047,0.000,0.000,0.000
486185.020,104.004,32.715,29.297,97.168,118.164,0.000,0.000,0.000
486185.024,-145.020,40.527,33.691,-57.617,-127.441,0.000,0.000,0.000
486185.028,-104.004,28.320,24.902,-67.871,-180.176,0.000,0.000,0.000
486185.032,140.137,20.996,17.578,87.891,46.387,0.000,0.000,0.000
486185.036,169.434,27.832,26.855,129.395,171.387,0.000,0.000,0.000
486185.040,-74.707,39.551,36.133,-17.578,11.230,0.000,0.000,0.000
486185.044,-122.070,39.551,28.809,-69.824,-106.445,0.000,0.000,0.000
486185.047,103.516,27.344,23.438,69.824,40.039,0.000,0.000,0.000
486185.051,207.031,27.344,28.809,158.203,183.594,0.000,0.000,0.000
486185.055,-11.230,39.062,35.156,36.621,37.598,0.000,0.000,0.000
486185.059,-146.484,46.875,39.062,-72.754,-184.570,0.000,0.000,0.000
486185.063,25.879,31.738,27.832,12.207,-102.539,0.000,0.000,0.000
486185.067,203.613,22.949,22.949,149.414,111.816,0.000,0.000,0.000
486185.071,57.129,33.203,26.855,59.082,54.199,0.000,0.000,0.000
486185.075,-170.410,34.668,24.902,-104.980,-148.438,0.000,0.000,0.000
486185.079,-52.246,24.902,19.531,-49.316,-125.488,0.000,0.000,0.000
486185.083,162.598,22.461,14.648,112.305,91.797,0.000,0.000,0.000
486185.087,108.887,31.738,19.043,86.914,109.863,0.000,0.000,0.000
486185.090,-135.254,41.504,29.785,-66.406,-37.598,0.000,0.000,0.000
486185.094,-105.957,41.504,25.391,-64.941,-85.449,0.000,0.000,0.000
486185.098,128.906,30.273,12.207,76.172,16.113,0.000,0.000,0.000
486185.102,169.434,33.203,15.137,115.723,118.164,0.000,0.000,0.000
486185.106,-69.824,45.898,22.949,-23.438,-55.664,0.000,0.000,0.000
486185.110,-142.090,45.410,26.367,-85.938,-236.328,0.000,0.000,0.000
486185.114,73.730,34.668,19.531,41.504,-84.961,0.000,0.000,0.000
486185.118,180.176,22.949,8.789,115.234,156.738,0.000,0.000,0.000
486185.122,-7.324,35.156,24.414,11.230,61.523,0.000,0.000,0.000
486185.126,-152.832,47.363,37.109,-88.867,-121.094,0.000,0.000,0.000
486185.129,13.184,35.645,24.414,-7.812,-29.785,0.000,0.000,0.000
486185.133,188.965,23.438,12.207,122.070,176.270,0.000,0.000,0.000
486185.137,71.777,34.668,18.555,55.664,192.871,0.000,0.000,0.000
486185.141,-144.043,48.340,22.461,-85.449,-78.125,0.000,0.000,0.000
486185.145,-58.594,38.574,17.090,-55.176,-146.484,0.000,0.000,0.000
486185.149,162.109,26.855,17.090,98.633,82.031,0.000,0.000,0.000
486185.153,134.277,35.156,25.391,106.934,127.930,0.000,0.000,0.000
486185.157,-117.676,47.852,37.598,-47.363,-72.754,0.000,0.000,0.000
486185.161,-129.395,38.574,34.180,-83.496,-152.832,0.000,0.000,0.000
486185.165,96.680,21.484,20.996,62.500,36.621,0.000,0.000,0.000
486185.169,162.109,22.949,16.113,124.512,148.438,0.000,0.000,0.000
486185.172,-63.477,38.086,28.320,-5.859,-48.340,0.000,0.000,0.000
486185.176,-169.922,34.180,26.367,-104.492,-198.730,0.000,0.000,0.000
486185.180,30.762,22.949,14.160,7.812,-55.664,0.000,0.000,0.000
486185.184,186.035,29.297,18.555,137.695,131.348,0.000,0.000,0.000
486185.188,13.672,41.016,31.738,41.016,46.387,0.000,0.000,0.000
486185.192,-179.688,39.551,33.203,-93.262,-116.211,0.000,0.000,0.000
486185.196,-30.273,31.738,27.832,-22.461,-52.734,0.000,0.000,0.000
486185.200,187.012,31.250,28.809,145.996,137.207,0.000,0.000,0.000
486185.204,92.773,35.645,31.250,104.004,125.488,0.000,0.000,0.000
486185.208,-164.551,34.668,31.250,-73.730,-81.543,0.000,0.000,0.000
486185.212,-106.934,29.297,25.391,-59.570,-107.422,0.000,0.000,0.000
486185.215,132.812,27.344,22.461,104.492,61.035,0.000,0.000,0.000
486185.219,130.371,32.715,29.297,122.070,124.512,0.000,0.000,0.000
486185.223,-124.023,40.039,30.273,-38.086,-24.902,0.000,0.000,0.000
486185.227,-149.414,38.574,25.879,-79.590,-113.281,0.000,0.000,0.000
486185.231,90.332,33.691,20.996,68.848,-2.441,0.000,0.000,0.000
486185.235,175.781,32.227,19.531,132.324,191.406,0.000,0.000,0.000
486185.239,-46.387,41.016,26.855,-4.395,128.418,0.000,0.000,0.000
486185.243,-160.156,45.410,28.809,-92.285,-80.566,0.000,0.000,0.000
486185.247,33.691,38.086,25.391,21.484,14.648,0.000,0.000,0.000
486185.251,176.758,28.320,17.090,133.301,209.961,0.000,0.000,0.000
486185.254,8.301,31.738,20.996,34.180,125.000,0.000,0.000,0.000
486185.258,-178.711,44.922,30.273,-88.379,-93.262,0.000,0.000,0.000
486185.262,-37.109,41.992,25.391,-18.066,-116.699,0.000,0.000,0.000
486185.266,159.180,28.809,15.625,118.164,45.410,0.000,0.000,0.000
486185.270,77.148,28.320,20.996,79.102,61.035,0.000,0.000,0.000
486185.274,-144.043,44.434,37.598,-59.570,-181.641,0.000,0.000,0.000
486185.278,-90.332,47.852,35.645,-50.781,-230.957,0.000,0.000,0.000
486185.282,127.441,37.109,28.320,97.168,0.488,0.000,0.000,0.000
486185.286,144.043,38.086,28.320,125.488,112.305,0.000,0.000,0.000
486185.290,-88.867,47.363,33.203,-16.602,-44.434,0.000,0.000,0.000
486185.294,-126.465,49.805,36.621,-65.918,-212.891,0.000,0.000,0.000
486185.297,90.332,41.016,28.809,63.965,-89.355,0.000,0.000,0.000
486185.301,181.641,29.297,24.414,143.066,106.445,0.000,0.000,0.000
486185.305,-8.789,42.480,31.738,34.668,-28.320,0.000,0.000,0.000
486185.309,-150.879,50.293,37.109,-70.312,-199.707,0.000,0.000,0.000
486185.313,10.254,35.645,26.855,7.324,-10.742,0.000,0.000,0.000
486185.317,188.965,34.668,20.020,144.531,191.895,0.000,0.000,0.000
486185.321,56.152,38.574,24.902,73.242,53.223,0.000,0.000,0.000
486185.325,-156.738,41.992,29.785,-70.312,-156.250,0.000,0.000,0.000
486185.329,-52.734,36.621,24.414,-29.785,-109.375,0.000,0.000,0.000
486185.333,174.805,31.738,22.949,130.859,96.191,0.000,0.000,0.000
486185.337,129.883,43.945,31.738,123.047,88.379,0.000,0.000,0.000
486185.340,-125.488,52.246,38.086,-37.109,-121.094,0.000,0.000,0.000
486185.344,-109.863,43.457,35.156,-52.246,-210.449,0.000,0.000,0.000
486185.348,115.234,35.645,25.391,95.703,-12.207,0.000,0.000,0.000
486185.352,171.875,44.922,30.762,154.785,92.773,0.000,0.000,0.000
486185.356,-72.266,49.316,41.992,1.465,-99.121,0.000,0.000,0.000
486185.360,-169.434,39.551,35.645,-86.426,-204.102,0.000,0.000,0.000
486185.364,53.711,34.180,30.762,58.594,-96.680,0.000,0.000,0.000
486185.368,191.406,32.227,35.645,166.992,47.363,0.000,0.000,0.000
486185.372,-4.883,40.039,42.969,42.969,2.441,0.000,0.000,0.000
486185.376,-175.293,40.527,40.039,-80.566,-103.027,0.000,0.000,0.000
486185.379,-3.906,34.668,34.180,13.184,-33.203,0.000,0.000,0.000
486185.383,191.895,38.086,30.762,158.203,149.414,0.000,0.000,0.000
486185.387,70.312,41.992,29.297,89.355,135.742,0.000,0.000,0.000
486185.391,-158.203,46.387,34.668,-62.988,-87.402,0.000,0.000,0.000
486185.395,-64.453,45.898,31.738,-24.902,-126.953,0.000,0.000,0.000
486185.399,153.320,38.574,22.461,126.953,89.844,0.000,0.000,0.000
486185.403,110.352,38.574,18.066,105.957,192.871,0.000,0.000,0.000
486185.407,-130.371,50.293,29.297,-46.387,14.160,0.000,0.000,0.000
486185.411,-124.023,47.363,29.785,-71.777,-124.023,0.000,0.000,0.000
486185.415,99.609,33.691,14.160,66.895,42.969,0.000,0.000,0.000
486185.419,163.086,37.109,14.160,124.512,166.504,0.000,0.000,0.000
486185.422,-57.129,55.664,28.809,-4.883,37.598,0.000,0.000,0.000
486185.426,-152.832,56.152,30.273,-91.309,-125.488,0.000,0.000,0.000
486185.430,49.805,42.969,20.020,16.113,-83.008,0.000,0.000,0.000
486185.434,194.824,39.062,17.578,133.301,62.988,0.000,0.000,0.000
486185.438,20.508,50.293,24.902,37.598,-27.832,0.000,0.000,0.000
486185.442,-162.109,59.570,34.180,-80.566,-254.883,0.000,0.000,0.000
486185.446,-25.391,43.945,25.391,-20.996,-208.008,0.000,0.000,0.000
486185.450,166.992,33.691,18.555,114.258,33.691,0.000,0.000,0.000
486185.454,76.660,41.016,26.367,85.938,25.879,0.000,0.000,0.000
486185.458,-163.086,40.039,30.762,-64.941,-182.617,0.000,0.000,0.000
486185.462,-106.445,31.250,23.438,-61.035,-202.637,0.000,0.000,0.000
486185.465,123.535,21.973,20.996,93.262,33.203,0.000,0.000,0.000
486185.469,128.418,29.785,28.320,119.141,124.512,0.000,0.000,0.000
486185.473,-114.258,46.387,31.738,-34.180,-83.496,0.000,0.000,0.000
486185.477,-140.625,48.828,30.273,-87.402,-187.988,0.000,0.000,0.000
486185.481,88.379,42.480,24.414,58.594,11.230,0.000,0.000,0.000
486185.485,185.059,44.434,24.414,148.926,161.133,0.000,0.000,0.000
486185.489,-38.086,47.363,31.250,12.207,4.883,0.000,0.000,0.000
486185.493,-182.129,34.180,25.391,-106.445,-147.949,0.000,0.000,0.000
486185.497,16.113,28.320,21.973,6.348,-28.809,0.000,0.000,0.000
486185.501,187.988,34.180,29.297,143.555,175.293,0.000,0.000,0.000
486185.504,33.691,44.922,34.668,56.152,97.656,0.000,0.000,0.000
486185.508,-172.852,42.969,37.598,-86.914,-121.582,0.000,0.000,0.000
486185.512,-51.270,33.203,34.180,-29.785,-91.309,0.000,0.000,0.000
486185.516,161.133,31.250,27.344,122.070,104.004,0.000,0.000,0.000
486185.520,95.215,31.738,26.855,87.891,125.977,0.000,0.000,0.000
486185.524,-148.926,32.715,33.203,-66.895,-63.477,0.000,0.000,0.000
486185.528,-97.168,35.645,34.668,-58.105,-157.715,0.000,0.000,0.000
486185.532,142.090,31.250,28.809,107.422,7.812,0.000,0.000,0.000
486185.536,144.043,27.344,25.879,129.395,134.766,0.000,0.000,0.000
486185.540,-109.863,31.738,32.227,-33.203,-27.832,0.000,0.000,0.000
486185.544,-152.832,34.180,36.133,-77.148,-188.477,0.000,0.000,0.000
486185.547,65.918,26.367,27.832,54.688,-39.551,0.000,0.000,0.000
486185.551,176.758,30.273,20.508,137.695,115.723,0.000,0.000,0.000
486185.555,-29.785,38.574,22.949,10.742,-22.949,0.000,0.000,0.000
486185.559,-178.711,34.668,25.391,-96.191,-189.453,0.000,0.000,0.000
486185.563,2.441,25.391,21.973,3.418,-100.586,0.000,0.000,0.000
486185.567,174.316,22.949,17.090,125.488,88.379,0.000,0.000,0.000
486185.571,43.457,33.691,24.902,50.781,39.062,0.000,0.000,0.000
486185.575,-163.574,45.898,38.574,-78.125,-159.668,0.000,0.000,0.000
486185.579,-61.035,38.086,32.227,-39.551,-99.609,0.000,0.000,0.000
486185.583,144.531,23.926,19.531,93.750,205.566,0.000,0.000,0.000
486185.586,96.680,32.715,22.949,76.172,247.070,0.000,0.000,0.000
486185.590,-147.461,44.922,28.320,-74.219,-31.250,0.000,0.000,0.000
486185.594,-128.906,39.551,23.438,-85.938,-178.223,0.000,0.000,0.000
486185.598,99.609,25.879,12.695,54.199,-19.043,0.000,0.000,0.000
486185.602,155.273,27.344,15.137,106.445,167.969,0.000,0.000,0.000
486185.606,-74.707,41.016,28.809,-25.879,77.637,0.000,0.000,0.000
486185.610,-155.762,38.086,23.926,-102.051,-61.523,0.000,0.000,0.000
486185.614,57.129,27.832,19.043,27.344,85.449,0.000,0.000,0.000
486185.618,185.547,30.762,23.926,139.648,272.949,0.000,0.000,0.000
486185.622,8.301,45.410,33.691,39.551,114.746,0.000,0.000,0.000
486185.626,-158.691,50.293,37.109,-83.008,-139.648,0.000,0.000,0.000
486185.629,-15.625,32.227,20.996,-20.020,-100.098,0.000,0.000,0.000
486185.633,170.410,22.461,16.602,119.629,94.238,0.000,0.000,0.000
486185.637,76.172,39.551,26.367,72.266,59.082,0.000,0.000,0.000
486185.641,-158.203,41.504,30.762,-87.402,-163.086,0.000,0.000,0.000
486185.645,-84.473,29.297,27.344,-66.406,-176.758,0.000,0.000,0.000
486185.649,154.297,27.832,27.344,110.840,52.734,0.000,0.000,0.000
486185.653,144.531,39.551,33.691,120.117,86.914,0.000,0.000,0.000
486185.657,-108.398,51.270,40.527,-47.852,-164.551,0.000,0.000,0.000
486185.661,-124.512,42.969,36.621,-78.613,-240.234,0.000,0.000,0.000
486185.665,107.910,32.715,26.367,74.707,-26.855,0.000,0.000,0.000
486185.669,182.129,36.621,25.879,144.043,96.191,0.000,0.000,0.000
486185.672,-51.270,41.504,31.250,2.441,-74.707,0.000,0.000,0.000
486185.676,-163.086,37.598,28.320,-94.727,-147.461,0.000,0.000,0.000
486185.680,51.758,30.273,25.391,36.133,28.320,0.000,0.000,0.000
486185.684,204.590,28.809,28.320,156.738,135.742,0.000,0.000,0.000
486185.688,17.090,31.250,31.738,40.039,4.883,0.000,0.000,0.000
486185.692,-166.016,36.621,33.691,-82.031,-158.203,0.000,0.000,0.000
486185.696,-20.020,33.203,28.809,-6.348,-127.441,0.000,0.000,0.000
486185.700,179.199,26.855,27.344,137.207,75.195,0.000,0.000,0.000
486185.704,96.680,34.668,30.273,86.426,73.242,0.000,0.000,0.000
486185.708,-143.555,42.969,32.715,-70.312,-136.719,0.000,0.000,0.000
486185.711,-81.055,32.715,34.668,-53.223,-154.297,0.000,0.000,0.000
486185.715,153.320,25.879,31.250,101.562,107.422,0.000,0.000,0.000
486185.719,142.090,30.273,33.203,111.328,206.543,0.000,0.000,0.000
486185.723,-111.816,40.527,41.504,-46.875,2.930,0.000,0.000,0.000
486185.727,-133.789,42.969,44.434,-75.684,-109.863,0.000,0.000,0.000
486185.731,83.984,27.832,34.180,56.152,43.457,0.000,0.000,0.000
486185.735,171.387,21.973,24.902,117.188,214.355,0.000,0.000,0.000
486185.739,-35.156,38.574,28.320,-1.465,59.082,0.000,0.000,0.000
486185.743,-161.621,46.387,34.180,-92.285,-182.617,0.000,0.000,0.000
486185.747,25.879,33.691,25.879,10.742,-116.211,0.000,0.000,0.000
486185.751,182.129,26.855,18.555,126.465,77.148,0.000,0.000,0.000
486185.754,41.504,36.621,27.832,45.410,48.340,0.000,0.000,0.000
486185.758,-159.180,43.945,33.691,-89.355,-111.328,0.000,0.000,0.000
486185.762,-44.922,34.668,30.762,-37.598,-89.355,0.000,0.000,0.000
486185.766,164.062,24.902,25.879,116.211,145.996,0.000,0.000,0.000
486185.770,104.492,38.086,34.180,99.121,153.809,0.000,0.000,0.000
486185.774,-141.113,44.922,39.551,-60.547,-94.238,0.000,0.000,0.000
486185.778,-122.070,29.297,27.344,-93.750,-158.691,0.000,0.000,0.000
486185.782,112.793,23.438,21.484,59.570,62.012,0.000,0.000,0.000
486185.786,147.949,32.715,29.297,116.699,227.539,0.000,0.000,0.000
486185.790,-97.168,44.434,38.086,-31.250,2.930,0.000,0.000,0.000
486185.794,-157.715,41.016,31.738,-93.750,-242.676,0.000,0.000,0.000
486185.797,67.871,32.227,24.902,43.945,-104.004,0.000,0.000,0.000
486185.801,187.988,34.668,26.367,133.301,62.012,0.000,0.000,0.000
486185.805,-11.230,47.363,33.203,22.461,-82.031,0.000,0.000,0.000
486185.809,-156.738,50.293,37.598,-81.543,-272.461,0.000,0.000,0.000
486185.813,16.113,37.598,29.785,9.277,-200.684,0.000,0.000,0.000
486185.817,192.383,39.062,23.926,144.531,17.578,0.000,0.000,0.000
486185.821,57.617,48.340,28.809,61.035,-41.504,0.000,0.000,0.000
486185.825,-161.133,49.316,36.133,-84.473,-216.309,0.000,0.000,0.000
486185.829,-54.199,44.434,27.344,-41.016,-174.316,0.000,0.000,0.000
486185.833,165.527,33.691,20.508,109.863,62.500,0.000,0.000,0.000
486185.836,115.723,33.203,26.367,90.332,166.016,0.000,0.000,0.000
486185.840,-137.695,41.992,32.227,-70.801,-36.621,0.000,0.000,0.000
486185.844,-123.535,38.086,32.715,-73.242,-166.504,0.000,0.000,0.000
486185.848,108.887,28.320,26.855,80.566,-3.906,0.000,0.000,0.000
486185.852,154.785,30.273,24.902,125.977,101.074,4.000,1.000,45.000
486185.856,-75.195,43.945,37.598,-14.160,-86.426,0.000,0.000,0.000
486185.860,-147.461,49.316,42.969,-80.078,-220.703,0.000,0.000,0.000
486185.864,64.941,40.527,36.621,49.805,-108.887,0.000,0.000,0.000
486185.868,173.340,26.855,24.902,132.812,104.492,0.000,0.000,0.000
486185.872,-12.207,34.668,29.785,28.320,86.914,0.000,0.000,0.000
486185.876,-169.434,46.387,35.645,-83.984,-108.887,0.000,0.000,0.000
486185.879,-16.602,36.621,25.391,-16.113,-72.754,0.000,0.000,0.000
486185.883,166.992,27.832,27.832,125.000,116.211,0.000,0.000,0.000
486185.887,59.082,38.574,40.527,74.219,58.594,0.000,0.000,0.000
486185.891,-168.457,46.875,44.922,-74.219,-207.031,0.000,0.000,0.000
486185.895,-85.938,41.504,35.156,-56.641,-177.734,0.000,0.000,0.000
486185.899,149.414,37.109,29.785,102.539,84.473,0.000,0.000,0.000
486185.903,131.348,38.574,35.645,120.117,98.633,0.000,0.000,0.000
486185.907,-107.910,51.758,45.410,-27.344,-129.395,0.000,0.000,0.000
486185.911,-119.141,49.805,41.504,-68.848,-233.887,0.000,0.000,0.000
486185.915,94.238,34.180,25.879,55.176,8.301,0.000,0.000,0.000
486185.918,167.480,38.086,26.367,129.395,167.480,0.000,0.000,0.000
486185.922,-60.059,47.363,37.109,0.488,-32.227,0.000,0.000,0.000
486185.926,-173.828,46.387,32.715,-100.098,-186.035,0.000,0.000,0.000
486185.930,24.902,35.156,21.973,11.719,-62.500,0.000,0.000,0.000
486185.934,182.129,33.203,23.926,131.348,116.211,0.000,0.000,0.000
486185.938,20.508,45.410,29.785,39.551,46.875,0.000,0.000,0.000
486185.942,-168.457,48.340,26.855,-91.309,-92.285,0.000,0.000,0.000
486185.946,-24.414,42.480,20.020,-27.832,-4.395,0.000,0.000,0.000
486185.950,188.477,40.527,22.949,135.254,198.730,0.000,0.000,0.000
486185.954,101.074,46.875,30.762,92.285,160.156,0.000,0.000,0.000
486185.958,-154.297,49.316,25.879,-86.914,-39.062,0.000,0.000,0.000
486185.961,-89.844,43.945,21.484,-69.824,-122.070,0.000,0.000,0.000
486185.965,152.832,37.109,22.461,98.633,10.254,0.000,0.000,0.000
486185.969,149.414,39.551,22.949,118.164,76.660,0.000,0.000,0.000
486185.973,-105.957,46.875,26.855,-45.898,-131.836,0.000,0.000,0.000
486185.977,-134.277,44.922,31.250,-85.449,-250.488,0.000,0.000,0.000
486185.981,92.773,33.203,24.902,62.500,-92.773,0.000,0.000,0.000
486185.985,177.246,28.809,19.531,127.930,90.820,0.000,0.000,0.000
486185.989,-37.109,43.457,31.250,3.418,-43.945,0.000,0.000,0.000
486185.993,-165.527,46.875,33.691,-95.215,-164.551,0.000,0.000,0.000
486185.997,27.832,36.133,23.438,13.672,-62.012,0.000,0.000,0.000
486186.001,193.848,35.156,20.020,145.020,94.238,0.000,0.000,0.000
486186.004,36.621,39.551,20.508,48.828,35.645,0.000,0.000,0.000
486186.008,-168.457,38.086,25.391,-82.031,-193.359,0.000,0.000,0.000
486186.012,-42.480,38.086,32.715,-17.578,-162.598,0.000,0.000,0.000
486186.016,156.738,29.297,29.297,115.234,60.547,0.000,0.000,0.000
486186.020,78.613,29.297,27.832,78.125,83.008,0.000,0.000,0.000
486186.024,-156.738,45.410,40.039,-60.547,-113.281,0.000,0.000,0.000
486186.028,-114.258,41.992,36.621,-53.711,-175.781,0.000,0.000,0.000
486186.032,117.188,29.297,27.344,92.773,-11.719,0.000,0.000,0.000
486186.036,146.973,30.762,28.809,125.977,100.098,0.000,0.000,0.000
486186.040,-89.844,40.039,36.621,-16.602,-49.316,0.000,0.000,0.000
486186.043,-137.695,43.945,40.527,-69.336,-214.844,0.000,0.000,0.000
486186.047,76.172,32.715,29.297,56.641,-33.203,0.000,0.000,0.000
486186.051,180.176,23.926,23.926,130.371,175.293,0.000,0.000,0.000
486186.055,3.906,42.969,41.504,27.832,36.133,0.000,0.000,0.000
486186.059,-150.879,47.363,39.062,-82.031,-149.902,0.000,0.000,0.000
486186.063,-6.836,28.809,17.578,-17.090,-68.848,0.000,0.000,0.000
486186.067,184.082,29.785,18.555,128.418,111.328,0.000,0.000,0.000
486186.071,62.500,40.527,26.367,60.059,63.965,0.000,0.000,0.000
486186.075,-164.062,45.410,30.273,-91.797,-154.785,0.000,0.000,0.000
486186.079,-67.871,38.086,22.461,-51.758,-155.762,0.000,0.000,0.000
486186.083,158.203,28.320,21.484,107.910,75.684,0.000,0.000,0.000
486186.086,124.512,35.156,33.203,107.422,119.629,0.000,0.000,0.000
486186.090,-123.535,44.922,39.551,-55.664,-93.750,0.000,0.000,0.000
486186.094,-110.840,34.668,31.250,-78.125,-181.152,0.000,0.000,0.000
486186.098,127.930,24.902,22.949,84.473,16.113,0.000,0.000,0.000
486186.102,191.406,35.156,29.297,143.066,131.348,0.000,0.000,0.000
486186.106,-50.293,39.062,33.691,-9.766,-62.500,0.000,0.000,0.000
486186.110,-145.996,37.109,32.227,-96.680,-199.219,0.000,0.000,0.000
486186.114,70.312,35.645,26.367,36.621,-85.938,0.000,0.000,0.000
486186.118,203.125,26.855,25.879,150.879,111.816,0.000,0.000,0.000
486186.122,17.578,39.062,37.109,36.133,51.270,0.000,0.000,0.000
486186.126,-155.762,42.480,43.945,-86.426,-172.363,0.000,0.000,0.000
486186.129,0.977,34.180,40.527,-0.977,-92.285,0.000,0.000,0.000
486186.133,191.895,33.203,35.645,139.648,187.500,0.000,0.000,0.000
486186.137,84.473,39.062,39.062,83.984,113.770,0.000,0.000,0.000
486186.141,-145.508,46.387,44.434,-67.383,-132.812,0.000,0.000,0.000
486186.145,-69.336,38.086,40.039,-37.598,-172.363,0.000,0.000,0.000
486186.149,154.785,24.902,28.320,112.793,26.367,0.000,0.000,0.000
486186.153,121.582,23.438,21.484,96.191,110.352,0.000,0.000,0.000
486186.157,-130.371,35.645,31.250,-52.734,-103.027,0.000,0.000,0.000
486186.161,-131.348,34.668,32.227,-78.125,-211.914,0.000,0.000,0.000
486186.165,96.680,22.461,20.996,66.406,-20.996,0.000,0.000,0.000
486186.168,166.504,23.438,17.578,129.395,144.043,0.000,0.000,0.000
486186.172,-43.945,41.992,26.367,0.488,-4.395,0.000,0.000,0.000
486186.176,-151.855,41.016,28.320,-80.078,-151.855,0.000,0.000,0.000
486186.180,42.480,30.762,21.973,33.691,-39.551,0.000,0.000,0.000
486186.184,195.801,29.785,18.555,156.250,140.625,0.000,0.000,0.000
486186.188,30.273,36.621,27.344,55.664,68.359,0.000,0.000,0.000
486186.192,-150.391,45.898,37.109,-69.336,-151.855,0.000,0.000,0.000
486186.196,-27.344,28.320,25.879,-3.906,-127.441,0.000,0.000,0.000
486186.200,152.832,12.207,15.625,128.418,104.492,0.000,0.000,0.000
486186.204,73.730,24.414,22.461,99.121,80.078,0.000,0.000,0.000
486186.208,-153.809,35.156,32.715,-49.805,-122.070,0.000,0.000,0.000
486186.211,-96.191,29.297,30.762,-43.945,-153.320,0.000,0.000,0.000
486186.215,125.977,21.973,18.066,111.328,101.562,0.000,0.000,0.000
486186.219,139.160,32.715,21.484,139.160,255.859,0.000,0.000,0.000
486186.223,-105.469,41.016,31.738,-16.113,19.043,0.000,0.000,0.000
486186.227,-149.902,28.320,26.855,-80.078,-83.984,0.000,0.000,0.000
486186.231,74.707,18.555,25.391,58.594,74.707,0.000,0.000,0.000
486186.235,172.852,22.949,26.367,148.926,146.973,0.000,0.000,0.000
486186.239,-36.621,32.227,32.227,22.949,-0.488,0.000,0.000,0.000
486186.243,-183.594,27.832,27.832,-97.168,-191.406,0.000,0.000,0.000
486186.247,-1.953,19.531,21.484,0.488,-91.797,0.000,0.000,0.000
486186.251,169.434,21.484,25.391,131.836,118.652,0.000,0.000,0.000
486186.254,22.949,31.250,28.809,47.363,49.316,0.000,0.000,0.000
486186.258,-173.340,43.457,30.762,-92.773,-192.871,0.000,0.000,0.000
486186.262,-54.688,39.062,19.531,-44.922,-123.535,0.000,0.000,0.000
486186.266,158.203,28.809,12.695,102.051,185.059,0.000,0.000,0.000
486186.270,105.957,39.062,21.973,82.031,191.406,0.000,0.000,0.000
486186.274,-138.672,49.805,26.367,-71.289,-81.055,0.000,0.000,0.000
486186.278,-92.773,48.340,25.391,-63.477,-215.332,0.000,0.000,0.000
486186.282,157.715,41.504,25.879,110.352,-20.508,0.000,0.000,0.000
486186.286,177.734,36.621,23.438,135.742,115.723,0.000,0.000,0.000
486186.290,-76.660,41.504,28.809,-26.367,-62.012,0.000,0.000,0.000
486186.293,-140.625,39.062,33.203,-77.148,-210.449,0.000,0.000,0.000
486186.297,66.895,22.949,24.902,54.688,-41.016,0.000,0.000,0.000
486186.301,178.223,22.461,23.926,142.578,126.953,0.000,0.000,0.000
486186.305,-18.066,31.250,31.250,23.438,18.066,0.000,0.000,0.000
486186.309,-164.551,34.180,38.086,-81.543,-191.895,0.000,0.000,0.000
486186.313,0.488,26.367,31.250,9.277,-134.277,0.000,0.000,0.000
486186.317,170.898,18.555,25.391,134.766,103.027,0.000,0.000,0.000
486186.321,54.688,25.879,36.621,70.312,85.449,0.000,0.000,0.000
486186.325,-147.949,41.992,42.480,-65.430,-109.375,0.000,0.000,0.000
486186.329,-53.223,36.621,33.691,-27.344,-148.926,0.000,0.000,0.000
486186.333,141.602,17.578,20.996,106.934,66.406,0.000,0.000,0.000
486186.336,105.957,25.879,20.508,100.098,120.605,0.000,0.000,0.000
486186.340,-127.930,41.016,35.156,-39.062,-101.562,0.000,0.000,0.000
486186.344,-122.070,40.527,37.598,-63.477,-184.570,0.000,0.000,0.000
486186.348,99.121,28.320,27.832,80.566,-18.066,0.000,0.000,0.000
486186.352,149.902,27.832,26.855,135.254,116.211,0.000,0.000,0.000
486186.356,-75.684,42.480,35.156,1.465,-60.059,0.000,0.000,0.000
486186.360,-165.527,41.016,28.320,-80.078,-226.562,0.000,0.000,0.000
486186.364,42.969,33.691,19.531,30.273,-82.031,0.000,0.000,0.000
486186.368,179.688,33.203,20.996,138.184,94.238,0.000,0.000,0.000
486186.372,6.348,44.434,27.344,42.969,26.367,0.000,0.000,0.000
486186.375,-160.645,48.828,32.227,-76.172,-132.324,0.000,0.000,0.000
486186.379,-20.020,36.133,20.020,-19.531,-122.070,0.000,0.000,0.000
486186.383,175.293,28.320,12.207,114.258,61.523,0.000,0.000,0.000
486186.387,86.914,37.598,25.391,80.078,-18.066,0.000,0.000,0.000
486186.391,-153.320,41.016,32.227,-77.637,-240.234,0.000,0.000,0.000
486186.395,-88.379,34.180,23.926,-68.848,-200.195,0.000,0.000,0.000
486186.399,142.090,30.762,23.926,100.586,4.395,0.000,0.000,0.000
486186.403,129.395,36.621,31.250,107.422,88.379,0.000,0.000,0.000
486186.407,-123.047,43.457,35.645,-56.152,-107.422,0.000,0.000,0.000
486186.411,-142.090,38.574,36.133,-87.402,-195.312,0.000,0.000,0.000
486186.415,95.215,31.250,31.250,62.012,28.809,0.000,0.000,0.000
486186.418,178.223,30.273,27.344,136.719,217.773,0.000,0.000,0.000
486186.422,-47.852,37.109,33.203,-3.418,81.055,0.000,0.000,0.000
486186.426,-166.016,36.621,33.203,-102.051,-105.957,0.000,0.000,0.000
486186.430,34.180,34.668,23.926,22.949,3.418,0.000,0.000,0.000
486186.434,185.547,31.738,22.461,143.555,216.309,0.000,0.000,0.000
486186.438,11.230,35.156,25.879,35.645,140.137,0.000,0.000,0.000
486186.442,-169.434,43.945,29.297,-89.355,-164.551,0.000,0.000,0.000
486186.446,-23.926,37.598,29.297,-18.066,-173.340,0.000,0.000,0.000
486186.450,172.852,27.832,24.902,119.629,77.637,0.000,0.000,0.000
486186.454,88.379,30.762,22.461,70.312,81.055,0.000,0.000,0.000
486186.458,-142.578,44.922,27.832,-77.148,-150.391,0.000,0.000,0.000
486186.461,-83.496,44.434,27.344,-63.965,-209.961,0.000,0.000,0.000
486186.465,145.020,34.668,21.973,90.820,7.812,0.000,0.000,0.000
486186.469,155.273,35.156,21.484,115.723,117.188,0.000,0.000,0.000
486186.473,-84.473,43.457,26.855,-34.668,-56.152,0.000,0.000,0.000
486186.477,-120.605,44.434,27.832,-74.707,-183.594,0.000,0.000,0.000
486186.481,93.262,30.762,22.461,56.152,-57.617,0.000,0.000,0.000
486186.485,183.594,30.762,24.414,133.789,119.141,0.000,0.000,0.000
486186.489,-19.043,44.922,37.598,20.996,6.348,0.000,0.000,0.000
486186.493,-146.484,45.410,43.945,-73.242,-227.051,0.000,0.000,0.000
486186.497,20.020,35.156,34.668,10.254,-128.906,0.000,0.000,0.000
486186.500,178.223,29.297,24.902,128.906,119.629,0.000,0.000,0.000
486186.504,51.758,39.551,30.273,65.918,84.473,0.000,0.000,0.000
486186.508,-151.855,42.480,32.227,-72.754,-157.715,0.000,0.000,0.000
486186.512,-47.363,34.668,23.926,-28.320,-174.316,0.000,0.000,0.000
486186.516,154.297,28.320,19.531,120.605,117.188,0.000,0.000,0.000
486186.520,105.957,35.645,30.273,110.352,195.312,0.000,0.000,0.000
486186.524,-131.836,47.852,38.574,-40.527,-34.668,0.000,0.000,0.000
486186.528,-126.953,38.086,31.738,-72.754,-124.512,0.000,0.000,0.000
486186.532,102.539,27.344,24.414,77.148,27.832,0.000,0.000,0.000
486186.536,148.926,36.133,26.367,124.023,110.840,0.000,0.000,0.000
486186.540,-85.449,44.922,33.691,-22.949,-109.375,0.000,0.000,0.000
486186.543,-154.785,37.598,28.809,-87.402,-221.191,0.000,0.000,0.000
486186.547,68.359,33.203,24.414,47.852,-56.641,0.000,0.000,0.000
486186.551,194.336,35.156,30.762,147.461,113.281,0.000,0.000,0.000
486186.555,-5.371,44.434,33.691,31.250,30.762,0.000,0.000,0.000
486186.559,-152.344,49.805,32.715,-75.195,-156.250,0.000,0.000,0.000
486186.563,17.090,42.969,27.344,16.602,-96.680,0.000,0.000,0.000
486186.567,195.801,41.016,25.879,153.320,92.285,0.000,0.000,0.000
486186.571,65.430,44.922,30.273,71.289,34.180,0.000,0.000,0.000
486186.575,-166.504,45.410,29.785,-91.309,-119.141,0.000,0.000,0.000
486186.579,-68.359,41.504,25.879,-47.363,-97.656,0.000,0.000,0.000
486186.583,160.156,33.203,25.879,119.629,81.055,0.000,0.000,0.000
486186.586,122.070,34.180,30.273,112.793,184.082,0.000,0.000,0.000
486186.590,-125.488,43.945,37.109,-43.457,44.434,0.000,0.000,0.000
486186.594,-112.305,41.016,33.203,-60.059,-62.012,0.000,0.000,0.000
486186.598,110.840,29.785,21.484,79.590,86.914,0.000,0.000,0.000
486186.602,158.691,29.297,19.043,125.488,206.055,0.000,0.000,0.000
486186.606,-66.406,37.598,29.785,-8.301,41.016,0.000,0.000,0.000
486186.610,-147.949,41.016,32.715,-80.078,-176.758,0.000,0.000,0.000
486186.614,56.152,33.203,22.949,35.645,-104.492,0.000,0.000,0.000
486186.618,172.852,27.832,17.578,124.023,104.980,0.000,0.000,0.000
486186.622,-11.719,35.645,23.438,22.949,25.879,0.000,0.000,0.000
486186.625,-179.688,39.551,33.203,-87.402,-197.754,0.000,0.000,0.000
486186.629,-36.133,29.297,27.832,-19.531,-137.695,0.000,0.000,0.000
486186.633,157.227,23.926,17.578,116.211,119.141,0.000,0.000,0.000
486186.637,66.895,35.645,20.508,68.848,87.891,0.000,0.000,0.000
486186.641,-167.969,44.434,27.832,-77.148,-136.719,0.000,0.000,0.000
486186.645,-98.633,37.109,25.879,-53.223,-156.250,0.000,0.000,0.000
486186.649,130.371,32.227,21.973,100.098,66.895,0.000,0.000,0.000
486186.653,126.465,33.203,26.855,114.746,149.414,0.000,0.000,0.000
486186.657,-104.980,43.945,39.551,-31.738,-87.891,0.000,0.000,0.000
486186.661,-131.836,38.574,34.668,-80.566,-214.355,0.000,0.000,0.000
486186.665,85.449,27.344,21.973,50.293,-32.715,0.000,0.000,0.000
486186.668,179.688,39.551,23.926,131.836,109.863,0.000,0.000,0.000
486186.672,-29.785,50.781,31.738,7.324,-26.367,0.000,0.000,0.000
486186.676,-140.625,52.246,33.203,-84.473,-146.973,0.000,0.000,0.000
486186.680,51.270,45.898,18.066,23.438,-54.199,0.000,0.000,0.000
486186.684,200.684,36.621,11.230,139.160,123.535,0.000,0.000,0.000
486186.688,43.457,44.434,26.855,53.711,68.848,0.000,0.000,0.000
486186.692,-155.273,48.340,30.762,-84.473,-109.375,0.000,0.000,0.000
486186.696,-29.785,38.574,20.996,-29.785,-66.895,0.000,0.000,0.000
486186.700,179.688,31.738,20.996,130.859,122.559,0.000,0.000,0.000
486186.704,102.051,41.016,28.320,96.680,121.582,0.000,0.000,0.000
486186.707,-147.461,47.852,30.273,-75.684,-98.145,0.000,0.000,0.000
486186.711,-100.098,40.527,28.320,-67.383,-129.883,0.000,0.000,0.000
486186.715,135.254,31.738,23.926,97.168,84.473,0.000,0.000,0.000
486186.719,143.555,37.598,22.461,123.047,169.434,0.000,0.000,0.000
486186.723,-106.445,47.852,31.250,-29.785,-37.109,0.000,0.000,0.000
486186.727,-147.461,39.062,28.809,-81.055,-157.227,0.000,0.000,0.000
486186.731,79.590,32.715,19.531,56.152,-34.180,0.000,0.000,0.000
486186.735,179.199,36.621,25.879,142.090,102.539,0.000,0.000,0.000
486186.739,-31.250,44.434,34.668,17.090,-41.504,0.000,0.000,0.000
486186.743,-175.293,41.016,32.715,-98.633,-239.746,0.000,0.000,0.000
486186.747,12.207,34.668,26.855,7.812,-174.805,0.000,0.000,0.000
486186.750,176.270,31.738,22.461,133.301,57.617,0.000,0.000,0.000
486186.754,28.320,37.598,23.438,41.016,79.102,0.000,0.000,0.000
486186.758,-166.504,48.828,26.855,-88.379,-153.809,0.000,0.000,0.000
486186.762,-41.992,44.434,25.391,-27.832,-194.824,0.000,0.000,0.000
486186.766,161.621,29.297,18.555,112.305,9.277,0.000,0.000,0.000
486186.770,100.098,29.297,19.043,85.938,17.090,0.000,0.000,0.000
486186.774,-130.371,44.434,33.203,-54.199,-168.945,0.000,0.000,0.000
486186.778,-102.539,40.527,30.273,-60.059,-212.402,0.000,0.000,0.000
486186.782,118.164,29.785,16.602,81.543,-31.250,0.000,0.000,0.000
486186.786,155.273,37.109,21.484,124.023,147.949,0.000,0.000,0.000
486186.790,-73.242,54.199,37.598,-10.254,22.461,0.000,0.000,0.000
486186.793,-137.207,48.828,34.668,-71.777,-193.359,0.000,0.000,0.000
486186.797,64.941,32.715,22.461,50.781,-79.590,0.000,0.000,0.000
486186.801,173.340,35.645,23.926,138.672,152.832,0.000,0.000,0.000
486186.805,-5.371,50.781,32.715,36.621,9.277,0.000,0.000,0.000
486186.809,-161.621,51.270,32.715,-79.590,-226.562,0.000,0.000,0.000
486186.813,-21.973,32.715,19.043,-30.762,-110.840,0.000,0.000,0.000
486186.817,159.668,25.391,12.695,101.562,166.016,0.000,0.000,0.000
486186.821,45.410,33.691,21.484,44.434,194.336,0.000,0.000,0.000
486186.825,-173.340,38.086,29.297,-103.516,-43.457,0.000,0.000,0.000
486186.829,-79.590,35.156,21.484,-67.871,-131.836,0.000,0.000,0.000
486186.832,141.602,35.156,12.207,87.891,56.641,0.000,0.000,0.000
486186.836,119.629,39.062,16.602,91.797,114.746,0.000,0.000,0.000
486186.840,-115.234,50.293,25.391,-55.664,-100.586,0.000,0.000,0.000
486186.844,-118.164,47.852,24.902,-81.543,-236.816,0.000,0.000,0.000
486186.848,100.098,36.133,20.020,62.012,-28.320,0.000,0.000,0.000
486186.852,172.363,40.039,26.855,129.883,110.840,0.000,0.000,0.000
486186.856,-55.664,49.316,36.133,-11.719,-41.016,0.000,0.000,0.000
486186.860,-157.715,48.340,33.203,-96.680,-165.527,0.000,0.000,0.000
486186.864,45.410,37.109,24.414,30.762,-25.391,0.000,0.000,0.000
486186.868,175.293,27.832,26.855,133.301,150.879,0.000,0.000,0.000
486186.872,-2.930,32.227,36.133,22.461,32.715,0.000,0.000,0.000
486186.875,-183.105,33.691,38.086,-102.051,-135.742,0.000,0.000,0.000
486186.879,-35.156,29.297,29.785,-20.508,-124.023,0.000,0.000,0.000
486186.883,161.621,27.344,25.391,126.465,49.316,0.000,0.000,0.000
486186.887,70.312,36.133,30.273,74.707,71.777,0.000,0.000,0.000
486186.891,-153.809,45.898,34.180,-79.102,-112.305,0.000,0.000,0.000
486186.895,-85.938,40.039,27.832,-57.617,-159.668,0.000,0.000,0.000
486186.899,140.137,34.668,22.461,98.633,9.766,0.000,0.000,0.000
486186.903,121.582,34.668,22.461,93.262,107.910,0.000,0.000,0.000
486186.907,-123.535,41.016,24.902,-57.617,-56.641,0.000,0.000,0.000
486186.911,-136.719,40.039,23.926,-87.402,-140.625,0.000,0.000,0.000
486186.915,85.449,29.785,18.066,53.711,41.016,0.000,0.000,0.000
486186.918,158.691,29.785,15.137,122.070,201.660,0.000,0.000,0.000
486186.922,-52.246,43.945,21.973,-4.883,23.438,0.000,0.000,0.000
486186.926,-161.621,45.410,25.879,-98.633,-227.051,0.000,0.000,0.000
486186.930,27.344,35.645,20.020,3.418,-87.891,0.000,0.000,0.000
486186.934,183.594,33.203,14.160,127.441,182.617,0.000,0.000,0.000
486186.938,28.809,40.039,24.902,37.598,95.215,0.000,0.000,0.000
486186.942,-163.086,45.410,33.691,-96.680,-130.859,0.000,0.000,0.000
486186.946,-34.668,39.551,26.367,-39.551,-91.797,0.000,0.000,0.000
486186.950,160.156,24.902,20.508,100.586,166.992,0.000,0.000,0.000
486186.954,94.727,34.180,29.297,80.078,204.102,0.000,0.000,0.000
486186.957,-125.977,54.688,42.480,-53.223,-68.848,0.000,0.000,0.000
486186.961,-104.492,39.062,30.273,-74.219,-163.574,0.000,0.000,0.000
486186.965,105.469,23.926,14.648,61.035,53.711,0.000,0.000,0.000
486186.969,136.719,33.691,21.973,101.074,121.094,0.000,0.000,0.000
486186.973,-98.633,41.504,35.645,-43.945,-115.723,0.000,0.000,0.000
486186.977,-153.320,37.109,33.691,-105.957,-260.254,0.000,0.000,0.000
486186.981,68.359,32.227,28.320,38.086,-72.754,0.000,0.000,0.000
486186.985,180.176,37.598,32.227,136.230,172.852,0.000,0.000,0.000
486186.989,-22.461,41.504,35.645,9.766,8.789,0.000,0.000,0.000
486186.993,-171.387,32.227,29.297,-107.910,-234.863,0.000,0.000,0.000
486186.997,10.742,25.879,20.996,-7.324,-69.336,0.000,0.000,0.000
486187.000,189.453,27.832,21.973,127.441,186.523,0.000,0.000,0.000
486187.004,54.199,39.551,31.250,48.340,83.496,0.000,0.000,0.000
486187.008,-155.273,46.875,32.227,-93.262,-216.309,0.000,0.000,0.000
486187.012,-45.410,40.039,26.367,-41.992,-210.449,0.000,0.000,0.000
486187.016,166.504,33.691,25.879,115.234,24.414,0.000,0.000,0.000
486187.020,117.676,40.527,30.762,97.656,67.383,0.000,0.000,0.000
486187.024,-118.164,51.758,35.156,-59.570,-108.887,0.000,0.000,0.000
486187.028,-90.332,46.875,31.250,-62.988,-187.988,0.000,0.000,0.000
486187.032,134.277,34.668,27.344,93.750,17.090,0.000,0.000,0.000
486187.036,165.527,34.668,27.344,125.488,121.094,0.000,0.000,0.000
486187.039,-75.195,46.387,31.250,-22.461,-71.777,0.000,0.000,0.000
486187.043,-147.461,46.875,30.762,-85.449,-196.289,0.000,0.000,0.000
486187.047,75.195,41.504,30.762,54.199,-65.918,0.000,0.000,0.000
486187.051,182.617,34.180,22.461,140.625,109.863,0.000,0.000,0.000
486187.055,-21.973,38.086,25.391,13.672,45.898,0.000,0.000,0.000
486187.059,-168.945,42.480,35.645,-90.332,-101.074,0.000,0.000,0.000
486187.063,2.930,36.621,30.762,-4.395,-8.301,0.000,0.000,0.000
486187.067,175.781,34.668,19.531,115.234,248.047,0.000,0.000,0.000
486187.071,59.570,42.480,28.320,59.570,163.574,0.000,0.000,0.000
486187.075,-145.508,56.641,42.480,-65.918,-141.602,0.000,0.000,0.000
486187.079,-61.035,45.410,33.203,-41.992,-173.340,0.000,0.000,0.000
486187.082,145.508,31.738,23.926,92.773,67.383,0.000,0.000,0.000
486187.086,129.395,44.922,26.855,95.215,95.215,0.000,0.000,0.000
486187.090,-97.168,57.129,39.062,-36.621,-134.277,0.000,0.000,0.000
486187.094,-103.516,46.387,37.598,-67.383,-236.816,0.000,0.000,0.000
486187.098,105.957,29.297,20.020,63.965,-49.316,0.000,0.000,0.000
486187.102,166.504,34.668,22.949,129.883,195.801,0.000,0.000,0.000
486187.106,-61.035,46.387,32.715,-8.789,109.863,0.000,0.000,0.000
486187.110,-154.297,44.922,31.738,-86.426,-67.383,0.000,0.000,0.000
486187.114,45.898,38.574,23.438,35.156,67.871,0.000,0.000,0.000
486187.118,182.617,38.574,19.043,145.508,294.922,0.000,0.000,0.000
486187.122,15.137,43.945,26.367,51.758,148.438,0.000,0.000,0.000
486187.125,-170.410,41.992,28.809,-79.102,-94.238,0.000,0.000,0.000
486187.129,-34.180,30.273,22.461,-13.184,-59.570,0.000,0.000,0.000
486187.133,166.504,28.809,19.531,130.859,147.461,0.000,0.000,0.000
486187.137,80.078,41.992,23.926,88.867,135.254,0.000,0.000,0.000
486187.141,-157.227,46.387,27.832,-78.125,-90.820,0.000,0.000,0.000
486187.145,-92.773,39.062,23.926,-70.312,-133.301,0.000,0.000,0.000
486187.149,135.742,31.250,16.602,100.586,96.680,0.000,0.000,0.000
486187.153,129.395,29.785,17.578,109.863,191.406,0.000,0.000,0.000
486187.157,-109.863,42.969,30.273,-44.922,-16.602,0.000,0.000,0.000
486187.161,-128.418,39.062,28.320,-84.961,-124.023,0.000,0.000,0.000
486187.164,102.539,30.273,26.367,63.477,25.391,0.000,0.000,0.000
486187.168,188.477,37.598,31.250,148.926,173.340,0.000,0.000,0.000
486187.172,-35.156,44.434,30.273,9.766,-54.199,0.000,0.000,0.000
486187.176,-162.598,39.062,27.832,-95.215,-275.391,0.000,0.000,0.000
486187.180,35.645,34.180,25.879,21.484,-151.855,0.000,0.000,0.000
486187.184,188.965,31.738,25.879,140.625,54.199,0.000,0.000,0.000
486187.188,21.484,38.574,31.738,39.062,34.668,0.000,0.000,0.000
486187.192,-169.434,43.457,34.180,-89.355,-143.066,0.000,0.000,0.000
486187.196,-44.922,30.273,27.832,-27.344,-86.914,0.000,0.000,0.000
486187.200,153.320,22.949,25.879,107.910,130.371,0.000,0.000,0.000
486187.204,84.473,33.203,28.809,71.289,95.703,0.000,0.000,0.000
486187.207,-146.973,43.457,31.738,-73.242,-140.625,0.000,0.000,0.000
486187.211,-104.980,32.715,26.367,-74.707,-218.750,2.000,1.000,0.000
486187.215,122.070,22.461,20.020,81.543,-17.090,0.000,0.000,0.000
486187.219,136.719,26.367,20.020,105.957,160.645,0.000,0.000,0.000
486187.223,-104.980,39.062,29.297,-45.898,2.930,0.000,0.000,0.000
486187.227,-137.695,46.875,34.668,-80.566,-161.621,0.000,0.000,0.000
486187.231,70.312,33.203,22.461,40.527,7.324,0.000,0.000,0.000
486187.235,159.668,22.949,16.113,115.234,180.664,0.000,0.000,0.000
486187.239,-25.391,39.551,30.273,10.254,-4.395,0.000,0.000,0.000
486187.243,-158.691,47.852,35.156,-91.309,-248.047,0.000,0.000,0.000
486187.247,14.160,34.668,22.949,1.465,-148.926,0.000,0.000,0.000
486187.250,190.918,27.344,18.555,130.371,93.262,0.000,0.000,0.000
486187.254,63.965,40.527,27.344,65.430,83.984,0.000,0.000,0.000
486187.258,-149.902,44.434,30.273,-82.031,-132.324,0.000,0.000,0.000
486187.262,-41.992,40.039,30.762,-41.016,-208.984,0.000,0.000,0.000
486187.266,174.805,38.086,28.320,118.164,3.418,0.000,0.000,0.000
486187.270,130.371,42.969,26.367,106.934,80.078,0.000,0.000,0.000
486187.274,-117.676,49.316,33.203,-46.875,-111.816,0.000,0.000,0.000
486187.278,-109.863,44.434,29.297,-83.008,-201.172,0.000,0.000,0.000
486187.282,122.559,40.039,23.438,68.359,-10.742,0.000,0.000,0.000
486187.286,162.598,35.645,21.484,122.070,119.141,0.000,0.000,0.000
486187.289,-69.336,47.852,28.320,-27.344,-54.199,0.000,0.000,0.000
486187.293,-148.926,46.875,24.902,-100.586,-187.500,0.000,0.000,0.000
486187.297,60.547,31.738,12.207,26.367,-32.715,0.000,0.000,0.000
486187.301,186.035,30.273,14.648,123.535,151.367,0.000,0.000,0.000
486187.305,0.488,41.016,28.320,21.484,28.809,0.000,0.000,0.000
486187.309,-150.391,46.875,33.203,-84.473,-176.758,0.000,0.000,0.000
486187.313,0.488,34.180,22.949,-5.859,-124.023,0.000,0.000,0.000
486187.317,184.082,29.297,19.531,132.324,79.590,0.000,0.000,0.000
486187.321,73.242,35.156,24.902,66.895,29.297,0.000,0.000,0.000
486187.325,-160.156,36.621,26.855,-88.867,-160.645,0.000,0.000,0.000
486187.329,-72.754,35.156,20.996,-53.223,-156.250,0.000,0.000,0.000
486187.332,147.461,29.785,19.531,111.328,86.426,0.000,0.000,0.000
486187.336,118.164,29.297,22.461,101.562,127.441,0.000,0.000,0.000
486187.340,-125.000,38.086,31.738,-58.105,-86.426,0.000,0.000,0.000
486187.344,-125.488,37.109,37.109,-69.824,-144.531,0.000,0.000,0.000
486187.348,102.051,27.344,30.762,75.195,19.043,0.000,0.000,0.000
486187.352,160.645,32.715,28.320,127.441,145.020,0.000,0.000,0.000
486187.356,-61.035,46.875,35.156,-7.812,-6.348,0.000,0.000,0.000
486187.360,-148.926,44.434,37.598,-87.891,-168.457,0.000,0.000,0.000
486187.364,47.363,37.598,31.738,31.738,-55.664,0.000,0.000,0.000
486187.368,166.504,31.250,20.020,120.117,160.156,0.000,0.000,0.000
486187.372,7.812,43.457,28.320,27.344,62.500,0.000,0.000,0.000
486187.375,-161.133,53.223,34.668,-92.285,-140.625,0.000,0.000,0.000
486187.379,-27.832,39.062,18.066,-33.691,-85.449,0.000,0.000,0.000
486187.383,159.668,29.785,14.160,105.469,151.367,0.000,0.000,0.000
486187.387,68.359,40.527,25.879,60.547,193.848,0.000,0.000,0.000
486187.391,-155.273,45.410,31.738,-81.543,-19.043,0.000,0.000,0.000
486187.395,-96.191,34.180,25.391,-72.754,-68.848,0.000,0.000,0.000
486187.399,128.906,28.320,20.020,76.660,70.312,0.000,0.000,0.000
486187.403,137.695,32.715,23.926,109.863,89.844,0.000,0.000,0.000
486187.407,-89.355,51.270,41.504,-24.414,-115.723,0.000,0.000,0.000
486187.411,-125.000,46.875,40.039,-76.660,-207.520,0.000,0.000,0.000
486187.414,81.543,28.320,19.531,39.551,12.207,0.000,0.000,0.000
486187.418,177.734,36.133,21.484,120.605,114.258,0.000,0.000,0.000
486187.422,-32.227,49.316,34.668,4.395,-13.184,0.000,0.000,0.000
486187.426,-158.691,45.898,28.809,-104.492,-122.070,0.000,0.000,0.000
486187.430,32.227,38.086,23.438,-1.953,-0.488,0.000,0.000,0.000
486187.434,194.824,35.156,26.855,127.441,215.332,0.000,0.000,0.000
486187.438,51.270,45.410,34.668,48.340,137.695,0.000,0.000,0.000
486187.442,-149.902,47.363,36.133,-88.379,-73.730,0.000,0.000,0.000
486187.446,-37.109,34.668,26.367,-35.156,-64.453,0.000,0.000,0.000
486187.450,186.035,37.598,32.227,135.742,104.492,0.000,0.000,0.000
486187.454,121.094,44.922,37.598,98.145,116.211,0.000,0.000,0.000
486187.457,-133.301,46.387,33.203,-79.102,-65.430,0.000,0.000,0.000
486187.461,-85.938,42.969,30.762,-67.383,-121.582,0.000,0.000,0.000
486187.465,147.949,34.668,28.320,91.309,89.355,0.000,0.000,0.000
486187.469,164.062,33.691,25.391,115.723,211.426,0.000,0.000,0.000
486187.473,-76.660,43.457,30.273,-36.621,48.340,0.000,0.000,0.000
486187.477,-132.324,40.039,33.691,-94.238,-101.074,0.000,0.000,0.000
486187.481,84.961,30.762,26.367,48.828,47.363,0.000,0.000,0.000
486187.485,193.359,30.762,25.391,136.719,230.957,0.000,0.000,0.000
486187.489,-5.859,40.039,31.250,14.648,83.984,0.000,0.000,0.000
486187.493,-142.578,43.457,33.691,-85.449,-123.535,0.000,0.000,0.000
486187.496,33.691,37.109,28.320,10.254,-45.410,0.000,0.000,0.000
486187.500,199.219,36.621,26.367,139.648,162.109,0.000,0.000,0.000
486187.504,61.035,38.574,31.738,62.500,128.906,0.000,0.000,0.000
486187.508,-140.137,39.551,32.715,-75.684,-45.898,0.000,0.000,0.000
486187.512,-19.531,40.039,31.250,-20.996,-83.008,0.000,0.000,0.000
486187.516,178.223,33.691,25.391,116.211,132.812,0.000,0.000,0.000
486187.520,124.512,38.086,26.855,98.633,161.133,0.000,0.000,0.000
486187.524,-107.910,48.340,42.480,-38.574,-111.816,0.000,0.000,0.000
486187.528,-59.082,42.480,39.062,-42.480,-197.754,0.000,0.000,0.000
486187.532,105.469,30.762,31.738,79.102,-50.293,0.000,0.000,0.000
486187.536,432.617,27.344,30.762,211.914,232.910,0.000,0.000,0.000
486187.539,759.766,30.762,27.344,281.250,497.070,0.000,0.000,0.000
486187.543,729.980,28.809,27.344,274.414,594.238,0.000,0.000,0.000
486187.547,775.879,16.113,16.602,359.375,756.836,0.000,0.000,0.000
486187.551,775.879,14.160,10.742,408.691,980.469,0.000,0.000,0.000
486187.555,505.859,39.062,28.320,284.668,837.402,0.000,0.000,0.000
486187.559,238.281,45.410,32.715,141.602,586.426,0.000,0.000,0.000
486187.563,282.715,32.715,21.484,163.086,647.949,0.000,0.000,0.000
486187.567,415.039,32.227,24.902,284.180,829.102,0.000,0.000,0.000
486187.571,277.832,48.340,32.715,217.773,777.344,0.000,0.000,0.000
486187.575,11.719,55.664,36.133,50.781,540.527,0.000,0.000,0.000
486187.579,39.551,43.457,31.738,56.152,492.676,0.000,0.000,0.000
486187.582,233.887,34.668,23.926,196.777,667.480,0.000,0.000,0.000
486187.586,201.660,36.621,25.879,197.754,670.410,0.000,0.000,0.000
486187.590,-54.199,49.316,34.668,40.527,437.012,0.000,0.000,0.000
486187.594,-92.773,44.922,29.785,-8.301,341.309,0.000,0.000,0.000
486187.598,98.145,28.320,19.531,117.676,491.211,0.000,0.000,0.000
486187.602,172.852,32.227,26.367,194.824,549.316,0.000,0.000,0.000
486187.606,-49.805,41.016,37.598,55.664,363.281,0.000,0.000,0.000
486187.610,-172.852,37.598,38.086,-55.176,186.035,0.000,0.000,0.000
486187.614,15.137,37.109,34.668,67.383,266.602,0.000,0.000,0.000
486187.618,145.020,33.203,35.156,172.852,443.848,0.000,0.000,0.000
486187.621,-24.902,38.574,36.621,56.152,333.984,0.000,0.000,0.000
486187.625,-207.520,45.410,34.668,-72.754,95.215,0.000,0.000,0.000
486187.629,-80.078,38.086,33.203,-5.859,184.082,0.000,0.000,0.000
486187.633,110.352,32.227,28.809,132.812,448.242,0.000,0.000,0.000
486187.637,33.203,38.574,31.738,90.820,414.062,0.000,0.000,0.000
486187.641,-194.824,44.922,40.039,-58.594,133.789,0.000,0.000,0.000
486187.645,-148.438,40.039,37.598,-48.828,-4.395,0.000,0.000,0.000
486187.649,71.777,33.203,28.809,94.238,125.488,0.000,0.000,0.000
486187.653,77.637,35.645,30.762,104.004,230.469,0.000,0.000,0.000
486187.657,-164.062,41.504,37.109,-42.969,94.727,0.000,0.000,0.000
486187.661,-200.684,39.062,33.203,-86.914,-71.777,0.000,0.000,0.000
486187.664,9.766,33.691,23.926,42.480,54.688,0.000,0.000,0.000
486187.668,98.145,34.180,21.484,108.887,233.887,0.000,0.000,0.000
486187.672,-96.680,44.434,32.715,-8.789,96.191,0.000,0.000,0.000
486187.676,-228.027,41.992,34.668,-112.305,-84.961,0.000,0.000,0.000
486187.680,-53.223,33.691,26.855,-19.531,7.324,0.000,0.000,0.000
486187.684,113.281,35.156,25.879,105.469,225.586,0.000,0.000,0.000
486187.688,-23.926,45.410,29.297,14.648,143.555,0.000,0.000,0.000
486187.692,-214.355,52.246,34.668,-115.234,-82.520,0.000,0.000,0.000
486187.696,-116.211,41.992,32.227,-68.848,-23.926,0.000,0.000,0.000
486187.700,76.172,30.762,25.879,64.941,202.148,0.000,0.000,0.000
486187.704,38.086,35.156,26.855,57.129,175.293,0.000,0.000,0.000
486187.707,-187.988,42.480,31.738,-91.309,-69.336,0.000,0.000,0.000
486187.711,-169.922,35.156,30.273,-106.445,-157.227,0.000,0.000,0.000
486187.715,46.387,26.855,22.949,44.434,43.945,0.000,0.000,0.000
486187.719,85.449,33.203,21.484,89.355,142.578,0.000,0.000,0.000
486187.723,-137.695,46.387,30.273,-51.270,-68.359,0.000,0.000,0.000
486187.727,-205.078,43.945,28.809,-123.535,-184.082,0.000,0.000,0.000
486187.731,-3.418,31.250,19.043,3.418,57.129,0.000,0.000,0.000
486187.735,115.234,30.273,19.531,100.586,263.672,0.000,0.000,0.000
486187.739,-59.082,41.016,34.180,-8.301,89.355,0.000,0.000,0.000
486187.743,-214.355,36.133,32.715,-131.836,-118.164,0.000,0.000,0.000
486187.746,-57.617,28.809,25.879,-44.434,-8.301,0.000,0.000,0.000
486187.750,125.000,27.832,26.367,102.539,209.961,0.000,0.000,0.000
486187.754,9.277,30.762,26.367,36.621,148.438,0.000,0.000,0.000
486187.758,-196.289,38.086,34.668,-100.586,-116.699,0.000,0.000,0.000
486187.762,-112.305,36.621,32.227,-62.500,-110.352,0.000,0.000,0.000
486187.766,95.703,25.391,22.949,78.125,150.879,0.000,0.000,0.000
486187.770,65.430,25.391,25.391,67.871,149.902,0.000,0.000,0.000
486187.774,-160.645,42.480,38.086,-69.336,-96.680,0.000,0.000,0.000
486187.778,-152.832,41.016,33.691,-78.125,-138.184,0.000,0.000,0.000
486187.782,64.453,36.133,23.438,72.266,53.711,0.000,0.000,0.000
486187.786,122.070,35.645,26.367,115.723,171.387,0.000,0.000,0.000
486187.789,-105.957,34.668,29.785,-32.227,14.648,0.000,0.000,0.000
486187.793,-195.312,33.691,23.438,-105.957,-137.695,0.000,0.000,0.000
486187.797,3.906,20.020,17.090,15.137,-41.992,0.000,0.000,0.000
486187.801,132.812,16.113,17.090,111.328,126.953,0.000,0.000,0.000
486187.805,-33.203,34.668,25.879,9.277,16.602,0.000,0.000,0.000
486187.809,-193.359,42.480,31.738,-99.121,-238.281,0.000,0.000,0.000
486187.813,-57.617,33.691,24.902,-23.926,-210.938,0.000,0.000,0.000
486187.817,121.094,32.227,17.090,105.957,31.738,0.000,0.000,0.000
486187.821,36.133,41.504,21.973,56.152,29.297,0.000,0.000,0.000
486187.825,-164.062,52.246,36.621,-73.730,-230.469,0.000,0.000,0.000
486187.828,-98.633,42.480,29.785,-51.270,-266.602,0.000,0.000,0.000
486187.832,95.703,24.902,12.207,78.125,-31.738,0.000,0.000,0.000
486187.836,90.820,30.273,18.066,88.379,37.598,0.000,0.000,0.000
486187.840,-128.418,44.922,34.668,-44.922,-98.633,0.000,0.000,0.000
486187.844,-141.602,43.945,33.691,-78.613,-149.902,0.000,0.000,0.000
486187.848,61.035,28.809,19.531,52.734,3.906,0.000,0.000,0.000
486187.852,131.348,21.484,13.672,109.863,151.855,0.000,0.000,0.000
486187.856,-72.266,30.762,24.414,-18.066,-13.184,0.000,0.000,0.000
486187.860,-194.336,30.762,23.438,-108.887,-174.316,0.000,0.000,0.000
486187.864,-16.602,24.902,19.043,-3.906,-28.809,0.000,0.000,0.000
486187.868,140.137,23.926,19.531,117.188,122.070,0.000,0.000,0.000
486187.871,2.930,31.250,24.902,40.039,-33.203,0.000,0.000,0.000
486187.875,-176.270,38.086,34.180,-83.496,-281.738,0.000,0.000,0.000
486187.879,-64.453,35.156,29.785,-32.227,-235.352,0.000,0.000,0.000
486187.883,130.371,29.297,23.438,110.352,16.113,0.000,0.000,0.000
486187.887,70.312,34.180,31.250,85.449,6.348,0.000,0.000,0.000
486187.891,-160.156,41.504,35.156,-70.801,-218.262,0.000,0.000,0.000
486187.895,-117.676,32.715,23.438,-74.219,-267.090,0.000,0.000,0.000
486187.899,108.887,24.902,17.578,85.449,-22.949,0.000,0.000,0.000
486187.903,132.812,39.062,26.855,120.117,144.531,0.000,0.000,0.000
486187.907,-101.074,51.758,30.762,-31.738,-13.672,0.000,0.000,0.000
486187.911,-158.203,43.457,19.043,-94.238,-139.648,0.000,0.000,0.000
486187.914,55.664,34.668,12.207,38.574,1.465,0.000,0.000,0.000
486187.918,160.156,30.273,16.113,126.953,197.754,0.000,0.000,0.000
486187.922,-38.086,37.109,23.926,3.418,32.227,0.000,0.000,0.000
486187.926,-177.246,38.574,27.832,-103.516,-151.855,0.000,0.000,0.000
486187.930,1.465,34.180,30.762,8.789,-93.262,0.000,0.000,0.000
486187.934,170.898,32.227,30.762,137.695,68.848,0.000,0.000,0.000
486187.938,26.855,35.645,34.180,44.922,83.008,0.000,0.000,0.000
486187.942,-173.828,44.922,39.551,-88.379,-176.270,0.000,0.000,0.000
486187.946,-68.359,41.992,29.785,-32.227,-210.449,0.000,0.000,0.000
486187.950,128.418,33.691,18.555,110.840,43.945,0.000,0.000,0.000
486187.953,77.637,36.621,19.531,83.984,64.941,0.000,0.000,0.000
486187.957,-149.414,45.410,29.297,-62.500,-145.996,0.000,0.000,0.000
486187.961,-124.512,42.969,30.762,-66.895,-229.980,0.000,0.000,0.000
486187.965,98.145,36.133,26.367,83.008,-63.965,0.000,0.000,0.000
486187.969,125.977,31.738,19.531,109.375,52.246,0.000,0.000,0.000
486187.973,-97.656,40.527,25.879,-36.621,-140.137,0.000,0.000,0.000
486187.977,-143.555,47.852,36.133,-77.148,-317.871,0.000,0.000,0.000
486187.981,49.316,34.180,25.879,40.039,-145.020,0.000,0.000,0.000
486187.985,152.344,25.391,18.555,114.746,91.797,0.000,0.000,0.000
486187.989,-10.254,41.016,34.180,22.461,-8.789,0.000,0.000,0.000
486187.993,-154.785,42.969,39.062,-79.102,-202.637,0.000,0.000,0.000
486187.996,-11.230,30.273,29.785,-5.371,-135.254,0.000,0.000,0.000
486188.000,159.668,27.344,25.879,120.117,80.566,0.000,0.000,0.000
486188.004,54.199,39.551,32.715,69.824,62.012,0.000,0.000,0.000
486188.008,-156.738,48.828,36.133,-64.453,-85.449,0.000,0.000,0.000
486188.012,-80.078,42.480,28.320,-35.156,-69.336,0.000,0.000,0.000
486188.016,126.465,34.668,23.926,109.863,111.328,0.000,0.000,0.000
486188.020,102.539,39.062,25.879,99.121,182.129,0.000,0.000,0.000
486188.024,-124.023,51.270,35.156,-46.387,-33.691,0.000,0.000,0.000
486188.028,-136.230,41.504,28.320,-80.078,-104.492,0.000,0.000,0.000
486188.032,81.055,34.180,21.973,63.965,104.492,0.000,0.000,0.000
486188.036,150.879,38.574,28.809,128.418,186.523,0.000,0.000,0.000
486188.039,-62.012,46.387,37.109,-9.766,-6.348,0.000,0.000,0.000
486188.043,-162.598,41.016,32.227,-93.750,-171.387,0.000,0.000,0.000
486188.047,23.438,29.297,24.414,21.973,-85.449,0.000,0.000,0.000
486188.051,156.738,28.320,20.508,124.512,115.234,0.000,0.000,0.000
486188.055,-6.348,39.062,28.320,25.879,21.484,0.000,0.000,0.000
486188.059,-167.969,46.387,38.086,-88.867,-241.699,0.000,0.000,0.000
486188.063,-37.598,35.156,30.762,-18.066,-213.379,0.000,0.000,0.000
486188.067,150.391,35.156,25.391,128.906,15.137,0.000,0.000,0.000
486188.071,58.105,41.016,31.738,68.848,45.410,0.000,0.000,0.000
486188.075,-174.316,41.016,32.227,-92.773,-111.328,0.000,0.000,0.000
486188.078,-104.492,40.039,25.879,-62.012,-122.559,0.000,0.000,0.000
486188.082,123.047,34.668,24.414,94.238,41.016,0.000,0.000,0.000
486188.086,124.023,37.598,24.414,101.562,34.180,0.000,0.000,0.000
486188.090,-108.887,53.711,26.855,-52.246,-169.434,0.000,0.000,0.000
486188.094,-127.441,55.176,26.855,-83.984,-277.832,0.000,0.000,0.000
486188.098,83.984,43.945,21.484,54.688,-116.211,0.000,0.000,0.000
486188.102,164.062,41.992,21.484,114.746,32.715,0.000,0.000,0.000
486188.106,-38.086,49.805,29.785,-4.395,-136.230,0.000,0.000,0.000
486188.110,-150.879,51.270,30.273,-84.473,-305.664,0.000,0.000,0.000
486188.114,26.367,43.945,20.996,18.555,-187.988,0.000,0.000,0.000
486188.118,162.598,32.715,12.695,114.746,17.090,0.000,0.000,0.000
486188.121,22.949,40.527,24.414,36.621,-50.293,0.000,0.000,0.000
486188.125,-160.156,48.828,33.691,-73.242,-209.473,0.000,0.000,0.000
486188.129,-51.270,37.598,23.438,-21.973,-207.520,0.000,0.000,0.000
486188.133,144.531,33.203,23.926,117.676,-41.016,0.000,0.000,0.000
486188.137,86.914,44.434,36.133,92.285,-8.789,0.000,0.000,0.000
486188.141,-140.625,47.852,37.109,-54.688,-195.312,0.000,0.000,0.000
486188.145,-114.258,33.691,27.344,-63.965,-221.680,0.000,0.000,0.000
486188.149,107.422,26.855,24.414,81.055,-23.926,0.000,0.000,0.000
486188.153,138.672,33.691,26.855,114.746,84.473,0.000,0.000,0.000
486188.157,-82.520,46.875,36.133,-16.602,-82.520,0.000,0.000,0.000
486188.161,-136.719,44.434,33.691,-72.266,-211.914,0.000,0.000,0.000
486188.164,57.617,31.738,16.602,44.922,-1.465,0.000,0.000,0.000
486188.168,166.992,32.227,15.137,132.324,177.246,0.000,0.000,0.000
486188.172,-19.043,42.480,21.973,17.090,-25.391,0.000,0.000,0.000
486188.176,-160.156,45.410,22.461,-92.773,-227.539,0.000,0.000,0.000
486188.180,4.395,34.180,19.043,1.953,-155.762,0.000,0.000,0.000
486188.184,171.875,31.250,17.090,130.371,36.133,0.000,0.000,0.000
486188.188,46.387,41.992,22.949,51.758,9.277,0.000,0.000,0.000
486188.192,-161.621,46.387,27.832,-85.938,-181.152,0.000,0.000,0.000
486188.196,-69.336,39.551,20.996,-41.992,-179.688,0.000,0.000,0.000
486188.200,146.484,37.598,21.973,120.605,12.695,0.000,0.000,0.000
486188.203,97.168,43.945,26.855,95.703,65.430,0.000,0.000,0.000
486188.207,-150.879,41.992,27.344,-75.684,-139.648,0.000,0.000,0.000
486188.211,-125.488,35.156,28.320,-79.102,-224.609,0.000,0.000,0.000
486188.215,100.098,31.738,30.762,76.660,-1.953,0.000,0.000,0.000
486188.219,142.090,34.668,33.203,119.629,118.652,0.000,0.000,0.000
486188.223,-87.891,38.086,29.785,-26.855,32.715,0.000,0.000,0.000
486188.227,-163.574,34.180,23.438,-91.309,-114.746,0.000,0.000,0.000
486188.231,38.574,32.227,20.020,37.598,-93.750,0.000,0.000,0.000
486188.235,158.203,33.203,22.949,133.789,125.000,0.000,0.000,0.000
486188.239,-19.531,36.621,27.344,24.414,60.059,0.000,0.000,0.000
486188.243,-170.898,35.156,26.367,-88.379,-209.961,0.000,0.000,0.000
486188.246,-17.578,25.879,21.484,-2.930,-178.711,0.000,0.000,0.000
486188.250,166.992,23.438,24.902,128.418,55.664,0.000,0.000,0.000
486188.254,61.523,31.250,29.785,59.082,20.020,0.000,0.000,0.000
486188.258,-153.809,39.551,31.250,-72.266,-142.090,0.000,0.000,0.000
486188.262,-68.848,40.039,29.785,-36.621,-116.699,0.000,0.000,0.000
486188.266,132.324,28.809,21.973,99.609,121.094,0.000,0.000,0.000
486188.270,104.492,26.367,20.508,89.355,143.555,0.000,0.000,0.000
486188.274,-122.070,38.086,29.785,-54.199,-155.762,0.000,0.000,0.000
486188.278,-133.789,32.715,27.344,-73.242,-242.676,0.000,0.000,0.000
486188.282,76.172,20.996,20.996,66.895,-67.871,0.000,0.000,0.000
486188.285,141.602,23.926,26.367,118.164,34.668,0.000,0.000,0.000
486188.289,-62.988,37.598,34.668,-7.812,-93.750,0.000,0.000,0.000
486188.293,-149.414,39.551,31.738,-80.078,-157.715,0.000,0.000,0.000
486188.297,29.297,25.879,20.020,23.438,-37.598,0.000,0.000,0.000
486188.301,163.086,20.508,17.578,122.070,60.547,0.000,0.000,0.000
486188.305,20.996,39.551,31.250,45.898,-68.359,0.000,0.000,0.000
486188.309,-146.484,47.852,38.574,-70.801,-252.930,0.000,0.000,0.000
486188.313,-25.879,30.762,26.855,-24.414,-175.293,0.000,0.000,0.000
486188.317,158.691,20.996,20.508,117.676,51.270,0.000,0.000,0.000
486188.321,68.848,27.344,24.902,73.730,27.344,0.000,0.000,0.000
486188.325,-151.855,35.645,27.832,-71.289,-173.340,0.000,0.000,0.000
486188.328,-92.773,29.297,23.926,-58.105,-186.523,0.000,0.000,0.000
486188.332,121.094,26.855,18.555,93.750,4.883,0.000,0.000,0.000
486188.336,133.789,34.180,24.902,121.094,68.359,0.000,0.000,0.000
486188.340,-91.309,40.039,30.762,-24.902,-109.863,0.000,0.000,0.000
486188.344,-130.859,33.203,28.809,-65.918,-212.891,0.000,0.000,0.000
486188.348,77.637,22.949,28.320,70.801,-37.598,0.000,0.000,0.000
486188.352,170.410,27.344,26.855,146.973,121.094,0.000,0.000,0.000
486188.356,-40.527,33.691,26.367,12.207,-45.410,0.000,0.000,0.000
486188.360,-172.363,28.320,20.996,-95.215,-219.238,0.000,0.000,0.000
486188.364,14.160,27.344,16.602,18.066,-127.930,0.000,0.000,0.000
486188.368,173.828,28.320,17.578,129.883,45.898,0.000,0.000,0.000
486188.371,27.832,37.598,23.926,36.621,-15.625,0.000,0.000,0.000
486188.375,-157.227,48.340,29.785,-83.008,-238.770,0.000,0.000,0.000
486188.379,-41.992,42.480,22.949,-32.715,-222.168,0.000,0.000,0.000
486188.383,156.250,38.574,21.973,108.887,36.621,0.000,0.000,0.000
486188.387,97.168,43.457,30.273,81.543,125.977,0.000,0.000,0.000
486188.391,-135.254,46.387,32.715,-71.289,-102.051,0.000,0.000,0.000
486188.395,-99.609,44.922,27.344,-60.059,-191.406,0.000,0.000,0.000
486188.399,123.047,34.180,24.414,91.309,10.742,0.000,0.000,0.000
486188.403,136.230,25.391,22.461,98.145,164.551,0.000,0.000,0.000
486188.407,-90.820,38.574,32.715,-47.363,24.414,0.000,0.000,0.000
486188.410,-133.789,41.992,34.668,-92.285,-138.672,0.000,0.000,0.000
486188.414,64.941,32.715,17.578,36.133,31.738,0.000,0.000,0.000
486188.418,172.852,36.133,21.484,117.676,244.629,0.000,0.000,0.000
486188.422,-1.953,47.852,31.738,5.859,102.539,0.000,0.000,0.000
486188.426,-151.367,41.504,29.297,-107.422,-107.422,0.000,0.000,0.000
486188.430,4.883,31.738,23.926,-19.043,-53.223,0.000,0.000,0.000
486188.434,176.270,29.297,24.902,119.141,141.113,0.000,0.000,0.000
486188.438,48.828,35.645,35.156,44.434,12.695,0.000,0.000,0.000
486188.442,-148.926,42.480,43.457,-86.914,-291.992,0.000,0.000,0.000
486188.446,-60.059,33.203,31.738,-56.152,-264.648,0.000,0.000,0.000
486188.450,131.836,19.531,14.648,69.336,-2.441,0.000,0.000,0.000
486188.453,105.469,31.738,24.414,70.801,6.348,0.000,0.000,0.000
486188.457,-122.070,43.945,35.645,-70.801,-224.121,0.000,0.000,0.000
486188.461,-120.117,33.691,25.391,-93.262,-228.027,0.000,0.000,0.000
486188.465,92.285,22.949,17.090,49.805,-19.043,0.000,0.000,0.000
486188.469,145.020,31.738,25.391,107.910,58.105,0.000,0.000,0.000
486188.473,-67.871,47.363,34.668,-15.137,-121.094,0.000,0.000,0.000
486188.477,-145.020,43.457,33.691,-89.355,-262.207,0.000,0.000,0.000
486188.481,52.246,34.668,25.391,36.621,-110.840,0.000,0.000,0.000
486188.485,186.035,36.621,25.879,140.625,55.664,0.000,0.000,0.000
486188.489,10.742,44.434,36.133,31.738,-62.500,0.000,0.000,0.000
486188.493,-169.434,39.551,30.762,-99.609,-243.652,0.000,0.000,0.000
486188.496,-21.973,30.762,20.508,-20.996,-163.086,0.000,0.000,0.000
486188.500,162.109,25.879,20.020,122.559,54.199,0.000,0.000,0.000
486188.504,55.176,30.762,23.926,50.781,22.461,0.000,0.000,0.000
486188.508,-157.227,38.574,29.785,-97.656,-180.664,0.000,0.000,0.000
486188.512,-78.613,39.062,28.809,-57.129,-181.641,0.000,0.000,0.000
486188.516,131.836,29.297,20.508,95.215,20.996,0.000,0.000,0.000
486188.520,113.281,31.250,19.531,95.215,67.871,0.000,0.000,0.000
486188.524,-122.070,42.480,27.832,-54.688,-96.191,0.000,0.000,0.000
486188.528,-124.512,42.480,28.809,-73.730,-191.406,0.000,0.000,0.000
486188.532,93.750,31.738,23.438,72.754,-50.293,0.000,0.000,0.000
486188.535,146.973,22.949,16.602,112.793,92.285,0.000,0.000,0.000
486188.539,-67.871,37.109,30.273,-15.625,-57.129,0.000,0.000,0.000
486188.543,-159.180,46.875,38.574,-84.961,-204.102,0.000,0.000,0.000
486188.547,29.785,32.227,29.297,30.273,-66.406,0.000,0.000,0.000
486188.551,161.133,24.414,23.926,133.789,110.840,0.000,0.000,0.000
486188.555,1.465,36.621,23.438,34.180,58.594,0.000,0.000,0.000
486188.559,-167.480,41.504,24.902,-75.684,-134.766,0.000,0.000,0.000
486188.563,-35.156,33.203,20.996,-14.160,-152.344,0.000,0.000,0.000
486188.567,157.715,27.344,18.066,113.770,52.246,0.000,0.000,0.000
486188.571,84.473,31.738,29.297,80.566,53.711,0.000,0.000,0.000
486188.575,-128.906,42.969,35.156,-52.246,-158.203,0.000,0.000,0.000
486188.578,-81.055,34.668,23.438,-43.457,-224.121,0.000,0.000,0.000
486188.582,123.047,21.484,17.090,87.402,-3.418,0.000,0.000,0.000
486188.586,132.324,26.367,20.020,98.633,118.652,0.000,0.000,0.000
486188.590,-82.520,44.922,32.227,-25.391,-62.500,0.000,0.000,0.000
486188.594,-110.352,42.969,31.250,-62.500,-167.480,0.000,0.000,0.000
486188.598,82.520,21.484,15.625,51.758,29.297,0.000,0.000,0.000
486188.602,169.434,22.461,13.672,125.977,161.133,0.000,0.000,0.000
486188.606,-23.438,37.109,25.879,10.254,-48.828,0.000,0.000,0.000
486188.610,-149.414,35.156,25.391,-83.496,-262.695,0.000,0.000,0.000
486188.614,15.625,23.438,12.207,10.742,-147.949,0.000,0.000,0.000
486188.617,170.898,27.344,11.719,131.348,86.426,0.000,0.000,0.000
486188.621,38.574,40.527,22.949,54.688,22.461,0.000,0.000,0.000
486188.625,-157.715,43.945,28.809,-82.031,-181.641,0.000,0.000,0.000
486188.629,-49.316,35.156,21.484,-34.668,-213.867,0.000,0.000,0.000
486188.633,151.367,32.715,15.625,111.328,-20.996,0.000,0.000,0.000
486188.637,99.609,39.551,22.949,94.238,24.902,0.000,0.000,0.000
486188.641,-136.230,38.086,26.855,-62.012,-177.734,0.000,0.000,0.000
486188.645,-117.188,30.273,26.367,-70.801,-171.875,0.000,0.000,0.000
486188.649,110.352,25.391,26.367,88.379,40.527,0.000,0.000,0.000
486188.653,143.555,23.926,22.461,118.652,104.980,0.000,0.000,0.000
486188.657,-86.426,34.180,25.879,-25.879,-72.754,0.000,0.000,0.000
486188.660,-146.973,35.645,25.879,-86.914,-226.562,0.000,0.000,0.000
486188.664,62.012,27.344,19.531,47.363,-122.070,0.000,0.000,0.000
486188.668,175.781,31.250,20.508,145.020,79.590,0.000,0.000,0.000
486188.672,-14.160,40.527,24.902,22.949,-11.230,0.000,0.000,0.000
486188.676,-158.203,39.062,25.879,-91.309,-183.105,0.000,0.000,0.000
486188.680,14.648,35.645,24.414,12.207,-87.402,0.000,0.000,0.000
486188.684,187.012,30.762,24.902,145.996,99.121,0.000,0.000,0.000
486188.688,54.199,38.574,27.344,63.965,87.402,0.000,0.000,0.000
486188.692,-145.508,49.805,32.227,-68.359,-133.789,0.000,0.000,0.000
486188.696,-50.781,39.551,28.320,-24.414,-214.355,0.000,0.000,0.000
486188.700,148.438,26.367,20.508,114.258,-5.371,0.000,0.000,0.000
486188.703,107.422,34.668,28.809,97.168,98.633,0.000,0.000,0.000
486188.707,-127.441,44.922,36.621,-48.340,-108.887,0.000,0.000,0.000
486188.711,-118.164,35.645,27.832,-63.477,-182.617,0.000,0.000,0.000
486188.715,102.539,31.250,25.879,89.355,4.395,0.000,0.000,0.000
486188.719,150.391,30.273,27.832,126.953,112.305,0.000,0.000,0.000
486188.723,-68.848,40.527,34.668,-10.254,-39.551,0.000,0.000,0.000
486188.727,-138.672,48.828,41.504,-60.059,-224.609,0.000,0.000,0.000
486188.731,53.711,36.133,31.250,50.293,-108.887,0.000,0.000,0.000
486188.735,167.969,23.926,23.438,138.184,84.473,0.000,0.000,0.000
486188.739,8.789,36.621,37.109,41.016,0.488,4.000,1.000,0.000
486188.742,-145.508,44.434,41.504,-72.266,-174.316,0.000,0.000,0.000
486188.746,-14.648,31.738,28.320,3.906,-107.422,0.000,0.000,0.000
486188.750,162.109,25.391,22.949,132.324,117.188,0.000,0.000,0.000
486188.754,68.359,34.668,32.227,70.801,75.684,0.000,0.000,0.000
486188.758,-142.578,44.922,36.133,-85.449,-155.762,0.000,0.000,0.000
486188.762,-72.754,41.016,29.297,-61.523,-177.246,0.000,0.000,0.000
486188.766,133.301,33.691,26.367,88.379,6.348,0.000,0.000,0.000
486188.770,121.582,37.598,27.832,95.703,62.500,0.000,0.000,0.000
486188.774,-110.352,41.504,32.715,-41.504,-127.930,0.000,0.000,0.000
486188.778,-139.160,32.227,29.785,-90.820,-229.004,0.000,0.000,0.000
486188.782,78.613,28.320,27.344,52.734,-59.570,0.000,0.000,0.000
486188.785,152.344,31.738,28.320,122.070,91.797,0.000,0.000,0.000
486188.789,-62.988,39.551,34.180,-16.113,-75.195,0.000,0.000,0.000
486188.793,-168.457,33.203,31.250,-99.609,-244.141,0.000,0.000,0.000
486188.797,13.672,23.438,20.020,12.695,-52.246,0.000,0.000,0.000
486188.801,162.598,26.367,22.949,125.977,190.430,0.000,0.000,0.000
486188.805,15.625,39.062,33.691,38.574,42.480,0.000,0.000,0.000
486188.809,-156.738,47.852,36.621,-81.055,-198.730,0.000,0.000,0.000
486188.813,-31.250,39.551,26.855,-17.578,-181.641,0.000,0.000,0.000
486188.817,159.180,32.715,22.461,118.652,12.207,0.000,0.000,0.000
486188.821,80.078,39.551,28.320,77.148,42.969,0.000,0.000,0.000
486188.825,-148.926,46.875,31.250,-66.406,-120.117,0.000,0.000,0.000
486188.828,-95.703,41.504,24.414,-51.270,-176.270,0.000,0.000,0.000
486188.832,132.812,36.621,20.996,110.352,11.719,0.000,0.000,0.000
486188.836,133.301,33.691,22.949,107.910,95.703,0.000,0.000,0.000
486188.840,-107.422,39.062,27.832,-46.875,-82.031,0.000,0.000,0.000
486188.844,-135.254,45.410,29.785,-65.918,-215.820,0.000,0.000,0.000
486188.848,80.078,35.156,25.879,65.918,-73.242,0.000,0.000,0.000
486188.852,171.875,33.203,23.438,122.559,78.125,0.000,0.000,0.000
486188.856,-26.855,47.363,30.762,-2.441,-47.852,0.000,0.000,0.000
486188.860,-143.066,51.270,38.086,-85.449,-248.047,0.000,0.000,0.000
486188.864,25.391,42.969,29.785,15.625,-180.664,0.000,0.000,0.000
486188.867,161.133,33.691,20.020,115.234,90.332,0.000,0.000,0.000
486188.871,28.320,44.434,30.273,42.480,74.219,0.000,0.000,0.000
486188.875,-151.367,50.781,34.668,-78.125,-153.320,0.000,0.000,0.000
486188.879,-41.016,43.457,24.414,-32.715,-89.844,0.000,0.000,0.000
486188.883,152.832,38.086,18.555,112.793,163.574,0.000,0.000,0.000
486188.887,92.773,38.574,23.438,87.402,172.852,0.000,0.000,0.000
486188.891,-134.277,45.410,35.156,-56.641,-104.980,0.000,0.000,0.000
486188.895,-106.934,38.574,30.762,-66.406,-178.711,0.000,0.000,0.000
486188.899,108.887,31.250,22.949,80.566,13.184,0.000,0.000,0.000
486188.903,142.090,34.180,23.926,122.559,69.336,0.000,0.000,0.000
486188.907,-74.219,44.922,30.273,-12.695,-109.863,0.000,0.000,0.000
486188.910,-141.113,41.504,26.367,-81.055,-235.840,0.000,0.000,0.000
486188.914,48.828,28.320,16.602,26.855,-41.016,0.000,0.000,0.000
486188.918,166.992,33.691,15.625,124.512,190.430,0.000,0.000,0.000
486188.922,-8.789,46.387,26.367,27.344,96.680,0.000,0.000,0.000
486188.926,-155.273,45.410,27.832,-85.449,-118.164,0.000,0.000,0.000
486188.930,-3.906,33.691,18.066,-7.812,-51.270,0.000,0.000,0.000
486188.934,176.758,32.715,20.996,127.930,111.328,0.000,0.000,0.000
486188.938,68.359,41.992,29.297,71.777,25.391,0.000,0.000,0.000
486188.942,-137.207,45.410,29.785,-70.312,-133.789,0.000,0.000,0.000
486188.946,-49.316,40.039,22.949,-34.180,-119.141,0.000,0.000,0.000
486188.949,160.645,37.109,24.902,126.465,88.867,0.000,0.000,0.000
486188.953,128.418,45.898,30.273,111.816,128.418,0.000,0.000,0.000
486188.957,-123.535,45.410,24.902,-59.082,-64.941,0.000,0.000,0.000
486188.961,-131.836,33.203,15.137,-82.520,-134.277,0.000,0.000,0.000
486188.965,89.844,27.344,13.672,71.289,56.641,0.000,0.000,0.000
486188.969,147.949,31.738,17.090,119.141,183.594,0.000,0.000,0.000
486188.973,-77.637,42.480,27.832,-29.297,35.156,0.000,0.000,0.000
486188.977,-162.598,40.527,30.762,-95.703,-152.832,0.000,0.000,0.000
486188.981,36.133,31.738,21.973,32.715,-37.598,0.000,0.000,0.000
486188.985,164.551,32.227,17.090,133.789,135.254,0.000,0.000,0.000
486188.989,-7.324,40.527,25.391,30.762,-71.289,0.000,0.000,0.000
486188.992,-163.574,44.922,29.297,-89.844,-268.066,0.000,0.000,0.000
486188.996,-17.090,40.039,19.531,-14.160,-214.355,0.000,0.000,0.000
486189.000,160.645,37.109,14.648,120.605,-16.602,0.000,0.000,0.000
486189.004,60.547,40.039,15.625,58.105,-9.277,0.000,0.000,0.000
486189.008,-152.344,44.434,24.902,-80.566,-199.707,0.000,0.000,0.000
486189.012,-72.266,42.969,26.367,-45.410,-229.980,0.000,0.000,0.000
486189.016,134.277,37.109,20.508,98.633,-34.668,0.000,0.000,0.000
486189.020,104.004,34.180,17.578,86.914,30.762,0.000,0.000,0.000
486189.024,-118.652,45.410,27.344,-51.758,-146.973,0.000,0.000,0.000
486189.028,-120.117,44.922,26.367,-69.824,-239.746,0.000,0.000,0.000
486189.032,88.379,26.855,11.230,56.152,-40.527,0.000,0.000,0.000
486189.035,158.203,26.367,14.160,116.699,144.043,0.000,0.000,0.000
486189.039,-45.898,40.039,23.438,1.465,-29.785,0.000,0.000,0.000
486189.043,-149.902,39.062,25.391,-81.055,-222.656,0.000,0.000,0.000
486189.047,20.996,25.391,18.555,18.555,-153.320,0.000,0.000,0.000
486189.051,153.320,18.066,13.672,111.328,7.812,0.000,0.000,0.000
486189.055,3.418,29.785,19.043,28.809,-56.641,0.000,0.000,0.000
486189.059,-172.852,39.551,19.531,-87.402,-249.512,0.000,0.000,0.000
486189.063,-60.547,28.320,10.254,-46.875,-169.922,0.000,0.000,0.000
486189.067,134.277,24.902,5.371,94.727,85.449,0.000,0.000,0.000
486189.071,78.125,39.062,17.578,65.430,114.258,0.000,0.000,0.000
486189.074,-140.625,50.293,27.832,-72.754,-62.988,0.000,0.000,0.000
486189.078,-105.957,41.016,18.066,-64.941,-83.496,0.000,0.000,0.000
486189.082,107.910,26.855,15.625,85.938,116.699,0.000,0.000,0.000
486189.086,128.418,32.227,21.973,121.094,161.133,0.000,0.000,0.000
486189.090,-103.027,42.969,27.832,-29.297,-36.621,0.000,0.000,0.000
486189.094,-148.926,36.133,26.367,-87.891,-141.113,0.000,0.000,0.000
486189.098,63.477,28.809,20.508,45.410,-37.598,0.000,0.000,0.000
486189.102,169.922,34.180,24.414,131.348,64.453,0.000,0.000,0.000
486189.106,-37.109,39.551,28.320,5.859,-66.406,0.000,0.000,0.000
486189.110,-173.828,33.691,19.531,-104.004,-188.965,0.000,0.000,0.000
486189.114,12.695,30.273,17.090,8.301,-83.496,0.000,0.000,0.000
486189.117,175.781,31.738,17.090,138.184,64.941,0.000,0.000,0.000
486189.121,36.621,35.156,18.555,52.734,10.742,0.000,0.000,0.000
486189.125,-157.715,37.598,24.414,-84.473,-153.809,0.000,0.000,0.000
486189.129,-45.898,35.645,22.461,-33.691,-162.109,0.000,0.000,0.000
486189.133,156.738,30.273,16.602,113.770,-17.578,0.000,0.000,0.000
486189.137,101.074,31.738,21.484,89.844,39.062,0.000,0.000,0.000
486189.141,-126.465,39.062,29.297,-59.570,-122.559,0.000,0.000,0.000
486189.145,-92.773,38.574,23.438,-59.570,-202.637,0.000,0.000,0.000
486189.149,122.070,33.203,17.090,85.938,-35.645,0.000,0.000,0.000
486189.153,139.648,26.367,16.602,109.863,73.730,0.000,0.000,0.000
486189.157,-80.566,35.645,25.391,-21.973,-72.754,0.000,0.000,0.000
486189.160,-132.812,39.062,27.344,-72.266,-161.621,0.000,0.000,0.000
486189.164,59.570,24.414,17.578,51.270,-35.156,0.000,0.000,0.000
486189.168,158.691,25.879,18.066,131.348,118.652,0.000,0.000,0.000
486189.172,-22.949,32.715,25.391,17.090,19.043,0.000,0.000,0.000
486189.176,-163.086,28.809,26.367,-88.379,-184.082,0.000,0.000,0.000
486189.180,-4.395,26.855,22.949,2.441,-147.461,0.000,0.000,0.000
486189.184,163.086,23.438,20.508,133.301,86.426,0.000,0.000,0.000
486189.188,48.828,29.785,24.902,63.965,111.328,0.000,0.000,0.000
486189.192,-147.461,42.969,32.227,-61.523,-151.367,0.000,0.000,0.000
486189.196,-73.730,30.273,19.043,-36.133,-176.270,0.000,0.000,0.000
486189.199,121.094,15.137,6.836,96.680,109.375,0.000,0.000,0.000
486189.203,103.027,29.297,18.555,100.586,109.863,0.000,0.000,0.000
486189.207,-125.488,40.527,31.738,-52.734,-150.391,0.000,0.000,0.000
486189.211,-129.395,32.715,24.414,-84.473,-234.375,0.000,0.000,0.000
486189.215,83.008,25.879,14.160,58.594,1.465,0.000,0.000,0.000
486189.219,144.043,30.762,22.461,121.094,193.848,0.000,0.000,0.000
486189.223,-77.148,38.574,28.320,-11.719,-21.973,0.000,0.000,0.000
486189.227,-173.828,33.203,21.484,-92.773,-232.910,0.000,0.000,0.000
486189.231,22.461,24.414,16.602,30.273,-130.859,0.000,0.000,0.000
486189.235,156.738,22.949,20.020,140.625,27.344,0.000,0.000,0.000
486189.239,-9.277,31.738,27.344,41.016,-67.871,0.000,0.000,0.000
486189.242,-178.223,31.250,25.391,-90.332,-223.633,0.000,0.000,0.000
486189.246,-29.785,28.809,22.949,-15.137,-133.301,0.000,0.000,0.000
486189.250,165.039,35.645,22.949,130.859,118.652,0.000,0.000,0.000
486189.254,69.824,43.457,22.949,69.824,151.367,0.000,0.000,0.000
486189.258,-145.996,49.316,24.414,-75.684,-61.035,0.000,0.000,0.000
486189.262,-72.754,44.434,20.996,-51.270,-110.352,0.000,0.000,0.000
486189.266,141.602,38.574,18.555,98.633,56.641,0.000,0.000,0.000
486189.270,118.164,40.527,18.555,104.004,93.750,0.000,0.000,0.000
486189.274,-116.211,50.293,22.949,-47.363,-98.633,0.000,0.000,0.000
486189.278,-130.371,43.945,25.879,-79.590,-189.453,0.000,0.000,0.000
486189.282,86.914,34.668,24.902,65.918,-31.250,0.000,0.000,0.000
486189.285,156.738,34.668,21.973,112.305,87.891,0.000,0.000,0.000
486189.289,-59.082,38.086,26.367,-30.762,-16.113,0.000,0.000,0.000
486189.293,-158.203,40.527,28.320,-104.492,-199.219,0.000,0.000,0.000
486189.297,24.902,37.598,21.484,12.695,-121.094,0.000,0.000,0.000
486189.301,159.180,32.715,18.555,125.000,124.023,0.000,0.000,0.000
486189.305,10.254,34.668,22.949,37.598,35.156,0.000,0.000,0.000
486189.309,-156.250,45.410,33.203,-76.660,-233.887,0.000,0.000,0.000
486189.313,-39.062,37.109,30.762,-19.043,-230.957,0.000,0.000,0.000
486189.317,142.090,26.855,21.484,113.770,12.695,0.000,0.000,0.000
486189.321,72.266,36.621,21.973,75.684,39.062,0.000,0.000,0.000
486189.324,-138.672,48.340,31.250,-57.129,-205.566,0.000,0.000,0.000
486189.328,-93.750,42.969,32.715,-44.434,-294.434,0.000,0.000,0.000
486189.332,105.957,30.273,21.484,84.473,-48.828,0.000,0.000,0.000
486189.336,126.465,31.738,19.531,108.398,115.234,0.000,0.000,0.000
486189.340,-90.332,43.457,33.203,-20.508,-79.590,0.000,0.000,0.000
486189.344,-132.324,41.504,33.203,-75.195,-144.043,0.000,0.000,0.000
486189.348,71.289,27.344,21.484,53.711,99.609,0.000,0.000,0.000
486189.352,176.758,29.297,24.414,139.160,202.148,0.000,0.000,0.000
486189.356,-15.137,39.551,33.691,22.949,21.484,0.000,0.000,0.000
486189.360,-142.090,40.039,33.691,-76.172,-151.855,0.000,0.000,0.000
486189.364,26.855,35.645,24.414,15.137,-91.797,0.000,0.000,0.000
486189.367,182.129,34.180,20.996,134.766,143.555,0.000,0.000,0.000
486189.371,49.805,41.992,27.344,54.688,71.289,0.000,0.000,0.000
486189.375,-145.996,48.828,32.715,-76.172,-237.793,0.000,0.000,0.000
486189.379,-49.805,41.016,26.367,-32.227,-223.145,0.000,0.000,0.000
486189.383,144.043,31.250,21.973,106.934,26.367,0.000,0.000,0.000
486189.387,105.957,37.109,28.809,97.656,30.762,0.000,0.000,0.000
486189.391,-125.488,42.969,37.598,-50.781,-194.336,0.000,0.000,0.000
486189.395,-121.094,35.156,29.297,-71.777,-177.246,0.000,0.000,0.000
486189.399,101.562,29.297,17.090,79.590,37.109,0.000,0.000,0.000
486189.403,148.438,34.668,18.066,115.723,117.676,0.000,0.000,0.000
486189.406,-76.660,45.410,22.461,-30.273,-81.543,0.000,0.000,0.000
486189.410,-148.926,43.457,22.461,-89.844,-213.379,0.000,0.000,0.000
486189.414,61.523,41.016,25.391,49.316,-57.617,0.000,0.000,0.000
486189.418,190.430,47.363,29.785,149.414,139.160,0.000,0.000,0.000
486189.422,10.742,50.781,36.621,30.762,36.621,0.000,0.000,0.000
486189.426,-142.578,46.387,31.250,-86.914,-167.480,0.000,0.000,0.000
486189.430,13.184,41.016,22.461,2.441,-109.375,0.000,0.000,0.000
486189.434,184.570,38.086,26.367,129.883,62.500,0.000,0.000,0.000
486189.438,51.270,35.156,27.344,44.922,62.988,0.000,0.000,0.000
486189.442,-152.344,39.551,28.320,-92.773,-117.676,0.000,0.000,0.000
486189.446,-60.059,38.086,24.414,-49.805,-141.602,0.000,0.000,0.000
486189.449,144.531,30.273,19.043,97.656,43.457,0.000,0.000,0.000
486189.453,116.211,31.738,24.902,88.867,107.422,0.000,0.000,0.000
486189.457,-111.328,44.922,32.715,-55.176,-77.148,0.000,0.000,0.000
486189.461,-112.793,37.598,27.832,-83.496,-188.965,0.000,0.000,0.000
486189.465,95.703,22.949,23.926,56.641,-27.832,0.000,0.000,0.000
486189.469,149.414,25.879,26.855,113.770,87.891,0.000,0.000,0.000
486189.473,-70.312,37.598,33.691,-25.879,-53.711,0.000,0.000,0.000
486189.477,-152.344,39.551,31.738,-97.168,-187.012,0.000,0.000,0.000
486189.481,34.668,23.438,19.043,11.230,-81.055,0.000,0.000,0.000
486189.485,149.414,14.160,12.695,99.121,99.609,0.000,0.000,0.000
486189.489,-5.371,28.320,20.020,9.277,-0.488,0.000,0.000,0.000
486189.492,-161.133,38.574,27.832,-101.562,-194.336,0.000,0.000,0.000
486189.496,-34.668,29.297,23.438,-42.969,-117.676,0.000,0.000,0.000
486189.500,148.926,28.320,20.508,93.262,97.656,0.000,0.000,0.000
486189.504,70.312,36.621,27.832,55.664,75.684,0.000,0.000,0.000
486189.508,-139.160,41.016,32.227,-85.938,-126.465,0.000,0.000,0.000
486189.512,-78.613,37.109,25.391,-69.336,-159.180,0.000,0.000,0.000
486189.516,129.883,27.344,20.020,77.148,60.547,0.000,0.000,0.000
486189.520,129.395,29.785,21.973,87.402,122.070,0.000,0.000,0.000
486189.524,-101.562,37.109,27.832,-55.176,-78.613,0.000,0.000,0.000
486189.528,-143.555,29.297,25.391,-94.727,-173.340,0.000,0.000,0.000
486189.531,64.453,24.414,21.484,49.805,19.531,0.000,0.000,0.000
486189.535,156.250,27.344,24.902,130.371,184.082,0.000,0.000,0.000
486189.539,-38.574,38.086,35.645,4.883,6.348,0.000,0.000,0.000
486189.543,-146.973,35.645,36.133,-90.332,-160.645,0.000,0.000,0.000
486189.547,29.785,23.926,24.902,15.625,-80.078,0.000,0.000,0.000
486189.551,189.453,29.297,27.344,145.020,46.875,0.000,0.000,0.000
486189.555,47.852,40.527,35.645,60.547,-41.016,0.000,0.000,0.000
486189.559,-144.043,42.480,27.344,-78.125,-220.703,0.000,0.000,0.000
486189.563,-32.227,33.203,14.648,-23.926,-187.500,0.000,0.000,0.000
486189.567,164.062,30.762,13.672,128.906,4.395,0.000,0.000,0.000
486189.571,86.426,36.133,17.578,89.355,11.719,0.000,0.000,0.000
486189.574,-156.738,36.133,20.996,-70.801,-144.043,0.000,0.000,0.000
486189.578,-101.074,36.621,20.508,-52.246,-173.828,0.000,0.000,0.000
486189.582,127.930,35.156,12.695,85.449,35.645,0.000,0.000,0.000
486189.586,138.672,31.250,10.742,84.473,117.676,0.000,0.000,0.000
486189.590,-95.703,36.621,17.578,-64.941,-64.453,0.000,0.000,0.000
486189.594,-135.254,39.062,22.461,-95.703,-192.871,0.000,0.000,0.000
486189.598,74.707,32.715,16.602,49.316,-74.707,0.000,0.000,0.000
486189.602,167.480,33.203,16.113,115.234,112.305,0.000,0.000,0.000
486189.606,-29.785,39.551,23.438,-11.230,-40.039,0.000,0.000,0.000
486189.610,-161.621,37.598,24.414,-94.727,-263.672,0.000,0.000,0.000
486189.614,-3.418,29.297,18.555,-3.906,-121.582,0.000,0.000,0.000
486189.617,143.066,20.020,9.766,97.168,113.770,0.000,0.000,0.000
486189.621,17.090,29.785,12.695,24.902,60.059,0.000,0.000,0.000
486189.625,-169.922,37.598,18.066,-97.168,-178.223,0.000,0.000,0.000
486189.629,-68.359,27.832,14.160,-51.758,-199.707,0.000,0.000,0.000
486189.633,130.859,26.367,13.184,92.285,59.082,0.000,0.000,0.000
486189.637,85.938,32.715,16.602,76.172,107.422,0.000,0.000,0.000
486189.641,-135.254,40.527,22.461,-63.965,-118.164,0.000,0.000,0.000
486189.645,-109.863,36.133,22.949,-70.801,-192.871,0.000,0.000,0.000
486189.649,110.352,29.297,18.555,76.172,-16.602,0.000,0.000,0.000
486189.653,156.738,35.156,26.367,119.629,112.793,0.000,0.000,0.000
486189.656,-54.199,44.922,37.598,-16.602,-48.340,0.000,0.000,0.000
486189.660,-123.535,39.551,33.203,-82.520,-188.965,0.000,0.000,0.000
486189.664,60.059,28.320,24.414,28.320,18.066,0.000,0.000,0.000
486189.668,180.664,29.785,26.855,131.348,247.559,0.000,0.000,0.000
486189.672,0.977,35.645,30.762,22.949,124.512,0.000,0.000,0.000
486189.676,-158.691,37.598,25.391,-102.539,-65.918,0.000,0.000,0.000
486189.680,-1.953,33.691,21.973,-13.672,5.859,0.000,0.000,0.000
486189.684,178.223,31.250,24.414,125.977,198.730,0.000,0.000,0.000
486189.688,75.195,40.527,34.668,69.824,104.980,0.000,0.000,0.000
486189.692,-133.789,45.410,35.645,-80.566,-167.969,0.000,0.000,0.000
486189.696,-53.223,38.574,29.297,-54.688,-185.547,0.000,0.000,0.000
486189.699,163.574,36.133,29.785,114.258,50.293,0.000,0.000,0.000
486189.703,140.137,36.621,30.273,107.422,89.355,0.000,0.000,0.000
486189.707,-110.840,36.133,28.809,-65.918,-112.305,0.000,0.000,0.000
486189.711,-119.629,33.691,26.855,-88.867,-165.039,0.000,0.000,0.000
486189.715,103.516,28.809,23.926,66.406,-31.250,0.000,0.000,0.000
486189.719,159.668,28.809,19.531,122.070,96.191,0.000,0.000,0.000
486189.723,-57.617,38.086,26.855,-19.043,-9.766,0.000,0.000,0.000
486189.727,-138.184,38.574,31.250,-97.656,-125.977,0.000,0.000,0.000
486189.731,63.477,34.180,25.879,20.020,-0.488,0.000,0.000,0.000
486189.735,191.406,30.762,17.090,118.164,113.281,0.000,0.000,0.000
486189.738,17.578,34.668,15.137,17.090,-12.695,0.000,0.000,0.000
486189.742,-152.344,40.039,18.066,-102.051,-164.062,0.000,0.000,0.000
486189.746,-10.254,36.621,17.090,-21.484,-104.980,0.000,0.000,0.000
486189.750,166.016,27.344,16.113,111.328,128.418,0.000,0.000,0.000
486189.754,68.848,27.832,18.555,48.828,130.371,0.000,0.000,0.000
486189.758,-136.230,40.527,23.926,-83.984,-116.211,0.000,0.000,0.000
486189.762,-72.266,38.574,23.926,-60.547,-103.516,0.000,0.000,0.000
486189.766,127.930,28.320,18.066,80.078,154.785,0.000,0.000,0.000
486189.770,123.535,34.180,15.625,84.473,212.891,0.000,0.000,0.000
486189.774,-94.238,45.898,23.438,-56.152,-25.391,0.000,0.000,0.000
486189.778,-116.211,38.574,20.508,-91.797,-166.016,0.000,0.000,0.000
486189.781,89.355,28.809,10.254,41.504,-12.695,0.000,0.000,0.000
486189.785,168.945,30.273,16.113,116.699,141.113,0.000,0.000,0.000
486189.789,-23.438,41.016,33.691,-1.465,-3.418,0.000,0.000,0.000
486189.793,-122.070,48.828,34.668,-82.520,-202.148,0.000,0.000,0.000
486189.797,41.992,32.715,25.391,14.648,-104.980,0.000,0.000,0.000
486189.801,174.805,21.973,22.949,113.281,95.703,0.000,0.000,0.000
486189.805,40.039,38.574,31.738,41.992,21.973,0.000,0.000,0.000
486189.809,-140.625,42.969,36.621,-84.473,-218.262,0.000,0.000,0.000
486189.813,-46.875,25.879,21.973,-57.129,-203.125,0.000,0.000,0.000
486189.817,139.648,23.438,18.066,87.402,57.129,0.000,0.000,0.000
486189.821,86.914,37.109,29.785,67.383,122.559,0.000,0.000,0.000
486189.824,-128.418,42.969,35.156,-76.660,-72.754,0.000,0.000,0.000
486189.828,-96.191,32.227,29.297,-81.055,-190.430,0.000,0.000,0.000
486189.832,116.211,26.855,23.438,69.336,-50.293,0.000,0.000,0.000
486189.836,139.648,31.250,26.367,106.445,47.852,0.000,0.000,0.000
486189.840,-83.008,39.551,33.691,-35.156,-139.160,0.000,0.000,0.000
486189.844,-132.812,32.227,29.297,-93.262,-283.691,0.000,0.000,0.000
486189.848,64.453,22.461,19.531,24.414,-105.957,0.000,0.000,0.000
486189.852,174.316,28.809,20.020,113.770,56.641,0.000,0.000,0.000
486189.856,-20.996,35.645,24.902,-1.953,-63.965,0.000,0.000,0.000
486189.860,-166.016,35.645,18.555,-120.117,-216.309,0.000,0.000,0.000
486189.863,10.254,31.738,15.137,-14.160,-136.719,0.000,0.000,0.000
486189.867,175.293,26.855,13.184,109.375,56.152,0.000,0.000,0.000
486189.871,45.898,34.668,11.230,22.461,7.812,0.000,0.000,0.000
486189.875,-144.531,39.062,17.090,-105.469,-158.203,0.000,0.000,0.000
486189.879,-41.992,36.133,20.020,-56.152,-123.535,0.000,0.000,0.000
486189.883,160.645,37.109,17.090,92.285,57.129,0.000,0.000,0.000
486189.887,114.258,39.062,21.973,64.941,119.629,0.000,0.000,0.000
486189.891,-118.164,39.062,28.809,-86.914,-74.219,0.000,0.000,0.000
486189.895,-94.727,34.180,25.391,-82.520,-195.312,0.000,0.000,0.000
486189.899,113.281,25.879,20.996,62.988,-14.648,0.000,0.000,0.000
486189.903,134.766,20.508,18.066,87.891,108.887,0.000,0.000,0.000
486189.906,-83.496,33.691,25.879,-49.316,-39.062,0.000,0.000,0.000
486189.910,-148.926,36.621,27.832,-108.887,-178.711,0.000,0.000,0.000
486189.914,46.387,27.832,22.949,16.113,-91.797,0.000,0.000,0.000
486189.918,157.715,29.785,20.996,108.398,102.051,0.000,0.000,0.000
486189.922,-10.742,44.434,29.785,5.371,41.016,0.000,0.000,0.000
486189.926,-151.367,47.852,31.738,-106.934,-118.164,0.000,0.000,0.000
486189.930,-6.348,34.180,20.508,-28.809,0.977,0.000,0.000,0.000
486189.934,170.410,35.156,21.973,115.234,233.398,0.000,0.000,0.000
486189.938,64.453,44.922,30.762,53.711,189.453,0.000,0.000,0.000
486189.942,-137.695,48.340,34.668,-79.102,-74.219,0.000,0.000,0.000
