timestamps,TP9,AF7,AF8,TP10,Right AUX,Marker
1486664616.629,31.250,28.809,40.527,39.062,-126.953,0
1486664616.632,31.250,24.414,44.922,52.734,-83.008,0
1486664616.636,36.133,21.973,40.527,74.707,96.191,0
1486664616.640,46.875,22.461,41.016,74.219,213.379,0
1486664616.644,38.086,23.926,43.457,49.805,41.016,0
1486664616.648,32.715,23.438,39.551,53.223,-113.281,0
1486664616.652,36.133,25.879,38.086,58.105,-104.004,0
1486664616.656,34.668,27.832,43.945,63.965,35.645,0
1486664616.660,45.898,25.879,45.898,82.520,220.703,0
1486664616.664,39.062,26.855,41.992,62.012,93.262,0
1486664616.668,30.273,28.320,36.133,47.852,-69.824,0
1486664616.672,31.738,25.391,34.180,57.129,-109.863,0
1486664616.675,30.273,23.926,35.645,66.895,24.414,0
1486664616.679,35.156,23.926,36.133,79.102,239.746,0
1486664616.683,36.621,27.344,38.086,51.758,101.074,0
1486664616.687,40.527,29.785,38.086,38.086,-141.113,0
1486664616.691,39.551,28.809,38.086,59.082,-152.344,0
1486664616.695,36.133,25.391,37.598,73.242,-22.949,0
1486664616.699,50.293,28.320,39.062,82.520,182.617,0
1486664616.703,47.363,32.227,35.156,62.012,127.441,0
1486664616.707,36.133,29.297,28.320,36.621,-105.469,0
1486664616.711,37.598,25.391,31.738,43.457,-140.137,0
1486664616.715,36.621,23.926,34.668,59.082,-13.672,0
1486664616.718,36.621,24.902,32.715,67.871,195.801,0
1486664616.722,38.574,25.879,35.645,54.688,183.594,0
1486664616.726,29.297,23.926,35.645,39.062,-48.340,0
1486664616.730,31.738,23.438,35.645,43.945,-101.074,0
1486664616.734,25.879,26.367,41.016,50.781,-2.441,0
1486664616.738,29.785,23.926,37.598,70.801,189.453,0
1486664616.742,43.945,22.949,39.062,64.453,210.449,0
1486664616.746,28.809,21.973,38.574,39.062,-27.832,0
1486664616.750,30.273,20.996,33.203,46.875,-127.441,0
1486664616.754,36.133,21.484,34.668,56.152,-76.172,0
1486664616.757,41.992,23.438,37.109,71.777,161.133,0
1486664616.761,46.875,27.344,36.621,73.242,257.812,0
1486664616.765,39.062,24.414,36.133,49.316,13.184,0
1486664616.769,35.156,21.484,39.062,55.176,-100.586,0
1486664616.773,41.992,23.926,40.527,74.219,-40.039,0
1486664616.777,45.410,23.438,40.039,83.984,144.531,0
1486664616.781,41.504,24.902,45.410,73.242,223.633,0
1486664616.785,42.969,28.809,47.852,49.805,21.484,0
1486664616.789,37.598,22.949,37.598,42.969,-101.562,0
1486664616.793,27.344,17.090,35.156,51.758,-82.520,0
1486664616.797,28.809,21.484,35.156,65.430,72.754,0
1486664616.800,33.203,20.996,33.691,62.500,241.699,0
1486664616.804,24.414,19.043,36.133,36.621,36.621,0
1486664616.808,23.926,20.508,33.203,31.738,-126.953,0
1486664616.812,29.785,22.949,37.109,39.062,-97.168,0
1486664616.816,32.227,23.926,40.039,61.035,100.586,0
1486664616.820,45.410,22.461,38.574,74.707,274.902,0
1486664616.824,35.645,22.949,38.574,47.852,77.148,0
1486664616.828,27.344,25.879,37.598,42.969,-99.121,0
1486664616.832,39.062,26.367,38.086,59.570,-70.801,0
1486664616.836,40.527,24.902,32.715,72.266,84.473,0
1486664616.839,45.898,24.902,30.273,80.566,270.508,0
1486664616.843,42.480,24.902,33.203,61.523,110.352,0
1486664616.847,37.109,24.902,34.180,41.504,-117.676,0
1486664616.851,44.922,27.344,37.109,52.734,-149.414,0
1486664616.855,49.805,25.879,37.109,69.824,10.742,0
1486664616.859,48.828,23.438,36.133,83.496,287.109,0
1486664616.863,47.363,22.949,36.133,67.383,177.734,0
1486664616.867,43.945,20.996,36.133,44.434,-51.270,0
1486664616.871,35.156,25.879,41.016,47.363,-71.289,0
1486664616.875,37.109,29.785,41.016,62.012,27.832,0
1486664616.879,46.875,27.344,33.691,77.637,240.723,0
1486664616.882,38.574,25.391,26.367,55.176,194.824,1
1486664616.886,35.156,21.484,27.832,32.227,-24.902,0
1486664616.890,39.551,21.484,33.203,41.016,-65.918,0
1486664616.894,35.156,26.367,36.133,58.594,0.000,0
1486664616.898,33.691,26.367,38.574,71.777,222.168,0
1486664616.902,39.062,25.391,41.992,65.430,240.234,0
1486664616.906,43.457,28.809,44.434,53.223,-6.836,0
1486664616.910,41.504,34.180,41.016,55.664,-92.773,0
1486664616.914,41.016,30.762,34.668,68.359,-58.594,0
1486664616.918,45.898,20.996,31.738,83.496,174.805,0
1486664616.922,46.875,20.996,31.250,71.777,252.930,0
1486664616.925,39.062,22.949,33.203,46.875,-3.906,0
1486664616.929,37.109,25.391,32.715,46.875,-104.980,0
1486664616.933,36.133,29.297,33.203,51.270,-54.688,0
1486664616.937,37.109,25.391,37.598,68.359,139.160,0
1486664616.941,34.668,22.949,33.203,58.594,281.250,0
1486664616.945,26.367,26.855,32.715,33.691,77.637,0
1486664616.949,35.156,26.855,36.621,45.898,-83.008,0
1486664616.953,34.668,22.949,34.180,54.199,-16.113,0
1486664616.957,35.645,22.949,35.156,73.242,189.941,0
1486664616.961,44.922,27.344,35.645,87.891,315.430,0
1486664616.964,36.621,25.391,36.621,60.547,76.660,0
1486664616.968,38.574,23.926,37.109,55.176,-93.750,0
1486664616.972,38.574,28.320,41.992,65.918,-65.918,0
1486664616.976,38.086,24.902,40.527,78.125,96.191,0
1486664616.980,44.922,22.461,39.551,80.566,291.016,0
1486664616.984,33.691,22.949,40.527,44.434,114.746,0
1486664616.988,28.809,17.090,33.203,37.109,-65.918,0
1486664616.992,30.762,17.578,37.109,62.012,-51.270,0
1486664616.996,41.016,24.414,46.387,77.637,80.078,0
1486664617.000,50.293,27.832,40.527,78.613,277.344,0
1486664617.004,30.273,24.414,25.391,45.410,125.977,0
1486664617.007,25.879,20.996,30.273,28.809,-67.871,0
1486664617.011,29.297,22.949,35.156,38.574,-69.824,0
1486664617.015,27.832,24.902,35.645,47.363,45.898,0
1486664617.019,34.180,27.344,38.574,66.406,260.254,0
1486664617.023,28.320,29.785,36.621,49.805,156.738,0
1486664617.027,25.391,26.855,30.762,23.438,-34.180,0
1486664617.031,33.691,25.879,36.133,37.109,-87.891,0
1486664617.035,31.738,26.367,40.039,57.129,3.418,0
1486664617.039,29.785,25.391,34.180,71.777,267.090,0
1486664617.043,39.551,28.320,33.203,60.059,192.383,0
1486664617.047,33.691,27.344,39.062,43.457,-43.945,0
1486664617.050,20.996,22.949,43.945,49.316,-82.031,0
1486664617.054,21.484,26.367,29.785,62.500,24.902,0
1486664617.058,29.785,29.785,28.809,84.961,239.746,0
1486664617.062,34.180,25.391,35.645,72.754,210.449,0
1486664617.066,33.691,20.508,34.668,48.828,-33.691,0
1486664617.070,34.668,24.902,41.016,57.617,-93.750,0
1486664617.074,33.691,27.832,41.016,63.477,-22.461,0
1486664617.078,45.410,24.414,41.992,77.637,193.359,0
1486664617.082,42.480,20.508,40.527,65.430,261.719,0
1486664617.086,28.320,21.484,25.879,42.969,12.695,0
1486664617.089,31.250,25.879,24.414,41.016,-102.539,0
1486664617.093,35.645,28.809,30.762,47.363,-68.848,0
1486664617.097,42.480,32.227,35.156,70.312,154.785,0
1486664617.101,41.504,28.320,37.109,64.453,260.742,0
1486664617.105,31.250,26.367,43.945,34.668,-4.883,0
1486664617.109,38.086,27.344,49.805,39.062,-118.164,0
1486664617.113,34.180,27.344,31.738,44.434,-68.359,0
1486664617.117,34.668,25.879,28.320,62.012,145.996,0
1486664617.121,44.922,22.949,36.621,70.312,269.043,0
1486664617.125,39.551,22.461,39.551,46.387,12.207,0
1486664617.129,37.109,20.508,40.527,44.434,-108.887,0
1486664617.132,35.156,21.484,39.551,57.617,-99.121,0
1486664617.136,43.457,31.250,47.363,88.867,51.758,0
1486664617.140,50.293,37.109,49.316,91.309,241.699,0
1486664617.144,34.668,28.809,42.480,51.270,35.645,0
1486664617.148,29.785,23.438,43.457,41.016,-141.113,0
1486664617.152,35.156,25.391,36.133,46.875,-96.191,0
1486664617.156,41.016,29.297,30.762,66.406,58.105,0
1486664617.160,46.875,28.320,38.086,78.613,236.328,0
1486664617.164,35.645,25.879,42.969,59.082,86.426,0
1486664617.168,34.180,25.391,44.922,49.316,-126.953,0
1486664617.171,42.480,24.902,52.246,60.059,-148.926,0
1486664617.175,39.551,24.902,49.805,75.684,-22.949,0
1486664617.179,40.527,24.902,39.551,79.590,209.473,0
1486664617.183,38.086,22.461,45.410,54.688,103.516,0
1486664617.187,33.203,19.043,48.828,41.504,-112.305,0
1486664617.191,36.621,23.926,35.156,50.293,-82.031,0
1486664617.195,32.715,25.391,33.691,59.082,43.945,0
1486664617.199,38.086,21.484,42.480,75.195,220.703,0
1486664617.203,37.598,25.879,48.340,64.453,149.414,0
1486664617.207,23.926,27.344,44.434,39.062,-83.984,0
1486664617.211,26.367,15.625,37.598,35.645,-115.723,0
1486664617.214,25.879,16.113,36.621,52.734,2.930,0
1486664617.218,36.133,25.391,34.668,74.219,211.914,0
1486664617.222,38.086,21.973,34.668,62.500,186.035,0
1486664617.226,27.832,19.043,36.133,41.016,-53.223,0
1486664617.230,29.785,25.879,37.109,38.574,-117.676,0
1486664617.234,26.855,31.250,46.875,53.711,-60.547,0
1486664617.238,45.410,28.809,47.363,79.102,152.344,0
1486664617.242,46.387,24.902,34.668,68.848,216.797,0
1486664617.246,36.133,24.902,39.062,41.504,-56.641,0
1486664617.250,40.527,26.855,42.480,49.316,-163.086,0
1486664617.254,40.527,26.367,38.086,68.848,-62.500,0
1486664617.257,45.898,22.949,46.387,86.426,148.926,0
1486664617.261,43.457,21.973,49.805,75.195,248.047,0
1486664617.265,36.133,18.555,41.992,47.363,16.113,0
1486664617.269,36.133,17.578,41.016,54.199,-149.902,0
1486664617.273,27.344,18.066,42.969,54.688,-83.496,0
1486664617.277,28.809,21.484,51.270,71.289,158.203,0
1486664617.281,37.109,25.391,49.805,79.590,243.164,0
1486664617.285,27.832,20.996,36.621,44.922,7.812,0
1486664617.289,24.902,20.020,39.062,43.945,-114.746,0
1486664617.293,27.344,22.461,48.828,59.082,-98.145,0
1486664617.296,29.297,19.531,47.363,75.684,80.566,0
1486664617.300,36.133,17.578,41.992,82.031,216.309,0
1486664617.304,29.297,19.043,42.969,54.199,21.973,0
1486664617.308,30.762,21.484,39.062,44.922,-96.680,0
1486664617.312,39.062,27.832,36.621,46.875,-95.703,0
1486664617.316,33.691,32.715,38.086,54.199,59.082,0
1486664617.320,37.598,31.250,39.062,68.359,264.648,0
1486664617.324,34.668,27.832,36.133,40.527,89.355,0
1486664617.328,33.691,23.438,31.250,28.320,-113.770,0
1486664617.332,39.551,24.902,33.691,48.828,-79.590,0
1486664617.336,48.340,27.832,38.086,72.266,56.641,0
1486664617.339,53.223,26.367,38.574,85.938,250.488,0
1486664617.343,43.457,25.391,35.156,65.430,150.879,0
1486664617.347,39.062,27.344,33.691,50.781,-118.164,0
1486664617.351,35.156,29.297,35.645,50.781,-156.250,0
1486664617.355,37.598,34.180,43.457,62.988,3.906,0
1486664617.359,39.062,32.227,48.340,80.566,211.914,0
1486664617.363,23.438,21.973,43.457,58.594,115.723,0
1486664617.367,18.555,16.113,42.480,39.062,-97.168,0
1486664617.371,27.344,16.113,48.828,41.016,-166.016,0
1486664617.375,24.902,20.020,42.969,55.664,-41.016,0
1486664617.379,29.785,22.949,39.551,73.242,210.938,0
1486664617.382,36.133,27.832,41.016,61.523,169.434,0
1486664617.386,29.785,26.367,37.598,42.969,-70.312,0
1486664617.390,31.738,22.461,42.480,50.781,-157.227,0
1486664617.394,35.645,25.879,45.898,63.965,-41.992,0
1486664617.398,40.527,29.297,39.062,76.660,194.824,0
1486664617.402,41.504,32.227,35.156,60.059,205.566,0
1486664617.406,37.109,31.250,37.598,39.062,-36.621,0
1486664617.410,38.574,26.367,42.480,46.875,-169.922,0
1486664617.414,33.203,24.414,46.875,50.781,-132.812,1
1486664617.418,27.344,21.973,36.621,65.430,92.773,0
1486664617.421,28.320,22.949,24.902,62.500,202.637,0
1486664617.425,20.508,25.391,27.832,31.738,-3.906,0
1486664617.429,23.438,23.926,31.738,35.156,-146.973,0
1486664617.433,28.320,26.855,37.109,53.223,-83.496,0
1486664617.437,33.203,27.344,46.387,75.195,136.719,0
1486664617.441,34.668,19.531,48.340,75.195,233.398,0
1486664617.445,28.809,18.555,39.551,43.457,50.781,0
1486664617.449,27.344,22.461,31.250,36.621,-100.098,0
1486664617.453,27.344,22.461,33.691,49.805,-86.914,0
1486664617.457,29.297,23.438,37.598,73.242,114.746,0
1486664617.461,40.527,27.344,39.551,77.148,277.344,0
1486664617.464,37.109,25.391,38.574,48.828,96.680,0
1486664617.468,39.551,26.367,45.410,48.340,-73.242,0
1486664617.472,39.551,27.344,49.805,56.152,-60.547,0
1486664617.476,35.645,19.531,43.457,68.359,88.867,0
1486664617.480,36.133,19.043,42.969,75.684,267.090,0
1486664617.484,27.832,17.578,38.574,41.504,99.121,0
1486664617.488,32.715,20.020,43.945,32.227,-66.406,0
1486664617.492,39.551,27.344,48.828,49.805,-75.684,0
1486664617.496,38.574,27.832,41.016,59.082,98.145,0
1486664617.500,43.945,26.855,37.598,70.312,328.125,0
1486664617.503,41.504,24.414,36.133,54.688,129.395,0
1486664617.507,41.504,26.367,43.945,37.598,-90.332,0
1486664617.511,42.969,30.273,49.805,39.062,-90.820,0
1486664617.515,44.434,33.691,42.969,52.246,32.227,0
1486664617.519,49.805,31.738,34.668,64.941,241.699,0
1486664617.523,43.945,29.297,30.762,36.133,143.066,0
1486664617.527,39.551,29.297,33.203,20.508,-86.914,0
1486664617.531,41.992,31.250,42.480,37.109,-90.820,0
1486664617.535,41.016,33.203,46.387,59.082,31.250,0
1486664617.539,39.062,26.855,42.480,79.102,238.770,0
1486664617.543,33.203,22.949,33.203,58.594,187.988,0
1486664617.546,32.227,24.414,36.133,40.527,-38.574,0
1486664617.550,35.645,28.809,44.922,53.711,-124.023,0
1486664617.554,30.273,27.344,41.992,63.965,-51.270,0
1486664617.558,37.598,27.832,44.922,83.984,208.984,0
1486664617.562,39.551,33.203,46.875,75.195,206.055,0
1486664617.566,34.180,29.785,41.504,47.363,-16.602,0
1486664617.570,36.621,22.949,43.945,50.293,-96.191,0
1486664617.574,33.691,22.949,53.223,63.965,-23.926,0
1486664617.578,37.598,23.438,44.922,83.984,199.707,0
1486664617.582,35.645,19.531,43.945,74.707,211.426,0
1486664617.586,30.762,22.461,50.293,49.316,2.930,0
1486664617.589,38.086,28.809,42.480,49.805,-82.520,0
1486664617.593,36.621,25.879,40.527,52.246,-51.270,0
1486664617.597,39.062,23.926,40.039,69.824,165.527,0
1486664617.601,47.852,33.203,47.363,82.520,252.441,0
1486664617.605,44.922,31.250,45.898,51.758,21.484,0
1486664617.609,39.062,24.414,42.969,40.039,-70.801,0
1486664617.613,34.668,25.879,41.992,53.223,12.207,0
1486664617.617,45.898,25.879,36.133,68.848,180.176,0
1486664617.621,53.711,27.832,33.691,73.730,278.809,0
1486664617.625,42.480,28.809,37.598,52.246,49.805,0
1486664617.628,43.457,26.367,43.457,50.293,-113.281,0
1486664617.632,35.645,25.391,44.922,56.152,-81.543,0
1486664617.636,33.203,23.926,43.457,75.195,97.168,0
1486664617.640,39.551,21.484,43.457,73.242,289.551,0
1486664617.644,30.762,22.949,38.086,41.016,121.094,0
1486664617.648,28.809,24.902,35.156,32.227,-78.125,0
1486664617.652,28.320,17.090,41.016,35.156,-46.875,0
1486664617.656,33.203,16.113,48.340,56.152,130.859,0
1486664617.660,36.133,22.949,49.805,78.613,328.125,0
1486664617.664,31.250,21.973,42.969,55.176,181.641,0
1486664617.668,33.691,20.996,40.527,34.668,-42.480,0
1486664617.671,34.180,20.996,41.992,44.922,-58.105,0
1486664617.675,36.133,22.949,41.016,62.500,94.727,0
1486664617.679,37.109,22.949,39.551,74.707,272.461,0
1486664617.683,34.180,19.043,43.457,51.758,186.035,0
1486664617.687,38.574,16.602,43.945,40.039,-26.855,0
1486664617.691,35.156,19.531,44.922,49.316,-97.656,0
1486664617.695,33.691,23.926,44.434,64.453,13.184,0
1486664617.699,42.969,30.273,40.527,86.426,241.211,0
1486664617.703,43.945,30.762,39.062,69.336,190.918,0
1486664617.707,46.875,28.320,37.598,45.898,-33.203,0
1486664617.711,50.781,36.133,40.527,50.293,-86.914,0
1486664617.714,48.828,33.691,41.016,61.523,2.441,0
1486664617.718,49.316,26.367,43.945,76.660,199.219,0
1486664617.722,46.387,26.855,42.480,65.918,176.270,0
1486664617.726,46.875,25.391,39.551,47.852,-61.523,0
1486664617.730,46.387,24.902,38.574,46.875,-145.020,0
1486664617.734,45.898,31.250,36.621,56.641,-38.574,0
1486664617.738,45.410,31.738,36.621,74.707,229.980,0
1486664617.742,41.016,28.320,39.551,64.941,271.484,0
1486664617.746,36.621,24.414,43.457,44.922,11.230,0
1486664617.750,40.527,22.949,49.805,46.387,-100.586,0
1486664617.753,39.551,21.973,55.176,59.082,-40.039,0
1486664617.757,32.227,17.090,45.898,82.520,157.715,0
1486664617.761,40.527,17.090,36.621,74.707,235.840,0
1486664617.765,35.645,22.949,37.109,43.457,41.016,0
1486664617.769,38.574,29.297,40.039,42.969,-78.613,0
1486664617.773,46.387,28.809,39.062,57.617,-21.484,0
1486664617.777,37.598,26.367,36.621,71.777,170.410,0
1486664617.781,44.922,27.344,37.598,74.707,277.832,0
1486664617.785,48.340,25.391,37.109,48.340,68.848,0
1486664617.789,40.527,20.996,42.480,38.086,-94.727,0
1486664617.793,35.156,22.949,47.363,47.852,-78.125,0
1486664617.796,33.203,28.320,33.691,69.824,102.051,0
1486664617.800,35.156,21.484,28.809,74.219,263.184,0
1486664617.804,32.715,19.043,34.668,48.340,73.242,0
1486664617.808,29.297,22.461,32.227,24.414,-112.793,0
1486664617.812,29.785,25.391,38.574,31.250,-83.984,0
1486664617.816,36.133,26.367,46.875,60.059,96.191,0
1486664617.820,44.922,23.926,37.598,72.266,215.332,0
1486664617.824,31.250,26.367,33.203,53.223,92.285,0
1486664617.828,20.996,25.879,32.715,31.738,-93.750,0
1486664617.832,29.297,24.902,35.645,41.504,-155.762,0
1486664617.835,33.691,27.344,42.969,63.965,0.488,0
1486664617.839,35.645,22.949,38.574,69.336,244.141,0
1486664617.843,29.785,18.066,29.785,44.922,136.230,0
1486664617.847,28.809,22.461,36.621,35.156,-60.059,0
1486664617.851,34.668,26.855,41.992,43.457,-77.148,0
1486664617.855,36.133,27.344,35.645,61.523,31.250,0
1486664617.859,36.621,25.879,33.691,76.660,231.445,0
1486664617.863,32.227,25.879,34.668,56.152,161.133,0
1486664617.867,30.273,21.484,38.574,43.457,-82.520,0
1486664617.871,32.227,20.020,43.457,47.363,-115.723,0
1486664617.875,32.715,24.902,46.387,58.105,-3.418,0
1486664617.878,30.273,21.973,46.387,76.172,232.910,0
1486664617.882,26.855,19.043,37.109,58.594,229.004,0
1486664617.886,34.180,24.414,31.738,33.691,0.977,0
1486664617.890,36.621,25.391,32.227,42.480,-73.730,0
1486664617.894,29.297,20.508,31.738,52.734,4.395,0
1486664617.898,37.109,20.996,36.621,71.777,215.820,0
1486664617.902,43.457,24.902,40.039,70.312,248.047,0
1486664617.906,33.203,25.879,44.434,41.504,-12.207,0
1486664617.910,24.414,25.391,47.852,38.086,-125.000,0
1486664617.914,24.414,25.879,44.434,54.199,-70.801,0
1486664617.918,31.250,27.344,41.504,78.613,157.227,0
1486664617.921,38.086,26.855,39.062,70.312,241.211,0
1486664617.925,29.785,18.555,34.668,43.457,-19.043,0
1486664617.929,35.156,16.113,39.062,46.387,-95.215,0
1486664617.933,44.434,25.879,45.898,56.152,-46.875,0
1486664617.937,40.039,29.297,38.086,71.777,154.785,0
1486664617.941,36.133,19.043,35.156,66.406,282.227,0
1486664617.945,31.738,16.602,41.992,43.457,56.641,0
1486664617.949,35.156,20.020,40.039,38.086,-73.242,0
1486664617.953,26.855,21.484,35.156,44.434,-59.082,1
1486664617.957,22.949,26.367,42.480,64.453,90.820,0
1486664617.960,30.273,25.391,41.992,65.918,221.191,0
1486664617.964,23.438,22.461,37.598,34.668,34.180,0
1486664617.968,26.855,25.879,38.574,27.344,-114.746,0
1486664617.972,32.227,29.785,41.992,45.898,-107.422,0
1486664617.976,27.832,23.926,37.598,65.430,76.172,0
1486664617.980,26.367,20.020,34.180,75.195,284.668,0
1486664617.984,27.344,23.438,40.527,48.340,59.082,0
1486664617.988,32.227,21.973,36.133,35.645,-142.090,0
1486664617.992,29.785,20.996,33.691,48.828,-96.191,0
1486664617.996,35.645,22.949,41.992,72.754,17.578,0
1486664618.000,46.387,24.902,37.598,82.031,222.656,0
1486664618.003,31.738,23.438,34.668,55.176,114.746,0
1486664618.007,36.621,22.949,34.668,46.875,-108.398,0
1486664618.011,50.293,28.320,34.180,55.176,-131.836,0
1486664618.015,44.434,29.785,43.945,66.406,-15.625,0
1486664618.019,40.527,25.391,41.992,76.660,252.930,0
1486664618.023,38.086,27.344,34.180,55.664,141.602,0
1486664618.027,41.016,33.203,35.645,38.574,-129.395,0
1486664618.031,43.457,31.250,35.156,51.270,-126.465,0
1486664618.035,37.109,24.902,38.574,67.383,-7.812,0
1486664618.039,35.645,22.461,44.922,82.520,207.031,0
1486664618.043,35.645,23.438,37.598,66.895,196.777,0
1486664618.046,25.879,24.414,33.691,45.410,-63.477,0
1486664618.050,31.738,25.879,42.969,47.852,-145.020,0
1486664618.054,38.574,22.949,42.969,59.082,-34.180,0
1486664618.058,40.527,21.484,40.527,82.031,200.195,0
1486664618.062,40.527,25.391,44.434,76.660,207.520,0
1486664618.066,42.969,25.391,42.480,53.711,-49.805,0
1486664618.070,41.016,26.367,42.969,58.594,-102.539,0
1486664618.074,41.016,29.785,44.434,72.754,-38.086,0
1486664618.078,43.945,35.156,41.992,87.891,160.645,0
1486664618.082,36.621,30.762,45.898,73.730,242.676,0
1486664618.085,30.762,18.555,41.992,45.898,4.395,0
1486664618.089,31.250,18.555,30.762,43.945,-88.867,0
1486664618.093,30.273,25.391,38.086,57.129,-37.109,0
1486664618.097,38.086,28.320,43.945,80.566,175.781,0
1486664618.101,42.480,26.855,35.156,78.125,262.207,0
1486664618.105,42.480,26.855,35.645,48.828,3.418,0
1486664618.109,43.457,25.391,40.527,49.316,-127.930,0
1486664618.113,44.922,27.344,41.992,65.430,-92.773,0
1486664618.117,47.363,27.344,41.016,83.984,107.910,0
1486664618.121,40.527,31.250,45.898,82.520,281.250,0
1486664618.125,37.598,31.738,39.062,51.758,59.570,0
1486664618.128,32.715,22.461,25.879,44.922,-142.090,0
1486664618.132,33.203,22.461,31.738,55.176,-78.613,0
1486664618.136,41.016,30.762,40.039,75.195,129.395,0
1486664618.140,43.457,29.297,36.133,78.125,284.180,0
1486664618.144,36.621,21.484,36.621,48.828,90.820,0
1486664618.148,43.457,21.484,41.504,45.410,-103.516,0
1486664618.152,50.293,24.902,36.133,66.895,-114.746,0
1486664618.156,47.852,25.391,33.691,84.473,65.430,0
1486664618.160,46.875,26.367,34.180,86.914,286.621,0
1486664618.164,45.898,27.344,32.715,60.059,117.676,0
1486664618.167,46.875,26.855,35.645,44.922,-90.332,0
1486664618.171,39.062,28.320,37.598,49.805,-85.449,0
1486664618.175,29.297,27.344,36.133,61.035,61.523,0
1486664618.179,39.062,27.344,42.969,78.613,261.230,0
1486664618.183,38.574,30.762,46.875,57.617,165.039,0
1486664618.187,30.762,26.855,34.668,33.691,-50.293,0
1486664618.191,29.297,22.461,31.250,43.945,-82.520,0
1486664618.195,28.809,24.414,40.527,65.430,39.551,0
1486664618.199,37.598,22.949,40.039,81.543,298.340,0
1486664618.203,36.133,18.555,36.621,59.082,247.559,0
1486664618.207,37.598,18.066,39.062,38.086,-36.621,0
1486664618.210,39.062,20.996,39.062,54.688,-114.746,0
1486664618.214,40.039,25.391,37.598,70.312,-16.602,0
1486664618.218,45.898,28.809,48.340,83.496,219.727,0
1486664618.222,46.387,29.297,47.363,70.801,229.492,0
1486664618.226,40.527,26.855,27.344,41.992,-31.738,0
1486664618.230,47.852,28.809,30.273,53.711,-97.168,0
1486664618.234,42.480,31.250,37.109,69.824,5.859,0
1486664618.238,35.645,25.391,36.621,81.543,214.844,0
1486664618.242,41.504,21.484,42.480,76.660,280.273,0
1486664618.246,41.504,19.043,38.086,52.734,19.531,0
1486664618.250,39.551,17.578,38.574,56.641,-105.469,0
1486664618.253,31.250,19.531,45.898,61.035,-54.199,0
1486664618.257,26.367,23.438,43.457,72.266,143.555,0
1486664618.261,24.902,25.391,44.922,73.242,256.836,0
1486664618.265,24.414,26.367,40.039,46.875,32.715,0
1486664618.269,33.203,26.855,28.809,45.898,-100.586,0
1486664618.273,33.203,27.832,30.273,55.176,-44.922,0
1486664618.277,33.691,28.809,34.668,71.289,178.223,0
1486664618.281,42.969,33.203,35.156,70.312,312.012,0
1486664618.285,36.133,30.273,38.086,41.016,57.617,0
1486664618.289,35.156,25.879,38.086,39.551,-94.238,0
1486664618.292,32.715,28.320,32.715,41.992,-72.266,0
1486664618.296,31.738,28.809,31.738,61.035,131.348,0
1486664618.300,35.156,25.879,32.227,67.383,311.035,0
1486664618.304,31.738,23.926,27.344,39.062,60.059,0
1486664618.308,39.062,23.926,28.320,39.062,-137.695,0
1486664618.312,37.598,27.832,33.691,54.688,-107.422,0
1486664618.316,38.086,29.785,34.668,70.312,70.801,0
1486664618.320,46.387,27.344,34.668,77.637,233.887,0
1486664618.324,37.109,23.438,42.480,57.617,107.910,0
1486664618.328,35.156,20.020,43.457,43.457,-92.285,0
1486664618.332,30.762,22.949,38.086,50.781,-102.051,0
1486664618.335,31.738,28.320,42.480,76.660,77.148,0
1486664618.339,37.109,26.367,41.016,87.891,285.645,0
1486664618.343,29.297,20.508,38.086,57.129,190.918,0
1486664618.347,31.250,26.855,42.969,41.016,-51.270,0
1486664618.351,30.762,30.762,39.551,42.969,-118.164,0
1486664618.355,23.926,18.555,38.574,53.223,15.625,0
1486664618.359,30.273,19.043,40.039,67.383,203.125,0
1486664618.363,33.203,23.926,37.109,49.316,125.488,0
1486664618.367,40.527,20.996,42.969,37.109,-94.238,0
1486664618.371,47.363,23.438,38.086,37.109,-124.512,0
1486664618.375,36.133,28.320,31.250,49.805,-19.531,0
1486664618.378,34.180,28.320,31.250,71.777,184.082,0
1486664618.382,37.598,27.832,27.832,56.641,206.055,0
1486664618.386,35.645,26.367,27.832,33.203,-44.922,0
1486664618.390,39.551,27.344,30.273,40.527,-163.086,0
1486664618.394,30.762,30.762,34.180,49.316,-105.957,0
1486664618.398,31.738,26.855,34.180,68.359,145.508,0
1486664618.402,39.062,25.391,34.180,65.918,226.562,0
1486664618.406,39.551,27.344,36.133,42.969,-32.227,0
1486664618.410,32.715,26.855,34.668,40.039,-176.758,0
1486664618.414,23.438,25.879,36.621,54.688,-105.957,0
1486664618.417,35.156,26.855,42.480,83.984,142.578,0
1486664618.421,38.086,24.902,38.086,75.195,216.797,0
1486664618.425,27.832,24.414,30.762,40.039,-24.414,0
1486664618.429,38.086,26.855,29.297,42.969,-154.785,0
1486664618.433,40.527,29.785,31.738,60.059,-96.680,0
1486664618.437,37.109,29.785,34.180,78.125,138.184,0
1486664618.441,35.645,28.320,34.668,71.777,285.156,0
1486664618.445,32.227,29.785,34.668,38.086,43.457,0
1486664618.449,32.715,24.414,38.086,36.621,-125.000,0
1486664618.453,34.668,19.531,39.062,50.293,-69.824,0
1486664618.457,44.434,30.273,35.156,63.965,113.281,0
1486664618.460,49.316,39.062,35.645,62.012,239.746,0
1486664618.464,39.551,38.086,41.992,27.344,47.852,0
1486664618.468,48.340,34.180,37.109,17.578,-124.512,0
1486664618.472,39.062,30.273,31.250,30.762,-74.707,0
1486664618.476,24.902,29.785,32.227,52.734,122.070,0
1486664618.480,29.785,27.344,33.691,64.941,260.254,0
1486664618.484,22.949,23.926,37.598,41.504,67.871,0
1486664618.488,30.273,24.902,41.504,40.527,-103.027,0
1486664618.492,31.250,23.926,43.945,50.293,-117.676,0
1486664618.496,27.832,24.414,39.551,66.406,31.738,0
1486664618.499,32.227,26.855,40.039,84.961,274.902,0
1486664618.503,34.180,27.344,40.039,62.988,144.531,0
1486664618.507,41.016,25.391,29.297,49.316,-55.664,0
1486664618.511,42.480,25.391,27.832,61.035,-54.688,0
1486664618.515,32.227,32.227,30.762,75.684,40.527,0
1486664618.519,39.551,32.715,34.180,87.402,263.672,0
1486664618.523,41.016,28.809,36.621,67.383,184.570,0
1486664618.527,37.598,28.320,29.297,42.969,-85.938,0
1486664618.531,36.133,25.391,29.297,47.852,-157.227,0
1486664618.535,21.484,21.484,34.668,55.664,-21.973,0
1486664618.539,30.273,23.926,41.504,76.660,237.305,1
1486664618.542,32.715,30.762,39.551,60.059,176.758,0
1486664618.546,19.531,27.832,33.691,30.273,-84.473,0
1486664618.550,30.273,20.996,37.598,40.039,-135.254,0
1486664618.554,28.320,25.391,35.156,49.805,-29.297,0
1486664618.558,33.203,25.879,34.668,65.918,199.219,0
1486664618.562,36.133,21.484,39.062,60.059,190.430,0
1486664618.566,36.133,21.973,36.621,34.668,-65.918,0
1486664618.570,43.945,22.949,36.621,42.480,-143.066,0
1486664618.574,37.109,25.879,41.504,55.176,-83.496,0
1486664618.578,39.551,29.297,39.551,72.266,127.441,0
1486664618.582,41.504,25.879,36.133,72.266,198.242,0
1486664618.585,35.645,21.484,31.738,41.016,-49.805,0
1486664618.589,46.387,23.926,29.297,42.480,-160.645,0
1486664618.593,37.598,28.320,32.715,57.617,-103.516,0
1486664618.597,34.668,25.879,36.621,82.031,112.793,0
1486664618.601,42.969,21.484,37.598,81.055,210.449,0
1486664618.605,34.668,21.484,35.156,52.246,0.000,0
1486664618.609,42.480,23.926,35.156,60.059,-120.605,0
1486664618.613,41.504,26.855,38.574,70.312,-102.539,0
1486664618.617,41.504,25.391,39.551,85.938,81.055,0
1486664618.621,50.781,26.367,38.086,95.703,228.027,0
1486664618.624,50.293,32.715,39.062,70.801,21.484,0
1486664618.628,54.688,37.598,42.480,65.430,-119.141,0
1486664618.632,47.363,32.227,43.945,69.824,-87.402,0
1486664618.636,40.039,27.344,39.062,75.684,78.125,0
1486664618.640,41.992,25.879,34.668,81.055,244.629,0
1486664618.644,34.668,23.926,40.039,58.105,53.223,0
1486664618.648,45.898,26.367,38.086,48.828,-105.957,0
1486664618.652,47.363,29.297,36.621,52.734,-118.164,0
1486664618.656,33.203,30.762,42.480,67.383,42.969,0
1486664618.660,38.574,29.297,37.109,79.102,258.301,0
1486664618.664,35.156,25.879,37.109,53.223,104.492,0
1486664618.667,35.156,23.926,45.898,42.480,-96.680,0
1486664618.671,44.434,26.367,42.480,54.688,-96.191,0
1486664618.675,39.062,28.320,36.621,70.312,61.523,0
1486664618.679,32.227,25.879,37.109,77.637,305.176,0
1486664618.683,38.086,29.297,36.621,55.176,214.844,0
1486664618.687,44.434,30.273,35.156,48.340,-56.152,0
1486664618.691,45.898,21.973,40.527,61.035,-89.355,0
1486664618.695,34.668,22.461,45.410,76.172,43.457,0
1486664618.699,39.551,25.391,44.922,92.285,251.953,0
1486664618.703,46.387,25.391,41.992,77.637,202.637,0
1486664618.707,43.457,25.391,38.086,59.082,-32.227,0
1486664618.710,49.316,26.367,38.574,63.477,-62.500,0
1486664618.714,41.992,29.297,37.109,74.707,30.762,0
1486664618.718,37.598,32.227,37.598,85.938,226.562,0
1486664618.722,47.363,34.668,38.574,68.848,214.844,0
1486664618.726,41.992,32.227,39.062,37.598,-5.859,0
1486664618.730,31.250,28.320,40.527,34.668,-100.586,0
1486664618.734,31.738,30.273,38.086,45.898,-55.664,0
1486664618.738,26.367,31.250,38.574,56.152,156.250,0
1486664618.742,26.855,32.715,35.156,39.551,209.961,0
1486664618.746,35.645,32.227,30.273,11.719,-30.273,0
1486664618.749,37.109,26.855,33.203,8.301,-113.281,0
1486664618.753,36.133,27.832,26.855,20.020,-64.941,0
1486664618.757,40.039,27.832,21.484,46.387,168.945,0
1486664618.761,42.969,30.273,26.855,48.340,261.719,0
1486664618.765,41.016,28.320,29.785,27.344,20.508,0
1486664618.769,50.293,26.367,34.180,41.016,-68.848,0
1486664618.773,48.828,28.320,42.480,65.918,-61.523,0
1486664618.777,42.969,26.855,41.016,88.867,116.211,0
1486664618.781,47.852,24.902,39.062,93.750,274.414,0
1486664618.785,39.062,23.438,43.457,69.336,57.617,0
1486664618.789,49.316,23.438,45.898,69.336,-101.562,0
1486664618.792,45.410,25.879,44.434,75.195,-85.938,0
1486664618.796,30.762,32.715,40.039,90.820,74.707,0
1486664618.800,35.156,29.297,37.109,89.355,245.117,0
1486664618.804,32.715,19.531,36.621,58.105,64.453,0
1486664618.808,38.086,24.414,39.551,48.828,-101.074,0
1486664618.812,41.504,27.832,42.480,56.152,-117.676,0
1486664618.816,41.504,27.832,37.598,77.148,18.555,0
1486664618.820,42.480,28.320,36.133,80.078,241.699,0
1486664618.824,41.016,26.367,36.621,50.293,74.707,0
1486664618.828,47.363,26.855,35.156,39.062,-113.770,0
1486664618.831,44.922,26.855,34.180,39.551,-104.492,0
1486664618.835,42.480,25.391,33.203,57.129,25.391,0
1486664618.839,43.457,24.414,38.574,77.148,246.094,0
1486664618.843,39.062,24.414,41.016,52.246,176.270,0
1486664618.847,39.062,28.809,38.574,32.227,-82.031,0
1486664618.851,30.762,28.320,36.621,42.969,-126.465,0
1486664618.855,21.973,24.902,32.227,51.270,42.969,0
1486664618.859,20.020,25.879,31.250,63.477,275.391,0
1486664618.863,23.438,24.902,30.762,49.805,220.215,0
1486664618.867,23.926,22.949,28.809,24.902,-42.969,0
1486664618.871,24.902,23.926,28.320,31.250,-120.117,0
1486664618.874,27.832,24.414,31.250,51.270,-4.883,0
1486664618.878,30.762,21.973,34.180,72.266,200.684,0
1486664618.882,34.668,20.996,36.133,66.895,213.867,0
1486664618.886,39.551,22.949,38.086,45.898,-73.730,0
1486664618.890,45.898,19.043,38.086,47.363,-210.449,0
1486664618.894,43.945,20.020,40.039,67.383,-71.777,0
1486664618.898,42.969,26.367,43.457,88.867,178.223,0
1486664618.902,53.711,30.762,46.875,88.867,205.566,0
1486664618.906,49.805,33.203,41.016,61.523,-39.062,0
1486664618.910,52.246,27.344,33.203,51.758,-138.184,0
1486664618.914,54.199,26.367,32.227,67.383,-75.195,0
1486664618.917,39.551,30.762,30.762,80.078,158.691,0
1486664618.921,39.062,27.832,30.273,65.918,248.047,0
1486664618.925,34.180,27.832,31.250,40.527,12.695,0
1486664618.929,34.180,32.715,31.738,37.598,-99.121,0
1486664618.933,29.785,29.297,32.227,42.969,-60.547,0
1486664618.937,27.832,25.391,33.691,61.523,122.070,0
1486664618.941,31.738,27.832,33.691,64.453,251.465,0
1486664618.945,35.645,29.297,33.691,39.062,13.672,0
1486664618.949,36.133,30.273,39.062,33.691,-128.906,0
1486664618.953,31.738,33.691,36.621,44.434,-72.754,0
1486664618.956,31.738,27.832,33.691,71.289,82.520,0
1486664618.960,27.832,20.996,33.691,78.125,256.836,0
1486664618.964,34.180,21.484,31.250,41.992,86.914,0
1486664618.968,38.574,25.391,36.621,29.297,-111.328,0
1486664618.972,20.020,27.344,38.574,41.016,-87.891,0
1486664618.976,23.438,20.508,36.621,62.500,77.148,0
1486664618.980,35.645,19.043,40.039,77.637,247.559,0
1486664618.984,34.180,23.438,38.086,56.641,107.422,0
1486664618.988,38.574,23.438,35.645,48.340,-77.637,0
1486664618.992,42.480,22.461,38.574,60.059,-80.078,0
1486664618.996,47.363,24.902,39.551,84.961,97.168,0
1486664618.999,49.805,24.414,36.621,96.191,284.180,0
1486664619.003,39.551,25.391,38.086,63.477,140.137,0
1486664619.007,44.434,32.715,43.457,51.270,-62.500,0
1486664619.011,52.734,34.668,40.527,61.035,-84.961,0
1486664619.015,42.969,28.809,35.156,72.754,18.555,0
1486664619.019,50.781,24.414,31.738,82.520,229.492,0
1486664619.023,48.340,23.926,34.180,68.848,171.875,0
1486664619.027,36.133,23.438,33.691,49.805,-73.730,0
1486664619.031,40.039,22.461,32.715,42.480,-125.488,0
1486664619.035,34.668,22.949,36.133,63.965,-27.832,0
1486664619.039,32.715,22.949,40.039,77.637,207.031,0
1486664619.042,26.855,22.949,40.039,56.641,202.637,0
1486664619.046,25.879,25.391,35.645,32.715,-52.734,0
1486664619.050,29.785,24.902,37.109,40.527,-138.672,0
1486664619.054,28.809,26.367,39.551,57.617,-42.969,0
1486664619.058,24.902,30.273,37.598,64.453,193.359,0
1486664619.062,20.996,27.832,37.109,44.434,209.473,0
1486664619.066,21.484,22.949,32.715,22.461,-41.992,0
1486664619.070,31.738,27.344,32.715,27.344,-140.625,0
1486664619.074,24.902,29.297,30.762,39.551,-77.148,0
1486664619.078,20.508,24.902,27.832,67.383,151.367,0
1486664619.081,35.645,29.297,33.203,76.172,241.699,0
1486664619.085,34.668,27.344,32.227,44.434,3.906,0
1486664619.089,38.086,23.438,29.297,44.434,-102.051,0
1486664619.093,43.945,27.832,35.645,66.406,-68.848,0
1486664619.097,41.016,27.344,36.621,79.590,112.305,0
1486664619.101,47.852,25.391,34.180,79.102,258.789,0
1486664619.105,47.363,25.391,36.621,49.805,69.824,0
1486664619.109,38.574,26.367,39.062,42.480,-110.840,0
1486664619.113,40.039,27.832,42.969,59.082,-127.930,0
1486664619.117,43.945,30.273,43.457,74.219,100.098,0
1486664619.121,42.480,29.785,39.062,67.383,271.973,0
1486664619.124,32.715,24.414,32.715,38.574,49.805,0
1486664619.128,43.457,22.949,30.762,21.973,-159.180,0
1486664619.132,39.551,25.879,39.551,36.621,-137.207,0
1486664619.136,27.344,28.809,47.363,67.383,57.617,0
1486664619.140,29.297,28.809,41.504,66.406,225.586,0
1486664619.144,22.461,23.438,38.574,40.039,67.383,0
1486664619.148,35.645,21.973,40.039,37.598,-127.930,0
1486664619.152,37.598,28.809,39.062,45.898,-140.625,0
1486664619.156,31.250,33.203,39.551,65.918,4.395,0
1486664619.160,33.691,31.738,40.039,86.426,229.492,0
1486664619.163,37.109,28.809,38.574,65.430,85.938,0
1486664619.167,44.922,27.832,33.203,51.758,-132.812,0
1486664619.171,43.945,27.344,34.180,63.477,-143.555,0
1486664619.175,41.016,26.367,34.668,77.148,11.230,0
1486664619.179,56.152,30.273,36.133,99.609,265.625,0
1486664619.183,60.547,33.203,41.504,82.031,147.949,0
1486664619.187,52.246,26.855,42.480,57.617,-129.395,0
1486664619.191,47.852,21.484,38.086,65.430,-163.086,0
1486664619.195,38.086,23.926,41.016,81.055,-34.668,0
1486664619.199,29.785,23.438,45.410,90.820,211.426,0
1486664619.203,25.879,26.367,37.598,62.988,201.660,0
1486664619.206,30.762,24.902,34.180,36.133,-52.734,1
1486664619.210,25.391,20.996,39.062,38.086,-127.930,0
1486664619.214,22.461,24.414,37.598,50.293,22.461,0
1486664619.218,29.297,26.855,39.062,70.312,279.785,0
1486664619.222,29.785,28.809,41.504,59.082,287.109,0
1486664619.226,44.434,29.297,34.668,43.457,27.832,0
1486664619.230,46.387,25.391,29.785,46.875,-75.684,0
1486664619.234,46.387,24.414,36.621,57.617,0.000,0
1486664619.238,54.199,27.832,37.598,84.961,217.773,0
1486664619.242,52.246,30.273,32.715,80.078,250.488,0
1486664619.246,51.758,28.809,36.621,58.594,-16.602,0
1486664619.249,53.223,23.926,36.621,58.105,-117.676,0
1486664619.253,48.340,29.297,37.598,74.219,-38.574,0
1486664619.257,45.898,30.273,39.551,95.703,168.457,0
1486664619.261,48.340,21.484,37.598,86.426,230.469,0
1486664619.265,44.922,21.484,35.156,59.570,-4.883,0
1486664619.269,41.504,24.414,35.645,52.734,-66.895,0
1486664619.273,40.039,28.320,41.992,65.918,-30.762,0
1486664619.277,41.016,28.809,43.457,85.449,93.262,0
1486664619.281,45.410,28.809,36.133,85.938,212.891,0
1486664619.285,43.457,32.227,40.039,57.129,20.020,0
1486664619.288,43.945,33.691,41.992,46.387,-102.539,0
1486664619.292,39.551,26.855,32.715,54.199,-74.707,0
1486664619.296,34.180,25.879,36.133,70.801,106.445,0
1486664619.300,37.109,26.855,41.016,77.148,289.062,0
1486664619.304,35.156,27.344,38.086,56.641,84.473,0
1486664619.308,32.227,26.855,39.551,46.875,-86.426,0
1486664619.312,32.227,29.297,47.852,57.129,-90.820,0
1486664619.316,31.738,31.250,48.340,77.148,43.945,0
1486664619.320,35.645,25.879,40.527,86.426,230.469,0
1486664619.324,31.250,20.508,38.086,51.758,74.707,0
1486664619.328,31.250,18.066,40.527,34.180,-93.262,0
1486664619.331,36.621,22.461,41.016,48.340,-124.023,0
1486664619.335,24.414,26.855,41.016,57.617,10.742,0
1486664619.339,27.832,26.855,37.109,71.289,269.043,0
1486664619.343,32.715,26.855,34.668,57.129,135.742,0
1486664619.347,26.855,25.391,41.504,38.574,-104.004,0
1486664619.351,29.785,23.926,42.969,57.617,-88.867,0
1486664619.355,25.879,28.320,36.133,69.336,20.508,0
1486664619.359,25.391,31.250,38.574,75.195,259.766,0
1486664619.363,26.367,28.320,43.457,65.430,225.586,0
1486664619.367,32.715,26.367,39.062,44.922,-23.926,0
1486664619.371,41.016,26.367,39.551,53.223,-89.355,0
1486664619.374,24.902,20.996,41.504,62.012,-19.531,0
1486664619.378,20.508,20.508,41.016,75.684,216.309,0
1486664619.382,33.691,24.902,39.062,66.895,218.750,0
1486664619.386,39.062,22.461,42.480,41.992,-25.391,0
1486664619.390,55.664,25.391,47.363,47.852,-110.840,0
1486664619.394,59.082,29.785,42.480,64.453,-43.945,0
1486664619.398,50.781,29.297,35.645,73.730,209.961,0
1486664619.402,55.176,30.273,31.738,56.152,233.398,0
1486664619.406,52.734,27.832,30.762,36.133,-20.508,0
1486664619.410,44.922,26.855,35.156,33.691,-81.055,0
1486664619.413,35.645,31.250,40.527,38.086,-34.668,0
1486664619.417,28.809,30.762,37.598,57.617,170.410,0
1486664619.421,22.949,24.902,34.180,51.270,270.508,0
1486664619.425,25.879,20.508,32.715,27.344,43.945,0
1486664619.429,35.156,23.926,30.762,40.039,-78.613,0
1486664619.433,34.180,30.762,34.668,64.941,-67.383,0
1486664619.437,30.762,31.738,40.527,84.473,126.953,0
1486664619.441,32.715,33.203,40.039,81.543,260.742,0
1486664619.445,34.180,30.762,37.598,59.082,30.762,0
1486664619.449,29.297,19.531,32.715,49.805,-99.609,0
1486664619.453,25.391,19.531,34.668,57.617,-41.016,0
1486664619.456,29.297,24.414,37.598,79.590,109.375,0
1486664619.460,31.250,23.438,40.527,84.473,271.484,0
1486664619.464,29.297,26.855,43.945,58.105,104.492,0
1486664619.468,30.762,29.297,37.598,42.969,-111.328,0
1486664619.472,29.297,25.391,37.598,46.875,-115.234,0
1486664619.476,26.855,25.879,42.969,59.082,44.434,0
1486664619.480,30.273,27.344,37.598,65.430,238.281,0
1486664619.484,31.250,26.367,34.180,41.992,127.930,0
1486664619.488,36.621,28.809,37.109,28.320,-59.570,0
1486664619.492,33.203,35.645,35.645,37.598,-108.887,0
1486664619.495,34.180,35.645,31.738,55.664,33.691,0
1486664619.499,41.016,31.250,33.691,65.430,231.445,0
1486664619.503,37.109,29.785,35.156,48.828,97.168,0
1486664619.507,41.016,27.344,34.180,42.480,-113.281,0
1486664619.511,44.434,29.297,33.691,53.223,-127.441,0
1486664619.515,38.574,30.762,31.738,65.918,10.254,0
1486664619.519,41.504,32.715,35.645,89.355,244.141,0
1486664619.523,45.898,36.133,42.969,76.660,179.199,0
1486664619.527,41.992,28.809,38.574,54.199,-83.496,0
1486664619.531,41.992,19.043,40.527,63.477,-162.109,0
1486664619.535,37.109,23.926,43.457,79.590,-48.340,0
1486664619.538,37.109,26.367,37.598,92.285,187.988,0
1486664619.542,37.109,22.461,36.133,71.777,192.871,0
1486664619.546,29.297,24.902,36.621,44.922,-36.621,0
1486664619.550,36.621,26.855,36.621,47.852,-132.324,0
1486664619.554,38.574,26.855,39.062,67.383,-55.664,0
1486664619.558,39.062,26.855,37.109,83.984,208.496,0
1486664619.562,39.551,25.879,38.574,67.871,260.742,0
1486664619.566,42.480,23.438,37.598,43.945,8.301,0
1486664619.570,49.316,23.438,31.250,46.387,-117.188,0
1486664619.574,49.316,30.762,38.086,57.617,-41.016,0
1486664619.578,46.387,33.203,40.039,74.707,200.684,0
1486664619.581,39.062,26.855,38.574,69.824,252.930,0
1486664619.585,40.527,28.320,38.574,42.969,14.648,0
1486664619.589,44.434,28.320,32.227,42.480,-103.516,0
1486664619.593,27.832,22.949,29.297,51.758,-62.012,0
1486664619.597,23.926,26.367,30.273,66.895,124.512,0
1486664619.601,28.320,24.902,33.691,71.289,247.559,0
1486664619.605,29.785,22.461,37.109,51.758,69.824,0
1486664619.609,42.969,23.926,35.645,46.875,-104.492,0
1486664619.613,49.805,19.531,33.691,56.641,-74.219,0
1486664619.617,46.387,17.578,40.527,74.707,118.652,0
1486664619.620,46.387,23.438,40.039,78.125,247.070,0
1486664619.624,47.363,30.762,37.598,56.152,46.387,0
1486664619.628,53.223,33.203,39.062,51.270,-126.953,0
1486664619.632,51.270,29.785,36.621,62.500,-70.312,0
1486664619.636,39.551,23.438,34.668,77.637,111.816,0
1486664619.640,46.875,25.879,31.738,82.520,243.652,0
1486664619.644,58.105,33.203,35.645,59.082,83.496,0
1486664619.648,55.176,29.297,37.598,48.828,-113.281,0
1486664619.652,49.805,23.438,31.738,52.246,-138.184,0
1486664619.656,51.758,26.367,33.691,70.312,15.137,0
1486664619.660,50.781,31.250,35.645,84.473,243.652,0
1486664619.663,51.270,33.203,29.297,56.152,104.492,0
1486664619.667,52.734,33.691,27.832,42.480,-113.770,0
1486664619.671,40.039,31.250,28.809,47.852,-99.609,0
1486664619.675,25.879,24.414,30.762,55.176,48.828,0
1486664619.679,19.531,21.484,39.062,67.871,233.398,0
1486664619.683,29.785,25.879,41.016,53.711,162.598,0
1486664619.687,37.598,26.855,37.598,37.109,-45.898,0
1486664619.691,35.645,20.508,39.551,47.852,-125.000,0
1486664619.695,32.227,17.578,36.621,68.359,22.949,0
1486664619.699,38.086,19.531,33.203,88.379,258.301,0
1486664619.702,44.922,23.438,39.062,79.102,206.543,0
1486664619.706,45.898,26.855,38.574,58.105,-53.711,0
1486664619.710,41.016,28.809,31.250,58.105,-164.551,0
1486664619.714,27.344,28.320,31.250,65.430,-66.406,0
1486664619.718,28.320,31.250,36.621,82.520,207.031,0
1486664619.722,29.785,35.645,36.133,66.895,236.816,0
1486664619.726,22.949,22.949,31.250,33.203,-22.461,0
1486664619.730,30.762,17.578,37.109,37.598,-104.004,0
1486664619.734,39.551,26.855,41.504,58.594,-23.926,0
1486664619.738,36.621,29.297,36.621,76.660,208.008,0
1486664619.742,30.762,27.832,34.668,58.594,273.926,0
1486664619.745,31.738,24.414,27.832,31.250,4.395,0
1486664619.749,41.504,28.809,27.344,41.504,-123.535,0
1486664619.753,40.039,34.668,37.109,56.152,-68.359,0
1486664619.757,33.203,25.879,39.062,80.566,148.438,0
1486664619.761,45.410,22.461,39.062,84.473,285.156,0
1486664619.765,51.270,28.320,36.621,56.152,58.594,0
1486664619.769,51.270,28.320,34.180,59.570,-113.281,0
1486664619.773,45.898,26.367,40.527,69.824,-51.270,0
1486664619.777,39.062,27.832,42.969,87.402,145.996,0
1486664619.781,40.039,33.691,45.410,87.891,271.973,0
1486664619.785,30.273,27.832,39.062,50.293,75.684,0
1486664619.788,35.156,18.555,31.738,41.992,-104.004,0
1486664619.792,36.133,25.879,36.133,51.758,-110.352,0
1486664619.796,28.809,28.320,36.621,66.406,95.703,0
1486664619.800,33.203,24.414,35.156,70.801,286.133,0
1486664619.804,33.691,23.926,35.645,47.363,68.848,0
1486664619.808,33.203,25.879,34.668,38.574,-115.234,0
1486664619.812,32.715,28.809,37.109,44.434,-72.754,0
1486664619.816,35.645,30.762,37.109,63.477,98.145,1
1486664619.820,38.574,36.133,33.203,75.684,282.227,0
1486664619.824,38.086,35.156,30.273,44.922,138.184,0
1486664619.827,40.039,26.367,30.762,29.297,-78.125,0
1486664619.831,39.551,28.320,33.691,44.434,-70.801,0
1486664619.835,39.062,28.320,35.156,64.941,65.918,0
1486664619.839,40.527,23.438,35.645,77.148,303.711,0
1486664619.843,38.574,21.484,34.668,56.152,214.844,0
1486664619.847,41.504,25.391,35.645,41.504,-67.383,0
1486664619.851,39.062,31.250,38.574,47.363,-118.652,0
1486664619.855,30.762,30.273,41.504,62.500,23.438,0
1486664619.859,39.551,26.367,36.133,81.055,267.578,0
1486664619.863,37.598,24.414,32.227,63.477,177.246,0
1486664619.867,31.738,24.414,35.645,43.457,-77.148,0
1486664619.870,34.180,16.113,32.715,45.410,-82.031,0
1486664619.874,25.391,14.160,32.715,59.570,23.438,0
1486664619.878,32.715,20.020,37.109,84.961,219.727,0
1486664619.882,35.645,20.508,40.527,71.777,214.844,0
1486664619.886,38.086,21.973,41.016,46.387,-19.043,0
1486664619.890,44.434,24.902,41.016,48.340,-112.793,0
1486664619.894,40.039,27.344,41.504,62.500,-55.176,0
1486664619.898,41.504,28.809,34.668,79.590,206.543,0
1486664619.902,41.016,31.250,33.203,68.848,253.418,0
1486664619.906,37.109,29.297,37.109,43.945,-4.883,0
1486664619.910,41.992,24.414,32.227,41.504,-135.742,0
1486664619.913,34.180,26.367,30.273,48.340,-109.375,0
1486664619.917,33.203,27.344,32.227,71.777,143.066,0
1486664619.921,39.062,23.438,34.668,69.336,219.727,0
1486664619.925,37.109,21.973,38.086,46.875,-11.719,0
1486664619.929,41.992,24.902,41.504,52.246,-120.117,0
1486664619.933,39.551,25.879,42.969,63.477,-81.543,0
1486664619.937,36.133,25.391,39.062,83.984,133.301,0
1486664619.941,46.875,26.855,40.527,91.309,243.164,0
1486664619.945,40.527,29.297,41.992,61.035,9.766,0
1486664619.949,37.598,28.809,41.016,49.805,-108.398,0
1486664619.952,41.992,28.809,41.992,63.477,-67.871,0
1486664619.956,37.109,28.809,41.016,82.520,95.215,0
1486664619.960,36.621,26.855,36.621,79.102,233.887,0
1486664619.964,37.598,27.344,36.133,48.828,30.273,0
1486664619.968,44.434,33.691,37.598,43.457,-137.207,0
1486664619.972,45.410,36.133,38.574,53.223,-109.375,0
1486664619.976,42.969,29.297,41.504,70.312,47.363,0
1486664619.980,47.363,29.297,39.551,79.102,251.953,0
1486664619.984,43.457,30.273,35.645,50.781,115.723,0
1486664619.988,46.875,26.855,38.574,47.363,-89.844,0
1486664619.992,49.316,27.832,42.480,56.641,-101.562,0
1486664619.995,37.598,27.832,42.969,69.824,50.781,0
1486664619.999,45.410,26.367,40.039,86.914,269.531,0
1486664620.003,49.316,26.367,34.180,62.988,159.668,0
1486664620.007,49.805,21.973,33.691,46.875,-75.195,0
1486664620.011,56.641,27.344,44.434,60.059,-136.230,0
1486664620.015,49.316,36.133,46.875,78.125,-13.184,0
1486664620.019,38.086,31.738,41.504,90.332,211.426,0
1486664620.023,40.039,28.320,39.551,70.312,138.672,0
1486664620.027,43.945,25.391,36.621,47.852,-52.246,0
1486664620.031,54.688,28.320,41.992,52.246,-105.469,0
1486664620.034,50.781,29.785,50.781,70.312,-28.320,0
1486664620.038,42.969,23.926,43.457,83.496,222.656,0
1486664620.042,40.039,22.949,33.203,60.547,176.270,0
1486664620.046,40.039,23.926,33.691,35.645,-93.262,0
1486664620.050,44.922,26.855,34.180,44.434,-148.438,0
1486664620.054,37.598,35.645,35.645,60.547,-68.848,0
1486664620.058,43.945,40.527,38.574,76.660,166.992,0
1486664620.062,48.340,32.227,37.109,70.801,201.172,0
1486664620.066,41.016,21.973,36.621,45.898,-55.664,0
1486664620.070,46.387,21.484,37.109,45.410,-140.625,0
1486664620.074,38.574,23.438,33.691,54.688,-58.594,0
1486664620.077,31.250,25.879,33.203,70.801,151.855,0
1486664620.081,36.133,25.391,32.715,77.637,234.375,0
1486664620.085,40.039,24.902,33.203,51.758,10.254,0
1486664620.089,44.922,28.320,33.203,41.992,-131.836,0
1486664620.093,44.922,29.297,36.133,61.035,-68.359,0
1486664620.097,38.086,27.344,39.551,70.312,115.234,0
1486664620.101,31.738,23.438,35.156,56.641,223.633,0
1486664620.105,34.668,25.391,32.227,27.832,27.344,0
1486664620.109,38.574,31.738,34.668,20.996,-131.836,0
1486664620.113,34.668,30.273,41.016,36.133,-122.070,0
1486664620.117,27.832,25.879,41.992,54.199,70.801,0
1486664620.120,35.156,28.809,32.715,60.547,259.277,0
1486664620.124,46.387,34.180,33.691,49.316,50.781,0
1486664620.128,42.480,28.809,35.645,42.969,-187.988,0
1486664620.132,39.551,26.855,34.180,56.641,-135.254,0
1486664620.136,41.016,29.297,37.598,80.078,61.523,0
1486664620.140,34.180,28.320,37.109,80.566,230.469,0
1486664620.144,31.738,26.855,38.574,59.570,85.449,0
1486664620.148,35.156,26.367,39.062,45.898,-142.090,0
1486664620.152,32.715,29.785,40.527,53.223,-134.766,0
1486664620.156,29.297,30.762,42.480,74.707,38.574,0
1486664620.159,29.785,25.879,39.062,77.148,229.492,0
1486664620.163,30.273,23.926,38.086,49.805,131.836,0
1486664620.167,38.086,26.367,36.133,36.621,-79.590,0
1486664620.171,41.016,30.762,33.691,46.387,-104.492,0
1486664620.175,37.598,32.227,36.133,58.105,0.977,0
1486664620.179,41.504,36.133,38.574,64.941,193.848,0
1486664620.183,37.109,36.621,34.180,45.410,119.629,0
1486664620.187,33.203,30.762,32.227,20.508,-112.793,0
1486664620.191,35.156,27.344,37.598,24.414,-146.973,0
1486664620.195,30.762,23.926,36.133,42.480,-31.250,0
1486664620.199,26.367,23.438,32.715,56.152,176.758,0
1486664620.202,31.738,25.391,35.645,42.969,168.457,0
1486664620.206,41.504,25.391,34.668,30.273,-73.730,0
1486664620.210,43.457,30.273,33.691,42.969,-141.113,0
1486664620.214,42.480,28.809,36.621,54.199,-31.738,0
1486664620.218,45.410,25.879,35.645,75.684,213.867,0
1486664620.222,46.387,31.250,38.574,73.730,224.609,0
1486664620.226,47.852,30.762,42.969,59.082,-41.992,0
1486664620.230,54.688,28.320,37.598,66.895,-127.441,0
1486664620.234,43.945,28.809,38.574,76.172,-23.926,0
1486664620.238,36.621,28.809,45.898,96.680,228.027,0
1486664620.242,39.062,27.344,41.016,90.332,287.109,0
1486664620.245,39.551,30.762,32.227,59.570,9.766,0
1486664620.249,41.504,32.227,33.203,55.176,-101.562,0
1486664620.253,39.551,27.832,36.133,71.777,-44.434,0
1486664620.257,31.250,28.320,34.668,88.379,106.445,0
1486664620.261,29.297,26.367,35.156,72.754,254.883,0
1486664620.265,31.738,26.367,34.668,41.992,30.762,0
1486664620.269,36.133,27.832,36.133,43.457,-121.582,0
1486664620.273,33.691,32.227,37.598,51.270,-29.785,0
1486664620.277,33.691,33.203,38.086,65.918,154.297,0
1486664620.281,31.250,27.344,38.086,73.242,267.578,0
1486664620.284,24.902,27.344,35.156,41.016,51.270,0
1486664620.288,41.992,29.785,34.668,33.203,-83.496,0
1486664620.292,41.992,26.367,34.180,41.016,-76.172,0
1486664620.296,42.480,29.785,32.715,62.500,48.340,0
1486664620.300,48.340,33.203,36.133,70.312,238.770,0
1486664620.304,40.527,26.367,38.574,37.109,95.215,0
1486664620.308,48.828,24.902,41.016,36.621,-76.660,0
1486664620.312,51.758,28.809,45.898,49.805,-49.316,0
1486664620.316,41.504,33.691,37.109,62.500,76.172,0
1486664620.320,46.875,36.133,31.250,76.660,281.738,0
1486664620.324,50.781,32.227,34.180,50.781,177.246,0
1486664620.327,45.898,32.227,38.086,40.039,-64.453,0
1486664620.331,53.711,37.598,37.109,59.570,-90.332,0
1486664620.335,54.199,35.156,34.668,75.684,57.129,0
1486664620.339,50.293,35.645,38.086,89.844,258.789,0
1486664620.343,41.016,32.227,34.180,62.988,161.133,0
1486664620.347,39.062,27.832,33.203,45.898,-99.609,0
1486664620.351,30.273,29.297,41.992,59.082,-116.699,0
1486664620.355,13.184,28.320,41.504,68.848,7.324,1
1486664620.359,15.137,31.738,35.645,80.566,217.773,0
1486664620.363,13.672,29.785,40.039,62.012,200.195,0
1486664620.366,17.090,25.879,36.621,37.109,-78.125,0
1486664620.370,19.531,27.344,32.715,41.992,-146.484,0
1486664620.374,18.066,30.762,38.574,57.129,-25.391,0
1486664620.378,20.996,29.785,37.109,68.848,203.613,0
1486664620.382,20.508,24.414,33.203,46.387,203.613,0
1486664620.386,23.438,22.949,31.738,20.508,-37.109,0
1486664620.390,35.645,22.461,37.109,28.809,-80.566,0
1486664620.394,36.133,25.879,43.457,42.480,-1.465,0
1486664620.398,33.691,30.762,36.621,67.871,200.684,0
1486664620.402,27.344,31.738,32.715,57.129,261.719,0
1486664620.406,21.484,26.855,36.621,20.996,31.738,0
1486664620.409,35.156,25.391,40.527,38.574,-97.656,0
1486664620.413,32.715,26.855,42.480,53.223,-58.594,0
1486664620.417,28.320,26.855,40.527,68.848,155.762,0
1486664620.421,41.504,30.762,42.969,77.637,226.562,0
1486664620.425,40.039,29.785,41.016,48.828,-7.324,0
1486664620.429,43.945,24.414,37.109,53.223,-125.488,0
1486664620.433,43.457,25.879,39.551,72.754,-92.285,0
1486664620.437,36.621,24.414,45.898,90.332,102.051,0
1486664620.441,34.668,21.973,43.945,91.309,239.258,0
1486664620.445,32.227,22.949,34.180,58.594,44.434,0
1486664620.449,35.156,23.438,36.133,50.781,-116.211,0
1486664620.452,29.785,24.414,38.574,54.199,-92.773,0
1486664620.456,20.020,21.973,39.062,66.895,95.215,0
1486664620.460,23.438,20.020,41.504,73.242,261.230,0
1486664620.464,27.344,24.414,41.504,42.969,95.215,0
1486664620.468,41.992,24.902,40.039,35.156,-71.289,0
1486664620.472,47.852,25.879,36.133,48.828,-59.570,0
1486664620.476,41.504,32.715,41.504,71.777,66.895,0
1486664620.480,49.316,36.621,37.598,82.520,250.488,0
1486664620.484,48.340,30.762,30.273,51.270,126.953,0
1486664620.488,52.246,28.320,35.156,41.504,-72.266,0
1486664620.491,52.734,31.250,37.109,60.547,-90.332,0
1486664620.495,45.898,30.762,38.086,77.148,55.176,0
1486664620.499,42.480,26.855,37.598,83.984,287.109,0
1486664620.503,40.527,25.879,36.621,62.012,194.336,0
1486664620.507,43.945,27.344,34.180,44.434,-28.809,0
1486664620.511,43.457,30.273,37.109,46.387,-68.359,0
1486664620.515,35.156,33.203,39.551,68.848,31.250,0
1486664620.519,32.227,25.879,37.109,82.031,279.785,0
1486664620.523,31.738,23.926,38.574,62.012,201.172,0
1486664620.527,30.762,28.809,47.852,50.293,-68.359,0
1486664620.531,41.504,25.879,45.410,60.059,-83.984,0
1486664620.534,39.551,25.391,37.109,75.195,-29.785,0
1486664620.538,36.621,25.391,36.621,89.844,189.453,0
1486664620.542,41.504,22.949,36.133,76.660,204.590,0
1486664620.546,42.480,25.879,35.156,54.199,-68.848,0
1486664620.550,53.223,30.273,35.156,59.570,-112.793,0
1486664620.554,49.316,30.273,39.062,67.871,-35.156,0
1486664620.558,47.852,29.297,38.574,82.520,189.941,0
1486664620.562,52.246,31.738,37.598,82.520,250.000,0
1486664620.566,50.781,31.250,41.016,52.246,-7.812,0
1486664620.570,51.758,29.297,43.457,42.480,-81.543,0
1486664620.574,44.922,25.879,38.574,55.176,-3.906,0
1486664620.577,33.691,25.391,31.738,71.289,182.129,0
1486664620.581,29.297,27.832,31.250,63.477,241.699,0
1486664620.585,36.133,26.855,30.273,38.086,17.578,0
1486664620.589,40.039,23.438,28.809,36.133,-104.980,0
1486664620.593,32.715,23.926,31.250,44.434,-61.035,0
1486664620.597,32.227,28.320,38.086,64.453,129.883,0
1486664620.601,27.832,26.367,41.992,62.988,253.418,0
1486664620.605,28.809,24.414,36.621,35.645,68.359,0
1486664620.609,48.828,27.832,39.062,33.691,-87.891,0
1486664620.613,45.898,27.344,44.922,47.363,-78.613,0
1486664620.616,39.551,24.902,39.062,67.383,128.418,0
1486664620.620,46.875,25.391,35.645,76.660,280.273,0
1486664620.624,45.898,26.855,41.504,55.176,55.664,0
1486664620.628,46.875,29.785,39.062,45.410,-109.375,0
1486664620.632,47.363,29.785,38.574,60.547,-113.770,0
1486664620.636,47.363,27.832,40.527,83.496,47.363,0
1486664620.640,50.293,29.297,37.109,84.961,249.512,0
1486664620.644,36.621,25.879,37.109,53.711,93.750,0
1486664620.648,42.969,25.879,40.039,46.387,-117.676,0
1486664620.652,42.969,29.297,41.992,57.129,-114.746,0
1486664620.656,28.809,26.367,43.945,72.754,34.668,0
1486664620.659,34.180,28.809,41.504,79.590,231.445,0
1486664620.663,23.926,32.227,35.645,52.246,140.137,0
1486664620.667,20.996,24.902,33.203,36.621,-76.660,0
1486664620.671,28.809,22.949,35.645,41.992,-109.863,0
1486664620.675,22.949,27.832,38.574,56.152,34.180,0
1486664620.679,29.785,28.809,39.062,72.754,245.605,0
1486664620.683,40.039,26.855,38.574,56.152,187.988,0
1486664620.687,45.410,27.344,36.621,34.668,-44.922,0
1486664620.691,54.688,33.691,35.645,43.457,-130.859,0
1486664620.695,49.805,39.551,40.527,61.035,-60.059,0
1486664620.698,44.434,34.668,43.457,81.543,202.148,0
1486664620.702,50.293,31.738,39.551,77.148,215.332,0
1486664620.706,43.457,32.715,35.156,51.758,-49.316,0
1486664620.710,43.457,28.809,38.574,53.711,-159.668,0
1486664620.714,40.527,26.855,41.992,73.242,-77.148,0
1486664620.718,30.273,25.391,38.574,90.820,175.293,0
1486664620.722,34.668,24.414,35.645,83.984,203.613,0
1486664620.726,34.668,23.926,33.203,56.641,-32.715,0
1486664620.730,43.945,28.320,37.598,59.082,-130.859,0
1486664620.734,45.898,35.156,40.527,72.754,-109.863,0
1486664620.738,41.504,32.227,40.527,84.961,110.840,0
1486664620.741,39.551,26.367,41.504,76.660,229.980,0
1486664620.745,38.086,27.344,39.062,46.875,-35.156,0
1486664620.749,46.875,29.297,35.156,45.898,-156.250,0
1486664620.753,45.410,35.156,35.645,59.570,-92.773,0
1486664620.757,34.668,35.156,39.062,71.777,93.750,0
1486664620.761,29.297,25.391,34.668,63.965,251.465,0
1486664620.765,33.203,24.902,28.320,37.109,26.367,0
1486664620.769,36.621,26.367,29.785,28.809,-143.066,0
1486664620.773,35.156,24.902,34.180,43.945,-55.176,0
1486664620.777,29.785,27.344,35.156,69.336,136.719,0
1486664620.781,26.367,25.391,36.621,68.359,267.090,0
1486664620.784,30.273,23.926,37.598,43.945,70.312,0
1486664620.788,41.016,24.414,34.668,41.016,-86.426,0
1486664620.792,31.738,25.391,33.691,54.688,-66.406,0
1486664620.796,23.438,29.297,38.574,75.684,80.078,0
1486664620.800,29.785,30.273,39.062,79.102,244.141,0
1486664620.804,28.320,25.391,32.715,48.340,96.680,0
1486664620.808,35.645,25.391,31.738,38.086,-111.816,0
1486664620.812,34.180,33.691,38.574,45.410,-104.492,0
1486664620.816,22.461,31.250,37.598,58.594,68.848,0
1486664620.820,25.879,27.344,34.668,73.242,232.422,0
1486664620.823,30.762,30.273,35.645,49.316,134.766,0
1486664620.827,35.156,29.297,35.156,35.645,-49.316,0
1486664620.831,41.992,29.785,33.691,47.852,-104.980,0
1486664620.835,36.621,29.297,34.180,61.035,52.734,0
1486664620.839,31.738,26.367,33.691,76.660,251.465,0
1486664620.843,36.133,25.879,34.668,58.594,165.039,0
1486664620.847,41.504,26.855,36.621,41.016,-31.250,0
1486664620.851,39.551,26.855,39.062,49.316,-114.258,0
1486664620.855,40.039,27.832,40.527,60.547,10.254,0
1486664620.859,39.551,25.879,38.086,71.289,229.004,0
1486664620.863,30.762,23.926,35.156,57.129,181.641,0
1486664620.866,36.621,26.855,34.668,32.715,-37.109,0
1486664620.870,39.551,28.320,34.668,37.109,-91.309,0
1486664620.874,30.762,33.203,34.668,57.129,-26.367,0
1486664620.878,30.762,35.645,33.691,74.707,182.617,0
1486664620.882,34.180,26.855,36.621,64.453,214.355,0
1486664620.886,34.668,24.902,35.156,42.969,-6.836,0
1486664620.890,39.551,25.879,41.016,48.828,-81.055,0
1486664620.894,34.180,27.832,43.945,63.477,-48.340,0
1486664620.898,33.691,28.320,37.109,84.473,147.949,0
1486664620.902,36.133,25.391,39.551,77.148,245.605,0
1486664620.906,31.250,21.973,39.551,46.387,-3.906,0
1486664620.909,38.574,22.461,40.527,47.852,-137.695,0
1486664620.913,43.945,24.414,47.852,66.406,-83.008,0
1486664620.917,40.039,26.367,47.852,86.426,110.840,0
1486664620.921,34.180,28.320,36.621,80.078,220.215,0
1486664620.925,32.715,25.879,30.762,47.363,-6.836,0
1486664620.929,37.598,23.438,34.668,40.039,-139.160,0
1486664620.933,34.668,26.855,35.156,49.805,-116.699,0
1486664620.937,27.832,29.297,41.016,71.777,81.055,0
1486664620.941,32.227,30.273,43.457,77.148,248.535,0
1486664620.945,32.227,27.344,35.645,44.922,50.293,0
1486664620.948,38.086,22.949,35.156,35.645,-113.770,0
1486664620.952,36.621,25.391,33.691,45.410,-115.723,0
1486664620.956,30.273,26.367,33.203,63.477,83.008,0
1486664620.960,34.668,25.391,40.527,69.824,282.227,0
1486664620.964,37.109,30.273,37.109,41.504,105.469,0
1486664620.968,39.551,29.297,31.250,36.133,-80.078,0
1486664620.972,38.574,27.832,36.133,49.805,-96.191,0
1486664620.976,32.715,32.715,35.156,62.988,30.273,0
1486664620.980,37.109,34.668,39.551,79.102,225.098,0
1486664620.984,40.039,34.180,42.480,62.500,102.539,0
1486664620.988,43.457,30.273,35.645,44.434,-74.707,0
1486664620.991,46.875,27.832,34.180,55.664,-67.871,0
1486664620.995,36.133,29.785,35.645,83.008,60.059,0
1486664620.999,39.551,28.320,36.621,88.867,266.113,0
1486664621.003,42.480,29.785,35.645,58.105,167.480,0
1486664621.007,43.945,29.785,36.133,39.551,-53.223,0
1486664621.011,51.270,25.391,40.527,41.992,-66.406,0
1486664621.015,36.133,26.367,35.645,50.293,47.852,0
1486664621.019,29.297,31.738,33.203,65.918,269.531,1
1486664621.023,38.574,34.180,36.621,53.711,214.355,0
1486664621.027,33.691,27.344,34.180,28.320,-29.785,0
1486664621.030,36.621,22.949,33.691,33.203,-73.730,0
1486664621.034,33.203,28.320,33.691,48.340,-12.207,0
1486664621.038,34.180,29.785,34.668,68.848,202.637,0
1486664621.042,39.551,25.879,34.180,61.523,208.984,0
1486664621.046,41.992,27.344,35.645,41.992,-32.227,0
1486664621.050,45.898,28.320,40.039,50.781,-85.938,0
1486664621.054,38.086,30.273,40.039,64.941,-30.273,0
1486664621.058,36.133,32.227,37.109,84.473,178.711,0
1486664621.062,42.969,31.250,30.762,76.660,222.168,0
1486664621.066,41.016,32.715,31.738,48.340,-32.227,0
1486664621.070,42.480,32.715,35.645,48.340,-135.742,0
1486664621.073,39.062,34.180,38.086,58.105,-80.078,0
1486664621.077,31.738,34.668,45.410,75.195,143.555,0
1486664621.081,34.668,28.320,47.363,74.219,242.676,0
1486664621.085,37.109,25.391,36.621,41.016,2.441,0
1486664621.089,41.504,26.367,32.715,36.133,-140.137,0
1486664621.093,34.180,28.320,35.156,50.293,-97.656,0
1486664621.097,31.738,29.785,33.691,71.777,99.609,0
1486664621.101,40.039,27.344,33.691,68.359,240.234,0
1486664621.105,39.062,27.832,38.086,43.945,74.707,0
1486664621.109,42.480,29.297,38.574,42.480,-63.965,0
1486664621.113,39.062,27.832,46.387,48.340,-104.492,0
1486664621.116,29.297,26.855,50.781,67.383,66.406,0
1486664621.120,31.250,25.391,37.598,72.754,256.348,0
1486664621.124,35.156,21.484,31.250,45.410,69.336,0
1486664621.128,36.621,21.484,32.715,29.297,-91.309,0
1486664621.132,30.762,26.855,33.203,39.551,-92.285,0
1486664621.136,22.949,28.320,35.156,60.059,82.031,0
1486664621.140,25.879,28.809,37.598,63.477,259.766,0
1486664621.144,32.227,31.738,40.527,40.039,84.961,0
1486664621.148,38.086,30.762,39.062,39.062,-78.613,0
1486664621.152,45.898,32.715,40.527,48.340,-66.406,0
1486664621.155,36.621,25.391,40.527,65.430,67.383,0
1486664621.159,31.250,18.555,36.133,85.938,282.715,0
1486664621.163,36.621,21.484,38.574,59.082,148.438,0
1486664621.167,37.109,21.484,37.598,43.945,-57.617,0
1486664621.171,41.016,24.902,39.062,57.617,-63.965,0
1486664621.175,39.062,28.320,43.457,76.172,38.574,0
1486664621.179,37.109,34.180,44.922,89.844,226.562,0
1486664621.183,34.668,34.180,43.457,65.918,150.391,0
1486664621.187,31.250,27.832,39.062,41.992,-80.078,0
1486664621.191,39.551,23.438,34.668,50.781,-117.188,0
1486664621.195,38.086,22.461,30.762,68.359,-31.250,0
1486664621.198,32.227,29.297,32.715,79.102,202.148,0
1486664621.202,37.598,31.738,37.598,66.895,221.191,0
1486664621.206,40.527,30.762,35.645,45.898,-18.555,0
1486664621.210,40.527,34.668,31.738,42.480,-106.934,0
1486664621.214,40.039,35.645,34.668,52.246,-44.922,0
1486664621.218,38.086,28.320,36.133,73.730,158.691,0
1486664621.222,35.645,28.320,38.086,66.406,186.035,0
1486664621.226,39.062,31.250,41.016,36.621,-14.160,0
1486664621.230,38.574,24.902,34.668,38.574,-132.324,0
1486664621.234,32.227,25.391,32.715,59.570,-79.102,0
1486664621.238,34.668,29.785,37.598,80.078,137.207,0
1486664621.241,37.109,28.809,32.715,73.730,230.469,0
1486664621.245,43.457,30.762,33.691,46.875,-3.418,0
1486664621.249,54.199,34.180,39.551,48.828,-138.672,0
1486664621.253,51.758,32.227,40.039,61.035,-92.773,0
1486664621.257,47.852,29.785,39.062,72.754,107.422,0
1486664621.261,49.316,30.273,47.363,74.707,239.746,0
1486664621.265,51.270,30.273,43.945,45.410,-5.859,0
1486664621.269,54.688,27.832,33.691,34.668,-145.508,0
1486664621.273,52.246,29.785,38.086,54.199,-72.266,0
1486664621.277,41.992,31.738,39.551,75.684,103.027,0
1486664621.280,31.250,27.344,33.691,71.777,265.625,0
1486664621.284,32.227,25.391,33.203,44.434,61.035,0
1486664621.288,45.898,28.809,38.086,43.457,-95.215,0
1486664621.292,47.363,29.297,43.945,51.758,-76.172,0
1486664621.296,33.203,29.297,42.969,64.941,78.613,0
1486664621.300,30.273,29.785,37.109,74.707,291.504,0
1486664621.304,30.273,31.250,32.715,51.758,94.727,0
1486664621.308,34.180,29.785,32.227,42.480,-111.816,0
1486664621.312,33.691,27.344,34.180,51.270,-72.266,0
1486664621.316,32.227,33.203,38.574,73.242,83.496,0
1486664621.320,29.785,38.574,40.527,81.055,267.578,0
1486664621.323,23.926,27.832,36.621,50.293,151.855,0
1486664621.327,27.344,18.555,35.645,39.551,-94.727,0
1486664621.331,26.367,21.973,38.086,45.410,-113.770,0
1486664621.335,22.461,24.902,39.062,59.570,55.176,0
1486664621.339,27.344,26.855,44.922,76.172,270.996,0
1486664621.343,23.438,25.879,40.527,52.246,198.730,0
1486664621.347,29.785,25.391,30.762,35.156,-31.738,0
1486664621.351,41.504,30.273,36.133,52.246,-112.305,0
1486664621.355,33.203,30.762,38.086,62.988,-1.953,0
1486664621.359,38.574,28.320,38.086,80.078,261.719,0
1486664621.362,44.922,27.832,36.621,69.824,204.102,0
1486664621.366,46.387,29.785,36.621,47.852,-74.707,0
1486664621.370,52.246,32.715,37.598,57.129,-118.164,0
1486664621.374,42.480,27.344,37.109,69.336,-6.836,0
1486664621.378,41.992,23.926,40.527,86.914,190.918,0
1486664621.382,45.898,25.391,42.480,76.172,204.102,0
1486664621.386,41.504,26.367,39.062,45.898,-60.059,0
1486664621.390,42.480,23.926,37.109,48.340,-154.785,0
1486664621.394,35.645,30.273,38.086,64.941,-80.566,0
1486664621.398,24.414,32.227,35.156,79.102,128.418,0
1486664621.402,30.762,23.438,34.180,73.730,207.520,0
1486664621.405,35.156,20.996,35.156,47.852,-13.184,0
1486664621.409,33.203,22.949,37.109,44.922,-133.301,0
1486664621.413,37.598,28.320,39.062,62.500,-76.660,0
1486664621.417,47.852,30.762,41.016,84.961,153.809,0
1486664621.421,51.270,29.297,41.016,87.402,234.375,0
1486664621.425,47.363,29.297,36.133,58.594,-12.207,0
1486664621.429,58.594,29.785,33.691,55.176,-127.930,0
1486664621.433,55.664,32.715,38.574,68.359,-61.523,0
1486664621.437,45.410,34.180,43.457,84.961,137.695,0
1486664621.441,44.922,29.297,43.457,89.355,277.832,0
1486664621.445,45.898,25.879,41.504,60.059,79.590,0
1486664621.448,48.828,25.879,39.551,48.828,-100.098,0
1486664621.452,43.457,26.855,40.039,60.547,-74.707,0
1486664621.456,31.738,26.367,38.086,77.637,120.117,0
1486664621.460,31.250,26.367,36.133,75.195,263.672,0
1486664621.464,29.297,23.438,34.668,47.363,86.426,0
1486664621.468,43.457,22.461,33.203,40.039,-64.941,0
1486664621.472,36.621,25.391,41.992,45.410,-74.219,0
1486664621.476,20.020,25.391,42.969,63.477,48.340,0
1486664621.480,26.855,24.902,33.691,69.336,244.141,0
1486664621.484,24.414,26.367,35.645,46.875,110.352,0
1486664621.487,38.574,27.832,39.062,44.922,-96.191,0
1486664621.491,41.504,29.297,41.504,44.434,-92.773,0
1486664621.495,32.715,31.738,46.875,53.711,66.406,0
1486664621.499,38.086,32.227,41.504,74.707,274.902,0
1486664621.503,37.598,28.809,34.668,52.734,172.852,0
1486664621.507,39.062,28.809,38.086,38.086,-78.125,0
1486664621.511,40.527,26.855,39.062,46.387,-126.465,0
1486664621.515,33.691,22.461,40.527,62.988,7.324,0
1486664621.519,47.852,27.344,43.945,83.984,235.352,0
1486664621.523,51.758,34.180,38.086,63.477,176.758,0
1486664621.527,42.480,27.344,30.762,42.480,-63.477,0
1486664621.530,44.434,22.949,32.715,51.270,-137.695,0
1486664621.534,42.480,27.832,34.180,65.918,-24.902,0
1486664621.538,38.086,25.879,32.715,76.172,227.539,0
1486664621.542,37.109,24.414,36.621,62.988,192.383,0
1486664621.546,38.574,26.855,35.645,41.016,-41.016,0
1486664621.550,39.062,26.855,32.227,41.504,-117.676,0
1486664621.554,24.414,27.832,33.691,52.734,-69.824,0
1486664621.558,20.996,25.391,36.621,68.359,175.781,0
1486664621.562,26.855,25.879,37.598,59.570,224.121,0
1486664621.566,28.320,28.320,37.598,38.574,-21.973,0
1486664621.570,52.734,30.273,39.062,41.504,-111.816,0
1486664621.573,44.434,30.762,35.645,46.387,-91.797,0
1486664621.577,20.996,25.879,33.691,62.500,93.262,0
1486664621.581,34.180,25.391,37.109,69.336,191.406,0
1486664621.585,37.109,24.902,38.574,41.016,-5.859,0
1486664621.589,34.668,25.879,36.621,39.062,-100.586,0
1486664621.593,33.691,29.297,40.039,51.758,-62.500,0
1486664621.597,28.320,28.809,41.992,66.406,143.066,0
1486664621.601,34.180,26.367,42.969,68.359,229.980,0
1486664621.605,37.598,25.391,40.527,41.504,14.648,0
1486664621.609,44.922,24.902,34.180,36.133,-128.418,0
1486664621.612,41.992,28.809,34.180,48.828,-111.328,0
1486664621.616,39.062,32.227,43.945,74.219,92.285,0
1486664621.620,40.527,30.273,42.480,82.520,252.441,1
1486664621.624,35.156,30.273,38.086,51.270,61.035,0
1486664621.628,43.457,31.738,38.086,49.805,-102.051,0
1486664621.632,45.410,31.250,37.109,62.500,-111.328,0
1486664621.636,35.645,27.832,42.969,76.660,27.832,0
1486664621.640,34.668,26.855,44.434,85.938,249.023,0
1486664621.644,41.016,29.297,42.969,65.918,103.516,0
1486664621.648,43.457,27.832,42.969,54.688,-80.566,0
1486664621.652,39.551,24.902,41.016,58.594,-53.223,0
1486664621.655,40.039,25.391,44.434,79.102,117.188,0
1486664621.659,39.062,25.391,45.898,88.867,298.340,0
1486664621.663,30.273,22.461,38.086,55.664,162.598,0
1486664621.667,38.086,23.926,35.645,41.992,-82.520,0
1486664621.671,44.434,25.879,36.621,51.758,-104.004,0
1486664621.675,36.133,26.367,37.598,56.641,-1.953,0
1486664621.679,38.086,29.785,38.574,79.102,221.680,0
1486664621.683,37.109,30.762,37.109,65.918,199.707,0
1486664621.687,40.039,31.250,33.691,45.898,-55.664,0
1486664621.691,51.758,37.109,36.621,57.617,-108.887,0
1486664621.694,37.109,27.344,38.086,62.988,13.184,0
1486664621.698,44.922,18.066,38.574,83.496,228.027,0
1486664621.702,43.945,20.996,37.109,73.730,201.172,0
1486664621.706,32.715,25.391,41.016,39.551,-43.945,0
1486664621.710,46.387,27.832,42.480,47.363,-108.398,0
1486664621.714,43.945,29.297,33.691,63.965,-47.852,0
1486664621.718,34.668,31.250,32.715,80.078,187.500,0
1486664621.722,34.668,29.297,34.668,71.777,225.586,0
1486664621.726,36.133,28.320,33.691,40.039,-39.551,0
1486664621.730,34.668,28.809,38.574,37.109,-112.305,0
1486664621.734,28.320,26.855,41.016,53.711,-47.363,0
1486664621.737,23.438,28.320,39.062,66.895,135.742,0
1486664621.741,28.320,31.250,39.551,66.895,188.477,0
1486664621.745,33.691,28.809,38.086,46.875,-48.828,0
1486664621.749,34.180,28.320,39.551,45.410,-148.438,0
1486664621.753,28.809,29.297,43.945,59.570,-79.102,0
1486664621.757,34.180,27.344,40.527,83.008,133.789,0
1486664621.761,38.574,26.855,37.598,79.102,254.395,0
1486664621.765,40.527,30.273,37.598,49.805,30.273,0
1486664621.769,51.270,28.809,38.574,52.246,-120.117,0
1486664621.773,49.805,27.832,39.062,63.477,-81.543,0
1486664621.777,40.527,36.133,44.434,78.613,104.004,0
1486664621.780,40.527,35.156,48.828,79.590,235.840,0
1486664621.784,35.645,27.344,40.527,51.758,51.270,0
1486664621.788,38.574,25.879,31.250,40.527,-105.957,0
1486664621.792,39.062,26.855,35.645,42.480,-83.984,0
1486664621.796,33.691,29.297,41.992,73.730,60.059,0
1486664621.800,35.645,25.879,40.039,81.543,242.676,0
1486664621.804,32.227,25.391,40.527,48.340,130.371,0
1486664621.808,40.039,27.344,45.410,44.922,-83.496,0
1486664621.812,42.480,27.344,42.480,55.176,-89.844,0
1486664621.816,26.367,25.879,37.109,65.430,105.469,0
1486664621.819,23.926,24.414,44.922,75.195,323.730,0
1486664621.823,35.156,27.832,51.270,60.547,170.410,0
1486664621.827,35.156,26.855,38.574,44.434,-35.645,0
1486664621.831,32.227,20.996,33.203,48.828,-42.480,0
1486664621.835,32.715,20.996,39.551,68.359,73.242,0
1486664621.839,34.180,25.391,38.086,81.543,272.949,0
1486664621.843,34.668,26.855,34.668,56.641,186.523,0
1486664621.847,42.480,26.367,35.645,41.016,-49.316,0
1486664621.851,48.828,26.367,40.039,52.734,-88.867,0
1486664621.855,39.062,29.297,42.480,60.547,-27.344,0
1486664621.859,35.645,33.203,39.551,75.684,162.109,0
1486664621.862,39.551,31.738,38.086,57.617,150.879,0
1486664621.866,47.363,30.762,33.691,36.621,-77.637,0
1486664621.870,44.922,33.691,37.598,42.480,-112.305,0
1486664621.874,26.855,32.227,41.992,50.781,-19.043,0
1486664621.878,31.250,30.762,38.574,71.289,170.898,0
1486664621.882,30.762,33.203,41.504,66.406,204.590,0
1486664621.886,31.738,29.785,39.062,38.086,-2.930,0
1486664621.890,41.016,20.020,39.062,41.992,-103.516,0
1486664621.894,31.250,22.461,43.945,62.500,-40.039,0
1486664621.898,31.250,26.855,46.387,78.125,176.270,0
1486664621.902,40.527,27.344,46.875,75.684,229.492,0
1486664621.905,45.410,25.879,41.992,52.246,-12.695,0
1486664621.909,46.875,21.484,36.621,41.992,-91.797,0
1486664621.913,36.133,23.438,36.621,47.852,-53.223,0
1486664621.917,35.156,27.344,36.133,66.895,115.234,0
1486664621.921,31.738,27.832,37.109,66.895,254.883,0
1486664621.925,25.391,22.949,36.621,39.062,25.879,0
1486664621.929,36.621,19.531,33.691,33.203,-104.980,0
1486664621.933,37.598,25.879,35.156,49.316,-27.344,0
1486664621.937,32.715,28.320,39.551,72.266,148.926,0
1486664621.941,34.180,28.809,42.480,69.824,267.578,0
1486664621.944,34.180,30.762,37.598,41.992,23.926,0
1486664621.948,44.434,26.367,29.785,38.574,-134.766,0
1486664621.952,41.504,26.367,28.320,49.805,-95.703,0
1486664621.956,26.855,29.297,33.691,68.359,109.863,0
1486664621.960,33.691,26.367,36.621,80.078,283.203,0
1486664621.964,32.227,29.785,37.598,56.152,70.312,0
1486664621.968,30.273,33.691,41.504,42.969,-88.379,0
1486664621.972,26.855,25.391,41.016,54.688,-59.570,0
1486664621.976,26.367,26.367,35.156,74.219,53.711,0
1486664621.980,36.621,30.762,33.691,83.984,225.098,0
1486664621.984,35.645,24.414,35.645,53.711,117.188,0
1486664621.987,41.992,22.461,33.203,41.504,-70.801,0
1486664621.991,49.316,26.855,35.645,55.664,-107.422,0
1486664621.995,41.016,29.297,45.410,72.754,7.812,0
1486664621.999,39.551,24.902,40.527,85.449,205.566,0
1486664622.003,38.086,24.902,31.738,57.129,113.281,0
1486664622.007,42.480,26.855,33.691,40.527,-68.359,0
1486664622.011,43.945,25.879,35.156,48.828,-90.820,0
1486664622.015,31.738,26.367,40.527,61.523,1.953,0
1486664622.019,32.715,35.156,43.945,80.078,231.445,0
1486664622.023,28.809,34.668,34.180,53.223,193.848,0
1486664622.026,30.762,24.414,36.621,29.297,-55.176,0
1486664622.030,46.387,26.367,40.527,39.551,-114.746,0
1486664622.034,30.762,30.762,35.645,55.664,-13.184,0
1486664622.038,25.879,32.227,35.156,78.125,187.500,0
1486664622.042,34.180,32.715,33.203,65.918,207.031,0
1486664622.046,31.250,31.250,30.273,39.062,-42.480,0
1486664622.050,36.621,30.273,32.715,41.992,-148.438,0
1486664622.054,30.762,28.809,36.621,58.105,-83.984,0
1486664622.058,26.367,27.344,34.180,72.266,160.645,0
1486664622.062,26.855,27.832,34.180,61.523,243.164,0
1486664622.066,30.273,26.367,41.016,39.551,-4.395,0
1486664622.069,33.203,21.973,42.969,42.480,-127.930,0
1486664622.073,30.762,25.879,38.086,55.664,-83.496,0
1486664622.077,26.855,26.855,31.250,74.219,139.160,0
1486664622.081,29.297,26.855,31.250,76.660,234.375,0
1486664622.085,43.457,31.738,35.645,52.734,22.949,0
1486664622.089,41.992,29.785,33.203,42.480,-116.211,0
1486664622.093,34.668,27.344,41.016,51.270,-108.887,0
1486664622.097,33.691,26.367,50.293,73.242,115.723,0
1486664622.101,34.668,25.391,41.992,77.148,252.441,0
1486664622.105,39.062,29.297,36.621,49.805,35.645,0
1486664622.109,45.898,31.738,35.645,46.387,-112.305,0
1486664622.112,41.992,29.297,37.598,61.035,-99.121,0
1486664622.116,32.227,29.297,40.039,68.848,103.516,0
1486664622.120,37.598,31.250,36.133,69.336,271.484,0
1486664622.124,36.621,29.785,38.086,47.852,62.988,0
1486664622.128,37.109,28.320,39.062,37.109,-109.863,0
1486664622.132,34.668,27.832,38.086,49.805,-98.145,0
1486664622.136,31.250,28.809,42.969,71.289,69.336,0
1486664622.140,27.832,27.344,45.898,83.496,260.742,0
1486664622.144,29.785,23.438,39.551,67.383,100.098,0
1486664622.148,45.410,28.320,35.156,53.711,-100.098,0
1486664622.151,44.922,35.156,38.574,56.152,-94.238,0
1486664622.155,39.551,34.180,43.457,71.777,45.898,0
1486664622.159,43.945,26.367,40.039,78.125,246.582,0
1486664622.163,44.434,25.879,38.086,56.152,145.508,0
1486664622.167,46.387,26.855,39.062,36.133,-91.309,0
1486664622.171,55.664,26.367,37.109,42.480,-120.605,0
1486664622.175,55.176,29.785,46.387,65.430,15.137,0
1486664622.179,58.105,34.668,49.805,86.914,238.281,0
1486664622.183,52.734,28.320,32.715,71.289,164.551,0
1486664622.187,43.457,19.043,28.809,53.223,-90.332,0
1486664622.191,50.293,27.344,35.156,58.105,-109.375,0
1486664622.194,41.504,34.668,35.645,65.430,-29.297,0
1486664622.198,20.020,26.367,33.691,72.754,173.828,0
1486664622.202,20.508,22.461,31.250,56.641,211.426,0
1486664622.206,24.414,27.832,32.715,29.297,-30.762,0
1486664622.210,28.320,31.250,35.156,29.297,-101.562,0
1486664622.214,26.855,26.855,33.203,39.551,-10.742,0
1486664622.218,20.996,29.297,38.086,61.035,193.848,0
1486664622.222,19.531,31.250,37.598,51.758,213.379,0
1486664622.226,23.438,22.949,30.273,25.391,-11.230,0
1486664622.230,29.785,23.926,37.598,35.156,-93.750,0
1486664622.234,32.227,30.273,44.922,52.734,-79.102,0
1486664622.237,28.320,31.250,46.387,74.707,106.934,0
1486664622.241,29.785,28.809,50.293,79.590,199.707,0
1486664622.245,36.133,25.391,42.969,60.059,-21.973,0
1486664622.249,44.434,22.949,35.156,60.547,-139.160,0
1486664622.253,39.551,23.438,39.551,69.824,-89.355,0
1486664622.257,37.109,29.297,41.016,84.473,131.348,0
1486664622.261,41.504,34.180,38.574,85.449,228.516,0
1486664622.265,41.992,33.203,35.645,57.617,-21.973,0
1486664622.269,45.410,31.250,35.156,50.781,-141.602,0
1486664622.273,41.992,33.691,36.133,58.594,-98.145,0
1486664622.276,35.645,29.297,36.133,68.359,104.980,0
1486664622.280,31.250,25.391,33.691,66.406,264.160,0
1486664622.284,34.668,30.762,29.297,42.969,53.711,0
1486664622.288,38.086,28.320,32.227,34.180,-118.652,0
1486664622.292,39.551,28.320,38.574,38.574,-93.750,0
1486664622.296,37.598,34.668,40.039,60.547,82.520,0
1486664622.300,25.391,30.762,35.645,71.289,288.574,0
1486664622.304,30.762,27.344,43.457,42.969,119.141,1
1486664622.308,38.086,29.297,37.598,27.832,-90.820,0
1486664622.312,38.574,30.762,28.320,42.969,-73.730,0
1486664622.316,37.109,32.715,37.109,65.918,77.148,0
1486664622.319,40.527,30.762,38.086,75.195,265.625,0
1486664622.323,40.039,25.391,36.133,54.199,136.719,0
1486664622.327,45.410,27.832,43.945,45.410,-101.074,0
1486664622.331,46.875,26.855,40.039,58.594,-121.582,0
1486664622.335,33.203,20.020,31.250,67.383,2.441,0
1486664622.339,31.738,22.461,34.668,77.148,248.535,0
1486664622.343,39.062,29.297,37.598,65.430,185.059,0
1486664622.347,44.434,28.809,42.969,54.688,-32.715,0
1486664622.351,43.457,29.297,40.527,59.082,-55.664,0
1486664622.355,36.621,28.809,41.016,68.359,-4.883,0
1486664622.358,36.133,27.344,45.410,84.473,187.012,0
1486664622.362,41.504,25.879,34.180,63.965,166.992,0
1486664622.366,39.062,22.949,30.273,35.156,-50.781,0
1486664622.370,36.133,22.461,36.133,42.969,-72.754,0
1486664622.374,32.227,21.484,37.598,58.594,-5.859,0
1486664622.378,32.227,22.461,41.992,75.684,177.246,0
1486664622.382,41.992,23.926,40.527,66.895,181.152,0
1486664622.386,39.551,22.949,39.062,41.504,-75.684,0
1486664622.390,46.387,28.320,43.945,49.316,-162.598,0
1486664622.394,49.805,27.344,48.340,72.754,-65.430,0
1486664622.398,41.504,20.508,43.457,91.309,158.203,0
1486664622.401,41.992,20.508,36.621,77.637,233.398,0
1486664622.405,51.270,23.926,37.109,48.828,14.648,0
1486664622.409,55.664,26.367,36.133,49.316,-98.145,0
1486664622.413,49.316,32.227,36.133,60.059,-41.992,0
1486664622.417,39.551,34.180,38.086,76.172,162.109,0
1486664622.421,33.203,27.832,38.574,73.730,296.387,0
1486664622.425,37.109,26.367,30.273,46.875,72.754,0
1486664622.429,49.805,28.809,31.250,54.199,-95.703,0
1486664622.433,42.969,27.344,39.551,62.500,-73.242,0
1486664622.437,31.250,27.344,37.598,68.848,112.305,0
1486664622.441,41.504,25.879,35.645,81.543,283.203,0
1486664622.444,45.898,22.949,35.645,53.711,96.680,0
1486664622.448,47.363,28.809,43.945,46.387,-90.820,0
1486664622.452,54.688,34.668,48.340,60.547,-62.500,0
1486664622.456,48.340,33.203,41.504,79.590,106.445,0
1486664622.460,43.945,34.180,39.551,87.891,277.344,0
1486664622.464,48.340,33.203,38.574,61.523,101.074,0
1486664622.468,52.734,28.320,34.668,52.246,-80.078,0
1486664622.472,55.176,30.273,38.574,63.965,-60.059,0
1486664622.476,47.363,30.762,41.504,77.637,94.727,0
1486664622.480,41.016,26.855,46.387,84.473,309.570,0
1486664622.483,46.387,27.832,48.340,63.965,149.414,0
1486664622.487,46.875,24.414,33.691,48.828,-74.707,0
1486664622.491,41.992,26.855,30.762,51.758,-83.984,0
1486664622.495,29.297,30.762,36.621,70.801,29.297,0
1486664622.499,28.809,24.414,39.062,84.473,229.492,0
1486664622.503,23.926,26.367,43.457,55.664,139.648,0
1486664622.507,13.672,28.809,39.062,33.203,-58.105,0
1486664622.511,17.578,20.020,34.180,36.621,-58.105,0
1486664622.515,13.184,17.578,34.668,51.758,53.711,0
1486664622.519,18.066,22.461,38.574,75.195,275.391,0
1486664622.523,32.715,27.344,43.945,63.965,226.074,0
1486664622.526,36.621,25.879,40.527,40.527,-25.391,0
1486664622.530,41.016,25.391,40.039,41.992,-92.773,0
1486664622.534,42.480,30.273,40.527,53.711,-13.184,0
1486664622.538,40.039,32.715,43.457,70.312,218.262,0
1486664622.542,36.133,28.320,40.039,53.711,216.797,0
1486664622.546,37.598,26.855,32.715,32.227,-21.973,0
1486664622.550,46.875,32.715,39.551,46.387,-89.355,0
1486664622.554,36.133,27.344,42.969,61.035,-37.109,0
1486664622.558,22.461,21.973,41.504,71.289,186.035,0
1486664622.562,24.902,24.902,37.598,68.359,256.836,0
1486664622.565,32.715,26.367,39.062,45.410,6.348,0
1486664622.569,37.109,28.320,43.457,41.016,-106.934,0
1486664622.573,27.832,30.273,41.992,55.664,-66.406,0
1486664622.577,22.461,31.738,43.945,74.219,146.973,0
1486664622.581,26.855,28.320,46.875,72.266,259.766,0
1486664622.585,28.809,26.855,41.016,47.363,30.273,0
1486664622.589,31.738,26.367,40.039,44.922,-85.938,0
1486664622.593,22.949,22.949,42.480,61.035,-54.688,0
1486664622.597,20.508,25.391,41.016,79.590,111.328,0
1486664622.601,27.832,28.809,36.133,69.336,259.766,0
1486664622.605,30.762,25.879,36.133,41.504,41.504,0
1486664622.608,41.016,26.367,42.480,41.992,-104.492,0
1486664622.612,37.109,28.809,38.574,48.340,-80.078,0
1486664622.616,33.203,28.809,35.156,66.895,61.035,0
1486664622.620,39.062,32.715,42.969,72.754,223.633,0
1486664622.624,42.480,34.668,38.086,42.969,28.320,0
1486664622.628,41.992,29.297,28.809,33.203,-108.398,0
1486664622.632,31.738,27.832,34.180,39.062,-74.219,0
1486664622.636,29.785,28.809,36.621,55.664,33.203,0
1486664622.640,30.762,30.762,33.203,70.801,245.605,0
1486664622.644,31.250,29.785,34.668,45.410,98.633,0
1486664622.648,36.621,28.809,35.156,36.133,-125.488,0
1486664622.651,41.016,33.203,42.969,58.105,-115.723,0
1486664622.655,32.227,34.180,49.805,72.266,17.578,0
1486664622.659,29.297,29.297,35.645,79.102,225.586,0
1486664622.663,33.691,21.973,29.297,59.082,127.441,0
1486664622.667,37.598,22.461,33.691,41.504,-83.496,0
1486664622.671,45.410,30.762,37.598,57.617,-117.188,0
1486664622.675,39.551,31.250,43.457,79.590,12.207,0
1486664622.679,33.203,24.414,42.480,88.379,239.258,0
1486664622.683,36.621,22.949,43.945,66.406,202.148,0
1486664622.687,41.504,19.531,43.457,48.340,-40.039,0
1486664622.690,43.945,20.996,38.086,56.152,-96.191,0
1486664622.694,36.133,30.273,41.504,66.895,-13.184,0
1486664622.698,28.809,22.949,41.992,79.590,174.316,0
1486664622.702,30.273,17.578,38.086,67.871,180.664,0
1486664622.706,40.527,23.438,38.574,47.363,-61.523,0
1486664622.710,47.852,23.438,45.898,50.293,-149.414,0
1486664622.714,40.039,28.809,43.945,62.500,-63.965,0
1486664622.718,36.621,29.297,36.133,78.125,182.129,0
1486664622.722,53.223,25.879,38.574,72.754,229.980,0
1486664622.726,49.316,22.949,37.598,49.805,-40.039,0
1486664622.730,44.922,20.508,35.645,51.270,-182.617,0
1486664622.733,46.387,26.367,40.039,70.312,-90.820,0
1486664622.737,39.062,28.809,41.016,86.426,175.781,0
1486664622.741,45.898,28.809,44.434,83.984,248.047,0
1486664622.745,43.945,26.367,45.898,58.105,23.438,0
1486664622.749,46.875,24.414,35.156,52.246,-104.004,0
1486664622.753,41.992,23.926,27.832,63.477,-105.469,0
1486664622.757,35.156,28.320,36.621,83.496,68.359,0
1486664622.761,35.156,30.273,41.504,83.008,246.094,0
1486664622.765,41.016,29.785,37.598,53.711,67.383,0
1486664622.769,49.316,29.785,35.156,43.457,-110.352,0
1486664622.773,43.945,26.855,40.039,51.758,-80.566,0
1486664622.776,35.156,26.367,43.457,65.918,129.395,0
1486664622.780,41.504,26.367,32.227,66.895,295.410,0
1486664622.784,41.992,27.832,28.320,42.969,97.168,0
1486664622.788,35.645,26.367,32.227,32.715,-68.848,0
1486664622.792,41.992,28.809,35.645,40.527,-68.848,0
1486664622.796,39.062,34.180,31.738,60.059,50.781,0
1486664622.800,34.180,33.203,34.668,77.637,256.348,0
1486664622.804,41.016,30.273,46.387,56.152,131.348,0
1486664622.808,42.969,27.344,34.180,40.527,-80.078,0
1486664622.812,35.645,25.391,24.414,43.945,-87.402,0
1486664622.815,29.785,27.344,32.715,60.059,77.148,0
1486664622.819,35.156,32.715,39.062,75.684,267.578,0
1486664622.823,28.320,31.738,36.133,49.316,138.672,0
1486664622.827,22.461,23.438,34.180,31.250,-70.312,0
1486664622.831,27.344,22.461,41.992,42.480,-108.887,0
1486664622.835,24.414,25.391,41.504,61.523,1.465,0
1486664622.839,30.273,24.902,42.480,82.031,218.262,0
1486664622.843,34.668,27.344,43.945,68.848,151.367,0
1486664622.847,33.691,23.438,31.738,50.781,-64.453,0
1486664622.851,46.875,22.461,33.203,62.500,-107.422,0
1486664622.855,51.758,30.273,40.039,81.543,32.227,0
1486664622.858,49.805,32.227,39.062,92.285,277.344,0
1486664622.862,54.199,29.297,42.480,74.219,225.098,0
1486664622.866,56.152,27.344,45.410,49.805,-33.691,0
1486664622.870,54.199,27.832,42.480,51.270,-113.770,0
1486664622.874,39.062,30.762,35.645,59.570,-16.113,0
1486664622.878,35.156,33.203,28.809,71.777,191.895,0
1486664622.882,36.621,32.715,31.738,63.477,222.656,0
1486664622.886,39.062,28.320,35.645,37.598,5.859,0
1486664622.890,49.805,23.926,31.738,33.691,-89.355,0
1486664622.894,40.039,28.809,34.668,45.410,-17.090,0
1486664622.897,23.438,29.785,42.480,67.383,199.219,0
1486664622.901,22.461,27.832,35.156,55.176,236.816,0
1486664622.905,25.879,30.273,26.855,23.438,19.043,0
1486664622.909,34.180,26.855,33.203,30.762,-99.609,0
1486664622.913,32.715,26.855,39.062,51.758,-99.121,0
1486664622.917,34.180,34.180,38.086,74.219,126.953,0
1486664622.921,35.156,25.391,37.109,71.777,253.906,0
1486664622.925,36.133,18.066,34.668,46.387,0.488,0
1486664622.929,44.434,23.438,37.109,51.758,-120.605,0
1486664622.933,36.133,27.344,38.086,53.711,-92.773,0
1486664622.937,31.250,29.785,34.668,66.895,56.152,0
1486664622.940,33.203,28.809,36.621,76.172,206.543,0
1486664622.944,26.855,24.902,35.645,42.969,25.391,0
1486664622.948,31.738,24.902,36.621,39.551,-102.539,0
1486664622.952,38.574,28.320,41.992,59.082,-89.355,1
1486664622.956,31.738,31.738,48.340,76.660,74.707,0
1486664622.960,30.273,25.879,44.922,77.148,257.812,0
1486664622.964,37.598,18.555,40.527,52.246,85.449,0
1486664622.968,39.551,18.066,41.016,40.039,-108.398,0
1486664622.972,38.574,21.484,41.016,44.434,-91.797,0
1486664622.976,36.621,28.320,47.363,65.430,72.266,0
1486664622.980,34.668,28.320,46.875,78.125,280.762,0
1486664622.983,35.645,28.320,40.039,56.152,144.531,0
1486664622.987,40.527,28.809,43.945,45.898,-78.125,0
1486664622.991,45.898,25.391,40.527,56.641,-110.840,0
1486664622.995,36.621,26.855,32.227,64.453,38.086,0
1486664622.999,29.297,31.250,37.109,81.055,251.953,0
1486664623.003,32.227,31.738,37.598,58.105,128.906,0
1486664623.007,34.180,26.367,39.062,35.156,-58.105,0
1486664623.011,40.527,25.879,45.898,51.758,-69.336,0
1486664623.015,31.738,27.832,37.109,62.988,-0.488,0
1486664623.019,30.273,27.832,34.668,82.031,208.984,0
1486664623.022,32.227,28.320,40.039,69.336,192.871,0
1486664623.026,31.250,25.879,39.551,42.480,-46.875,0
1486664623.030,33.691,25.879,39.551,45.410,-87.891,0
1486664623.034,31.250,27.344,36.133,54.199,-24.414,0
1486664623.038,30.273,31.250,39.551,72.266,171.387,0
1486664623.042,35.645,33.691,40.527,66.895,213.867,0
1486664623.046,35.645,23.926,37.109,41.016,-12.207,0
1486664623.050,36.133,22.949,37.598,42.969,-102.051,0
1486664623.054,32.715,31.250,38.574,61.523,-69.336,0
1486664623.058,30.273,30.762,35.645,78.613,146.973,0
1486664623.062,32.715,28.320,36.133,70.312,230.957,0
1486664623.065,35.645,30.273,44.434,48.340,-41.016,0
1486664623.069,41.504,28.809,38.086,46.875,-134.766,0
1486664623.073,34.180,25.391,30.762,51.270,-80.566,0
1486664623.077,30.273,31.738,38.574,67.383,109.375,0
1486664623.081,29.297,28.320,39.062,63.965,226.074,0
1486664623.085,37.598,20.508,32.715,32.227,-35.156,0
1486664623.089,48.828,22.949,29.785,28.809,-146.484,0
1486664623.093,41.992,28.320,34.180,44.922,-85.449,0
1486664623.097,42.480,31.250,37.598,64.941,98.633,0
1486664623.101,36.133,23.926,33.203,61.523,262.207,0
1486664623.105,32.715,19.531,31.738,36.621,50.293,0
1486664623.108,43.457,22.461,31.250,42.969,-125.977,0
1486664623.112,42.969,24.902,35.156,57.617,-94.727,0
1486664623.116,34.668,28.320,41.016,78.125,67.871,0
1486664623.120,34.180,30.273,37.598,85.938,234.375,0
1486664623.124,34.668,27.832,34.180,52.734,60.547,0
1486664623.128,44.434,31.250,44.434,47.852,-120.605,0
1486664623.132,44.922,33.691,43.945,61.035,-121.582,0
1486664623.136,28.809,22.949,33.203,72.754,18.066,0
1486664623.140,21.973,20.996,36.621,79.102,219.727,0
1486664623.144,22.461,21.484,36.621,52.246,79.590,0
1486664623.147,27.832,20.996,32.715,40.527,-113.281,0
1486664623.151,28.809,24.902,38.086,47.852,-93.750,0
1486664623.155,23.926,28.320,37.109,63.965,42.480,0
1486664623.159,27.832,29.297,34.180,77.148,229.492,0
1486664623.163,28.320,26.855,40.527,50.781,141.113,0
1486664623.167,31.250,24.902,42.969,37.109,-72.754,0
1486664623.171,37.109,31.250,40.527,48.828,-131.348,0
1486664623.175,27.344,32.227,43.457,57.129,-39.551,0
1486664623.179,25.391,26.367,46.387,74.707,210.938,0
1486664623.183,31.738,27.832,41.992,56.152,193.848,0
1486664623.187,34.668,35.156,38.086,34.180,-59.570,0
1486664623.190,36.133,30.762,41.016,46.387,-121.094,0
1486664623.194,35.645,23.926,41.992,62.988,-31.250,0
1486664623.198,34.180,24.902,47.363,80.078,166.992,0
1486664623.202,35.645,30.273,47.852,69.824,180.664,0
1486664623.206,38.574,30.273,38.574,46.387,-62.500,0
1486664623.210,43.945,23.438,38.574,52.246,-133.789,0
1486664623.214,37.109,23.438,37.598,60.547,-40.039,0
1486664623.218,35.156,26.855,38.086,81.543,196.289,0
1486664623.222,41.016,31.738,39.551,79.590,263.672,0
1486664623.226,41.504,27.344,39.062,52.734,22.461,0
1486664623.229,45.410,21.973,46.387,55.176,-82.520,0
1486664623.233,38.574,25.879,42.480,65.430,-26.855,0
1486664623.237,37.598,32.227,38.086,84.961,149.414,0
1486664623.241,42.969,36.133,41.016,82.031,243.164,0
1486664623.245,43.457,32.227,33.691,52.246,9.277,0
1486664623.249,50.293,25.391,33.203,47.852,-91.797,0
1486664623.253,42.480,26.367,39.551,55.176,-37.598,0
1486664623.257,32.227,29.297,40.039,74.707,145.508,0
1486664623.261,36.133,29.785,38.574,73.242,284.180,0
1486664623.265,33.691,30.273,41.504,41.016,36.133,0
1486664623.269,35.645,28.320,35.645,32.715,-115.723,0
1486664623.272,26.855,19.531,27.344,37.109,-54.199,0
1486664623.276,22.461,22.949,34.180,58.594,128.418,0
1486664623.280,28.320,29.297,39.062,72.266,253.418,0
1486664623.284,30.273,20.020,36.621,51.758,67.383,0
1486664623.288,41.504,20.020,35.645,46.875,-83.008,0
1486664623.292,41.504,22.461,31.738,57.617,-90.332,0
1486664623.296,35.645,22.461,34.668,80.078,67.383,0
1486664623.300,36.133,24.414,39.551,83.496,262.207,0
1486664623.304,33.691,22.949,34.180,56.641,104.004,0
1486664623.308,42.969,28.809,34.668,49.316,-80.078,0
1486664623.312,42.480,25.391,36.133,55.176,-75.684,0
1486664623.315,35.645,19.531,39.062,69.336,53.711,0
1486664623.319,40.527,23.438,38.086,84.473,268.555,0
1486664623.323,39.551,25.879,38.086,59.570,152.832,0
1486664623.327,41.992,25.879,41.016,39.062,-87.891,0
1486664623.331,48.828,25.879,33.203,52.246,-98.145,0
1486664623.335,44.434,28.809,35.645,70.801,46.875,0
1486664623.339,39.062,24.902,36.133,81.543,256.348,0
1486664623.343,34.180,20.508,33.691,61.035,183.594,0
1486664623.347,37.598,25.879,34.180,40.527,-47.363,0
1486664623.351,41.992,22.949,36.621,45.410,-83.496,0
1486664623.354,35.645,16.113,41.504,57.617,-16.602,0
1486664623.358,34.668,22.949,40.527,74.707,219.238,0
1486664623.362,37.598,27.832,39.062,68.359,229.492,0
1486664623.366,46.875,28.320,36.133,48.340,-1.465,0
1486664623.370,51.270,29.297,37.598,51.270,-78.125,0
1486664623.374,38.086,31.738,37.598,66.406,-27.344,0
1486664623.378,38.086,31.738,37.598,86.914,180.664,0
1486664623.382,49.316,28.320,39.551,83.008,222.168,0
1486664623.386,52.246,32.715,37.109,56.641,-14.160,0
1486664623.390,54.199,30.762,41.016,54.688,-114.746,0
1486664623.394,51.758,28.809,48.340,66.895,-51.270,0
1486664623.397,47.852,30.273,43.945,80.566,157.715,0
1486664623.401,43.457,30.762,37.109,72.266,234.375,0
1486664623.405,40.527,28.809,39.551,43.945,12.207,0
1486664623.409,45.410,22.461,40.039,42.969,-112.305,0
1486664623.413,38.574,25.391,41.992,54.688,-77.637,0
1486664623.417,33.691,32.227,47.852,72.266,129.883,0
1486664623.421,35.645,30.273,46.875,72.754,273.926,0
1486664623.425,36.133,27.344,43.457,44.922,68.359,0
1486664623.429,42.480,30.273,37.598,41.016,-114.746,0
1486664623.433,33.691,31.738,36.133,51.758,-82.520,0
1486664623.437,21.484,23.926,40.527,66.895,95.703,0
1486664623.440,22.949,24.902,37.598,67.871,229.492,0
1486664623.444,28.809,30.273,36.621,41.992,34.180,0
1486664623.448,37.109,29.297,43.457,36.133,-125.000,0
1486664623.452,31.250,26.367,41.992,42.480,-59.570,0
1486664623.456,23.438,23.438,33.203,61.035,118.164,0
1486664623.460,21.484,20.508,32.227,74.707,296.875,1
1486664623.464,17.578,20.508,33.203,40.527,127.441,0
1486664623.468,23.438,19.531,32.715,27.832,-95.215,0
1486664623.472,32.715,27.832,43.945,48.340,-79.590,0
1486664623.476,28.320,31.250,44.922,63.965,86.426,0
1486664623.479,32.227,24.902,41.016,78.125,276.855,0
1486664623.483,36.133,25.879,44.922,60.059,165.039,0
1486664623.487,33.691,19.531,39.062,41.992,-12.695,0
1486664623.491,39.551,20.020,34.668,50.781,-53.223,0
1486664623.495,40.039,28.320,34.668,65.918,39.551,0
1486664623.499,35.645,28.320,39.551,77.637,274.902,0
1486664623.503,36.133,30.273,37.109,59.570,174.805,0
1486664623.507,46.875,33.691,36.133,50.781,-56.641,0
1486664623.511,53.223,33.203,42.969,55.664,-92.285,0
1486664623.515,41.992,28.320,38.086,66.406,7.324,0
1486664623.519,38.574,26.367,34.180,89.355,229.004,0
1486664623.522,39.551,26.367,35.645,69.824,175.293,0
1486664623.526,39.551,28.320,37.598,43.945,-43.457,0
1486664623.530,39.551,28.809,45.410,55.664,-116.211,0
1486664623.534,31.250,24.414,45.898,67.871,-62.500,0
1486664623.538,30.762,27.344,46.875,77.148,165.527,0
1486664623.542,30.273,27.832,41.016,65.918,213.867,0
1486664623.546,32.715,25.391,30.762,32.715,-34.180,0
1486664623.550,32.715,22.461,31.738,23.926,-124.023,0
1486664623.554,21.973,19.531,34.668,38.574,-31.738,0
1486664623.558,14.648,20.996,30.762,54.688,217.285,0
1486664623.561,13.672,22.949,30.762,47.852,255.859,0
1486664623.565,15.625,23.438,39.062,25.879,-33.203,0
1486664623.569,26.855,22.461,31.250,35.645,-148.926,0
1486664623.573,24.902,24.902,25.879,51.270,-69.336,0
1486664623.577,23.438,34.668,39.062,73.730,137.695,0
1486664623.581,31.250,32.227,40.527,75.195,231.934,0
1486664623.585,36.621,23.926,31.250,46.387,32.715,0
1486664623.589,47.363,25.879,26.855,50.293,-97.656,0
1486664623.593,45.898,30.762,35.156,61.035,-72.754,0
1486664623.597,38.086,32.715,42.480,72.266,134.277,0
1486664623.601,40.039,31.738,38.086,76.660,293.457,0
1486664623.604,38.574,30.762,33.203,45.410,50.781,0
1486664623.608,43.945,35.645,33.203,33.691,-104.492,0
1486664623.612,42.969,39.062,34.668,47.852,-46.387,0
1486664623.616,30.762,30.762,31.738,63.965,100.586,0
1486664623.620,36.621,30.762,33.691,70.801,236.328,0
1486664623.624,40.527,33.691,38.086,44.434,74.219,0
1486664623.628,40.527,25.879,34.668,31.738,-95.215,0
1486664623.632,37.109,23.438,36.133,40.527,-84.473,0
1486664623.636,32.715,31.738,45.898,58.594,60.059,0
1486664623.640,27.832,27.344,36.621,66.406,271.973,0
1486664623.644,24.414,20.020,31.250,38.574,140.625,0
1486664623.647,35.645,24.414,40.527,29.785,-114.746,0
1486664623.651,39.551,27.344,40.039,41.992,-161.133,0
1486664623.655,32.227,24.414,40.039,55.664,20.508,0
1486664623.659,29.785,19.043,41.016,71.289,232.422,0
1486664623.663,27.832,22.461,43.945,50.781,94.238,0
1486664623.667,29.297,27.344,41.016,34.668,-110.840,0
1486664623.671,26.855,25.391,36.133,44.434,-124.512,0
1486664623.675,21.973,23.926,39.062,62.500,6.348,0
1486664623.679,28.320,30.273,46.387,89.355,246.094,0
1486664623.683,30.273,36.621,51.758,74.707,208.008,0
1486664623.686,29.785,28.320,35.645,45.410,-40.527,0
1486664623.690,38.574,27.344,30.273,54.688,-112.305,0
1486664623.694,35.645,26.855,39.062,64.941,-25.391,0
1486664623.698,31.738,26.367,39.551,75.684,205.566,0
1486664623.702,41.992,33.203,38.574,63.965,216.309,0
1486664623.706,44.434,31.250,38.574,38.574,-28.809,0
1486664623.710,48.828,34.668,42.969,51.270,-122.070,0
1486664623.714,45.410,36.621,34.668,62.012,-49.316,0
1486664623.718,41.992,30.762,26.367,71.289,177.246,0
1486664623.722,46.875,30.762,35.156,66.895,246.094,0
1486664623.726,49.316,32.715,40.527,49.805,5.371,0
1486664623.729,61.035,27.344,41.016,52.246,-125.488,0
1486664623.733,51.270,27.832,47.363,60.547,-86.426,0
1486664623.737,38.086,32.715,47.852,80.566,146.484,0
1486664623.741,38.086,31.738,37.598,75.684,248.535,0
1486664623.745,38.086,30.762,38.086,47.363,2.930,0
1486664623.749,47.852,34.180,44.922,48.828,-126.465,0
1486664623.753,43.457,36.621,37.598,62.012,-62.500,0
1486664623.757,27.832,28.809,33.203,74.219,122.070,0
1486664623.761,24.902,25.391,37.598,68.848,232.422,0
1486664623.765,30.762,28.809,42.969,46.875,73.242,0
1486664623.769,32.227,26.855,43.945,41.504,-80.078,0
1486664623.772,22.461,25.879,45.898,45.898,-74.219,0
1486664623.776,14.160,23.926,43.945,63.965,104.980,0
1486664623.780,13.184,19.043,35.156,65.918,252.441,0
1486664623.784,16.113,19.531,35.645,41.016,113.281,0
1486664623.788,27.832,25.391,39.062,36.621,-73.730,0
1486664623.792,35.645,34.668,38.574,45.898,-116.699,0
1486664623.796,31.250,36.133,39.551,60.547,71.777,0
1486664623.800,37.598,31.250,40.527,70.312,280.273,0
1486664623.804,40.527,30.273,40.527,45.410,123.047,0
1486664623.808,48.828,28.320,43.457,35.156,-104.492,0
1486664623.811,54.688,26.855,48.340,48.340,-124.023,0
1486664623.815,46.387,24.414,43.457,62.988,38.086,0
1486664623.819,51.758,29.297,37.598,82.520,261.719,0
1486664623.823,49.805,29.785,41.504,66.406,174.316,0
1486664623.827,43.457,23.926,39.551,43.945,-75.195,0
1486664623.831,47.852,27.344,41.992,57.129,-132.812,0
1486664623.835,35.645,28.320,46.387,75.684,-18.066,0
1486664623.839,33.203,25.391,44.434,87.891,183.594,0
1486664623.843,40.527,26.367,41.992,76.660,154.785,0
1486664623.847,35.156,24.902,41.016,56.641,-63.965,0
1486664623.851,32.227,24.414,36.133,52.734,-133.301,0
1486664623.854,29.785,25.879,38.086,67.871,-31.738,0
1486664623.858,29.785,30.273,45.898,84.961,211.426,0
1486664623.862,32.715,36.621,45.898,63.477,204.102,0
1486664623.866,34.668,26.855,38.086,36.621,-48.340,0
1486664623.870,36.621,22.949,32.715,38.086,-137.207,0
1486664623.874,34.180,29.297,31.250,50.781,-33.691,0
1486664623.878,33.203,26.367,35.645,68.848,202.148,0
1486664623.882,40.039,27.832,44.434,63.965,232.422,0
1486664623.886,41.992,28.809,39.551,38.086,-21.484,0
1486664623.890,43.945,23.438,28.320,29.785,-122.070,0
1486664623.893,40.039,26.855,37.109,44.922,-25.391,0
1486664623.897,32.715,34.180,45.410,64.453,215.332,0
1486664623.901,26.367,27.344,38.574,52.734,285.645,0
1486664623.905,26.367,21.484,36.621,33.691,26.367,0
1486664623.909,35.156,24.414,39.062,41.992,-125.488,0
1486664623.913,28.809,26.855,38.086,56.641,-62.500,0
1486664623.917,29.785,27.344,42.480,78.613,147.949,0
1486664623.921,39.062,26.855,40.527,85.449,255.859,0
1486664623.925,40.527,29.785,34.668,61.523,12.695,0
1486664623.929,46.875,32.227,41.016,49.316,-147.949,0
1486664623.933,42.969,27.832,41.016,63.477,-94.238,0
1486664623.936,37.109,24.902,40.039,87.891,139.648,0
1486664623.940,35.645,24.414,44.434,88.379,293.945,0
1486664623.944,43.457,23.926,39.551,61.523,68.848,0
1486664623.948,47.363,25.879,40.527,50.781,-99.121,0
1486664623.952,37.598,30.273,42.969,57.617,-77.637,0
1486664623.956,37.598,32.715,42.969,74.219,80.566,0
1486664623.960,35.645,27.832,42.969,77.148,264.648,0
1486664623.964,37.598,27.344,41.992,51.758,113.770,0
1486664623.968,43.457,29.785,39.551,39.062,-94.727,0
1486664623.972,37.598,27.344,39.551,40.527,-128.418,0
1486664623.976,25.391,26.855,47.363,52.246,50.293,0
1486664623.979,20.996,27.344,40.527,63.965,277.344,0
1486664623.983,21.973,22.949,33.203,41.016,129.883,0
1486664623.987,29.297,21.973,34.180,30.762,-93.750,0
1486664623.991,27.344,22.949,36.621,41.504,-123.047,0
1486664623.995,20.996,23.926,38.574,57.129,23.926,0
1486664623.999,27.832,27.344,35.156,72.266,246.582,0
1486664624.003,40.039,26.367,38.086,58.105,172.363,0
1486664624.007,50.781,29.785,38.086,36.621,-37.109,0
1486664624.011,50.781,30.762,30.762,36.621,-87.891,0
1486664624.015,44.434,26.855,35.156,53.223,-3.906,0
1486664624.018,40.527,29.297,36.133,76.172,219.238,0
1486664624.022,41.504,27.344,38.574,71.289,189.941,0
1486664624.026,42.480,23.438,46.875,54.688,-80.078,0
1486664624.030,41.504,22.461,43.457,58.594,-126.953,0
1486664624.034,36.621,28.809,44.434,73.730,-1.953,0
1486664624.038,32.227,26.855,40.527,88.867,181.152,0
1486664624.042,28.320,15.137,33.691,72.266,226.562,0
1486664624.046,34.180,14.648,34.668,47.852,31.250,0
1486664624.050,44.922,27.344,39.551,46.875,-109.375,0
1486664624.054,36.621,36.621,39.062,52.246,-53.223,0
1486664624.058,23.438,32.227,33.203,63.477,166.504,0
1486664624.061,21.973,31.250,35.156,55.176,224.609,0
1486664624.065,17.578,32.227,35.645,27.344,19.043,0
1486664624.069,16.602,25.879,36.133,23.926,-104.980,0
1486664624.073,20.020,28.320,38.574,37.109,-50.293,0
1486664624.077,16.113,33.203,33.203,56.152,140.625,0
1486664624.081,17.090,28.809,33.691,55.176,259.766,0
1486664624.085,22.461,31.738,41.016,28.809,46.875,0
1486664624.089,30.762,32.715,40.527,26.855,-104.004,0
1486664624.093,34.180,32.715,43.945,43.457,-60.059,0
1486664624.097,31.738,37.598,35.156,62.012,108.887,0
1486664624.101,33.691,34.180,26.855,66.895,261.719,0
1486664624.104,39.062,38.086,36.133,45.898,75.195,0
1486664624.108,46.387,36.133,37.109,41.504,-55.664,1
1486664624.112,47.852,29.297,36.133,58.594,-43.457,0
1486664624.116,42.969,29.297,43.457,79.590,82.520,0
1486664624.120,41.504,27.832,41.016,84.473,286.133,0
1486664624.124,48.828,32.227,35.156,62.500,122.559,0
1486664624.128,52.734,37.598,41.016,51.758,-84.961,0
1486664624.132,40.039,32.227,46.387,57.617,-68.359,0
1486664624.136,28.320,25.391,40.039,70.801,86.426,0
1486664624.140,27.832,22.461,36.133,78.125,295.410,0
1486664624.143,23.438,21.484,36.621,54.688,142.578,0
1486664624.147,31.250,23.438,38.086,40.039,-82.520,0
1486664624.151,39.551,28.320,41.504,51.270,-87.891,0
1486664624.155,38.086,30.762,49.805,65.918,-0.977,0
1486664624.159,37.598,25.391,43.457,75.195,233.887,0
1486664624.163,46.387,30.273,33.203,58.594,165.039,0
1486664624.167,53.711,29.297,31.738,43.457,-83.496,0
1486664624.171,53.711,24.414,33.203,55.176,-117.676,0
1486664624.175,55.664,27.344,36.621,75.195,-30.762,0
1486664624.179,56.152,33.691,39.551,93.262,190.918,0
1486664624.183,53.223,34.180,40.039,74.219,156.738,0
1486664624.186,50.293,24.414,37.109,50.293,-107.422,0
1486664624.190,53.711,27.832,41.504,59.570,-154.297,0
1486664624.194,44.922,31.738,40.527,75.195,-49.805,0
1486664624.198,37.109,30.762,38.086,87.891,194.824,0
1486664624.202,36.133,26.367,37.109,67.383,239.258,0
1486664624.206,36.133,24.902,36.621,42.480,-16.113,0
1486664624.210,42.969,28.809,36.621,49.805,-125.000,0
1486664624.214,39.062,30.273,36.621,58.594,-100.098,0
1486664624.218,38.086,29.297,39.062,78.125,107.422,0
1486664624.222,40.527,30.273,43.945,76.660,209.473,0
1486664624.225,41.504,30.762,50.781,54.688,-8.789,0
1486664624.229,48.340,27.832,43.945,58.594,-129.883,0
1486664624.233,48.340,32.227,35.645,73.730,-86.426,0
1486664624.237,48.828,30.762,35.645,93.750,131.348,0
1486664624.241,53.711,20.508,35.645,90.820,213.379,0
1486664624.245,59.570,19.531,41.504,66.406,3.418,0
1486664624.249,66.895,22.949,40.039,68.359,-140.625,0
1486664624.253,58.594,23.926,40.039,72.266,-132.324,0
1486664624.257,51.270,31.250,45.898,82.520,91.309,0
1486664624.261,55.664,36.133,47.363,83.496,229.492,0
1486664624.265,48.828,32.227,40.527,49.316,41.016,0
1486664624.268,52.246,31.738,34.668,41.016,-78.125,0
1486664624.272,48.340,26.367,34.180,48.828,-81.543,0
1486664624.276,41.016,21.484,36.133,66.895,90.820,0
1486664624.280,45.410,25.391,39.062,79.102,272.949,0
1486664624.284,34.668,27.832,35.645,49.316,64.453,0
1486664624.288,40.527,24.902,37.598,43.457,-100.586,0
1486664624.292,46.875,30.273,50.293,61.035,-70.312,0
1486664624.296,36.133,31.250,53.711,73.242,53.223,0
1486664624.300,36.621,21.973,42.480,80.566,250.000,0
1486664624.304,36.133,20.020,34.668,57.617,131.348,0
1486664624.308,43.457,23.926,40.039,43.457,-58.594,0
1486664624.311,43.945,24.902,41.992,55.664,-60.547,0
1486664624.315,40.527,26.367,41.016,73.730,76.172,0
1486664624.319,45.410,33.203,41.504,89.355,265.137,0
1486664624.323,43.457,29.297,41.504,64.453,146.484,0
1486664624.327,40.527,18.555,39.062,44.922,-63.965,0
1486664624.331,39.062,21.484,36.133,50.781,-80.566,0
1486664624.335,31.738,24.414,38.574,65.430,6.836,0
1486664624.339,27.832,26.367,40.527,80.566,215.332,0
1486664624.343,28.809,29.785,42.969,60.547,188.477,0
1486664624.347,35.156,29.297,38.086,40.527,-64.453,0
1486664624.350,37.109,27.832,35.645,46.875,-153.320,0
1486664624.354,23.926,28.320,40.039,56.152,-78.125,0
1486664624.358,26.367,29.785,43.457,71.289,162.109,0
1486664624.362,25.391,23.926,41.016,58.105,207.520,0
1486664624.366,26.367,16.113,34.180,33.203,-14.160,0
1486664624.370,38.574,20.996,35.645,45.898,-133.301,0
1486664624.374,36.133,29.297,33.203,65.430,-65.918,0
1486664624.378,31.250,29.297,31.250,81.055,160.645,0
1486664624.382,29.785,25.879,36.621,68.359,208.984,0
1486664624.386,31.738,23.438,39.062,45.410,-21.973,0
1486664624.390,41.992,19.043,43.457,54.199,-133.789,0
1486664624.393,39.062,15.625,46.387,65.430,-59.082,0
1486664624.397,34.180,18.066,44.922,83.008,144.531,0
1486664624.401,38.574,24.902,36.621,84.473,170.410,0
1486664624.405,36.133,25.879,31.250,53.711,-9.766,0
1486664624.409,39.551,21.484,34.668,50.293,-115.234,0
1486664624.413,36.133,22.949,32.715,62.988,-74.219,0
1486664624.417,31.250,33.691,39.062,75.195,140.137,0
1486664624.421,34.180,39.551,45.898,71.777,248.535,0
1486664624.425,33.691,31.250,37.598,42.480,32.227,0
1486664624.429,30.273,20.508,30.273,33.203,-117.676,0
1486664624.433,25.879,20.508,31.738,45.410,-64.941,0
1486664624.436,25.391,32.715,36.621,64.453,97.168,0
1486664624.440,30.273,36.621,38.574,65.918,276.855,0
1486664624.444,29.297,22.949,30.762,37.109,93.750,0
1486664624.448,32.227,20.020,33.691,32.227,-108.398,0
1486664624.452,36.621,24.902,50.293,50.293,-86.914,0
1486664624.456,31.738,26.855,41.992,72.266,87.891,0
1486664624.460,30.762,25.391,26.367,79.590,251.953,0
1486664624.464,42.480,31.738,35.645,62.500,112.793,0
1486664624.468,47.852,36.621,40.527,52.734,-81.543,0
1486664624.472,41.504,26.367,35.156,53.223,-120.605,0
1486664624.475,34.180,23.438,38.574,71.289,69.824,0
1486664624.479,34.668,23.438,42.480,85.449,266.113,0
1486664624.483,30.762,21.484,37.109,56.641,138.184,0
1486664624.487,37.598,23.926,32.227,39.062,-69.336,0
1486664624.491,41.992,27.344,36.133,52.734,-109.375,0
1486664624.495,31.738,25.879,40.039,67.383,7.324,0
1486664624.499,36.133,29.785,40.039,81.543,241.699,0
1486664624.503,39.551,29.297,41.504,67.383,172.852,0
1486664624.507,40.039,20.508,36.133,48.828,-64.453,0
1486664624.511,44.434,22.949,39.062,53.711,-111.328,0
1486664624.515,38.574,26.367,42.480,67.871,1.465,0
1486664624.518,38.086,28.809,43.457,87.891,233.887,0
1486664624.522,41.504,33.203,40.527,74.707,213.867,0
1486664624.526,41.504,27.832,34.668,48.340,-41.504,0
1486664624.530,44.434,26.367,44.922,60.059,-93.750,0
1486664624.534,38.086,30.762,45.898,71.777,-37.109,0
1486664624.538,38.574,32.715,43.457,80.566,146.973,0
1486664624.542,36.621,33.203,41.992,65.918,184.082,0
1486664624.546,42.480,30.273,39.551,43.945,-66.895,0
1486664624.550,47.852,33.691,46.387,50.781,-112.793,0
1486664624.554,30.762,31.738,42.480,58.105,-8.301,0
1486664624.557,28.320,24.902,35.156,72.266,209.961,0
1486664624.561,41.992,32.715,43.945,71.289,284.668,0
1486664624.565,43.457,31.250,45.410,43.945,41.016,0
1486664624.569,45.898,22.949,41.504,40.527,-55.176,0
1486664624.573,39.062,24.414,41.504,52.734,-45.410,0
1486664624.577,24.902,29.297,41.504,64.453,119.629,0
1486664624.581,24.902,26.367,42.480,61.523,271.973,0
1486664624.585,31.738,19.531,43.457,39.062,78.613,0
1486664624.589,40.527,23.926,37.109,38.086,-76.172,0
1486664624.593,39.062,26.367,40.527,56.152,-56.641,0
1486664624.597,37.598,22.949,44.434,76.660,133.301,0
1486664624.600,35.645,23.438,31.738,78.125,285.156,0
1486664624.604,36.621,26.855,28.809,52.246,62.012,0
1486664624.608,51.270,27.832,37.109,45.898,-106.445,0
1486664624.612,42.480,25.391,34.668,51.270,-52.246,0
1486664624.616,28.809,22.949,29.297,67.871,114.746,0
1486664624.620,34.180,23.926,35.645,75.195,305.176,0
1486664624.624,36.133,27.344,42.969,44.922,111.816,0
1486664624.628,40.527,22.461,39.551,38.574,-77.148,0
1486664624.632,40.527,29.785,42.480,50.293,-86.426,0
1486664624.636,30.273,36.621,41.016,64.453,31.738,0
1486664624.640,24.414,25.391,32.227,73.242,248.535,0
1486664624.643,20.508,22.949,37.598,46.875,121.582,0
1486664624.647,29.297,26.367,40.039,33.691,-88.867,0
1486664624.651,35.156,27.344,39.062,46.875,-88.867,1
1486664624.655,25.391,29.297,37.598,62.500,23.438,0
1486664624.659,31.250,34.180,36.621,83.496,212.891,0
1486664624.663,37.109,38.086,38.574,67.383,130.859,0
1486664624.667,37.109,25.879,37.109,40.527,-83.008,0
1486664624.671,39.551,18.555,41.504,47.363,-131.348,0
1486664624.675,34.668,23.438,49.316,67.383,-39.062,0
1486664624.679,31.738,27.344,44.922,82.520,208.008,0
1486664624.682,35.156,27.832,37.598,69.336,165.527,0
1486664624.686,38.086,28.320,41.992,47.852,-77.637,0
1486664624.690,34.180,24.902,44.434,50.293,-121.094,0
1486664624.694,29.297,21.973,41.992,68.848,-23.926,0
1486664624.698,35.645,28.809,42.969,80.078,197.754,0
1486664624.702,35.645,25.391,37.598,56.152,214.355,0
1486664624.706,32.715,22.461,33.203,32.715,-21.973,0
1486664624.710,34.668,26.855,37.109,32.227,-111.816,0
1486664624.714,35.156,29.297,41.992,50.293,-26.855,0
1486664624.718,38.086,30.762,36.133,76.660,212.891,0
1486664624.722,34.180,29.785,30.762,62.988,266.602,0
1486664624.725,36.133,27.344,37.109,38.086,4.883,0
1486664624.729,47.363,24.902,39.062,45.898,-93.262,0
1486664624.733,32.227,22.461,40.039,58.105,-38.574,0
1486664624.737,25.391,25.879,46.387,75.684,137.207,0
1486664624.741,30.762,31.250,50.781,74.707,267.090,0
1486664624.745,30.762,30.273,41.016,41.992,40.527,0
1486664624.749,37.109,27.832,35.645,40.039,-104.492,0
1486664624.753,32.227,25.391,36.133,53.711,-42.480,0
1486664624.757,33.203,25.879,40.039,71.777,150.879,0
1486664624.761,37.109,35.156,47.363,74.707,289.062,0
1486664624.765,33.691,30.273,45.898,49.805,30.762,0
1486664624.768,43.457,24.414,45.898,52.246,-140.137,0
1486664624.772,41.504,25.879,37.598,57.617,-104.004,0
1486664624.776,35.645,24.414,33.203,71.777,93.750,0
1486664624.780,35.645,28.320,37.109,71.289,274.902,0
1486664624.784,33.691,29.785,39.062,41.992,79.590,0
1486664624.788,43.945,29.297,41.992,34.180,-58.105,0
1486664624.792,40.039,31.738,42.480,44.434,-44.922,0
1486664624.796,32.715,41.016,48.340,69.336,66.406,0
1486664624.800,42.480,37.109,45.410,87.402,263.672,0
1486664624.804,38.086,22.949,38.574,57.617,149.902,0
1486664624.807,32.227,20.996,35.645,39.062,-58.105,0
1486664624.811,37.598,25.391,36.133,58.594,-85.938,0
1486664624.815,35.156,27.832,42.969,71.777,38.086,0
1486664624.819,37.598,25.391,43.457,78.613,286.133,0
1486664624.823,45.898,29.297,36.133,57.129,173.828,0
1486664624.827,48.828,32.715,31.738,38.086,-68.848,0
1486664624.831,52.734,30.762,30.762,47.363,-68.359,0
1486664624.835,48.340,28.809,33.691,57.617,48.340,0
1486664624.839,42.969,25.879,40.527,72.754,240.234,0
1486664624.843,38.574,22.461,34.668,58.594,166.016,0
1486664624.847,32.715,25.391,27.832,42.480,-84.473,0
1486664624.850,34.180,31.250,35.645,45.898,-126.953,0
1486664624.854,32.715,25.879,37.598,51.270,-41.504,0
1486664624.858,29.785,23.926,39.062,74.707,186.523,0
1486664624.862,23.926,27.832,42.480,59.570,204.590,0
1486664624.866,25.879,26.367,39.551,35.645,-49.805,0
1486664624.870,33.203,25.879,43.457,45.410,-152.344,0
1486664624.874,26.367,27.344,45.410,50.781,-49.316,0
1486664624.878,22.949,26.367,34.180,70.312,174.805,0
1486664624.882,20.996,21.973,29.297,60.059,180.176,0
1486664624.886,23.438,29.297,37.598,34.180,-33.203,0
1486664624.889,39.551,35.156,38.574,42.480,-86.914,0
1486664624.893,35.645,31.738,38.574,56.641,-25.879,0
1486664624.897,27.344,33.203,44.922,81.543,178.223,0
1486664624.901,31.738,30.273,44.434,72.266,272.949,0
1486664624.905,39.062,25.391,40.527,50.781,30.273,0
1486664624.909,43.457,24.414,36.133,55.664,-98.145,0
1486664624.913,40.527,22.461,41.016,60.547,-52.734,0
1486664624.917,41.504,24.414,46.387,79.102,124.512,0
1486664624.921,46.387,32.227,41.504,81.543,276.367,0
1486664624.925,33.691,33.203,41.016,48.828,42.480,0
1486664624.929,35.645,20.996,47.363,39.551,-122.559,0
1486664624.932,35.156,19.531,41.992,50.781,-43.457,0
1486664624.936,23.438,24.902,31.738,62.988,105.469,0
1486664624.940,30.762,25.879,29.785,66.895,246.582,0
1486664624.944,34.180,26.367,32.715,48.828,88.867,0
1486664624.948,37.109,24.902,31.738,37.598,-72.754,0
1486664624.952,35.645,25.391,39.551,44.434,-61.523,0
1486664624.956,36.133,38.086,55.176,65.918,93.750,0
1486664624.960,34.668,37.109,41.016,73.730,270.020,0
1486664624.964,24.902,20.020,32.715,43.945,115.234,0
1486664624.968,39.062,20.508,37.109,38.086,-95.703,0
1486664624.972,39.551,25.391,32.715,46.387,-108.887,0
1486664624.975,28.320,28.320,35.156,59.570,49.316,0
1486664624.979,36.621,33.691,37.109,80.078,250.488,0
1486664624.983,38.574,32.227,37.109,60.059,137.695,0
1486664624.987,36.621,29.297,41.016,41.504,-80.566,0
1486664624.991,39.551,30.762,47.363,50.293,-110.352,0
1486664624.995,36.133,26.367,37.598,63.477,-4.395,0
1486664624.999,24.902,21.973,31.738,68.848,229.004,0
1486664625.003,35.156,24.414,38.086,56.641,165.527,0
1486664625.007,41.992,27.832,32.227,37.109,-70.312,0
1486664625.011,42.480,27.344,28.320,34.180,-144.043,0
1486664625.014,41.992,31.738,38.574,58.105,-25.391,0
1486664625.018,39.551,35.156,41.992,82.031,215.332,0
1486664625.022,41.504,28.320,39.551,66.406,193.848,0
1486664625.026,44.434,26.855,47.852,47.852,-33.691,0
1486664625.030,46.387,29.785,43.945,49.805,-90.820,0
1486664625.034,31.250,28.320,36.133,60.547,5.371,0
1486664625.038,31.250,26.855,42.480,81.543,225.586,0
1486664625.042,30.762,28.809,47.852,69.824,251.953,0
1486664625.046,24.414,31.250,37.598,43.945,12.695,0
1486664625.050,33.691,30.762,38.086,52.246,-89.844,0
1486664625.054,32.227,22.461,41.016,59.570,-47.363,0
1486664625.057,21.973,28.320,36.133,69.824,183.594,0
1486664625.061,31.250,32.715,42.480,74.219,253.906,0
1486664625.065,40.527,25.391,39.551,49.805,45.410,0
1486664625.069,41.992,28.809,34.180,44.434,-42.480,0
1486664625.073,42.480,36.621,39.551,54.199,-55.664,0
1486664625.077,41.016,31.738,38.574,70.312,113.281,0
1486664625.081,41.992,28.320,29.785,68.848,269.531,0
1486664625.085,42.969,26.367,25.879,39.551,19.531,0
1486664625.089,54.199,27.344,26.367,34.668,-121.582,0
1486664625.093,40.039,27.832,29.785,43.457,-59.570,0
1486664625.097,25.391,22.461,31.738,58.105,115.723,0
1486664625.100,32.227,25.391,33.203,58.105,271.973,0
1486664625.104,34.668,30.762,35.645,28.809,61.523,0
1486664625.108,44.922,29.785,34.180,26.367,-90.820,0
1486664625.112,39.062,23.438,32.227,40.039,-67.871,0
1486664625.116,34.668,21.973,36.621,61.523,69.824,0
1486664625.120,38.574,22.461,43.457,71.289,222.656,0
1486664625.124,33.203,22.949,35.645,46.387,64.453,0
1486664625.128,47.852,23.438,26.855,47.852,-96.191,0
1486664625.132,49.805,26.855,30.762,66.406,-82.520,0
1486664625.136,41.016,30.273,35.156,77.637,57.129,0
1486664625.139,48.828,32.227,44.434,93.750,288.086,0
1486664625.143,40.039,30.762,45.410,71.777,169.922,0
1486664625.147,33.203,26.855,37.109,48.340,-92.285,0
1486664625.151,34.668,24.414,37.109,51.758,-105.469,0
1486664625.155,28.320,22.461,37.109,61.523,63.965,0
1486664625.159,27.832,22.949,41.504,72.266,257.324,0
1486664625.163,23.926,26.367,42.480,49.805,158.691,1
1486664625.167,28.320,28.320,34.668,26.367,-87.402,0
1486664625.171,24.414,19.531,31.738,24.414,-116.211,0
1486664625.175,13.184,20.020,31.738,30.273,-15.137,0
1486664625.179,17.090,27.832,38.086,53.223,191.895,0
1486664625.182,20.020,21.973,42.969,40.039,214.355,0
1486664625.186,16.113,21.484,32.715,5.371,-19.043,0
1486664625.190,13.184,28.809,21.484,2.441,-90.820,0
1486664625.194,20.020,34.180,31.250,21.484,-14.160,0
1486664625.198,14.160,34.668,40.039,45.410,199.219,0
1486664625.202,16.602,25.391,44.434,48.828,233.398,0
1486664625.206,23.926,20.020,41.016,33.203,-22.461,0
1486664625.210,24.902,23.438,28.809,32.227,-87.891,0
1486664625.214,21.484,24.414,32.227,51.270,-0.488,0
1486664625.218,25.391,24.902,36.133,81.543,182.617,0
1486664625.221,32.715,27.344,39.062,87.402,253.906,0
1486664625.225,38.574,28.320,38.086,67.383,42.480,0
1486664625.229,36.621,24.902,36.133,64.453,-49.316,0
1486664625.233,26.855,21.484,42.969,78.125,-26.367,0
1486664625.237,23.438,19.043,52.246,94.238,156.738,0
1486664625.241,21.484,19.043,38.574,83.496,278.809,0
1486664625.245,12.207,20.508,27.832,47.363,43.457,0
1486664625.249,19.531,21.484,35.156,42.969,-111.328,0
1486664625.253,19.043,23.438,30.762,48.828,-85.449,0
1486664625.257,17.090,22.949,28.809,61.523,103.027,0
1486664625.261,26.367,21.484,32.715,67.871,244.141,0
1486664625.264,29.785,31.250,33.203,41.016,47.363,0
1486664625.268,36.133,36.621,29.785,25.391,-106.445,0
1486664625.272,34.668,26.367,25.879,29.297,-84.961,0
1486664625.276,32.715,22.461,27.832,51.758,107.422,0
1486664625.280,43.457,23.926,36.133,69.336,252.930,0
1486664625.284,44.434,23.438,34.668,44.434,92.285,0
1486664625.288,46.875,20.996,25.879,31.250,-74.219,0
1486664625.292,46.875,21.973,34.180,45.898,-105.957,0
1486664625.296,39.062,26.855,42.480,68.359,46.387,0
1486664625.300,40.527,33.691,37.109,87.891,245.605,0
1486664625.304,41.016,28.809,38.574,66.406,118.164,0
1486664625.307,45.410,22.461,38.086,51.270,-101.562,0
1486664625.311,35.645,24.414,33.691,60.059,-123.047,0
1486664625.315,29.297,26.367,41.992,79.590,41.504,0
1486664625.319,23.438,20.020,41.992,85.449,250.000,0
1486664625.323,17.090,13.184,41.504,59.570,147.461,0
1486664625.327,24.902,18.066,43.945,46.387,-49.316,0
1486664625.331,32.715,23.438,43.945,49.316,-78.613,0
1486664625.335,23.926,23.438,47.852,63.477,11.719,0
1486664625.339,23.438,23.926,41.016,74.707,239.258,0
1486664625.343,27.832,24.902,31.250,59.570,196.289,0
1486664625.346,34.668,24.414,26.855,42.480,-67.383,0
1486664625.350,41.992,25.391,22.949,41.504,-100.586,0
1486664625.354,36.621,26.855,24.902,49.805,2.441,0
1486664625.358,39.551,30.273,30.273,68.848,191.406,0
1486664625.362,47.852,32.715,32.715,58.105,184.570,0
1486664625.366,50.781,27.344,33.203,31.738,-82.520,0
1486664625.370,54.688,25.879,29.785,29.297,-158.203,0
1486664625.374,50.293,27.344,27.832,42.480,-65.918,0
1486664625.378,46.875,27.832,36.133,68.848,165.527,0
1486664625.382,49.805,30.762,41.504,63.477,232.422,0
1486664625.386,48.828,28.320,39.551,39.551,8.301,0
1486664625.389,43.457,25.879,38.574,43.457,-121.094,0
1486664625.393,37.109,25.879,40.527,60.547,-67.383,0
1486664625.397,32.227,29.785,44.434,87.402,128.418,0
1486664625.401,23.438,20.996,45.410,77.637,207.031,0
1486664625.405,22.461,13.184,35.156,49.805,-0.488,0
1486664625.409,38.574,19.043,37.109,56.641,-131.836,0
1486664625.413,32.227,26.855,43.945,67.383,-90.820,0
1486664625.417,27.832,28.320,38.574,81.055,103.027,0
1486664625.421,37.598,22.461,38.086,78.125,246.582,0
1486664625.425,34.180,22.461,32.715,51.270,43.945,0
1486664625.428,42.480,23.438,28.320,53.711,-116.699,0
1486664625.432,51.758,28.320,34.668,66.895,-105.957,0
1486664625.436,41.992,30.762,34.668,78.613,48.340,0
1486664625.440,46.875,28.320,33.691,85.449,216.797,0
1486664625.444,52.246,29.297,34.180,61.523,46.875,0
1486664625.448,49.805,31.738,35.645,50.293,-126.465,0
1486664625.452,50.293,32.715,38.086,61.035,-113.281,0
1486664625.456,44.922,25.879,37.598,68.359,71.289,0
1486664625.460,43.457,22.949,40.039,73.242,235.840,0
1486664625.464,40.039,20.996,48.828,49.805,77.148,0
1486664625.468,41.992,23.438,41.016,32.715,-100.586,0
1486664625.471,36.621,25.391,32.227,41.016,-135.742,0
