timestamps,TP9,AF7,AF8,TP10,Right AUX,Marker
1486663975.687,26.855,28.809,28.809,40.527,-60.547,0
1486663975.691,18.555,29.297,35.156,58.594,1.465,0
1486663975.695,20.020,28.809,36.621,75.684,167.969,0
1486663975.699,28.320,26.367,35.156,64.453,246.094,0
1486663975.703,11.230,23.438,34.180,24.902,88.379,0
1486663975.706,15.625,25.391,32.227,28.809,-71.777,0
1486663975.710,19.531,26.367,35.645,51.270,-39.062,0
1486663975.714,23.438,26.855,39.551,76.660,100.586,0
1486663975.718,28.320,25.391,35.645,69.824,156.738,0
1486663975.722,16.602,20.508,32.227,28.809,37.598,0
1486663975.726,19.531,24.902,34.180,28.320,-71.289,0
1486663975.730,24.414,30.273,33.691,50.781,-75.195,0
1486663975.734,33.203,27.832,34.180,76.660,55.664,0
1486663975.738,37.598,28.809,32.227,77.148,203.613,0
1486663975.742,26.855,29.297,28.809,40.527,41.504,0
1486663975.745,31.250,29.297,33.203,38.086,-83.984,0
1486663975.749,29.785,33.203,35.645,55.664,-37.109,0
1486663975.753,32.715,33.203,35.645,81.543,53.223,0
1486663975.757,46.387,34.180,35.156,86.914,197.266,0
1486663975.761,28.809,28.809,35.645,41.504,122.070,0
1486663975.765,21.484,26.367,38.574,33.691,-19.531,0
1486663975.769,35.156,30.273,40.527,49.316,-23.926,0
1486663975.773,38.574,33.203,39.551,68.848,53.711,0
1486663975.777,32.227,29.785,35.645,79.590,200.195,0
1486663975.781,20.996,24.902,31.250,38.086,96.191,0
1486663975.785,25.391,25.879,33.691,25.391,-90.820,0
1486663975.788,35.645,27.832,38.574,51.270,-92.773,0
1486663975.792,43.945,32.227,40.039,83.008,-16.113,0
1486663975.796,52.246,33.203,36.621,100.098,167.480,0
1486663975.800,48.340,32.715,32.227,69.824,150.879,0
1486663975.804,44.922,30.762,36.621,52.734,15.625,0
1486663975.808,40.527,33.203,41.992,60.547,-15.625,0
1486663975.812,42.480,36.621,40.039,88.867,34.668,0
1486663975.816,56.152,34.668,39.062,112.793,208.008,0
1486663975.820,41.504,32.227,36.621,74.219,178.223,0
1486663975.824,39.062,29.785,33.691,52.734,-14.160,0
1486663975.827,46.387,30.762,35.156,62.988,-35.156,0
1486663975.831,34.180,35.645,37.598,74.707,8.301,0
1486663975.835,45.410,37.109,37.598,100.098,169.434,0
1486663975.839,40.527,32.715,35.156,70.801,194.336,0
1486663975.843,28.320,30.762,32.227,33.691,22.949,0
1486663975.847,35.645,31.250,32.715,45.410,-29.297,0
1486663975.851,22.949,28.320,34.180,59.082,-1.465,0
1486663975.855,38.574,28.320,34.668,85.449,117.676,0
1486663975.859,40.527,29.297,34.180,73.242,198.730,0
1486663975.863,16.602,26.855,34.180,32.715,42.969,0
1486663975.867,26.367,27.344,33.203,41.504,-50.293,0
1486663975.870,26.855,30.762,30.762,62.500,-45.898,0
1486663975.874,33.203,29.785,31.738,93.262,43.945,0
1486663975.878,40.039,28.809,31.250,88.379,158.203,0
1486663975.882,31.250,27.832,29.297,46.387,6.836,0
1486663975.886,31.738,22.461,30.273,43.945,-114.746,0
1486663975.890,33.203,22.461,30.273,60.547,-70.801,0
1486663975.894,43.457,26.855,32.227,85.938,92.773,0
1486663975.898,52.734,28.809,31.250,82.031,222.168,0
1486663975.902,41.016,27.832,27.832,41.016,87.891,0
1486663975.906,41.992,26.855,30.762,37.598,-90.820,0
1486663975.910,42.969,29.297,35.645,56.641,-104.980,0
1486663975.913,49.316,32.227,38.086,76.660,51.270,0
1486663975.917,48.340,30.273,37.598,84.961,198.730,0
1486663975.921,31.738,29.297,40.527,53.223,74.707,0
1486663975.925,25.879,27.344,38.574,39.062,-58.105,0
1486663975.929,19.043,23.926,31.738,52.246,-46.875,0
1486663975.933,31.250,27.344,35.645,82.520,39.551,0
1486663975.937,38.574,30.273,38.086,92.773,172.363,0
1486663975.941,21.484,27.832,38.086,54.199,82.520,0
1486663975.945,26.367,26.367,38.086,41.016,-76.172,0
1486663975.949,32.715,29.785,37.109,52.734,-73.242,0
1486663975.952,30.273,31.250,40.039,83.984,25.879,0
1486663975.956,39.062,31.738,40.039,98.145,180.176,0
1486663975.960,31.738,27.344,38.574,56.641,128.418,0
1486663975.964,34.180,24.414,39.551,47.363,-46.875,0
1486663975.968,35.645,30.273,40.039,58.105,-89.844,0
1486663975.972,34.180,33.203,43.457,72.266,20.020,0
1486663975.976,41.504,31.738,41.992,96.680,185.547,0
1486663975.980,29.785,29.297,37.109,63.965,119.141,0
1486663975.984,19.043,28.320,34.668,36.621,-50.781,0
1486663975.988,30.273,32.227,34.668,55.176,-75.195,0
1486663975.992,35.156,36.133,36.621,66.895,-20.996,0
1486663975.995,38.574,34.180,40.527,83.984,134.277,0
1486663975.999,21.973,31.250,39.062,61.035,185.059,0
1486663976.003,24.902,30.273,36.133,30.762,-1.953,0
1486663976.007,33.203,31.738,35.645,41.504,-75.195,0
1486663976.011,30.762,35.156,38.086,64.453,15.625,0
1486663976.015,38.086,35.645,41.504,84.961,169.434,0
1486663976.019,33.203,33.691,40.039,60.547,187.500,0
1486663976.023,23.926,31.250,38.086,31.738,-5.859,0
1486663976.027,22.949,29.297,39.062,38.086,-56.641,0
1486663976.031,26.367,33.691,41.504,56.152,-13.184,0
1486663976.035,39.062,35.645,42.480,93.750,145.508,0
1486663976.038,41.504,33.203,39.062,85.938,225.586,0
1486663976.042,28.809,28.809,37.109,38.086,47.852,0
1486663976.046,31.250,27.832,36.133,36.621,-27.832,0
1486663976.050,27.832,30.273,35.156,55.176,-18.555,0
1486663976.054,26.855,33.203,36.621,81.055,95.215,0
1486663976.058,28.320,29.785,38.574,72.266,193.359,0
1486663976.062,21.973,25.879,36.621,35.645,60.059,0
1486663976.066,26.367,29.785,37.598,35.645,-31.250,0
1486663976.070,26.855,35.156,41.504,54.688,-14.648,0
1486663976.074,38.574,38.086,42.969,84.473,112.305,0
1486663976.077,44.434,35.156,41.504,85.449,216.797,0
1486663976.081,38.574,33.691,40.527,48.828,73.730,0
1486663976.085,38.086,33.691,40.039,48.828,-36.621,0
1486663976.089,34.180,35.645,41.504,62.988,-22.949,0
1486663976.093,47.363,37.109,40.527,88.867,53.711,0
1486663976.097,55.664,36.133,38.574,100.098,208.008,0
1486663976.101,40.039,33.203,36.133,58.105,103.516,0
1486663976.105,33.203,33.203,32.715,38.574,-59.570,0
1486663976.109,28.320,37.109,33.203,48.340,-52.246,0
1486663976.113,34.668,39.062,35.156,79.590,60.059,0
1486663976.117,41.016,39.551,36.133,96.191,206.055,0
1486663976.120,25.879,35.645,35.645,52.246,107.422,0
1486663976.124,31.738,34.180,36.133,37.109,-83.008,0
1486663976.128,31.738,36.133,37.109,52.246,-92.285,0
1486663976.132,24.902,36.621,34.180,76.660,21.973,0
1486663976.136,35.645,34.668,33.203,94.238,181.641,0
1486663976.140,27.344,31.738,34.180,50.781,157.227,0
1486663976.144,34.180,35.156,38.086,37.598,-9.277,0
1486663976.148,34.668,34.180,39.062,49.805,-43.945,0
1486663976.152,32.715,33.691,32.227,64.453,3.418,0
1486663976.156,44.922,37.109,32.227,94.727,161.133,0
1486663976.159,32.227,36.133,32.227,65.918,179.199,0
1486663976.163,27.344,35.156,31.738,30.273,10.742,0
1486663976.167,40.527,38.086,32.227,49.316,-55.664,0
1486663976.171,41.016,42.480,29.785,70.312,-9.766,0
1486663976.175,48.340,40.527,33.203,85.449,148.926,0
1486663976.179,48.828,37.109,32.227,65.918,213.867,0
1486663976.183,36.133,37.109,28.320,30.762,40.527,0
1486663976.187,37.598,37.109,30.762,37.109,-35.156,0
1486663976.191,34.668,39.551,29.785,53.711,2.441,0
1486663976.195,32.227,39.062,31.738,76.660,104.492,0
1486663976.199,35.645,34.180,29.297,60.547,194.336,0
1486663976.202,29.785,32.227,25.391,27.344,39.062,0
1486663976.206,32.715,33.203,32.227,40.039,-83.008,0
1486663976.210,33.203,35.156,34.180,66.406,-60.059,0
1486663976.214,49.805,34.180,36.133,96.191,115.234,0
1486663976.218,59.082,34.668,36.621,85.449,228.027,0
1486663976.222,32.227,34.668,28.320,41.992,42.969,0
1486663976.226,32.227,33.203,27.832,42.969,-70.801,0
1486663976.230,36.133,37.109,32.227,61.035,-47.363,0
1486663976.234,43.457,40.039,32.227,89.355,90.332,0
1486663976.238,49.805,36.621,31.738,91.797,208.984,0
1486663976.242,26.367,34.668,30.273,41.504,78.125,0
1486663976.245,21.973,34.668,30.762,33.203,-63.965,0
1486663976.249,27.344,36.621,35.645,57.129,-73.242,0
1486663976.253,27.344,40.039,36.621,78.613,62.012,0
1486663976.257,32.227,37.109,32.715,82.031,204.102,0
1486663976.261,26.367,32.715,31.738,48.828,69.824,0
1486663976.265,27.832,32.715,34.180,39.551,-50.293,0
1486663976.269,29.297,33.691,39.062,64.941,-44.434,0
1486663976.273,36.621,30.762,38.574,92.773,46.387,1
1486663976.277,35.156,25.879,34.180,93.262,189.941,0
1486663976.281,21.484,26.855,33.691,50.293,104.492,0
1486663976.284,26.367,28.809,34.668,35.645,-20.020,0
1486663976.288,21.973,29.785,34.180,48.340,-20.020,0
1486663976.292,27.832,34.668,32.715,70.312,43.945,0
1486663976.296,33.203,35.645,34.668,85.938,195.312,0
1486663976.300,28.320,32.227,36.621,49.316,133.789,0
1486663976.304,28.809,28.320,37.109,27.832,-15.625,0
1486663976.308,25.879,31.250,40.039,48.828,-26.855,0
1486663976.312,33.691,35.645,38.086,70.312,-1.953,0
1486663976.316,48.340,34.668,37.598,86.914,172.363,0
1486663976.320,34.180,31.250,39.062,59.570,159.180,0
1486663976.324,26.855,32.227,35.645,36.133,-20.508,0
1486663976.327,35.645,34.180,37.598,51.270,-57.129,0
1486663976.331,34.668,36.133,38.086,70.801,-38.574,0
1486663976.335,41.992,33.203,36.133,93.262,136.230,0
1486663976.339,34.180,27.344,35.156,61.035,169.922,0
1486663976.343,17.578,27.344,34.668,20.996,-15.625,0
1486663976.347,22.461,29.297,35.156,34.180,-64.453,0
1486663976.351,25.391,33.691,33.691,55.664,2.441,0
1486663976.355,35.156,37.598,34.668,81.055,151.367,0
1486663976.359,44.434,37.598,39.062,69.824,144.531,0
1486663976.363,36.133,36.133,37.598,32.227,-2.930,0
1486663976.367,35.156,36.621,36.133,36.133,-41.992,0
1486663976.370,35.645,38.574,37.109,60.547,32.227,0
1486663976.374,49.805,41.016,36.133,89.844,155.273,0
1486663976.378,45.898,35.156,37.109,82.031,206.543,0
1486663976.382,20.996,34.180,33.203,41.992,75.195,0
1486663976.386,23.438,36.621,30.273,33.691,-36.621,0
1486663976.390,21.484,37.109,30.762,49.316,-11.230,0
1486663976.394,30.762,41.992,30.273,82.520,144.043,0
1486663976.398,36.621,38.574,31.738,76.660,238.281,0
1486663976.402,23.926,31.250,31.250,31.738,73.242,0
1486663976.406,29.297,31.738,28.320,35.156,-46.387,0
1486663976.409,29.297,32.227,31.738,59.570,-43.457,0
1486663976.413,39.062,34.668,38.574,84.473,77.148,0
1486663976.417,43.945,34.180,38.086,85.938,191.895,0
1486663976.421,30.273,32.227,33.691,41.992,56.152,0
1486663976.425,34.180,33.203,33.203,31.738,-69.824,0
1486663976.429,35.156,34.180,37.109,51.758,-81.055,0
1486663976.433,40.527,34.668,37.109,78.613,20.020,0
1486663976.437,42.480,32.715,31.738,82.031,191.895,0
1486663976.441,28.809,32.715,31.250,42.969,87.402,0
1486663976.445,28.809,29.297,30.762,31.738,-96.680,0
1486663976.449,27.344,29.297,32.715,47.852,-82.520,0
1486663976.452,24.414,32.227,34.668,75.684,35.645,0
1486663976.456,39.062,30.762,34.668,94.238,130.371,0
1486663976.460,20.508,25.879,33.691,48.828,55.664,0
1486663976.464,10.742,24.902,30.273,26.367,-68.848,0
1486663976.468,22.461,26.855,32.715,52.246,-93.750,0
1486663976.472,24.902,28.320,33.691,72.754,-46.875,0
1486663976.476,34.668,29.297,35.156,86.426,100.098,0
1486663976.480,25.879,27.344,36.621,54.199,89.355,0
1486663976.484,21.484,28.809,32.227,27.344,-64.941,0
1486663976.488,30.273,30.762,33.203,44.434,-81.055,0
1486663976.491,40.527,35.645,34.668,67.383,-32.227,0
1486663976.495,47.852,36.621,29.785,83.984,138.184,0
1486663976.499,39.551,36.621,30.762,60.547,166.992,0
1486663976.503,33.203,34.668,28.809,40.527,-22.461,0
1486663976.507,41.016,30.273,31.250,53.223,-76.660,0
1486663976.511,41.992,34.668,38.574,78.613,20.020,0
1486663976.515,45.410,37.598,40.527,108.398,182.129,0
1486663976.519,43.945,32.715,40.039,86.426,187.012,0
1486663976.523,36.621,32.227,39.062,51.270,1.953,0
1486663976.527,40.039,34.668,37.598,55.176,-78.125,0
1486663976.531,37.109,33.203,37.598,68.848,-9.766,0
1486663976.534,41.504,33.203,37.109,91.797,146.484,0
1486663976.538,41.992,33.691,34.668,80.078,213.867,0
1486663976.542,33.203,27.344,36.621,38.574,37.598,0
1486663976.546,31.738,23.438,35.156,40.527,-113.281,0
1486663976.550,29.785,28.320,34.668,67.383,-90.332,0
1486663976.554,35.645,27.344,37.109,91.309,65.918,0
1486663976.558,35.156,24.902,32.715,77.148,144.043,0
1486663976.562,23.438,24.902,28.320,31.738,35.156,0
1486663976.566,23.438,25.391,26.855,28.320,-59.570,0
1486663976.570,24.414,30.273,29.785,45.898,-75.684,0
1486663976.574,30.273,32.227,34.668,73.242,78.613,0
1486663976.577,35.156,27.344,32.715,70.312,215.332,0
1486663976.581,20.020,25.391,30.762,29.297,77.148,0
1486663976.585,16.602,26.367,36.621,27.344,-32.715,0
1486663976.589,20.508,28.809,40.527,53.223,-0.488,0
1486663976.593,29.785,32.227,35.156,84.473,114.746,0
1486663976.597,37.109,30.762,31.738,86.914,210.449,0
1486663976.601,33.203,27.344,29.785,51.758,109.375,0
1486663976.605,33.691,27.832,30.762,43.457,-44.434,0
1486663976.609,40.527,29.785,35.156,62.988,-48.340,0
1486663976.613,47.363,33.203,37.598,93.262,60.059,0
1486663976.616,48.828,35.156,39.062,99.121,177.734,0
1486663976.620,39.551,30.762,36.621,57.617,134.766,0
1486663976.624,40.527,26.367,34.180,40.527,-10.742,0
1486663976.628,39.551,25.391,35.645,59.570,-42.969,0
1486663976.632,35.156,28.320,37.598,87.402,59.570,0
1486663976.636,47.363,32.227,34.180,94.727,224.121,0
1486663976.640,39.062,30.762,32.227,53.223,166.992,0
1486663976.644,32.227,32.715,34.180,28.809,7.812,0
1486663976.648,31.738,37.109,34.180,39.062,-29.297,0
1486663976.652,25.391,35.156,34.668,63.965,37.109,0
1486663976.656,34.180,32.715,33.691,75.195,180.664,0
1486663976.659,28.809,32.715,32.227,41.016,174.316,0
1486663976.663,19.531,29.785,33.203,22.949,9.277,0
1486663976.667,30.273,27.832,35.156,35.645,-33.691,0
1486663976.671,27.344,32.227,33.691,58.594,5.859,0
1486663976.675,31.738,32.227,34.668,84.473,144.043,0
1486663976.679,35.156,29.297,36.133,62.988,200.684,0
1486663976.683,28.320,31.250,32.227,32.227,54.688,0
1486663976.687,29.297,29.785,35.645,43.457,-38.086,0
1486663976.691,29.785,31.250,37.109,65.918,-5.371,0
1486663976.695,42.480,35.156,35.645,91.309,154.297,0
1486663976.699,38.086,31.250,39.551,75.195,209.961,0
1486663976.702,22.949,26.855,38.574,34.180,36.133,0
1486663976.706,28.320,27.344,37.109,39.551,-67.871,0
1486663976.710,25.391,30.762,39.551,60.547,-21.484,0
1486663976.714,35.645,31.738,40.039,87.891,96.680,0
1486663976.718,43.945,30.762,37.109,85.449,159.668,0
1486663976.722,22.949,31.250,31.738,36.621,6.836,0
1486663976.726,20.020,28.320,34.668,27.832,-92.773,0
1486663976.730,28.809,29.297,37.598,56.152,-55.664,0
1486663976.734,38.086,35.156,37.109,82.520,63.477,0
1486663976.738,44.434,37.109,35.156,74.707,173.828,0
1486663976.741,37.109,35.156,30.273,33.203,65.918,0
1486663976.745,37.598,34.180,27.832,24.902,-70.801,0
1486663976.749,41.016,36.621,32.715,45.898,-29.297,0
1486663976.753,51.758,39.551,33.203,81.543,110.840,0
1486663976.757,62.012,38.574,30.273,83.984,174.316,0
1486663976.761,43.457,35.645,34.180,45.898,56.152,0
1486663976.765,38.086,34.180,29.297,41.992,-62.500,0
1486663976.769,38.086,34.668,26.855,59.570,-66.895,0
1486663976.773,39.551,34.180,35.645,86.914,65.430,0
1486663976.777,43.945,33.691,35.645,89.355,204.102,0
1486663976.781,30.762,32.227,32.227,45.898,92.773,0
1486663976.784,29.297,28.809,33.691,34.668,-68.848,0
1486663976.788,25.879,29.785,34.180,49.316,-77.148,0
1486663976.792,28.320,32.227,34.668,72.266,21.484,0
1486663976.796,35.156,29.785,36.621,80.566,169.434,0
1486663976.800,16.113,24.414,34.668,36.133,146.484,0
1486663976.804,21.484,23.926,33.203,21.973,5.859,0
1486663976.808,17.578,26.855,35.156,43.457,-49.316,0
1486663976.812,18.555,27.832,39.551,70.312,1.465,0
1486663976.816,41.016,27.832,41.992,88.867,148.926,0
1486663976.820,29.785,29.297,38.086,55.664,119.629,0
1486663976.823,14.160,27.344,36.133,29.297,-47.363,0
1486663976.827,28.809,24.902,40.039,49.316,-73.242,0
1486663976.831,50.293,27.344,41.016,89.844,20.996,0
1486663976.835,59.570,33.203,37.598,100.586,178.223,0
1486663976.839,37.598,33.203,30.762,53.711,148.926,0
1486663976.843,28.809,31.250,29.297,29.785,-33.691,0
1486663976.847,39.062,33.691,32.715,44.922,-87.891,0
1486663976.851,29.297,35.645,35.156,62.988,9.766,0
1486663976.855,30.273,34.180,36.133,83.496,227.051,0
1486663976.859,31.250,30.762,34.180,64.453,210.938,0
1486663976.863,23.926,28.320,35.156,34.180,-6.836,0
1486663976.866,30.273,29.297,37.598,47.852,-81.543,0
1486663976.870,24.902,31.738,39.062,74.707,-33.691,0
1486663976.874,26.367,33.203,39.551,98.633,117.188,0
1486663976.878,37.109,31.250,39.062,87.891,190.430,0
1486663976.882,28.809,30.762,37.598,48.340,43.945,0
1486663976.886,28.809,31.738,35.645,38.574,-70.312,0
1486663976.890,32.227,33.691,35.645,54.199,-5.859,1
1486663976.894,42.480,37.109,35.156,83.496,118.164,0
1486663976.898,44.434,35.645,32.715,76.660,154.785,0
1486663976.902,43.457,31.738,29.785,27.832,30.762,0
1486663976.906,54.688,34.180,31.738,27.344,-59.082,0
1486663976.909,50.293,39.062,33.203,48.828,-48.828,0
1486663976.913,57.617,40.039,35.645,79.590,96.191,0
1486663976.917,59.082,38.574,35.645,75.684,216.309,0
1486663976.921,39.551,35.645,34.180,37.109,20.996,0
1486663976.925,36.621,31.738,36.133,44.922,-93.262,0
1486663976.929,33.691,34.668,33.691,58.594,-39.551,0
1486663976.933,36.621,35.156,35.645,79.102,27.344,0
1486663976.937,46.875,30.762,35.645,83.984,173.828,0
1486663976.941,36.621,29.785,30.273,49.316,116.211,0
1486663976.945,18.066,27.832,33.203,44.434,-40.527,0
1486663976.948,24.414,23.438,36.133,63.477,-49.805,0
1486663976.952,41.016,28.320,37.598,95.215,70.312,0
1486663976.956,38.086,30.762,37.109,110.840,228.027,0
1486663976.960,26.367,27.344,34.668,67.383,129.883,0
1486663976.964,30.273,31.250,35.156,47.852,-73.730,0
1486663976.968,32.227,33.203,42.480,64.941,-76.660,0
1486663976.972,43.457,36.133,45.410,89.355,62.988,0
1486663976.976,69.824,39.551,38.574,105.469,175.293,0
1486663976.980,39.551,34.180,38.574,60.547,86.914,0
1486663976.984,18.555,27.832,39.551,29.785,-28.809,0
1486663976.988,34.180,28.809,38.574,52.734,-46.387,0
1486663976.991,30.273,33.203,39.551,75.684,-0.977,0
1486663976.995,41.992,35.156,42.480,96.680,182.617,0
1486663976.999,45.898,30.762,42.969,72.754,162.109,0
1486663977.003,37.109,33.691,35.645,35.645,-34.180,0
1486663977.007,33.691,37.598,33.691,41.504,-81.543,0
1486663977.011,32.715,37.598,37.598,67.871,-18.555,0
1486663977.015,48.340,38.086,34.668,82.520,167.969,0
1486663977.019,37.598,34.668,31.738,57.617,186.523,0
1486663977.023,26.367,30.762,31.738,25.391,23.438,0
1486663977.027,22.949,28.809,31.250,28.320,-39.551,0
1486663977.031,18.555,31.738,31.250,52.734,2.930,0
1486663977.034,31.738,35.645,30.762,76.172,106.445,0
1486663977.038,30.762,32.227,29.297,59.570,133.301,0
1486663977.042,16.113,29.297,29.785,27.832,16.113,0
1486663977.046,20.020,28.809,34.668,38.086,-71.289,0
1486663977.050,20.996,29.297,32.227,57.129,-71.777,0
1486663977.054,23.926,29.785,30.273,81.055,77.637,0
1486663977.058,26.855,24.902,35.156,73.730,166.504,0
1486663977.062,24.414,22.949,35.645,45.898,3.418,0
1486663977.066,30.762,22.949,36.621,55.664,-56.641,0
1486663977.070,21.973,19.531,39.062,65.918,-20.020,0
1486663977.073,36.621,22.461,40.039,90.332,78.125,0
1486663977.077,40.039,24.414,39.551,84.473,160.645,0
1486663977.081,18.066,19.531,39.551,36.621,19.531,0
1486663977.085,30.273,22.461,37.109,36.133,-116.211,0
1486663977.089,34.180,30.762,34.668,52.734,-96.191,0
1486663977.093,34.180,34.180,35.156,68.848,69.824,0
1486663977.097,41.504,33.203,33.203,65.918,201.172,0
1486663977.101,31.250,30.762,33.203,27.832,42.969,0
1486663977.105,26.855,30.762,32.227,23.926,-55.664,0
1486663977.109,25.391,33.203,33.203,44.434,-25.391,0
1486663977.113,23.926,34.180,33.203,70.801,52.246,0
1486663977.116,37.109,33.203,27.832,75.195,193.848,0
1486663977.120,25.391,28.809,25.391,31.250,97.168,0
1486663977.124,27.344,29.785,28.320,21.973,-43.945,0
1486663977.128,33.691,32.715,28.320,45.410,-25.879,0
1486663977.132,38.574,33.691,29.785,77.148,67.871,0
1486663977.136,52.734,35.156,34.180,96.191,198.242,0
1486663977.140,42.969,33.691,32.715,57.129,134.766,0
1486663977.144,39.062,30.273,30.273,37.109,-3.418,0
1486663977.148,46.387,30.762,33.203,52.734,-9.766,0
1486663977.152,47.852,34.180,33.203,74.219,69.336,0
1486663977.155,51.758,35.156,32.227,92.285,194.336,0
1486663977.159,43.457,33.691,33.203,69.824,145.508,0
1486663977.163,40.527,31.738,35.645,38.574,-31.738,0
1486663977.167,33.691,27.344,35.156,42.480,-67.383,0
1486663977.171,32.227,25.879,36.133,80.078,23.438,0
1486663977.175,45.410,27.832,40.039,98.633,132.324,0
1486663977.179,34.180,23.926,37.598,62.988,141.602,0
1486663977.183,27.344,22.461,37.598,43.945,10.254,0
1486663977.187,40.527,26.855,41.992,53.223,-45.410,0
1486663977.191,38.574,27.344,42.480,67.383,0.488,0
1486663977.195,39.551,27.344,42.969,93.262,159.668,0
1486663977.198,37.598,28.809,40.527,77.148,200.195,0
1486663977.202,28.809,30.273,37.598,38.086,-7.812,0
1486663977.206,35.645,32.715,38.086,41.504,-78.125,0
1486663977.210,28.320,34.180,36.133,63.477,-28.320,0
1486663977.214,32.227,32.227,32.715,83.008,130.371,0
1486663977.218,41.992,32.227,31.250,71.289,187.988,0
1486663977.222,35.645,35.645,29.785,35.156,25.391,0
1486663977.226,35.156,34.180,29.785,35.156,-53.223,0
1486663977.230,41.504,37.109,32.715,55.664,-31.250,0
1486663977.234,42.969,39.062,34.668,79.590,104.004,0
1486663977.238,35.645,33.203,32.227,75.195,221.680,0
1486663977.241,23.926,30.273,28.320,35.645,68.848,0
1486663977.245,34.180,27.344,29.785,35.645,-67.871,0
1486663977.249,42.969,30.273,32.227,59.570,-52.246,0
1486663977.253,42.480,37.109,31.738,86.914,84.961,0
1486663977.257,50.781,37.109,34.180,82.031,185.059,0
1486663977.261,42.480,34.668,31.250,42.969,61.035,0
1486663977.265,39.062,35.156,25.391,39.551,-76.660,0
1486663977.269,36.621,35.645,29.785,60.059,-86.426,0
1486663977.273,40.039,34.180,32.227,87.891,50.781,0
1486663977.277,39.551,30.762,32.227,83.496,208.984,0
1486663977.280,26.367,25.879,29.297,42.480,97.168,0
1486663977.284,27.832,28.320,27.832,36.133,-62.500,0
1486663977.288,36.621,30.762,32.227,53.223,-64.941,0
1486663977.292,39.551,32.227,35.645,84.473,21.484,0
1486663977.296,45.410,32.715,40.039,100.098,186.035,0
1486663977.300,42.969,30.273,42.480,65.918,100.098,0
1486663977.304,34.180,29.297,39.551,50.781,-65.430,0
1486663977.308,40.039,31.250,42.969,68.848,-76.660,0
1486663977.312,43.945,33.691,44.434,88.379,7.812,0
1486663977.316,53.223,30.762,39.551,97.656,165.039,0
1486663977.320,32.227,23.926,39.062,61.523,97.656,0
1486663977.323,20.996,20.020,39.062,34.180,-61.035,0
1486663977.327,31.250,23.438,38.086,52.734,-73.242,0
1486663977.331,24.902,28.320,38.574,74.219,6.836,0
1486663977.335,39.551,28.320,39.062,90.332,190.430,0
1486663977.339,36.621,25.879,37.598,65.918,162.109,0
1486663977.343,22.461,26.367,40.039,30.762,5.371,0
1486663977.347,28.320,29.785,38.574,37.109,-14.160,0
1486663977.351,31.250,32.227,37.598,64.941,37.109,0
1486663977.355,36.621,34.180,41.016,84.961,141.602,0
1486663977.359,34.668,33.203,39.551,62.012,148.926,0
1486663977.363,30.762,30.762,38.086,32.227,35.156,0
1486663977.366,30.762,30.273,34.180,40.527,-23.926,0
1486663977.370,31.250,30.762,33.203,63.965,-16.113,0
1486663977.374,32.715,30.273,35.645,81.543,161.133,0
1486663977.378,26.855,27.344,32.715,64.453,238.770,0
1486663977.382,26.367,25.879,30.762,34.180,64.941,0
1486663977.386,31.250,28.320,31.250,40.527,-32.715,0
1486663977.390,28.809,31.250,30.273,59.082,-34.180,0
1486663977.394,32.715,29.785,28.809,79.590,125.488,0
1486663977.398,27.832,27.344,28.809,70.312,233.398,0
1486663977.402,16.113,27.344,29.785,29.785,46.387,0
1486663977.405,20.508,25.391,31.738,30.273,-69.336,0
1486663977.409,21.484,24.414,34.180,52.734,-12.207,0
1486663977.413,30.762,27.832,31.738,73.730,105.957,0
1486663977.417,38.086,29.297,30.762,70.312,172.363,0
1486663977.421,26.367,31.738,33.203,38.086,75.684,0
1486663977.425,32.715,32.227,35.156,39.062,-13.672,0
1486663977.429,32.227,32.227,37.109,57.617,-59.082,0
1486663977.433,40.039,36.621,40.039,88.867,59.570,0
1486663977.437,43.945,35.156,42.480,88.379,207.031,1
1486663977.441,33.203,27.344,40.527,50.293,52.734,0
1486663977.445,31.250,24.414,38.574,41.016,-56.641,0
1486663977.448,21.484,28.809,36.621,42.480,-23.926,0
1486663977.452,30.762,32.227,34.668,73.242,72.266,0
1486663977.456,36.133,28.809,35.156,79.590,183.105,0
1486663977.460,14.160,26.367,32.227,26.855,55.176,0
1486663977.464,15.137,25.391,28.320,13.672,-86.914,0
1486663977.468,29.785,23.926,30.762,39.062,-63.477,0
1486663977.472,31.738,28.320,35.156,68.848,18.555,0
1486663977.476,30.762,30.762,34.668,74.219,145.508,0
1486663977.480,17.578,28.809,33.691,35.156,72.266,0
1486663977.484,6.836,29.785,29.785,16.602,-86.914,0
1486663977.487,25.391,29.785,30.762,39.062,-78.613,0
1486663977.491,36.133,30.273,33.691,70.312,5.371,0
1486663977.495,38.086,34.668,31.250,83.984,153.809,0
1486663977.499,35.156,35.156,32.715,53.711,139.648,0
1486663977.503,36.621,31.250,33.203,33.203,-32.227,0
1486663977.507,39.062,31.738,33.691,49.316,-84.473,0
1486663977.511,41.016,34.668,37.109,77.637,-36.621,0
1486663977.515,51.758,34.668,38.086,94.727,114.258,0
1486663977.519,42.480,29.785,39.551,69.824,155.762,0
1486663977.523,30.273,26.855,38.574,40.039,-15.625,0
1486663977.527,32.227,27.832,36.621,48.340,-51.270,0
1486663977.530,27.832,27.832,39.551,66.895,25.879,0
1486663977.534,32.227,28.320,38.574,83.984,143.066,0
1486663977.538,31.250,29.297,37.109,67.383,182.129,0
1486663977.542,20.020,27.832,38.574,39.062,57.617,0
1486663977.546,27.832,29.297,36.621,48.828,-23.438,0
1486663977.550,24.414,29.785,38.574,67.871,-41.504,0
1486663977.554,37.109,31.738,40.527,94.727,82.031,0
1486663977.558,43.457,32.715,38.086,88.867,181.152,0
1486663977.562,32.227,27.344,37.598,44.434,37.109,0
1486663977.566,33.691,26.855,36.621,41.504,-70.801,0
1486663977.570,26.367,29.297,36.621,58.594,-38.086,0
1486663977.573,34.668,29.297,37.598,77.637,96.191,0
1486663977.577,45.410,28.809,37.109,75.684,204.102,0
1486663977.581,32.715,26.367,37.109,41.504,67.383,0
1486663977.585,34.180,26.367,37.109,38.574,-52.734,0
1486663977.589,37.109,28.809,37.598,60.059,-31.250,0
1486663977.593,44.434,31.738,37.598,87.402,74.707,0
1486663977.597,46.875,29.785,32.715,84.961,160.645,0
1486663977.601,33.691,30.273,30.273,42.480,30.273,0
1486663977.605,37.598,33.203,31.250,40.527,-83.008,0
1486663977.609,41.016,35.156,32.715,60.059,-66.406,0
1486663977.612,41.016,36.133,35.156,80.078,79.102,0
1486663977.616,44.434,35.156,33.691,84.961,237.305,0
1486663977.620,32.227,31.738,33.691,42.969,96.191,0
1486663977.624,44.922,30.762,35.645,38.086,-62.012,0
1486663977.628,42.480,34.668,37.598,62.012,-59.570,0
1486663977.632,27.832,36.133,38.574,83.496,38.086,0
1486663977.636,42.969,35.156,37.109,91.797,212.891,0
1486663977.640,26.855,29.297,36.621,45.410,149.414,0
1486663977.644,21.484,27.832,36.621,26.367,-39.062,0
1486663977.648,32.715,30.762,37.109,51.758,-67.383,0
1486663977.652,25.879,32.227,37.598,70.801,23.438,0
1486663977.655,33.203,31.250,36.621,80.566,162.598,0
1486663977.659,30.762,29.297,37.109,46.387,150.879,0
1486663977.663,14.160,27.832,34.668,22.949,18.555,0
1486663977.667,16.113,27.832,31.250,38.574,-2.441,0
1486663977.671,24.414,30.762,35.645,63.477,41.992,0
1486663977.675,31.738,35.156,37.598,83.984,168.945,0
1486663977.679,26.367,31.738,33.203,51.758,151.367,0
1486663977.683,30.273,30.273,31.738,24.414,-44.922,0
1486663977.687,29.297,33.203,32.715,34.180,-87.402,0
1486663977.691,30.762,34.668,35.156,59.570,5.371,0
1486663977.694,48.340,35.156,35.156,87.891,180.664,0
1486663977.698,31.738,32.227,32.227,60.547,200.195,0
1486663977.702,30.273,31.738,29.785,26.855,20.020,0
1486663977.706,31.250,34.180,32.715,35.156,-71.289,0
1486663977.710,16.113,36.133,34.668,55.176,-36.133,0
1486663977.714,34.668,36.133,34.180,80.566,135.254,0
1486663977.718,34.668,30.762,35.156,63.477,187.500,0
1486663977.722,13.184,27.832,31.738,29.785,8.301,0
1486663977.726,19.531,30.273,37.109,40.039,-43.457,0
1486663977.730,20.508,32.227,40.039,57.129,-11.230,0
1486663977.734,32.715,33.691,31.738,83.496,113.281,0
1486663977.737,38.574,29.297,33.691,79.590,224.121,0
1486663977.741,21.973,26.367,33.691,39.551,55.176,0
1486663977.745,27.832,27.344,30.273,36.621,-62.012,0
1486663977.749,27.344,26.855,36.133,54.199,-21.973,0
1486663977.753,38.574,30.273,41.016,88.867,109.375,0
1486663977.757,53.223,32.227,38.086,83.984,229.980,0
1486663977.761,32.227,28.320,33.203,39.062,88.379,0
1486663977.765,31.738,25.879,35.156,36.621,-31.250,0
1486663977.769,41.504,29.785,39.062,54.199,5.371,0
1486663977.773,53.223,33.691,38.574,82.520,85.449,0
1486663977.777,62.988,32.715,40.527,87.891,214.355,0
1486663977.780,44.922,31.738,39.551,42.969,139.160,0
1486663977.784,41.992,31.250,34.668,33.203,-21.484,0
1486663977.788,42.969,31.738,34.180,52.246,3.418,0
1486663977.792,41.504,33.203,36.621,79.102,83.008,0
1486663977.796,44.434,32.715,39.062,92.773,168.457,0
1486663977.800,26.367,27.832,38.574,48.828,117.676,0
1486663977.804,30.273,25.391,36.621,28.320,-0.977,0
1486663977.808,26.367,29.785,37.598,49.805,-52.246,0
1486663977.812,14.648,34.180,38.574,74.707,35.645,0
1486663977.816,36.133,34.180,36.133,91.797,221.191,0
1486663977.819,34.668,30.762,33.691,55.176,162.109,0
1486663977.823,31.738,29.785,32.715,33.691,4.883,0
1486663977.827,25.391,33.203,35.645,52.246,-48.828,0
1486663977.831,17.090,34.180,38.574,67.383,30.273,0
1486663977.835,32.227,35.156,36.133,82.031,196.777,0
1486663977.839,22.949,29.785,32.715,53.711,165.527,0
1486663977.843,11.230,24.902,33.203,25.879,19.043,0
1486663977.847,16.113,26.855,31.250,39.062,-48.828,0
1486663977.851,27.832,28.320,30.273,69.336,14.648,0
1486663977.855,35.645,28.320,33.691,92.773,194.336,0
1486663977.859,28.809,27.344,31.738,62.012,178.711,0
1486663977.862,28.809,22.949,28.809,29.297,-18.066,0
1486663977.866,23.438,21.484,28.809,37.598,-69.824,0
1486663977.870,26.367,26.367,31.738,58.594,1.465,0
1486663977.874,39.551,29.297,34.180,83.984,182.617,0
1486663977.878,45.410,26.367,32.227,66.406,217.285,0
1486663977.882,40.039,26.367,32.715,33.203,10.254,0
1486663977.886,31.738,29.297,34.180,39.551,-89.844,0
1486663977.890,32.227,29.785,37.598,65.918,-29.785,0
1486663977.894,38.574,25.879,37.109,91.797,131.348,0
1486663977.898,39.551,22.949,34.668,79.590,192.383,0
1486663977.902,31.738,24.902,34.668,51.270,32.227,0
1486663977.905,34.668,26.367,39.062,58.105,-44.434,0
1486663977.909,36.133,27.832,44.922,74.219,-15.137,0
1486663977.913,41.016,32.227,45.410,99.121,102.051,0
1486663977.917,38.574,29.785,41.504,84.473,176.758,0
1486663977.921,21.484,22.461,36.133,38.086,46.387,0
1486663977.925,26.367,24.414,39.551,40.039,-60.059,0
1486663977.929,28.320,30.273,42.969,63.477,-54.199,0
1486663977.933,39.551,33.203,41.016,93.262,87.891,0
1486663977.937,57.129,32.715,37.598,89.844,205.566,0
1486663977.941,49.316,28.809,34.668,42.969,58.105,0
1486663977.944,34.180,26.855,37.598,42.480,-55.664,0
1486663977.948,25.391,28.320,38.574,60.547,-65.430,0
1486663977.952,37.109,30.273,40.527,80.566,22.949,0
1486663977.956,46.387,29.785,41.504,88.867,157.715,0
1486663977.960,30.273,29.297,36.621,48.828,58.594,0
1486663977.964,30.762,27.832,37.109,37.109,-86.914,0
1486663977.968,35.156,29.785,39.551,54.199,-101.562,0
1486663977.972,34.668,34.668,41.016,80.566,21.973,0
1486663977.976,37.109,33.691,40.527,86.914,161.133,0
1486663977.980,20.996,30.762,35.645,43.945,106.934,0
1486663977.984,24.414,27.832,34.180,27.832,-20.996,0
1486663977.987,26.855,28.320,37.109,45.410,-92.773,0
1486663977.991,25.879,30.762,39.551,71.289,-28.809,0
1486663977.995,32.227,30.762,39.062,85.938,107.422,0
1486663977.999,20.996,27.832,32.227,49.316,42.969,0
1486663978.003,17.578,28.809,28.809,29.785,-72.754,0
1486663978.007,23.438,32.227,35.645,46.387,-77.637,0
1486663978.011,28.809,34.180,35.156,67.871,-14.648,0
1486663978.015,44.434,35.156,31.738,90.820,152.344,1
1486663978.019,35.645,34.180,33.203,60.059,128.418,0
1486663978.023,37.109,33.691,32.227,36.621,-45.410,0
1486663978.026,48.340,32.227,30.273,53.223,-73.730,0
1486663978.030,43.945,31.738,31.250,75.195,23.926,0
1486663978.034,54.688,32.227,31.250,97.656,199.707,0
1486663978.038,47.363,32.227,32.715,66.895,156.250,0
1486663978.042,48.340,32.227,32.715,34.180,-35.645,0
1486663978.046,54.688,32.227,27.832,41.992,-84.961,0
1486663978.050,36.621,34.180,30.762,63.965,-33.691,0
1486663978.054,50.293,33.691,35.645,86.426,118.164,0
1486663978.058,49.316,32.715,33.691,65.918,158.203,0
1486663978.062,29.297,32.227,34.180,29.785,-1.953,0
1486663978.066,35.156,31.738,37.109,30.762,-96.191,0
1486663978.069,39.062,32.715,36.133,49.805,-43.457,0
1486663978.073,38.574,32.227,39.062,80.566,111.328,0
1486663978.077,31.250,30.762,38.086,74.707,182.617,0
1486663978.081,22.949,27.344,34.668,32.715,-21.484,0
1486663978.085,17.578,22.949,36.621,33.203,-105.469,0
1486663978.089,15.137,24.902,38.574,55.664,-8.789,0
1486663978.093,31.738,28.809,40.039,82.031,106.934,0
1486663978.097,36.133,27.344,38.574,80.566,190.918,0
1486663978.101,34.668,24.414,33.203,42.480,52.246,0
1486663978.105,39.551,26.367,34.668,39.551,-76.172,0
1486663978.109,29.785,33.203,37.598,61.523,-57.129,0
1486663978.112,44.922,32.227,40.527,94.727,41.504,0
1486663978.116,56.641,26.367,42.969,96.191,166.504,0
1486663978.120,40.039,27.344,35.645,45.410,55.176,0
1486663978.124,40.527,26.855,33.203,36.133,-93.750,0
1486663978.128,47.363,30.762,38.086,60.059,-97.168,0
1486663978.132,49.316,36.133,37.109,81.055,26.855,0
1486663978.136,50.293,36.621,37.109,86.426,190.918,0
1486663978.140,34.180,36.133,38.086,50.293,100.098,0
1486663978.144,28.809,35.645,38.086,34.668,-37.109,0
1486663978.148,40.527,35.156,36.621,51.758,-62.500,0
1486663978.151,46.387,39.062,33.691,76.172,26.855,0
1486663978.155,48.340,38.086,34.180,89.844,167.969,0
1486663978.159,32.715,31.738,36.621,46.875,98.633,0
1486663978.163,30.273,33.203,34.668,30.762,-61.523,0
1486663978.167,35.645,32.715,32.715,48.340,-62.500,0
1486663978.171,30.762,29.785,36.621,71.289,33.203,0
1486663978.175,36.133,31.250,39.062,92.773,186.035,0
1486663978.179,32.227,30.273,35.156,58.594,146.973,0
1486663978.183,27.344,26.367,35.156,37.598,-43.457,0
1486663978.187,28.809,26.367,39.551,57.129,-86.426,0
1486663978.191,21.484,27.344,40.527,75.684,-2.441,0
1486663978.194,31.250,26.367,41.504,94.727,174.316,0
1486663978.198,31.738,26.855,37.598,65.918,170.410,0
1486663978.202,22.461,26.855,40.039,39.062,-17.578,0
1486663978.206,35.156,28.320,43.945,54.688,-97.656,0
1486663978.210,30.273,28.320,34.668,69.824,-28.809,0
1486663978.214,37.109,27.344,33.691,92.773,131.836,0
1486663978.218,43.457,28.809,36.133,72.266,158.691,0
1486663978.222,31.250,29.785,37.598,33.691,29.297,0
1486663978.226,28.320,28.320,36.133,49.316,-24.902,0
1486663978.230,30.273,32.715,35.645,62.500,-9.766,0
1486663978.234,42.480,35.156,41.016,75.684,133.789,0
1486663978.237,39.551,30.762,41.992,69.824,213.867,0
1486663978.241,29.785,28.809,37.109,26.367,46.387,0
1486663978.245,35.156,29.785,29.785,29.297,-36.133,0
1486663978.249,27.832,31.738,34.180,52.734,-19.043,0
1486663978.253,38.086,30.273,37.598,81.055,73.730,0
1486663978.257,46.387,29.297,32.715,79.102,164.551,0
1486663978.261,27.344,26.855,30.273,35.645,50.293,0
1486663978.265,29.785,24.902,28.320,35.156,-75.195,0
1486663978.269,33.691,27.832,29.297,56.152,-54.688,0
1486663978.273,36.621,26.855,36.133,80.566,103.027,0
1486663978.276,35.645,26.367,37.598,81.543,196.777,0
1486663978.280,27.832,23.438,35.156,45.410,40.039,0
1486663978.284,26.367,20.020,35.645,35.645,-75.684,0
1486663978.288,20.508,23.926,35.156,44.434,-72.266,0
1486663978.292,30.273,28.809,35.645,75.684,27.344,0
1486663978.296,35.156,27.344,38.086,79.102,146.484,0
1486663978.300,19.531,25.391,38.086,36.621,72.266,0
1486663978.304,21.484,27.344,35.645,29.785,-32.715,0
1486663978.308,24.902,26.855,38.086,39.062,-11.719,0
1486663978.312,25.879,28.809,33.203,63.965,92.285,0
1486663978.316,37.598,32.715,27.344,78.125,226.562,0
1486663978.319,19.043,27.344,26.855,37.598,113.770,0
1486663978.323,10.254,23.438,26.367,20.020,-49.805,0
1486663978.327,25.879,29.785,27.344,38.574,-41.016,0
1486663978.331,29.297,33.691,31.738,65.918,52.246,0
1486663978.335,43.457,32.715,33.691,85.449,164.062,0
1486663978.339,36.621,28.809,32.227,44.434,132.812,0
1486663978.343,24.902,24.902,32.715,15.625,6.836,0
1486663978.347,25.879,27.344,36.621,34.180,-16.602,0
1486663978.351,26.855,28.320,36.621,55.176,41.016,0
1486663978.355,33.691,27.832,37.109,78.125,201.660,0
1486663978.358,33.691,26.367,35.156,56.152,202.637,0
1486663978.362,23.926,24.902,32.715,28.809,29.785,0
1486663978.366,25.879,25.879,38.086,41.992,-29.297,0
1486663978.370,30.762,25.391,43.945,68.848,13.672,0
1486663978.374,37.598,24.414,40.527,93.262,187.988,0
1486663978.378,28.809,21.484,37.598,73.730,199.219,0
1486663978.382,26.367,17.090,38.086,39.062,19.043,0
1486663978.386,25.391,18.066,37.109,40.527,-49.805,0
1486663978.390,15.137,22.949,40.527,62.988,-13.672,0
1486663978.394,30.273,24.414,43.945,91.309,155.762,0
1486663978.398,30.273,21.973,37.598,70.312,229.004,0
1486663978.401,15.625,22.461,33.691,27.832,74.219,0
1486663978.405,17.578,22.949,33.691,28.320,-57.617,0
1486663978.409,30.762,27.344,32.227,51.758,-46.387,0
1486663978.413,33.691,28.809,35.156,77.637,110.840,0
1486663978.417,34.180,25.391,35.156,63.965,191.895,0
1486663978.421,36.133,28.809,27.832,31.250,0.000,0
1486663978.425,38.574,31.738,28.809,30.762,-101.562,0
1486663978.429,39.551,35.156,31.738,48.340,-41.504,0
1486663978.433,49.316,38.086,30.762,80.078,54.688,0
1486663978.437,49.316,35.156,28.320,75.684,159.668,0
1486663978.441,35.645,33.691,26.855,38.086,70.801,0
1486663978.444,35.645,33.203,28.320,32.227,-70.312,0
1486663978.448,26.855,32.715,31.738,50.293,-78.613,0
1486663978.452,42.969,33.691,35.156,88.379,24.414,0
1486663978.456,47.363,29.297,35.156,83.496,118.652,0
1486663978.460,17.578,24.902,34.180,41.504,23.926,0
1486663978.464,24.414,27.344,36.133,40.527,-85.449,0
1486663978.468,28.320,27.344,37.598,54.688,-87.402,0
1486663978.472,20.508,27.832,40.527,84.961,5.371,0
1486663978.476,26.367,25.879,42.480,88.867,175.293,0
1486663978.480,23.438,22.949,40.039,42.969,105.957,0
1486663978.483,22.949,23.438,36.621,31.250,-69.824,0
1486663978.487,23.926,22.949,31.738,45.410,-73.242,0
1486663978.491,26.855,27.832,32.227,70.801,38.574,0
1486663978.495,43.457,28.809,35.645,85.449,170.898,0
1486663978.499,32.227,23.438,32.227,43.945,120.117,0
1486663978.503,29.785,21.973,31.250,27.832,-27.344,0
1486663978.507,41.504,25.391,34.668,46.875,-44.922,0
1486663978.511,33.691,29.297,36.621,71.777,41.016,0
1486663978.515,45.410,29.297,37.598,94.238,176.758,0
1486663978.519,45.410,26.855,34.180,66.895,142.090,0
1486663978.523,34.668,27.832,32.715,41.504,-23.926,0
1486663978.526,36.621,29.785,35.645,50.781,-74.219,0
1486663978.530,34.180,30.273,33.203,66.406,-20.996,0
1486663978.534,41.504,29.297,29.785,83.008,120.605,0
1486663978.538,37.109,26.855,31.738,63.965,163.574,0
1486663978.542,27.344,26.367,30.273,36.621,14.160,0
1486663978.546,27.344,27.344,30.762,44.922,-43.945,0
1486663978.550,34.180,32.227,36.133,70.801,0.000,0
1486663978.554,41.504,35.156,37.598,95.703,116.699,0
1486663978.558,35.156,34.180,36.133,76.172,143.555,0
1486663978.562,28.809,31.738,35.645,38.574,-33.691,0
1486663978.566,34.180,33.691,36.621,44.434,-120.117,0
1486663978.569,33.691,37.109,39.062,62.500,-50.781,0
1486663978.573,40.527,35.645,38.086,86.426,129.395,0
1486663978.577,42.480,29.785,34.668,72.266,202.148,0
1486663978.581,31.250,28.320,31.250,33.691,41.504,0
1486663978.585,42.480,28.809,32.715,39.062,-76.660,0
1486663978.589,39.062,28.809,37.109,59.082,-31.250,0
1486663978.593,34.668,32.227,36.133,85.449,120.605,0
1486663978.597,44.434,33.691,32.715,77.148,198.242,0
1486663978.601,39.062,33.203,32.715,38.086,36.621,0
1486663978.605,40.039,30.273,34.668,40.527,-73.242,0
1486663978.608,35.156,32.227,35.645,60.547,-68.359,0
1486663978.612,42.969,35.156,41.016,91.797,48.828,0
1486663978.616,61.523,33.203,40.039,95.703,177.734,0
1486663978.620,41.504,26.855,40.039,52.734,49.316,0
1486663978.624,36.621,25.391,39.062,47.363,-62.988,0
1486663978.628,49.316,31.250,36.621,65.918,-49.316,0
1486663978.632,44.922,31.738,42.480,93.262,43.945,0
1486663978.636,49.316,29.785,41.016,98.145,196.289,0
1486663978.640,32.227,28.809,33.691,52.734,88.867,0
1486663978.644,26.855,28.320,32.227,40.039,-84.473,0
1486663978.648,35.645,31.250,33.691,52.734,-70.801,0
1486663978.651,31.250,35.645,35.645,75.684,41.504,0
1486663978.655,35.156,33.691,33.203,85.449,165.039,0
1486663978.659,28.320,29.297,29.785,42.480,65.430,0
1486663978.663,18.066,28.809,28.809,31.250,-73.242,0
1486663978.667,14.648,31.738,31.738,42.480,-51.758,0
1486663978.671,32.227,35.156,35.645,63.477,45.898,0
1486663978.675,48.340,34.668,34.180,91.309,175.781,0
1486663978.679,25.879,34.668,33.203,51.758,123.047,0
1486663978.683,27.832,33.691,31.250,24.902,-51.270,1
1486663978.687,39.062,32.227,27.832,47.363,-110.840,0
1486663978.690,25.391,31.250,30.762,69.336,-20.996,0
1486663978.694,37.109,28.809,33.691,88.379,184.570,0
1486663978.698,41.504,30.273,33.203,66.406,183.594,0
1486663978.702,33.691,31.250,31.250,39.551,-14.160,0
1486663978.706,34.668,31.250,32.715,49.805,-76.660,0
1486663978.710,25.879,33.203,34.668,65.918,1.465,0
1486663978.714,40.527,33.203,34.180,92.285,158.691,0
1486663978.718,41.992,29.785,35.156,69.824,160.645,0
1486663978.722,27.344,26.367,34.668,28.809,-10.742,0
1486663978.726,36.621,25.879,35.156,41.504,-95.703,0
1486663978.730,37.598,27.832,33.691,60.547,-51.758,0
1486663978.733,52.246,27.832,32.227,83.008,113.770,0
1486663978.737,53.711,28.320,30.273,66.895,197.754,0
1486663978.741,36.621,29.785,28.809,29.785,30.273,0
1486663978.745,44.434,28.320,33.203,37.598,-64.453,0
1486663978.749,38.574,29.297,34.668,56.641,-15.137,0
1486663978.753,42.480,30.762,35.645,88.379,107.910,0
1486663978.757,40.039,31.738,37.109,76.660,196.777,0
1486663978.761,22.949,28.320,36.133,36.621,26.367,0
1486663978.765,31.738,26.855,36.621,36.133,-67.383,0
1486663978.769,18.555,29.297,34.668,46.387,-17.578,0
1486663978.773,27.344,29.297,31.738,85.938,94.727,0
1486663978.776,41.992,26.367,34.180,85.938,196.289,0
1486663978.780,22.949,24.414,33.203,34.180,62.012,0
1486663978.784,36.621,25.391,32.715,40.039,-52.734,0
1486663978.788,35.645,25.879,36.133,62.012,-46.387,0
1486663978.792,38.574,24.902,41.016,98.145,61.523,0
1486663978.796,45.898,25.391,39.551,103.027,180.176,0
1486663978.800,25.391,22.461,36.133,45.410,99.121,0
1486663978.804,23.926,22.461,35.645,38.574,-19.531,0
1486663978.808,23.926,25.391,39.062,58.105,-41.992,0
1486663978.812,22.949,29.297,43.457,81.543,67.383,0
1486663978.815,29.297,31.250,42.969,82.520,223.145,0
1486663978.819,17.090,28.320,40.039,33.691,138.672,0
1486663978.823,18.066,28.320,36.133,16.602,-38.086,0
1486663978.827,17.578,28.809,34.668,28.809,-56.152,0
1486663978.831,20.020,32.227,36.621,60.059,28.320,0
1486663978.835,37.109,34.180,38.086,81.055,165.527,0
1486663978.839,28.320,27.832,35.156,37.598,140.625,0
1486663978.843,24.414,27.344,33.203,22.949,-4.883,0
1486663978.847,30.273,28.809,37.109,46.875,-51.270,0
1486663978.851,33.203,32.227,39.062,68.848,58.594,0
1486663978.855,41.992,34.668,37.598,88.867,209.961,0
1486663978.858,36.621,26.855,33.203,56.152,124.023,0
1486663978.862,33.203,26.367,31.250,31.738,-38.574,0
1486663978.866,34.180,30.273,37.598,45.410,-67.871,0
1486663978.870,28.809,30.273,44.434,61.035,-8.789,0
1486663978.874,37.109,32.715,39.062,84.961,186.035,0
1486663978.878,34.668,33.203,35.645,63.477,192.871,0
1486663978.882,28.320,30.273,37.109,32.227,-21.973,0
1486663978.886,35.156,31.738,33.691,44.434,-68.359,0
1486663978.890,35.645,34.668,34.668,66.895,18.066,0
1486663978.894,41.992,35.156,39.062,96.191,159.668,0
1486663978.898,38.086,30.273,40.527,76.660,204.102,0
1486663978.901,27.344,28.809,38.086,41.504,11.719,0
1486663978.905,27.344,30.273,39.062,44.922,-81.543,0
1486663978.909,31.250,34.180,38.574,63.965,-32.227,0
1486663978.913,48.828,38.574,37.109,96.191,134.766,0
1486663978.917,37.598,36.133,35.156,76.660,231.445,0
1486663978.921,25.879,32.715,32.227,37.109,49.316,0
1486663978.925,34.180,32.715,29.297,42.480,-73.730,0
1486663978.929,29.297,35.645,33.203,57.617,-57.617,0
1486663978.933,36.133,35.645,36.621,80.078,74.707,0
1486663978.937,40.039,31.250,33.203,72.754,178.223,0
1486663978.940,28.320,28.809,30.762,30.762,55.176,0
1486663978.944,24.902,27.832,33.203,27.832,-30.762,0
1486663978.948,20.508,29.297,40.527,48.340,-11.719,0
1486663978.952,25.391,33.203,43.945,82.031,99.121,0
1486663978.956,32.227,29.297,36.133,79.102,226.562,0
1486663978.960,19.531,25.879,30.273,32.715,104.004,0
1486663978.964,17.578,26.367,31.738,29.785,-39.551,0
1486663978.968,26.367,25.391,36.621,49.316,-30.762,0
1486663978.972,29.785,26.855,39.062,73.242,67.871,0
1486663978.976,34.668,29.297,35.156,72.754,192.871,0
1486663978.980,25.391,26.367,33.203,31.250,104.492,0
1486663978.983,26.367,22.949,33.203,26.855,-64.453,0
1486663978.987,35.645,26.855,37.598,50.293,-75.684,0
1486663978.991,34.668,25.879,39.551,72.754,52.246,0
1486663978.995,53.711,26.367,36.621,89.355,213.379,0
1486663978.999,34.668,27.832,37.598,49.805,132.812,0
1486663979.003,25.391,22.461,32.715,27.832,-15.137,0
1486663979.007,41.504,24.902,29.785,50.781,-45.410,0
1486663979.011,39.551,30.762,34.180,78.125,31.738,0
1486663979.015,48.828,30.762,37.109,93.750,217.773,0
1486663979.019,38.574,27.832,36.621,58.594,166.016,0
1486663979.022,38.086,26.367,33.691,35.156,-42.480,0
1486663979.026,41.016,30.273,32.227,45.898,-90.332,0
1486663979.030,32.227,30.273,32.227,67.871,-8.789,0
1486663979.034,45.410,31.738,35.645,92.285,160.156,0
1486663979.038,41.016,30.762,32.227,61.523,174.805,0
1486663979.042,27.832,23.926,26.367,25.391,0.488,0
1486663979.046,22.949,23.926,25.879,37.109,-65.918,0
1486663979.050,20.508,25.879,31.250,62.012,-5.859,0
1486663979.054,34.668,25.879,37.598,88.379,113.281,0
1486663979.058,37.109,27.832,34.180,70.801,139.160,0
1486663979.062,20.996,26.855,31.250,32.715,12.695,0
1486663979.065,22.949,27.832,33.691,39.062,-82.520,0
1486663979.069,24.414,30.762,38.086,65.918,-31.250,0
1486663979.073,30.762,30.762,36.621,93.750,134.766,0
1486663979.077,35.645,28.320,31.738,78.125,198.730,0
1486663979.081,25.391,26.855,35.645,45.898,42.480,0
1486663979.085,30.762,27.344,37.598,46.875,-39.062,0
1486663979.089,40.527,32.715,36.133,62.988,-23.438,0
1486663979.093,46.875,37.598,36.133,96.191,120.117,0
1486663979.097,48.340,34.668,34.668,88.867,235.352,0
1486663979.101,35.156,29.297,32.227,46.387,60.547,0
1486663979.105,38.086,28.809,35.645,49.316,-62.012,0
1486663979.108,37.598,31.738,41.016,70.801,-25.879,0
1486663979.112,45.898,30.273,38.574,89.844,127.441,0
1486663979.116,46.387,27.344,36.133,82.031,267.090,0
1486663979.120,21.973,25.391,40.039,43.945,119.629,0
1486663979.124,25.879,28.320,40.039,45.898,-46.387,0
1486663979.128,29.785,33.203,38.574,56.152,-66.406,0
1486663979.132,35.645,36.621,39.551,78.125,55.664,0
1486663979.136,42.480,35.645,36.621,86.426,185.547,0
1486663979.140,28.809,32.227,37.109,44.922,94.238,0
1486663979.144,27.344,31.250,39.551,34.668,-50.293,0
1486663979.147,30.273,32.227,40.527,54.199,-91.309,0
1486663979.151,34.180,33.691,38.574,77.637,59.082,0
1486663979.155,42.480,32.227,36.133,84.961,215.332,0
1486663979.159,34.668,29.785,34.668,51.758,96.191,0
1486663979.163,29.785,28.809,32.227,37.598,-69.336,0
1486663979.167,35.156,32.715,31.738,53.223,-78.613,0
1486663979.171,41.016,34.668,34.668,79.590,50.293,0
1486663979.175,45.898,34.180,34.668,96.191,209.961,0
1486663979.179,39.551,33.691,32.227,61.523,131.836,0
1486663979.183,37.598,29.297,30.762,39.062,-33.203,0
1486663979.187,34.180,28.809,30.273,51.270,-40.527,0
1486663979.190,27.344,30.273,33.691,70.801,67.383,0
1486663979.194,47.363,35.156,36.133,92.285,181.152,0
1486663979.198,44.922,36.621,35.156,63.477,133.301,0
1486663979.202,23.926,32.715,32.227,29.785,-15.625,0
1486663979.206,32.227,32.715,32.227,43.945,-66.406,0
1486663979.210,38.574,36.621,36.133,70.312,-15.625,0
1486663979.214,44.434,35.156,35.645,88.867,160.645,0
1486663979.218,47.852,34.668,34.180,69.824,185.547,0
1486663979.222,41.016,36.621,34.668,40.527,25.391,0
1486663979.226,36.133,32.227,36.621,47.852,-49.316,0
1486663979.230,33.203,34.668,37.109,65.918,-26.855,0
1486663979.233,52.246,39.551,41.016,96.680,103.027,0
1486663979.237,45.410,31.738,41.016,78.125,163.086,0
1486663979.241,19.043,27.344,36.133,37.598,8.301,0
1486663979.245,31.250,30.273,35.645,42.480,-66.406,0
1486663979.249,33.203,33.691,39.062,63.477,-24.902,0
1486663979.253,37.109,36.133,40.527,87.402,132.324,0
1486663979.257,42.480,33.203,37.109,74.219,210.449,0
1486663979.261,30.273,31.738,34.668,34.180,23.438,0
1486663979.265,27.832,33.203,34.668,33.203,-67.871,0
1486663979.269,29.297,34.668,37.598,55.176,-21.973,0
1486663979.272,38.574,38.574,40.527,83.496,116.211,0
1486663979.276,38.086,41.016,39.062,75.195,186.523,0
1486663979.280,22.949,35.645,38.086,32.715,44.434,0
1486663979.284,29.297,30.273,37.109,40.039,-91.309,0
1486663979.288,29.785,32.715,37.598,58.105,-68.359,0
1486663979.292,39.062,36.621,40.039,80.566,61.523,0
1486663979.296,43.457,35.156,37.598,85.938,186.035,0
1486663979.300,36.621,35.156,36.133,48.340,81.543,0
1486663979.304,28.809,36.133,36.621,37.109,-44.434,0
1486663979.308,19.043,35.645,34.668,52.734,-50.781,0
1486663979.312,32.227,36.133,36.133,83.496,55.664,0
1486663979.315,41.016,34.668,37.109,90.820,216.309,0
1486663979.319,29.297,35.645,29.785,49.316,100.586,0
1486663979.323,28.320,33.203,27.832,29.297,-51.270,0
1486663979.327,29.297,30.762,33.203,40.527,-50.293,0
1486663979.331,34.668,35.156,32.715,67.871,18.066,0
1486663979.335,47.363,35.156,31.250,83.008,161.133,0
1486663979.339,39.551,29.785,31.250,46.387,126.465,0
1486663979.343,31.250,29.297,32.227,28.320,-28.320,0
1486663979.347,26.367,31.738,33.203,43.457,-62.012,0
1486663979.351,29.785,28.320,35.156,72.754,5.371,0
1486663979.354,47.852,24.414,41.016,102.539,168.457,0
1486663979.358,46.387,29.297,41.504,72.266,112.305,0
1486663979.362,29.297,29.297,35.645,35.156,-71.777,0
1486663979.366,31.250,27.832,38.086,42.480,-62.012,1
1486663979.370,26.367,33.203,39.551,66.895,-5.371,0
1486663979.374,34.180,34.180,36.133,88.379,125.977,0
1486663979.378,30.762,31.250,33.203,48.340,157.227,0
1486663979.382,15.625,30.273,35.156,19.531,-15.625,0
1486663979.386,28.320,30.273,35.645,40.527,-82.031,0
1486663979.390,31.250,30.762,38.086,59.082,-23.926,0
1486663979.394,40.527,31.738,42.480,83.496,140.625,0
1486663979.397,35.156,30.762,40.039,62.500,171.875,0
1486663979.401,23.438,31.250,38.086,29.297,-20.020,0
1486663979.405,20.996,32.227,36.133,37.109,-87.402,0
1486663979.409,22.461,37.109,36.621,46.387,-7.812,0
1486663979.413,41.504,37.598,38.086,78.613,159.668,0
1486663979.417,32.227,32.227,34.180,66.895,239.258,0
1486663979.421,11.719,30.762,31.250,23.438,63.965,0
1486663979.425,27.832,32.227,36.133,32.715,-27.344,0
1486663979.429,29.297,34.668,41.992,50.781,21.973,0
1486663979.433,35.645,39.062,43.945,81.055,127.441,0
1486663979.437,47.363,38.574,38.574,77.148,194.336,0
1486663979.440,31.250,34.180,33.691,35.156,35.156,0
1486663979.444,32.715,33.203,32.715,36.133,-71.289,0
1486663979.448,35.156,36.133,34.180,53.223,-24.902,0
1486663979.452,37.598,40.527,39.062,84.961,88.867,0
1486663979.456,40.039,38.086,38.574,83.496,181.641,0
1486663979.460,27.344,35.156,37.109,40.039,53.711,0
1486663979.464,32.715,34.180,39.062,35.156,-107.910,0
1486663979.468,29.297,35.156,35.645,49.316,-77.637,0
1486663979.472,31.738,38.086,33.691,76.660,46.875,0
1486663979.476,36.621,34.668,36.133,82.520,187.500,0
1486663979.479,22.949,34.668,37.109,42.480,76.660,0
1486663979.483,24.902,34.668,33.203,30.762,-73.730,0
1486663979.487,33.691,33.203,36.133,45.898,-45.898,0
1486663979.491,41.016,36.133,40.527,76.660,36.621,0
1486663979.495,38.574,34.668,34.668,86.914,174.316,0
1486663979.499,27.344,32.715,30.762,45.898,87.891,0
1486663979.503,34.180,33.203,34.180,36.621,-47.363,0
1486663979.507,31.738,32.715,34.180,52.246,-48.828,0
1486663979.511,31.250,34.668,37.598,76.172,79.590,0
1486663979.515,48.828,35.645,39.551,96.191,214.355,0
1486663979.519,38.086,36.621,37.109,59.082,113.281,0
1486663979.522,35.645,34.668,35.645,36.621,-31.250,0
1486663979.526,38.574,28.809,38.574,52.246,-56.641,0
1486663979.530,29.785,31.738,40.039,78.613,39.551,0
1486663979.534,40.527,30.273,39.551,100.586,232.422,0
1486663979.538,30.762,24.902,36.133,63.477,193.359,0
1486663979.542,25.391,24.902,33.691,36.621,5.859,0
1486663979.546,30.273,24.414,38.086,51.270,-34.668,0
1486663979.550,28.320,30.273,40.039,72.266,8.301,0
1486663979.554,40.039,31.738,37.598,90.332,165.039,0
1486663979.558,38.086,26.367,38.574,64.453,158.203,0
1486663979.562,27.832,28.809,38.574,30.762,-12.695,0
1486663979.565,27.832,30.762,33.691,29.297,-49.316,0
1486663979.569,26.367,30.762,31.250,49.316,8.301,0
1486663979.573,36.133,29.297,32.227,83.496,161.133,0
1486663979.577,28.809,28.809,32.227,60.547,163.574,0
1486663979.581,23.926,27.344,32.227,24.414,12.207,0
1486663979.585,39.551,25.391,35.156,39.551,-10.254,0
1486663979.589,38.086,31.738,37.598,56.641,-11.230,0
1486663979.593,40.039,34.180,37.598,85.449,122.070,0
1486663979.597,45.898,33.203,37.109,78.125,208.496,0
1486663979.601,36.133,36.133,40.039,37.109,18.066,0
1486663979.604,37.109,33.203,39.062,35.645,-53.711,0
1486663979.608,37.109,30.273,34.180,55.176,-9.277,0
1486663979.612,41.992,34.180,34.668,84.473,99.121,0
1486663979.616,41.016,34.668,35.156,75.195,194.336,0
1486663979.620,32.715,31.738,33.691,36.133,7.812,0
1486663979.624,32.715,28.809,37.109,35.156,-75.684,0
1486663979.628,26.855,28.320,41.504,52.734,-27.344,0
1486663979.632,35.645,32.227,44.922,86.426,78.613,0
1486663979.636,41.016,33.203,39.551,86.914,208.008,0
1486663979.640,26.367,31.738,32.715,37.109,60.059,0
1486663979.644,23.438,28.320,34.180,33.203,-98.633,0
1486663979.647,24.414,30.762,34.668,51.270,-83.496,0
1486663979.651,23.926,34.668,35.156,72.266,44.434,0
1486663979.655,39.551,31.250,38.086,80.566,178.223,0
1486663979.659,27.832,30.762,37.598,41.504,83.008,0
1486663979.663,20.508,30.273,37.598,25.879,-64.941,0
1486663979.667,35.156,28.809,41.504,47.363,-81.543,0
1486663979.671,40.527,32.227,40.039,80.078,-10.742,0
1486663979.675,48.828,33.203,40.527,94.238,157.227,0
1486663979.679,37.598,29.297,41.016,53.223,94.727,0
1486663979.683,29.785,27.344,40.039,31.250,-60.547,0
1486663979.686,32.227,25.391,37.598,47.852,-66.406,0
1486663979.690,28.809,24.414,34.180,68.848,4.883,0
1486663979.694,43.457,25.879,31.738,90.332,137.207,0
1486663979.698,44.434,24.902,31.250,62.500,123.047,0
1486663979.702,28.809,24.414,31.250,33.203,-17.090,0
1486663979.706,32.715,25.391,36.133,48.340,-91.309,0
1486663979.710,40.039,28.320,36.621,74.707,5.859,0
1486663979.714,43.945,30.762,33.203,95.215,184.082,0
1486663979.718,44.922,27.832,34.668,71.289,164.062,0
1486663979.722,41.992,27.344,33.691,42.480,-18.555,0
1486663979.726,36.621,29.785,30.762,47.363,-93.750,0
1486663979.729,42.969,33.691,32.715,70.312,-13.184,0
1486663979.733,53.711,36.133,35.156,91.309,151.367,0
1486663979.737,60.059,30.273,33.691,71.777,172.363,0
1486663979.741,54.199,28.320,34.180,40.039,-2.441,0
1486663979.745,44.922,28.809,36.621,39.551,-56.641,0
1486663979.749,42.480,30.273,34.180,63.477,-2.441,0
1486663979.753,55.664,33.203,35.645,93.750,101.562,0
1486663979.757,53.711,30.273,38.086,77.148,170.410,0
1486663979.761,35.156,26.855,36.621,44.922,46.875,0
1486663979.765,37.598,26.855,37.109,48.828,-36.621,0
1486663979.769,34.180,30.273,34.668,64.453,-20.508,0
1486663979.772,41.992,31.738,33.203,94.727,113.281,0
1486663979.776,43.945,28.809,32.227,88.379,243.164,0
1486663979.780,33.691,24.902,31.738,43.945,91.797,0
1486663979.784,37.598,23.926,33.691,44.922,-37.598,0
1486663979.788,24.414,25.879,36.133,63.477,-26.367,0
1486663979.792,30.762,29.785,35.645,91.797,141.113,0
1486663979.796,41.016,32.227,37.598,90.332,212.402,0
1486663979.800,22.461,27.344,39.062,40.527,54.199,0
1486663979.804,24.414,25.391,39.551,39.062,-68.848,0
1486663979.808,32.715,27.832,39.062,60.547,-55.176,0
1486663979.811,36.621,30.762,40.039,91.309,89.355,0
1486663979.815,39.551,30.273,41.992,102.539,211.426,0
1486663979.819,25.391,27.832,35.645,50.293,87.891,0
1486663979.823,21.973,25.391,31.250,33.691,-47.363,0
1486663979.827,23.438,28.809,33.691,49.316,-47.852,0
1486663979.831,26.855,29.785,34.668,70.801,39.551,0
1486663979.835,44.922,29.785,35.645,88.867,183.105,0
1486663979.839,34.668,30.273,38.574,47.852,126.953,0
1486663979.843,28.809,25.879,37.109,28.809,-14.160,0
1486663979.847,33.691,26.855,36.621,50.293,-19.531,0
1486663979.851,38.574,32.227,38.574,80.566,77.148,0
1486663979.854,50.293,34.180,38.574,94.727,188.965,0
1486663979.858,41.992,32.715,39.551,57.617,140.137,0
1486663979.862,32.715,29.297,38.086,34.180,-11.719,0
1486663979.866,33.691,28.320,40.039,46.875,-62.988,0
1486663979.870,31.738,31.250,43.457,70.312,44.922,0
1486663979.874,35.645,31.738,38.086,88.379,197.266,0
1486663979.878,41.016,28.320,36.133,62.012,145.508,0
1486663979.882,30.273,27.832,36.621,35.645,-68.848,0
1486663979.886,24.902,28.809,36.133,47.852,-98.145,0
1486663979.890,26.855,30.273,37.109,67.383,7.324,0
1486663979.894,38.574,30.273,39.062,88.867,183.594,0
1486663979.897,36.133,25.879,39.551,63.477,201.172,0
1486663979.901,25.391,25.879,39.551,31.250,6.836,0
1486663979.905,30.273,27.832,38.086,41.016,-105.469,0
1486663979.909,27.344,32.227,38.574,59.082,-55.176,0
1486663979.913,40.527,36.133,38.086,86.426,119.141,0
1486663979.917,35.645,30.273,39.062,68.848,168.457,0
1486663979.921,26.855,27.344,37.109,33.691,-27.344,0
1486663979.925,36.133,29.297,37.598,40.039,-114.258,0
1486663979.929,29.785,27.832,40.527,49.316,-37.109,0
1486663979.933,37.598,30.273,36.133,82.520,105.469,1
1486663979.936,34.668,31.738,31.250,74.219,185.547,0
1486663979.940,19.531,26.855,32.715,33.203,76.172,0
1486663979.944,27.344,25.879,36.133,42.480,-10.254,0
1486663979.948,28.320,27.832,36.133,55.664,-50.781,0
1486663979.952,34.180,32.715,34.180,76.660,65.430,0
1486663979.956,39.062,33.691,33.691,70.801,176.758,0
1486663979.960,35.645,32.227,33.203,33.203,53.711,0
1486663979.964,35.156,31.738,32.227,34.180,-84.473,0
1486663979.968,25.879,31.250,32.715,54.199,-55.176,0
1486663979.972,38.574,33.203,33.203,88.379,91.797,0
1486663979.976,49.805,34.180,34.668,87.891,194.824,0
1486663979.979,37.109,28.809,33.691,43.945,37.109,0
1486663979.983,41.992,28.809,28.809,41.992,-91.797,0
1486663979.987,44.922,30.273,29.297,60.547,-73.730,0
1486663979.991,49.316,32.227,32.715,87.891,43.457,0
1486663979.995,55.176,33.691,35.645,97.168,194.336,0
1486663979.999,43.457,26.855,35.645,59.570,108.887,0
1486663980.003,41.016,22.949,32.715,45.410,-40.527,0
1486663980.007,38.574,24.414,33.691,58.594,-49.805,0
1486663980.011,47.852,28.809,40.039,86.914,55.176,0
1486663980.015,52.246,28.809,39.062,96.680,182.129,0
1486663980.018,32.227,28.320,35.645,49.805,100.586,0
1486663980.022,29.785,27.832,35.156,29.785,-12.207,0
1486663980.026,21.973,26.367,34.668,36.621,-34.668,0
1486663980.030,25.391,32.715,37.109,58.594,51.270,0
1486663980.034,47.852,34.180,36.133,82.031,197.754,0
1486663980.038,26.367,30.273,32.227,40.527,120.117,0
1486663980.042,17.090,28.809,32.227,18.066,-73.730,0
1486663980.046,25.879,30.762,37.109,40.039,-89.355,0
1486663980.050,28.320,32.227,41.016,62.988,18.066,0
1486663980.054,38.574,33.203,42.969,83.496,194.824,0
1486663980.058,34.180,31.250,42.969,62.988,189.941,0
1486663980.061,27.832,28.809,41.992,35.156,26.855,0
1486663980.065,31.738,29.785,39.551,48.340,-54.688,0
1486663980.069,29.785,31.738,41.016,69.824,-50.781,0
1486663980.073,32.715,30.762,41.992,92.773,82.031,0
1486663980.077,28.320,28.320,40.527,72.266,104.980,0
1486663980.081,20.508,27.344,42.480,39.551,-55.176,0
1486663980.085,29.297,28.809,42.969,55.664,-104.004,0
1486663980.089,31.738,31.250,43.457,77.637,-61.035,0
1486663980.093,38.574,32.227,41.504,90.332,60.059,0
1486663980.097,38.574,30.762,35.645,73.730,140.137,0
1486663980.101,35.156,30.762,36.133,46.875,-40.039,0
1486663980.104,39.551,30.273,37.109,46.875,-126.465,0
1486663980.108,31.250,31.250,35.156,63.965,-38.574,0
1486663980.112,41.504,32.715,35.645,95.703,94.727,0
1486663980.116,47.852,29.785,36.133,84.961,162.598,0
1486663980.120,35.156,24.902,34.668,44.434,32.227,0
1486663980.124,40.527,26.367,34.180,45.898,-37.109,0
1486663980.128,38.574,28.809,34.180,64.941,-24.902,0
1486663980.132,42.969,27.832,33.203,92.285,93.750,0
1486663980.136,44.434,28.320,35.645,84.961,214.355,0
1486663980.140,25.879,29.785,38.086,42.480,57.129,0
1486663980.143,28.809,30.273,35.156,37.598,-48.828,0
1486663980.147,30.273,28.809,34.668,54.199,-18.066,0
1486663980.151,23.438,29.785,38.574,81.543,84.473,0
1486663980.155,28.809,32.715,39.062,84.473,201.172,0
1486663980.159,26.367,29.297,36.621,42.480,108.398,0
1486663980.163,26.855,26.855,35.156,33.203,-41.016,0
1486663980.167,24.414,30.762,37.598,49.316,-43.945,0
1486663980.171,22.949,33.691,39.551,67.383,71.777,0
1486663980.175,39.062,33.691,38.574,75.195,180.176,0
1486663980.179,21.484,28.809,33.203,28.809,96.680,0
1486663980.183,15.625,27.344,30.273,9.277,-60.059,0
1486663980.186,24.902,31.250,34.180,30.273,-104.004,0
1486663980.190,28.809,34.180,38.574,60.547,-0.977,0
1486663980.194,35.156,33.691,37.109,78.125,179.688,0
1486663980.198,24.414,27.832,32.715,48.340,124.023,0
1486663980.202,31.250,30.273,31.250,31.250,-36.621,0
1486663980.206,34.668,32.715,32.715,39.062,-49.316,0
1486663980.210,26.855,30.762,34.668,60.547,36.621,0
1486663980.214,39.062,32.227,34.668,85.938,187.012,0
1486663980.218,35.156,30.273,36.133,57.129,191.406,0
1486663980.222,32.715,26.855,37.598,32.227,-8.301,0
1486663980.226,39.062,28.320,37.598,51.758,-72.754,0
1486663980.229,37.598,32.715,35.645,69.824,-7.324,0
1486663980.233,53.711,33.203,37.109,93.750,156.250,0
1486663980.237,45.410,27.832,35.645,72.754,216.309,0
1486663980.241,30.273,26.367,31.738,37.109,23.438,0
1486663980.245,30.762,28.320,35.156,43.945,-60.059,0
1486663980.249,22.461,29.785,40.527,60.547,1.465,0
1486663980.253,36.133,32.715,41.504,83.496,169.922,0
1486663980.257,34.668,30.762,36.133,64.453,213.379,0
1486663980.261,19.043,29.785,34.180,25.879,10.254,0
1486663980.265,20.020,32.227,35.156,28.809,-64.453,0
1486663980.268,21.484,32.715,32.715,46.875,-29.785,0
1486663980.272,33.203,36.133,31.250,77.637,93.750,0
1486663980.276,39.062,36.133,32.227,68.848,162.109,0
1486663980.280,31.250,32.715,33.203,29.785,-11.230,0
1486663980.284,38.086,31.250,33.203,36.133,-94.727,0
1486663980.288,39.062,29.785,32.715,57.129,-60.059,0
1486663980.292,41.016,31.738,36.621,85.449,80.566,0
1486663980.296,48.340,32.227,38.086,83.008,209.473,0
1486663980.300,31.250,28.809,35.645,40.039,69.336,0
1486663980.304,30.273,27.344,36.621,38.574,-79.102,0
1486663980.308,30.273,28.809,40.527,59.082,-60.059,0
1486663980.311,29.297,32.715,41.016,81.543,101.074,0
1486663980.315,32.227,34.180,39.551,74.219,228.027,0
1486663980.319,22.461,29.785,40.039,31.738,83.984,0
1486663980.323,30.762,25.879,40.039,32.227,-60.059,0
1486663980.327,29.785,28.809,41.016,52.246,-45.410,0
1486663980.331,32.715,33.691,41.504,80.078,82.520,0
1486663980.335,42.969,30.273,38.086,85.938,205.566,0
1486663980.339,25.391,27.832,32.715,42.480,91.797,0
1486663980.343,27.832,27.344,35.156,35.645,-62.988,0
1486663980.347,35.156,30.273,36.621,57.129,-43.457,0
1486663980.350,32.227,32.715,35.156,73.242,64.453,0
1486663980.354,43.457,31.250,37.598,84.473,188.477,0
1486663980.358,36.133,30.762,37.109,49.805,114.746,0
1486663980.362,27.832,30.273,35.645,29.785,-42.480,0
1486663980.366,31.250,32.715,37.109,49.316,-52.734,0
1486663980.370,31.738,36.133,38.574,73.730,51.270,0
1486663980.374,41.016,34.668,37.598,89.844,180.664,0
1486663980.378,34.668,32.715,29.785,58.105,141.113,0
1486663980.382,21.484,30.762,26.855,28.809,8.789,0
1486663980.386,23.926,28.809,30.762,42.969,-50.781,0
1486663980.390,32.715,33.691,36.621,64.453,7.324,0
1486663980.393,43.457,36.133,35.645,87.891,201.660,0
1486663980.397,40.039,34.180,34.668,70.801,204.102,0
1486663980.401,37.109,32.715,31.250,37.109,12.695,0
1486663980.405,40.039,32.715,31.738,52.246,-77.148,0
1486663980.409,44.922,33.691,36.133,76.172,-16.602,0
1486663980.413,54.199,35.645,36.133,97.656,151.367,0
1486663980.417,45.898,35.156,37.598,76.172,214.355,0
1486663980.421,40.527,30.762,37.598,43.945,41.504,0
1486663980.425,46.875,30.762,35.645,52.734,-77.148,0
1486663980.429,43.457,38.086,37.598,67.871,-13.672,0
1486663980.433,44.922,39.551,42.480,94.238,150.879,0
1486663980.436,47.852,36.133,41.016,81.543,213.867,0
1486663980.440,30.273,32.715,35.645,36.133,29.785,0
1486663980.444,20.508,31.250,38.086,35.645,-32.227,0
1486663980.448,17.578,32.227,41.016,56.641,37.109,0
1486663980.452,27.344,31.250,38.086,79.102,153.320,0
1486663980.456,35.156,30.762,35.645,64.941,233.887,0
1486663980.460,21.973,29.785,36.133,28.809,54.199,0
1486663980.464,23.438,26.367,38.086,29.785,-47.852,0
1486663980.468,20.996,29.297,41.992,42.969,-19.531,0
1486663980.472,28.320,31.250,38.574,73.730,124.023,0
1486663980.475,39.062,28.809,33.691,77.148,260.742,0
1486663980.479,28.320,30.762,31.250,34.180,76.172,0
1486663980.483,32.715,33.203,30.762,30.762,-46.387,0
1486663980.487,38.086,34.180,34.180,50.781,-5.859,0
1486663980.491,31.250,34.668,35.156,76.172,99.121,0
1486663980.495,46.387,34.180,38.574,82.520,200.195,0
1486663980.499,35.156,30.273,39.551,36.621,92.773,0
1486663980.503,18.555,31.250,36.133,23.438,-32.227,0
1486663980.507,32.715,34.180,35.645,45.898,-76.172,0
1486663980.511,34.180,37.109,37.109,70.312,23.438,0
1486663980.515,34.180,35.156,37.109,80.566,185.547,0
1486663980.518,35.156,33.691,33.203,48.828,84.473,0
1486663980.522,35.645,36.133,31.738,32.715,-65.430,0
1486663980.526,30.273,34.668,35.156,47.852,-53.223,0
1486663980.530,31.738,34.180,39.551,77.148,27.832,0
1486663980.534,40.039,31.250,40.039,96.191,170.898,0
1486663980.538,29.297,30.273,35.645,58.105,105.469,0
1486663980.542,30.762,30.273,34.180,38.086,-40.039,0
1486663980.546,33.203,30.762,35.645,52.734,-52.246,0
1486663980.550,24.414,34.180,34.668,70.312,55.664,0
1486663980.554,43.457,37.109,31.738,95.703,181.152,0
1486663980.558,38.086,35.156,31.738,62.012,157.227,0
1486663980.561,21.484,31.250,32.227,24.414,7.812,0
1486663980.565,36.133,33.203,32.227,39.551,-50.293,0
1486663980.569,29.297,35.156,32.715,56.641,-0.488,0
1486663980.573,30.273,35.156,34.180,76.660,108.887,0
1486663980.577,36.621,34.180,33.203,60.547,112.305,0
1486663980.581,24.902,34.180,32.227,29.785,-23.438,1
1486663980.585,28.320,33.691,35.156,36.621,-67.383,0
1486663980.589,22.461,35.645,36.621,56.152,-34.668,0
1486663980.593,27.344,37.109,35.156,80.566,122.070,0
1486663980.597,27.832,34.668,36.621,68.359,164.551,0
1486663980.600,14.160,28.809,38.086,32.715,2.930,0
1486663980.604,20.020,29.785,31.250,36.133,-73.242,0
1486663980.608,23.926,32.715,30.762,52.734,-31.738,0
1486663980.612,33.691,33.203,34.668,77.148,141.602,0
1486663980.616,30.762,34.180,33.691,67.383,196.289,0
1486663980.620,16.602,34.180,33.691,26.855,48.340,0
1486663980.624,22.461,32.227,35.156,24.902,-28.320,0
1486663980.628,21.484,29.785,34.180,35.156,-8.789,0
1486663980.632,37.109,32.227,36.621,62.012,140.137,0
1486663980.636,49.805,30.762,36.133,64.453,241.211,0
1486663980.640,38.086,31.250,33.203,25.391,81.543,0
1486663980.643,48.340,32.715,35.156,23.438,-51.270,0
1486663980.647,45.898,31.738,35.156,45.410,-73.242,0
1486663980.651,33.203,31.738,34.668,72.754,58.105,0
1486663980.655,32.715,31.250,38.086,81.543,198.242,0
1486663980.659,21.484,28.809,38.086,44.434,42.480,0
1486663980.663,20.508,27.344,37.598,31.738,-85.938,0
1486663980.667,21.484,28.809,40.039,50.293,-66.895,0
1486663980.671,24.902,29.785,41.016,77.148,48.828,0
1486663980.675,32.227,30.762,37.109,83.496,200.195,0
1486663980.679,25.879,30.273,34.180,42.969,104.492,0
1486663980.682,26.367,31.250,37.109,31.738,-49.316,0
1486663980.686,28.320,29.297,39.062,49.805,-69.824,0
1486663980.690,32.227,32.227,39.062,75.195,30.762,0
1486663980.694,43.945,36.133,39.551,90.820,171.875,0
1486663980.698,36.621,31.738,41.016,54.199,101.562,0
1486663980.702,25.879,30.762,35.645,29.785,-18.066,0
1486663980.706,29.297,32.227,35.645,43.945,-9.766,0
1486663980.710,34.668,36.133,36.621,68.848,55.176,0
1486663980.714,37.598,36.621,30.273,78.613,208.496,0
1486663980.718,31.738,31.250,30.762,52.734,172.363,0
1486663980.722,29.785,32.227,35.156,33.203,-9.766,0
1486663980.725,30.273,35.156,33.203,35.156,-19.531,0
1486663980.729,34.668,35.645,34.668,60.059,41.504,0
1486663980.733,39.062,36.621,39.062,83.984,162.109,0
1486663980.737,31.738,35.645,39.062,50.293,182.129,0
1486663980.741,28.809,32.715,39.062,23.926,26.855,0
1486663980.745,24.902,30.273,38.574,35.156,-17.578,0
1486663980.749,17.090,30.762,37.598,51.758,31.738,0
1486663980.753,26.855,31.738,37.109,79.590,166.504,0
1486663980.757,31.250,30.273,35.645,66.895,205.566,0
1486663980.761,30.762,30.762,33.203,32.227,28.809,0
1486663980.765,32.715,31.738,32.715,34.668,-44.434,0
1486663980.768,28.320,31.250,35.156,58.594,-11.230,0
1486663980.772,44.922,34.180,34.180,86.914,133.301,0
1486663980.776,45.898,36.133,34.668,72.266,204.590,0
1486663980.780,30.762,33.691,37.109,35.645,60.059,0
1486663980.784,42.969,37.598,41.016,42.969,-49.805,0
1486663980.788,42.480,40.527,39.062,63.477,-23.926,0
1486663980.792,47.852,36.621,37.598,88.379,130.371,0
1486663980.796,54.199,36.133,40.527,79.102,198.242,0
1486663980.800,39.551,36.621,37.598,37.598,42.969,0
1486663980.804,34.668,33.203,36.621,37.598,-79.102,0
1486663980.807,35.645,34.180,36.621,59.570,-59.570,0
1486663980.811,41.504,35.645,40.039,87.891,84.473,0
1486663980.815,47.852,35.156,41.992,86.426,208.984,0
1486663980.819,38.574,32.715,40.527,47.363,41.992,0
1486663980.823,35.156,30.273,40.527,41.016,-86.426,0
1486663980.827,34.180,29.297,37.598,55.664,-30.273,0
1486663980.831,35.156,30.273,38.086,80.078,62.012,0
1486663980.835,48.340,32.715,42.969,90.332,136.719,0
1486663980.839,29.785,29.785,34.180,44.434,43.457,0
1486663980.843,24.414,27.832,28.809,26.855,-44.434,0
1486663980.847,37.598,31.738,33.691,50.781,-65.918,0
1486663980.850,38.574,35.156,32.715,73.242,37.109,0
1486663980.854,41.504,35.156,30.762,81.055,199.707,0
1486663980.858,33.203,34.180,32.227,48.828,95.215,0
1486663980.862,38.086,29.785,32.227,30.762,-46.875,0
1486663980.866,41.016,33.691,35.156,48.828,-25.879,0
1486663980.870,35.156,38.574,41.504,78.125,83.984,0
1486663980.874,46.387,33.691,42.480,92.285,176.758,0
1486663980.878,36.133,33.203,39.551,53.223,82.520,0
1486663980.882,29.785,32.715,37.109,31.738,-82.520,0
1486663980.886,35.156,32.227,37.598,43.945,-91.309,0
1486663980.890,29.297,35.156,39.062,61.035,23.438,0
1486663980.893,42.969,37.598,37.598,84.473,167.969,0
1486663980.897,40.527,35.156,36.621,58.594,151.855,0
1486663980.901,32.227,31.250,37.109,27.344,-13.672,0
1486663980.905,37.598,30.273,37.598,37.598,-64.941,0
1486663980.909,41.016,33.203,37.598,65.430,6.836,0
1486663980.913,45.410,34.668,37.598,87.891,168.945,0
1486663980.917,36.133,30.273,34.668,61.035,202.148,0
1486663980.921,27.832,25.879,31.738,31.250,21.973,0
1486663980.925,26.855,26.367,36.621,46.387,-85.938,0
1486663980.929,21.973,27.832,38.086,64.453,-38.086,0
1486663980.932,33.203,27.344,37.598,87.402,140.137,0
1486663980.936,38.086,25.879,39.062,75.195,181.641,0
1486663980.940,30.762,26.367,41.992,39.062,27.344,0
1486663980.944,32.227,27.344,40.527,45.898,-47.852,0
1486663980.948,30.762,29.785,40.039,64.941,-30.762,0
1486663980.952,36.621,30.762,40.527,89.355,101.562,0
1486663980.956,35.645,30.273,37.598,81.543,205.566,0
1486663980.960,27.344,26.855,37.598,43.457,70.312,0
1486663980.964,29.297,24.414,36.621,38.574,-52.246,0
1486663980.968,32.227,30.762,35.156,57.129,-56.152,0
1486663980.972,47.363,34.180,38.574,84.473,85.449,0
1486663980.975,44.922,33.203,38.574,77.148,150.879,0
1486663980.979,25.879,31.738,35.156,36.621,8.789,0
1486663980.983,28.809,28.809,33.203,30.762,-80.078,0
1486663980.987,32.227,31.250,36.621,46.875,-65.918,0
1486663980.991,39.551,34.180,41.504,80.566,79.590,0
1486663980.995,43.945,34.668,38.574,83.008,204.102,0
1486663980.999,28.320,32.715,33.691,38.574,62.500,0
1486663981.003,32.227,30.762,33.203,29.297,-60.547,0
1486663981.007,31.738,31.250,37.109,50.293,-67.383,0
1486663981.011,26.367,33.691,39.551,79.102,32.715,0
1486663981.014,34.668,31.738,37.598,86.914,187.012,0
1486663981.018,16.602,27.344,34.668,44.434,107.422,0
1486663981.022,9.766,26.855,33.203,25.879,-42.969,0
1486663981.026,27.344,30.762,35.156,45.410,-87.891,0
1486663981.030,23.926,31.738,39.551,70.801,51.758,0
1486663981.034,32.715,31.738,38.086,82.520,220.703,0
1486663981.038,34.180,30.762,36.133,49.316,146.484,0
1486663981.042,25.391,30.273,36.621,29.297,-5.859,0
1486663981.046,33.203,32.715,34.668,45.410,-48.340,0
1486663981.050,36.133,36.133,31.250,70.801,33.691,0
1486663981.054,43.945,35.645,31.738,88.379,210.449,0
1486663981.057,39.551,33.691,36.133,56.641,181.641,0
1486663981.061,39.062,31.738,34.668,30.762,39.062,0
1486663981.065,41.504,30.762,32.715,44.434,-25.879,0
1486663981.069,34.180,33.691,37.109,65.918,16.602,0
1486663981.073,41.016,34.180,37.109,90.332,163.574,0
1486663981.077,35.156,30.762,37.598,62.500,151.855,0
1486663981.081,26.367,30.273,36.133,26.855,24.414,0
1486663981.085,26.855,28.809,34.668,39.062,-14.648,0
1486663981.089,21.484,29.297,38.086,61.035,33.203,0
1486663981.093,29.785,33.203,39.551,84.961,150.391,0
1486663981.097,31.250,32.715,40.527,66.895,189.941,0
1486663981.100,20.508,29.297,37.109,31.250,23.438,0
1486663981.104,21.484,30.273,33.203,34.180,-80.078,0
1486663981.108,22.949,32.715,35.156,55.664,-20.996,0
1486663981.112,30.273,33.203,38.574,85.449,136.230,0
1486663981.116,32.227,31.250,35.645,68.848,207.520,0
1486663981.120,23.926,29.297,28.809,26.367,69.336,0
1486663981.124,25.879,30.273,29.297,29.297,-12.207,0
1486663981.128,20.996,32.227,32.715,47.363,18.066,0
1486663981.132,25.391,33.203,36.621,74.219,140.625,0
1486663981.136,32.227,33.203,35.645,65.430,214.844,0
1486663981.139,30.762,28.809,31.250,29.785,69.336,0
1486663981.143,31.250,27.832,32.227,37.109,-58.594,0
1486663981.147,27.344,31.250,34.180,55.176,-36.133,0
1486663981.151,31.738,32.227,34.668,79.102,103.027,0
1486663981.155,34.668,31.738,34.180,78.125,208.008,0
1486663981.159,28.320,29.785,32.715,32.715,78.125,0
1486663981.163,32.227,28.809,33.203,27.344,-67.871,0
1486663981.167,23.438,26.367,36.133,45.898,-39.062,0
1486663981.171,27.832,28.320,37.598,75.684,86.426,0
1486663981.175,40.527,27.832,37.598,80.566,215.332,0
1486663981.179,23.438,25.391,36.621,36.621,120.605,0
1486663981.182,19.043,25.879,34.180,32.715,-23.438,2
1486663981.186,26.855,30.762,41.016,51.758,-22.461,0
1486663981.190,29.297,34.180,44.922,80.078,89.844,0
1486663981.194,40.039,34.668,37.109,85.449,251.465,0
1486663981.198,27.344,31.738,33.691,34.668,125.977,0
1486663981.202,23.926,31.250,34.180,19.531,-39.551,0
1486663981.206,30.273,32.227,33.203,39.551,-76.660,0
1486663981.210,32.227,33.691,38.086,69.824,-22.461,0
1486663981.214,45.410,35.156,39.062,86.426,157.715,0
1486663981.218,35.645,34.668,33.691,42.480,106.934,0
1486663981.222,25.391,35.156,33.203,20.508,-57.129,0
1486663981.225,27.832,33.203,34.668,39.062,-83.496,0
1486663981.229,28.320,37.109,33.203,60.547,-9.277,0
1486663981.233,36.133,40.527,29.297,75.195,143.555,0
1486663981.237,25.391,35.156,31.738,47.363,139.160,0
1486663981.241,18.066,34.180,33.691,23.926,-47.852,0
1486663981.245,18.555,34.668,33.691,34.668,-114.258,0
1486663981.249,25.391,35.156,35.156,63.965,7.812,0
1486663981.253,39.062,37.598,36.621,90.820,169.922,0
1486663981.257,41.016,34.180,37.598,68.848,142.090,0
1486663981.261,33.203,30.273,37.109,34.668,2.930,0
1486663981.264,30.762,31.738,38.574,37.598,-42.969,0
1486663981.268,32.227,34.180,36.621,63.477,-24.414,0
1486663981.272,41.504,36.133,35.156,91.309,128.906,0
1486663981.276,37.109,34.668,34.668,74.707,213.379,0
1486663981.280,35.645,35.156,33.691,43.457,32.227,0
1486663981.284,45.410,36.621,38.574,54.199,-41.016,0
1486663981.288,38.086,38.086,42.969,70.312,2.930,0
1486663981.292,44.434,39.062,42.480,91.797,103.027,0
1486663981.296,47.363,36.621,40.527,81.543,185.059,0
1486663981.300,28.320,30.762,35.645,33.691,33.691,0
1486663981.304,21.484,28.809,33.203,32.715,-105.957,0
1486663981.307,22.461,35.645,35.156,54.199,-81.543,0
1486663981.311,32.715,34.668,39.551,84.961,63.965,0
1486663981.315,38.574,32.227,38.574,77.148,167.969,0
1486663981.319,23.926,30.762,33.203,34.668,5.371,0
1486663981.323,28.809,27.832,32.227,38.086,-90.332,0
1486663981.327,33.691,34.668,33.691,53.223,-34.180,0
1486663981.331,34.180,40.039,31.738,79.590,85.449,0
1486663981.335,44.434,38.086,31.250,83.008,178.711,0
1486663981.339,35.156,32.715,32.715,43.457,35.156,0
1486663981.343,28.809,30.273,31.250,40.039,-53.711,0
1486663981.346,35.156,34.180,34.668,55.664,-40.527,0
1486663981.350,41.016,37.598,42.969,82.520,60.059,0
1486663981.354,47.363,40.039,41.504,91.309,208.496,0
1486663981.358,33.691,38.086,35.645,48.828,129.395,0
1486663981.362,28.320,32.227,37.598,35.156,-22.949,0
1486663981.366,28.809,33.203,35.156,46.875,-28.809,0
1486663981.370,27.832,38.086,35.156,68.359,41.992,0
1486663981.374,34.180,36.133,38.086,83.984,173.828,0
1486663981.378,34.668,32.715,38.086,50.781,134.766,0
1486663981.382,29.297,32.227,35.156,27.344,-24.902,0
1486663981.386,21.973,31.250,31.738,35.156,-41.504,0
1486663981.389,26.367,32.715,32.227,53.711,50.781,0
1486663981.393,41.016,34.180,33.203,76.660,161.133,0
1486663981.397,31.738,32.715,32.227,42.969,118.164,0
1486663981.401,25.391,28.809,30.762,8.789,-15.625,0
1486663981.405,40.039,32.715,27.344,22.461,-72.266,0
1486663981.409,37.598,37.598,26.855,44.434,-11.230,0
1486663981.413,48.828,35.645,33.203,76.172,144.043,0
1486663981.417,44.922,34.180,36.621,59.570,172.363,0
1486663981.421,27.832,31.250,37.109,22.949,8.789,0
1486663981.425,32.227,29.297,37.109,45.410,-48.828,0
1486663981.429,30.273,30.273,38.086,75.684,56.641,0
1486663981.432,31.250,28.809,39.062,85.938,171.387,0
1486663981.436,28.809,29.297,38.086,64.453,143.555,0
1486663981.440,19.043,28.320,37.598,34.180,-3.906,0
1486663981.444,18.555,25.391,39.551,43.945,-40.039,0
1486663981.448,10.742,27.344,41.992,56.152,-1.953,0
1486663981.452,21.484,29.785,45.410,80.566,123.047,0
1486663981.456,22.461,30.762,41.016,69.336,217.285,0
1486663981.460,7.324,28.809,38.086,23.926,65.430,0
1486663981.464,14.160,28.809,41.504,28.809,-70.801,0
1486663981.468,9.766,33.203,37.109,48.828,-51.758,0
1486663981.471,15.137,37.109,38.086,71.289,105.469,0
1486663981.475,32.227,33.691,37.598,76.660,196.777,0
1486663981.479,23.926,28.320,30.762,39.551,117.188,0
1486663981.483,13.672,26.367,32.715,21.973,31.738,0
1486663981.487,14.160,27.832,37.598,44.922,2.930,0
1486663981.491,21.484,29.785,36.621,72.754,101.074,0
1486663981.495,35.645,27.344,33.691,74.707,209.473,0
1486663981.499,34.180,27.344,34.180,38.574,84.961,0
1486663981.503,24.902,27.344,33.691,23.438,-67.871,0
1486663981.507,28.809,31.250,33.203,47.363,-52.734,0
1486663981.511,34.668,36.133,35.156,78.613,57.129,0
1486663981.514,39.062,30.273,34.180,81.055,171.387,0
1486663981.518,21.973,24.414,31.250,41.016,88.379,0
1486663981.522,19.531,24.902,33.691,32.715,-42.480,0
1486663981.526,22.949,26.367,34.668,46.875,-72.754,0
1486663981.530,25.391,29.785,38.574,73.730,6.348,0
1486663981.534,38.574,29.785,43.945,89.355,165.527,0
1486663981.538,21.973,27.344,36.621,45.410,100.586,0
1486663981.542,14.648,25.391,35.156,28.320,-70.312,0
1486663981.546,17.578,24.414,38.574,48.340,-71.289,0
1486663981.550,20.996,28.809,36.133,71.289,14.160,0
1486663981.553,29.785,26.855,36.621,83.496,171.875,0
1486663981.557,25.391,22.461,35.645,48.340,159.180,0
1486663981.561,18.066,24.414,33.203,25.391,-11.230,0
1486663981.565,13.672,26.367,34.668,37.109,-52.734,0
1486663981.569,16.602,30.273,40.039,57.617,18.555,0
1486663981.573,32.227,32.227,45.898,80.078,125.000,0
1486663981.577,33.203,27.832,42.969,58.105,131.836,0
1486663981.581,25.879,25.879,36.133,29.297,-9.766,0
1486663981.585,28.320,26.367,37.598,44.434,-101.562,0
1486663981.589,26.855,28.320,37.598,64.941,-40.039,0
1486663981.593,37.598,31.738,38.086,83.984,146.973,0
1486663981.596,35.156,31.738,38.086,66.406,180.176,0
1486663981.600,27.344,28.809,33.691,35.156,-40.039,0
1486663981.604,33.203,29.297,33.691,39.551,-95.703,0
1486663981.608,30.762,32.227,36.621,57.129,-12.695,0
1486663981.612,45.410,30.762,37.109,89.355,106.445,0
1486663981.616,46.875,30.762,37.598,71.289,142.578,0
1486663981.620,30.762,30.273,35.645,27.832,6.836,0
1486663981.624,35.156,28.320,33.691,38.574,-107.422,0
1486663981.628,29.785,31.250,38.086,57.617,-87.891,0
1486663981.632,44.922,34.668,36.133,82.520,105.957,0
1486663981.636,49.316,33.203,31.738,76.172,166.016,0
1486663981.639,31.250,32.227,30.762,37.109,-0.488,0
1486663981.643,37.598,33.203,32.715,37.109,-70.312,0
1486663981.647,35.156,36.621,35.156,56.641,-41.016,0
1486663981.651,49.805,37.109,39.062,80.566,82.520,0
1486663981.655,52.734,34.180,40.039,73.730,189.453,0
1486663981.659,35.645,34.180,36.133,41.504,50.781,0
1486663981.663,41.504,33.691,35.156,35.645,-32.227,0
1486663981.667,38.574,33.691,40.039,48.340,-19.043,0
1486663981.671,40.527,35.156,42.969,79.102,103.027,0
1486663981.675,52.246,34.180,39.062,88.867,201.172,0
1486663981.678,41.016,28.320,34.668,48.340,29.785,0
1486663981.682,32.227,26.367,33.203,35.645,-80.078,0
1486663981.686,33.203,31.250,32.715,50.781,-52.734,0
1486663981.690,43.457,33.203,35.156,79.102,76.660,0
1486663981.694,52.246,34.180,35.645,89.844,208.496,0
1486663981.698,37.598,31.738,32.715,46.875,112.793,0
1486663981.702,39.551,29.785,32.715,40.527,-20.996,0
1486663981.706,39.062,32.227,34.180,56.152,-41.504,0
1486663981.710,33.691,33.691,36.621,77.637,64.941,0
1486663981.714,44.434,31.738,37.109,99.609,216.309,0
1486663981.718,34.668,31.250,32.715,59.570,106.934,0
1486663981.721,29.297,31.250,30.762,37.598,-55.176,0
1486663981.725,35.156,32.715,31.250,52.734,-40.039,0
1486663981.729,36.133,38.086,27.832,68.359,41.992,0
1486663981.733,40.527,37.109,25.391,83.008,188.965,0
1486663981.737,30.762,31.738,25.879,51.270,127.441,1
1486663981.741,24.414,30.273,29.297,19.043,-48.340,0
1486663981.745,29.785,27.344,33.203,34.180,-35.156,0
1486663981.749,33.691,29.297,33.691,65.430,25.879,0
1486663981.753,47.852,34.180,38.574,89.355,163.086,0
1486663981.757,41.992,28.809,41.504,67.383,171.387,0
1486663981.761,35.645,26.367,33.691,31.250,6.348,0
1486663981.764,44.434,28.320,30.762,35.156,-37.598,0
1486663981.768,38.086,32.715,34.180,64.453,-9.277,0
1486663981.772,47.363,36.621,34.180,91.309,162.598,0
1486663981.776,37.109,34.668,34.668,66.895,195.312,0
1486663981.780,25.879,29.785,36.621,34.668,-13.672,0
1486663981.784,33.691,28.320,41.992,46.875,-50.293,0
1486663981.788,32.227,33.691,45.410,62.988,-16.113,0
1486663981.792,43.945,37.598,41.992,89.844,128.906,0
1486663981.796,51.758,39.551,41.992,80.078,214.355,0
1486663981.800,39.551,35.156,43.945,40.039,32.715,0
1486663981.803,37.109,31.738,37.598,35.156,-74.219,0
1486663981.807,34.180,36.621,34.180,47.363,-46.387,0
1486663981.811,41.016,38.086,37.109,79.590,117.188,0
1486663981.815,48.340,36.621,34.668,71.289,202.148,0
1486663981.819,32.715,34.668,28.809,19.531,59.570,0
1486663981.823,36.621,31.738,30.273,24.414,-40.039,0
1486663981.827,37.109,33.691,34.180,49.316,-49.316,0
1486663981.831,34.180,35.645,35.156,77.148,82.520,0
1486663981.835,36.621,33.691,32.715,72.266,205.566,0
1486663981.839,20.508,32.227,29.785,26.367,64.941,0
1486663981.843,20.996,34.180,29.297,19.531,-41.992,0
1486663981.846,24.414,35.645,31.738,38.574,-26.855,0
1486663981.850,27.344,38.086,33.203,66.406,82.520,0
1486663981.854,43.457,38.574,39.062,79.102,203.613,0
1486663981.858,41.992,33.203,43.457,50.781,75.684,0
1486663981.862,33.691,31.738,37.598,35.645,-68.359,0
1486663981.866,28.320,36.621,34.668,49.316,-41.992,0
1486663981.870,39.551,41.016,36.133,83.008,67.871,0
1486663981.874,54.199,38.574,35.645,96.191,175.781,0
1486663981.878,39.551,36.621,32.715,51.270,94.727,0
1486663981.882,30.273,33.691,30.762,28.809,-43.457,0
1486663981.885,28.320,29.785,34.180,40.039,-47.852,0
1486663981.889,20.996,33.691,32.715,58.105,45.898,0
1486663981.893,33.203,34.180,31.250,75.195,207.031,0
1486663981.897,31.738,32.227,30.762,41.992,143.066,0
1486663981.901,23.926,30.273,27.344,12.695,4.395,0
1486663981.905,17.578,32.715,26.367,24.414,-24.902,0
1486663981.909,14.648,34.180,29.785,53.223,25.391,0
1486663981.913,33.203,33.691,31.250,72.754,181.152,0
1486663981.917,28.809,30.762,30.273,43.945,168.945,0
1486663981.921,20.020,28.320,29.297,23.438,21.484,0
1486663981.925,27.832,28.320,31.250,37.598,-10.742,0
1486663981.928,28.809,30.762,36.621,60.547,32.715,0
1486663981.932,42.480,32.715,38.086,93.750,194.824,0
1486663981.936,40.527,32.715,33.691,73.242,225.098,0
1486663981.940,27.832,29.785,29.297,33.691,39.062,0
1486663981.944,34.668,28.320,29.785,45.898,-21.973,0
1486663981.948,27.832,31.250,32.715,69.336,7.812,0
1486663981.952,34.180,30.273,35.156,89.355,154.785,0
1486663981.956,45.410,26.367,35.645,74.219,228.516,0
1486663981.960,33.203,25.391,33.203,38.574,63.477,0
1486663981.964,30.762,24.414,30.762,42.969,-71.777,0
1486663981.968,29.785,26.855,35.645,60.059,-62.500,0
1486663981.971,36.133,29.785,37.598,85.938,116.211,0
1486663981.975,42.480,25.879,36.621,76.172,178.223,0
1486663981.979,28.809,22.949,37.109,31.738,9.766,0
1486663981.983,32.227,24.414,35.645,34.668,-60.547,0
1486663981.987,33.203,28.320,37.598,59.570,-27.832,0
1486663981.991,35.645,30.273,38.086,84.473,99.609,0
1486663981.995,41.504,27.832,36.133,79.590,179.688,0
1486663981.999,21.484,23.438,36.621,38.086,52.246,0
1486663982.003,21.973,21.973,36.133,27.344,-44.434,0
1486663982.007,27.832,24.902,37.109,47.363,-0.977,0
1486663982.010,33.691,28.809,39.551,74.219,120.605,0
1486663982.014,43.945,30.273,40.039,78.125,227.539,0
1486663982.018,38.574,29.785,35.645,38.574,98.145,0
1486663982.022,37.109,27.832,33.203,28.320,-53.711,0
1486663982.026,36.133,29.297,35.156,48.340,-44.922,0
1486663982.030,42.480,32.227,36.621,78.125,62.988,0
1486663982.034,38.086,32.227,36.133,86.426,224.121,0
1486663982.038,20.508,28.320,37.109,46.875,132.324,0
1486663982.042,28.320,26.367,37.598,36.133,-52.246,0
1486663982.046,33.203,26.855,38.086,56.641,-52.246,0
1486663982.050,32.227,29.785,38.574,80.078,56.641,0
1486663982.053,47.363,33.691,38.086,96.680,183.105,0
1486663982.057,34.180,31.250,34.668,56.152,94.727,0
1486663982.061,14.160,27.832,29.785,26.855,-56.641,0
1486663982.065,27.344,32.227,31.250,46.875,-53.223,0
1486663982.069,25.879,30.762,34.180,66.406,31.250,0
1486663982.073,27.344,30.273,34.668,81.543,180.664,0
1486663982.077,33.203,34.668,32.715,60.059,119.629,0
1486663982.081,28.809,28.809,32.715,31.250,-34.668,0
1486663982.085,30.273,27.344,34.668,41.016,-50.293,0
1486663982.089,29.297,32.715,33.203,62.500,-27.832,0
1486663982.093,41.016,34.180,35.156,83.008,122.070,0
1486663982.096,41.992,32.227,34.668,60.547,145.996,0
1486663982.100,28.809,25.879,33.691,24.414,6.348,0
1486663982.104,30.273,24.902,34.668,35.645,-66.895,0
1486663982.108,31.250,27.344,34.180,60.059,-29.297,0
1486663982.112,38.574,26.855,36.621,82.031,122.559,0
1486663982.116,39.062,27.344,36.133,62.988,160.645,0
1486663982.120,36.621,27.832,32.715,34.180,1.465,0
1486663982.124,33.691,29.785,33.203,45.898,-74.219,0
1486663982.128,21.484,31.250,33.691,55.176,-20.996,0
1486663982.132,32.227,31.738,33.691,80.566,121.582,0
1486663982.135,45.410,31.738,32.715,75.684,187.988,0
1486663982.139,22.949,29.297,34.180,33.691,61.035,0
1486663982.143,18.555,28.809,37.598,39.062,-37.109,0
1486663982.147,27.832,33.203,38.086,60.547,-3.906,0
1486663982.151,35.156,33.691,41.992,84.961,151.367,0
1486663982.155,41.992,32.227,41.992,82.031,208.496,0
1486663982.159,28.809,30.762,34.668,40.527,44.434,0
1486663982.163,32.715,26.367,37.109,41.992,-68.359,0
1486663982.167,37.109,31.250,39.551,63.965,-29.785,0
1486663982.171,39.062,34.668,39.062,87.891,100.586,0
1486663982.175,43.457,28.320,37.598,83.984,217.773,0
1486663982.178,33.691,25.391,35.645,34.668,87.891,0
1486663982.182,29.785,25.879,33.691,23.926,-46.387,0
1486663982.186,33.691,27.344,29.785,45.898,-33.691,0
1486663982.190,37.598,28.320,30.762,77.148,73.730,0
1486663982.194,50.293,28.320,32.715,81.543,237.305,0
1486663982.198,39.062,27.832,30.273,41.992,102.539,0
1486663982.202,29.785,29.297,31.250,35.645,-50.781,0
1486663982.206,32.715,29.785,35.156,57.129,-45.410,0
1486663982.210,35.645,31.250,38.086,84.473,53.711,0
1486663982.214,45.898,34.180,37.598,92.773,192.383,0
1486663982.217,36.621,36.621,37.109,54.688,94.727,0
1486663982.221,37.598,35.156,38.574,43.457,-62.012,0
1486663982.225,37.109,34.668,38.574,58.594,-59.570,0
1486663982.229,36.133,36.621,40.527,81.543,9.277,0
1486663982.233,43.945,36.621,39.551,98.633,145.996,0
1486663982.237,31.738,32.227,37.109,62.500,144.531,0
1486663982.241,27.344,28.809,35.156,36.133,-26.855,0
1486663982.245,27.832,30.762,34.180,49.316,-68.359,0
1486663982.249,24.902,32.227,36.621,70.312,38.086,0
1486663982.253,41.016,33.691,37.598,88.379,167.969,0
1486663982.257,34.668,33.203,34.180,57.129,165.527,0
1486663982.260,30.762,32.227,30.273,28.809,7.324,0
1486663982.264,34.180,32.227,30.273,43.457,-59.082,0
1486663982.268,23.438,31.250,34.668,64.941,10.254,0
1486663982.272,46.875,30.762,38.574,93.262,149.902,0
1486663982.276,53.711,35.156,36.621,66.895,164.062,0
1486663982.280,38.574,34.180,34.668,19.531,12.207,0
1486663982.284,50.781,33.691,35.156,35.156,-52.246,0
1486663982.288,49.805,37.598,34.668,57.129,-7.324,0
1486663982.292,48.340,37.109,33.203,79.590,147.949,0
1486663982.296,51.270,36.621,31.738,73.242,199.219,1
1486663982.300,36.133,36.621,32.715,42.969,52.734,0
1486663982.303,40.039,36.133,33.691,44.922,-43.945,0
1486663982.307,41.504,39.551,35.156,61.035,-35.645,0
1486663982.311,38.574,38.574,39.062,88.379,131.348,0
1486663982.315,37.598,33.691,40.039,77.148,206.543,0
1486663982.319,28.809,29.297,41.016,40.039,31.738,0
1486663982.323,25.879,26.367,40.527,41.504,-52.734,0
1486663982.327,27.344,31.738,38.574,56.641,-48.340,0
1486663982.331,34.180,37.109,41.016,83.496,68.848,0
1486663982.335,42.480,34.180,42.480,80.078,202.637,0
1486663982.339,36.133,32.715,40.527,46.387,50.293,0
1486663982.342,31.250,30.273,37.598,41.504,-87.402,0
1486663982.346,28.809,28.809,38.574,51.270,-80.566,0
1486663982.350,28.320,31.250,38.086,77.637,52.246,0
1486663982.354,41.992,29.297,35.156,82.520,185.547,0
1486663982.358,37.598,28.809,34.180,44.434,52.734,0
1486663982.362,37.109,27.832,34.180,40.039,-61.035,0
1486663982.366,32.227,29.297,33.691,54.688,-12.207,0
1486663982.370,28.320,30.762,33.691,70.312,100.586,0
1486663982.374,44.434,31.250,34.668,80.566,186.523,0
1486663982.378,26.855,29.297,31.738,38.086,64.941,0
1486663982.382,20.020,26.855,28.320,23.926,-57.617,0
1486663982.385,25.391,27.832,32.715,43.945,-63.965,0
1486663982.389,21.484,30.762,39.551,66.406,52.246,0
1486663982.393,40.527,30.762,41.016,85.449,201.660,0
1486663982.397,34.180,28.809,39.062,50.781,98.633,0
1486663982.401,28.809,27.344,37.598,33.203,-53.711,0
1486663982.405,36.621,28.320,38.086,52.734,-62.500,0
1486663982.409,35.645,34.668,40.039,77.637,-13.672,0
1486663982.413,41.504,34.668,37.598,96.680,165.527,0
1486663982.417,44.434,31.738,33.691,62.500,147.461,0
1486663982.421,36.621,30.273,32.227,34.180,-23.438,0
1486663982.425,32.715,29.785,33.691,49.316,-76.660,0
1486663982.428,30.762,34.180,35.645,71.289,-30.273,0
1486663982.432,38.574,35.156,37.598,91.309,166.016,0
1486663982.436,34.668,32.227,36.621,62.012,185.547,0
1486663982.440,22.461,34.180,34.180,28.320,9.277,0
1486663982.444,25.391,35.645,35.156,34.180,-70.801,0
1486663982.448,20.996,34.180,36.133,52.734,-50.781,0
1486663982.452,34.180,32.227,37.598,74.219,154.785,0
1486663982.456,33.691,30.762,38.574,58.105,196.289,0
1486663982.460,22.949,28.809,39.062,30.762,-13.184,0
1486663982.464,27.344,27.832,39.551,36.621,-74.219,0
1486663982.467,25.391,30.273,37.598,60.547,-6.836,0
1486663982.471,38.086,31.250,36.133,86.914,143.066,0
1486663982.475,51.758,32.715,34.180,79.102,167.480,0
1486663982.479,46.387,33.691,32.715,45.410,-19.043,0
1486663982.483,41.504,32.715,36.621,47.363,-82.031,0
1486663982.487,45.898,34.180,35.645,72.754,-30.762,0
1486663982.491,51.270,35.156,36.133,96.680,108.398,0
1486663982.495,56.641,32.715,40.039,88.379,216.309,0
1486663982.499,47.852,30.273,37.598,50.781,48.340,0
1486663982.503,44.922,29.785,36.621,49.805,-68.359,0
1486663982.507,34.180,31.250,37.109,64.453,-7.324,0
1486663982.510,34.180,31.250,39.551,81.543,97.168,0
1486663982.514,40.039,29.785,39.551,77.637,156.250,0
1486663982.518,15.625,26.367,35.645,31.738,52.734,0
1486663982.522,10.742,26.367,33.203,18.555,-63.965,0
1486663982.526,15.625,32.715,30.762,40.527,-79.590,0
1486663982.530,16.602,31.738,33.691,62.012,47.363,0
1486663982.534,28.320,28.320,35.156,69.824,194.824,0
1486663982.538,20.508,27.832,32.227,35.645,131.348,0
1486663982.542,21.973,27.832,31.738,17.578,2.930,0
1486663982.546,29.297,28.320,34.180,36.621,-80.078,0
1486663982.549,25.879,27.832,37.598,66.406,25.391,0
1486663982.553,45.410,28.320,42.480,89.844,221.191,0
1486663982.557,36.621,26.367,41.016,55.176,113.770,0
1486663982.561,34.668,25.391,38.086,40.039,11.719,0
1486663982.565,44.922,27.832,37.598,56.641,17.578,0
1486663982.569,45.410,32.227,35.645,69.336,64.941,0
1486663982.573,45.898,30.273,31.738,83.984,197.754,0
1486663982.577,37.109,23.438,31.250,61.035,218.262,0
1486663982.581,29.297,21.973,31.250,29.297,54.688,0
1486663982.585,20.996,23.438,33.203,25.879,-65.918,0
1486663982.589,20.020,26.367,32.227,49.805,26.855,0
1486663982.592,32.715,28.809,33.203,69.336,146.973,0
1486663982.596,37.598,25.879,36.133,60.547,175.781,0
1486663982.600,25.391,23.438,33.203,30.273,43.945,0
1486663982.604,17.578,27.344,32.227,22.461,-106.445,0
1486663982.608,18.555,30.273,40.039,48.340,-118.164,0
1486663982.612,28.809,32.227,42.480,78.613,70.801,0
1486663982.616,28.809,29.785,38.574,60.059,140.625,0
1486663982.620,18.066,23.926,38.574,25.391,-35.645,0
1486663982.624,21.973,27.344,37.598,33.691,-86.426,0
1486663982.628,20.996,30.762,39.062,59.082,-28.809,0
1486663982.632,38.574,32.227,39.551,89.355,133.301,0
1486663982.635,40.527,29.785,38.574,79.590,160.156,0
1486663982.639,19.043,26.367,36.621,42.969,-9.277,0
1486663982.643,23.438,25.879,35.645,43.945,-87.891,0
1486663982.647,24.414,26.367,35.645,59.082,-50.781,0
1486663982.651,37.109,29.785,35.156,83.008,87.402,0
1486663982.655,47.852,32.227,36.621,82.520,167.480,0
1486663982.659,41.016,30.273,35.156,42.480,45.898,0
1486663982.663,31.250,29.297,35.156,30.273,-83.984,0
1486663982.667,23.438,31.250,34.668,44.922,-96.680,0
1486663982.671,33.203,33.691,35.645,72.266,33.691,0
1486663982.674,35.645,33.203,36.133,74.219,158.691,0
1486663982.678,20.996,29.297,37.109,34.180,28.809,0
1486663982.682,24.902,25.391,36.133,27.832,-96.680,0
1486663982.686,26.367,28.809,37.109,47.852,-64.941,0
1486663982.690,28.809,31.738,38.574,73.242,64.941,0
1486663982.694,41.504,31.250,37.598,79.590,204.590,0
1486663982.698,25.391,29.297,38.086,41.992,95.703,0
1486663982.702,27.344,32.227,38.574,35.645,-54.199,0
1486663982.706,40.039,36.133,40.039,60.547,-57.617,0
1486663982.710,35.156,33.691,34.668,82.520,65.430,0
1486663982.714,37.109,28.320,32.715,87.402,206.055,0
1486663982.717,30.273,28.320,34.668,49.805,121.094,0
1486663982.721,28.809,28.809,30.762,30.762,-27.832,0
1486663982.725,32.227,31.738,31.250,41.016,-39.551,0
1486663982.729,33.691,32.715,37.109,62.012,83.496,0
1486663982.733,40.527,29.785,38.086,78.613,221.680,0
1486663982.737,34.180,27.344,34.180,49.316,149.902,0
1486663982.741,31.738,28.320,33.203,28.320,-8.789,0
1486663982.745,34.668,29.785,34.668,43.945,-10.254,0
1486663982.749,39.551,30.273,37.598,71.289,90.332,0
1486663982.753,50.781,33.691,38.574,94.727,202.148,0
1486663982.757,44.434,34.668,33.691,62.012,150.391,0
1486663982.760,33.691,32.227,28.809,30.273,-23.926,0
1486663982.764,33.203,33.691,28.809,42.969,-105.957,0
1486663982.768,33.203,37.109,34.668,66.895,-24.902,0
1486663982.772,42.480,38.086,36.133,95.703,149.902,0
1486663982.776,40.039,33.203,33.691,65.918,138.184,0
1486663982.780,29.297,26.855,35.645,30.762,-26.367,0
1486663982.784,25.391,29.297,39.062,42.480,-67.871,0
1486663982.788,25.879,31.738,39.062,58.594,-31.738,0
1486663982.792,32.715,29.785,38.574,89.355,143.555,0
1486663982.796,41.016,31.738,41.504,75.684,161.133,0
1486663982.799,39.551,31.250,38.574,36.621,-9.766,0
1486663982.803,34.668,28.809,39.551,42.969,-56.152,0
1486663982.807,31.250,29.785,43.457,63.477,-33.691,0
1486663982.811,35.156,30.762,39.551,83.008,104.980,0
1486663982.815,35.645,29.297,34.180,63.965,185.547,0
1486663982.819,23.438,26.855,27.344,26.367,29.297,0
1486663982.823,26.855,30.273,29.297,20.996,-59.570,0
1486663982.827,30.762,35.645,35.156,41.504,-24.902,0
1486663982.831,42.480,36.133,32.227,77.637,118.164,0
1486663982.835,45.898,35.645,28.809,69.824,197.754,0
1486663982.839,32.227,30.273,30.762,30.273,66.406,0
1486663982.842,39.062,29.785,30.762,36.133,-39.062,0
1486663982.846,31.738,31.250,31.738,53.711,-74.707,0
1486663982.850,34.180,30.273,38.574,88.867,77.148,0
1486663982.854,38.574,31.738,36.621,94.238,215.332,0
1486663982.858,23.926,29.297,33.203,45.898,73.730,0
1486663982.862,27.832,24.902,34.668,39.551,-31.738,0
1486663982.866,17.090,27.344,34.180,47.852,-27.832,0
1486663982.870,12.695,28.809,36.133,70.312,80.078,0
1486663982.874,26.855,27.344,39.062,83.984,205.566,0
1486663982.878,18.555,26.855,35.156,41.016,76.172,0
1486663982.881,20.508,27.344,34.668,26.367,-51.270,0
1486663982.885,20.996,28.809,38.086,48.828,-70.801,0
1486663982.889,30.762,32.715,36.621,79.102,25.391,0
1486663982.893,48.340,33.203,35.156,98.145,195.312,0
1486663982.897,32.227,30.762,32.715,49.805,102.051,0
1486663982.901,21.973,28.320,30.762,22.461,-37.109,0
1486663982.905,24.902,29.297,32.227,40.039,-53.223,0
1486663982.909,21.973,34.180,34.180,56.152,8.789,0
1486663982.913,32.715,35.156,35.645,75.195,166.016,0
1486663982.917,30.762,31.250,35.645,44.922,121.094,0
1486663982.921,21.973,29.785,35.645,16.602,-44.434,0
1486663982.924,26.855,30.273,36.621,39.551,-77.148,0
1486663982.928,22.461,32.227,39.062,65.918,37.598,0
1486663982.932,34.180,34.180,40.039,83.008,219.238,0
1486663982.936,40.039,31.738,37.109,60.547,144.043,0
1486663982.940,31.250,27.832,34.668,30.273,-52.734,0
1486663982.944,32.715,28.809,34.668,43.945,-83.496,0
1486663982.948,31.250,31.738,33.691,64.941,-7.324,0
1486663982.952,36.621,32.227,32.715,82.031,142.578,0
1486663982.956,45.410,33.203,30.273,64.453,136.230,0
1486663982.960,38.086,32.227,29.297,32.715,-21.484,0
1486663982.964,33.203,33.203,33.691,40.039,-81.543,0
1486663982.967,40.527,34.668,33.691,62.500,-28.809,0
1486663982.971,50.293,31.250,33.203,92.285,126.953,0
1486663982.975,46.387,28.809,33.691,80.566,197.266,1
1486663982.979,32.715,26.855,35.645,40.039,39.551,0
1486663982.983,29.297,25.391,40.039,42.969,-78.613,0
1486663982.987,24.902,26.855,43.457,64.941,-63.965,0
1486663982.991,27.344,29.785,44.434,86.914,74.707,0
1486663982.995,30.762,29.297,44.434,76.660,151.855,0
1486663982.999,19.043,25.391,44.922,40.039,2.441,0
1486663983.003,19.531,24.414,41.016,35.156,-95.215,0
1486663983.006,21.484,30.273,38.086,48.828,-58.105,0
1486663983.010,29.785,34.180,38.086,72.266,94.238,0
1486663983.014,35.645,28.809,32.715,67.383,195.312,0
1486663983.018,22.461,25.391,33.203,25.391,51.270,0
1486663983.022,28.809,29.297,34.180,21.973,-63.477,0
1486663983.026,34.668,34.180,30.273,45.898,-37.598,0
1486663983.030,35.645,35.645,32.715,69.824,85.938,0
1486663983.034,44.922,33.691,33.203,76.172,176.758,0
1486663983.038,34.668,31.250,29.785,41.504,27.832,0
1486663983.042,26.855,30.273,29.785,25.391,-70.801,0
1486663983.046,33.691,30.762,31.738,43.457,-33.691,0
1486663983.049,39.062,36.133,33.203,74.219,40.039,0
1486663983.053,41.504,35.156,36.621,90.332,204.102,0
1486663983.057,37.598,27.344,37.109,56.641,99.121,0
1486663983.061,28.809,25.879,33.691,37.109,-94.727,0
1486663983.065,21.973,26.855,37.598,54.199,-70.801,0
1486663983.069,24.902,28.320,39.062,76.172,32.715,0
1486663983.073,29.297,28.320,35.645,89.355,191.406,0
1486663983.077,23.438,25.879,38.086,55.176,136.719,0
1486663983.081,29.297,25.391,38.086,28.809,-29.297,0
1486663983.085,35.156,30.273,34.668,37.598,-55.664,0
1486663983.089,28.809,32.227,37.109,62.988,18.066,0
1486663983.092,42.480,31.250,40.527,85.938,156.738,0
1486663983.096,34.668,31.738,36.133,52.734,162.598,0
1486663983.100,32.715,28.809,31.738,30.762,-0.488,0
1486663983.104,41.504,29.785,33.203,47.363,-68.848,0
1486663983.108,46.875,35.156,34.668,76.172,5.371,0
1486663983.112,55.176,35.156,32.227,99.121,153.809,0
1486663983.116,46.387,32.227,31.250,67.383,151.367,0
1486663983.120,40.039,29.297,35.156,37.598,-2.441,0
1486663983.124,49.316,31.738,33.691,47.852,-41.504,0
1486663983.128,38.574,32.227,34.668,58.594,27.832,0
1486663983.131,39.551,30.762,39.551,86.914,151.367,0
1486663983.135,43.457,29.297,36.621,75.684,178.711,0
1486663983.139,32.715,26.855,34.180,35.645,-1.953,0
1486663983.143,37.109,28.320,34.180,37.109,-84.961,0
1486663983.147,32.715,31.250,33.691,56.152,-0.977,0
1486663983.151,39.062,32.715,35.645,80.078,159.668,0
1486663983.155,37.109,29.785,33.691,60.059,219.727,0
1486663983.159,24.414,28.809,30.762,16.602,66.895,0
1486663983.163,30.273,28.320,31.250,20.996,-39.062,0
1486663983.167,27.832,30.273,35.156,37.598,-35.156,0
1486663983.171,37.109,34.668,38.574,67.383,126.465,0
1486663983.174,49.805,34.180,37.598,74.707,197.754,0
1486663983.178,31.738,26.367,33.691,30.762,17.578,0
1486663983.182,28.320,26.855,30.762,31.250,-39.551,0
1486663983.186,40.039,31.738,35.156,60.547,16.113,0
1486663983.190,36.621,33.691,40.527,86.426,117.676,0
1486663983.194,38.574,33.691,38.574,92.773,215.332,0
1486663983.198,36.621,31.250,36.133,53.711,82.520,0
1486663983.202,42.969,33.203,36.621,46.387,-57.617,0
1486663983.206,48.828,38.086,36.133,66.895,-69.336,0
1486663983.210,45.898,39.551,34.180,88.867,72.754,0
1486663983.213,48.828,38.086,33.203,94.727,193.359,0
1486663983.217,40.039,34.668,33.691,50.781,85.938,0
1486663983.221,37.598,31.738,33.691,34.180,-62.500,0
1486663983.225,30.273,34.180,33.691,43.457,-65.918,0
1486663983.229,27.832,34.180,36.621,64.453,54.688,0
1486663983.233,40.527,30.762,36.133,81.543,218.750,0
1486663983.237,27.344,30.273,34.180,35.156,146.973,0
1486663983.241,28.809,30.762,36.621,15.137,-59.570,0
1486663983.245,35.156,31.738,33.691,36.621,-45.898,0
1486663983.249,35.645,32.715,34.668,63.477,65.918,0
1486663983.253,49.805,33.691,37.598,83.008,192.871,0
1486663983.256,42.480,30.762,34.180,46.387,156.738,0
1486663983.260,29.785,28.809,32.715,23.926,0.488,0
1486663983.264,31.738,30.762,35.645,46.387,-37.109,0
1486663983.268,25.879,32.715,40.039,72.754,33.691,0
1486663983.272,33.691,31.738,41.992,98.145,153.809,0
1486663983.276,33.203,29.785,47.363,75.195,150.391,0
1486663983.280,23.438,24.414,48.828,51.270,13.672,0
1486663983.284,27.344,25.391,44.922,59.082,-55.664,0
1486663983.288,22.949,31.738,44.922,73.242,5.859,0
1486663983.292,26.855,32.715,45.898,98.145,144.531,0
1486663983.296,25.879,30.762,41.016,76.172,169.434,0
1486663983.299,21.973,29.297,37.109,41.504,30.273,0
1486663983.303,32.715,33.203,40.039,49.316,-40.039,0
1486663983.307,29.297,36.621,38.574,61.523,6.836,0
1486663983.311,38.574,37.598,35.645,87.402,136.719,0
1486663983.315,51.758,40.527,34.180,74.707,155.762,0
1486663983.319,38.574,39.062,33.203,24.902,-0.977,0
1486663983.323,38.574,38.086,33.203,32.227,-102.051,0
1486663983.327,34.180,39.062,35.156,48.340,-65.430,0
1486663983.331,37.598,40.527,39.062,74.707,114.258,0
1486663983.335,43.457,41.016,41.016,71.289,190.430,0
1486663983.338,29.785,36.621,35.156,26.855,17.090,0
1486663983.342,32.227,34.668,29.785,28.809,-86.914,0
1486663983.346,24.414,35.156,35.156,48.828,-75.684,0
1486663983.350,29.785,35.156,38.574,73.730,75.195,0
1486663983.354,37.109,31.738,35.645,80.566,207.031,0
1486663983.358,17.578,26.367,31.250,41.992,65.918,0
1486663983.362,26.855,24.414,29.785,31.738,-56.641,0
1486663983.366,25.879,24.414,36.133,55.664,-56.152,0
1486663983.370,28.320,25.879,39.551,87.402,63.477,0
1486663983.374,44.922,28.320,37.598,91.309,187.012,0
1486663983.378,37.598,27.344,37.598,50.781,44.434,0
1486663983.381,37.109,27.832,40.039,42.480,-87.891,0
1486663983.385,44.434,31.738,39.551,63.477,-67.871,0
1486663983.389,44.922,33.691,39.062,88.379,39.551,0
1486663983.393,51.270,34.180,39.551,100.098,224.121,0
1486663983.397,43.457,30.762,39.062,58.594,116.699,0
1486663983.401,31.738,28.320,40.527,36.133,-69.336,0
1486663983.405,36.621,29.785,42.969,55.664,-70.801,0
1486663983.409,39.551,31.250,42.969,82.031,25.391,0
1486663983.413,41.992,32.227,38.086,85.449,171.875,0
1486663983.417,37.109,31.250,35.645,47.852,122.070,0
1486663983.421,31.250,29.785,38.086,28.320,-1.953,0
1486663983.424,25.391,32.227,37.109,39.551,-30.273,0
1486663983.428,28.809,37.598,38.574,63.965,12.207,0
1486663983.432,44.434,39.551,35.645,83.984,178.223,0
1486663983.436,48.828,36.621,28.320,60.059,136.230,0
1486663983.440,39.551,32.715,27.344,32.227,-34.668,0
1486663983.444,34.180,34.180,30.762,42.969,-60.547,0
1486663983.448,30.273,35.156,34.180,70.312,6.836,0
1486663983.452,41.992,34.180,34.668,88.379,149.902,0
1486663983.456,44.434,35.645,37.109,69.336,136.230,0
1486663983.460,37.598,34.180,39.551,40.039,17.090,0
1486663983.463,40.039,33.691,36.133,52.734,-26.855,0
1486663983.467,43.945,35.156,34.668,76.660,5.859,0
1486663983.471,53.223,37.109,35.645,94.727,165.527,0
1486663983.475,51.270,36.133,38.086,84.473,201.660,0
1486663983.479,35.645,30.762,36.621,44.434,51.270,0
1486663983.483,34.668,30.273,26.855,35.645,-31.250,0
1486663983.487,35.156,34.668,31.738,65.430,-8.301,0
1486663983.491,37.109,33.203,39.551,92.285,129.395,0
1486663983.495,44.434,33.691,36.621,76.660,181.152,0
1486663983.499,38.574,34.180,33.691,41.016,-5.371,0
1486663983.503,37.109,31.250,32.227,38.086,-90.820,0
1486663983.506,37.109,32.715,32.715,58.105,-26.855,0
1486663983.510,46.387,35.645,33.691,81.055,114.746,0
1486663983.514,49.316,33.203,32.715,75.684,216.797,0
1486663983.518,39.551,26.855,30.273,38.574,48.340,0
1486663983.522,41.992,24.902,29.297,39.551,-83.496,0
1486663983.526,34.180,29.297,34.668,60.059,-39.551,0
1486663983.530,36.133,29.297,40.039,81.543,84.473,0
1486663983.534,44.434,25.879,34.668,78.613,211.914,0
1486663983.538,31.250,23.926,31.738,42.480,91.797,0
1486663983.542,35.645,25.391,34.668,37.598,-62.500,0
1486663983.545,35.645,27.832,34.180,52.734,-55.664,0
1486663983.549,33.691,29.297,36.133,81.055,83.008,0
1486663983.553,55.664,33.691,39.062,94.727,198.242,0
1486663983.557,50.781,31.250,36.133,54.688,64.453,0
1486663983.561,46.875,29.297,31.250,28.809,-68.359,0
1486663983.565,46.875,33.203,33.203,45.410,-42.969,0
1486663983.569,39.551,33.691,34.180,76.172,53.711,0
1486663983.573,52.734,31.250,34.668,92.285,181.152,0
1486663983.577,41.992,28.320,35.156,57.129,132.324,0
1486663983.581,26.367,24.902,34.668,37.598,-35.156,0
1486663983.585,28.320,24.902,36.133,48.828,-61.035,0
1486663983.588,28.809,27.832,37.598,72.266,7.324,0
1486663983.592,36.621,29.785,35.645,92.773,136.719,0
1486663983.596,28.809,31.738,32.715,50.781,103.516,0
1486663983.600,23.926,28.320,35.645,26.855,-35.156,0
1486663983.604,29.785,29.297,43.945,46.875,-71.289,2
1486663983.608,24.902,33.203,41.504,63.477,-4.883,0
1486663983.612,31.738,30.762,37.109,85.938,130.371,0
1486663983.616,32.227,29.297,36.133,55.664,118.652,0
1486663983.620,20.996,29.785,32.715,21.484,-30.762,0
1486663983.624,22.949,30.273,34.180,39.551,-58.105,0
1486663983.628,22.949,34.180,39.551,61.523,4.395,0
1486663983.631,32.715,40.039,39.551,84.961,129.395,0
1486663983.635,33.203,34.668,35.645,68.359,182.129,0
1486663983.639,20.020,25.879,33.691,30.273,14.648,0
1486663983.643,23.438,25.879,33.203,33.203,-68.848,0
1486663983.647,21.484,27.344,34.668,51.758,-40.527,0
1486663983.651,26.855,27.832,34.180,77.148,110.352,0
1486663983.655,30.762,29.785,33.203,63.965,201.660,0
1486663983.659,25.879,27.832,33.691,26.367,23.438,0
1486663983.663,31.738,28.809,35.156,30.762,-55.664,0
1486663983.667,26.367,32.715,39.551,49.805,-17.090,0
1486663983.670,37.109,30.762,35.156,81.055,118.164,0
1486663983.674,36.133,29.785,28.320,75.684,201.660,0
1486663983.678,20.996,27.832,33.203,34.180,42.969,0
1486663983.682,31.738,27.344,33.691,38.574,-35.156,0
1486663983.686,30.762,33.691,35.156,56.152,-30.762,0
1486663983.690,30.273,32.715,38.086,81.055,80.566,0
1486663983.694,38.086,30.762,36.621,80.566,183.105,0
1486663983.698,20.020,28.320,33.691,30.762,41.016,0
1486663983.702,30.273,24.902,34.668,22.949,-81.055,0
1486663983.706,30.762,29.785,36.621,43.945,-54.199,0
1486663983.710,20.996,30.273,34.180,71.289,87.402,0
1486663983.713,35.156,25.879,34.180,75.684,223.633,0
1486663983.717,21.973,24.414,31.250,33.203,84.473,0
1486663983.721,19.043,22.461,31.250,21.484,-61.523,0
1486663983.725,10.254,24.902,34.668,34.180,-63.965,0
1486663983.729,9.277,29.297,36.133,56.152,22.461,0
1486663983.733,20.020,28.809,38.086,70.801,162.109,0
1486663983.737,6.348,25.879,35.156,21.484,84.961,0
1486663983.741,7.324,28.809,30.762,5.371,-69.336,0
1486663983.745,20.508,32.715,34.180,32.715,-43.457,0
1486663983.749,29.785,34.668,35.645,58.594,75.195,0
1486663983.753,45.898,37.598,33.203,77.148,218.262,0
1486663983.756,37.598,38.086,34.180,42.480,160.645,0
1486663983.760,28.809,34.668,35.156,24.414,10.254,0
1486663983.764,35.645,30.762,33.203,41.016,-34.668,0
1486663983.768,38.086,33.203,34.180,69.336,32.227,0
1486663983.772,47.363,34.668,37.598,99.121,183.594,0
1486663983.776,42.969,31.250,38.086,71.289,129.395,0
1486663983.780,28.809,27.344,35.645,36.621,-1.953,0
1486663983.784,34.180,23.926,36.621,53.711,-24.902,0
1486663983.788,29.785,25.391,39.062,73.242,-8.789,0
1486663983.792,40.039,30.273,41.992,93.262,158.203,0
1486663983.795,42.969,29.297,41.504,75.195,164.062,0
1486663983.799,31.250,24.902,42.480,38.086,-20.508,0
1486663983.803,31.250,30.273,44.434,41.016,-100.586,0
1486663983.807,27.832,30.762,41.992,57.617,-22.461,0
1486663983.811,35.645,27.832,38.574,78.613,133.301,0
1486663983.815,37.109,28.809,36.133,65.430,173.828,0
1486663983.819,27.344,28.320,32.227,29.785,8.301,0
1486663983.823,31.250,31.250,34.180,33.691,-77.148,0
1486663983.827,26.367,33.691,33.203,48.828,-25.391,0
1486663983.831,34.668,35.156,31.738,81.543,101.074,0
1486663983.835,41.992,33.691,35.645,68.848,145.996,0
1486663983.838,29.785,33.691,30.273,18.555,-17.578,0
1486663983.842,34.668,33.203,26.855,32.227,-81.055,0
1486663983.846,41.016,30.273,32.715,56.641,4.395,0
1486663983.850,43.945,31.250,34.180,76.172,135.742,0
1486663983.854,50.781,33.203,33.691,82.520,216.797,0
1486663983.858,47.363,27.344,34.180,49.805,198.242,0
1486663983.862,42.969,25.879,36.621,42.480,61.035,0
1486663983.866,37.598,30.762,39.551,60.059,34.180,0
1486663983.870,43.457,31.250,41.016,82.520,162.598,0
1486663983.874,52.734,27.344,40.039,81.543,190.430,0
1486663983.877,40.039,24.902,35.156,38.574,54.688,0
1486663983.881,41.504,28.320,35.645,37.109,-66.895,0
1486663983.885,46.875,32.715,38.086,64.453,-58.594,0
1486663983.889,48.828,31.738,33.691,84.473,45.410,0
1486663983.893,65.430,31.738,34.180,94.727,150.391,0
1486663983.897,52.734,33.203,35.156,56.152,73.242,0
1486663983.901,33.203,35.156,33.203,27.832,-82.520,0
1486663983.905,40.039,36.621,36.133,45.410,-72.754,0
1486663983.909,44.434,38.574,37.598,69.336,65.430,0
1486663983.913,35.645,37.109,38.574,80.078,199.707,0
1486663983.917,35.645,36.133,37.109,56.152,179.688,0
1486663983.920,30.762,38.086,32.715,26.855,21.973,0
1486663983.924,25.391,35.156,37.598,35.645,-52.246,0
1486663983.928,22.461,31.738,40.039,63.477,25.391,0
1486663983.932,30.273,33.203,35.645,80.078,132.812,0
1486663983.936,32.227,31.250,34.180,51.758,121.582,0
1486663983.940,16.113,28.809,33.691,18.066,-34.180,0
1486663983.944,18.555,31.250,36.621,29.297,-99.609,0
1486663983.948,27.832,34.668,37.109,60.547,-11.230,0
1486663983.952,43.945,35.645,33.691,83.984,157.227,0
1486663983.956,46.387,36.133,36.133,62.500,144.531,0
1486663983.960,36.621,35.645,38.574,39.062,-31.738,0
1486663983.963,44.434,35.645,38.574,45.898,-66.895,0
1486663983.967,37.598,38.086,40.527,64.941,2.930,0
1486663983.971,46.387,38.574,41.016,91.309,150.391,0
1486663983.975,46.875,35.156,41.016,75.195,150.879,0
1486663983.979,27.832,29.297,36.621,40.527,-3.906,0
1486663983.983,34.668,29.297,32.227,44.434,-55.176,0
1486663983.987,35.156,32.715,36.133,65.918,-21.973,0
1486663983.991,31.738,30.273,38.574,84.473,110.840,0
1486663983.995,40.039,31.250,33.691,77.148,198.730,0
1486663983.999,38.086,31.250,31.250,46.875,54.688,0
1486663984.002,36.133,29.297,34.180,41.992,-92.285,0
1486663984.006,35.156,33.203,37.109,66.895,-52.734,0
1486663984.010,42.480,35.156,38.574,96.680,119.141,0
1486663984.014,48.828,31.250,36.621,85.449,178.711,0
1486663984.018,32.227,30.273,31.738,40.039,25.391,0
1486663984.022,46.875,33.691,28.809,35.156,-58.594,0
1486663984.026,40.039,35.645,35.645,52.734,-23.926,0
1486663984.030,22.949,33.691,36.621,75.684,93.750,0
1486663984.034,33.203,31.738,30.762,74.707,170.898,0
1486663984.038,19.531,30.273,31.738,26.367,61.035,0
1486663984.042,20.996,28.809,31.738,21.484,-65.430,0
1486663984.045,29.785,29.297,34.668,48.340,-69.336,0
1486663984.049,29.297,28.809,37.109,67.383,88.379,0
1486663984.053,42.969,31.738,33.691,73.730,211.914,0
1486663984.057,37.109,33.691,32.715,38.574,87.402,0
1486663984.061,32.227,32.227,33.203,26.367,-30.762,0
1486663984.065,35.645,32.715,35.645,47.852,-42.969,0
1486663984.069,42.969,34.180,41.016,77.637,74.219,0
1486663984.073,54.199,31.738,41.016,88.379,198.730,0
1486663984.077,38.086,26.367,37.109,49.316,95.703,0
1486663984.081,34.180,24.414,39.551,36.133,-12.207,0
1486663984.085,41.992,28.320,43.457,53.223,-32.715,0
1486663984.088,40.039,32.227,45.898,75.684,42.969,0
1486663984.092,52.734,33.691,41.992,91.309,202.637,0
1486663984.096,47.363,33.691,39.551,57.617,137.695,0
1486663984.100,35.156,31.738,42.480,38.574,-33.691,0
1486663984.104,35.156,30.762,43.457,50.781,-73.730,0
1486663984.108,27.344,31.250,42.969,70.312,7.324,0
1486663984.112,39.062,31.250,41.992,95.215,147.949,0
1486663984.116,34.668,31.250,40.039,61.035,129.883,0
1486663984.120,19.531,25.391,38.574,23.926,-14.648,0
1486663984.124,20.996,24.902,39.551,41.504,-75.195,0
1486663984.127,17.090,27.344,41.504,60.059,-13.184,0
1486663984.131,27.832,27.344,41.016,80.566,162.109,0
1486663984.135,32.227,26.855,41.016,64.941,155.273,0
1486663984.139,25.879,24.902,36.621,27.832,19.531,0
1486663984.143,29.785,23.926,33.203,38.574,-30.273,0
1486663984.147,32.227,25.391,39.551,71.289,-16.113,0
1486663984.151,47.852,28.320,45.898,99.121,157.715,0
1486663984.155,56.641,29.785,41.992,79.102,172.363,0
1486663984.159,46.387,28.320,36.621,42.480,8.301,0
1486663984.163,44.922,29.297,38.086,47.363,-53.711,0
1486663984.167,42.969,32.227,41.504,66.895,-31.250,0
1486663984.170,51.758,34.180,42.969,88.379,125.977,0
1486663984.174,61.523,33.203,41.504,76.660,218.750,0
1486663984.178,48.828,30.762,40.039,35.645,62.500,0
1486663984.182,38.574,32.227,36.621,34.180,-31.738,2
1486663984.186,45.410,34.668,38.086,51.270,-19.043,0
1486663984.190,42.969,34.668,41.016,77.148,126.465,0
1486663984.194,36.133,33.691,38.574,76.172,203.125,0
1486663984.198,20.996,26.367,36.621,26.855,24.902,0
1486663984.202,11.719,21.973,33.691,14.648,-53.711,0
1486663984.206,17.090,25.391,35.645,39.062,-19.043,0
1486663984.209,22.461,29.297,40.039,72.266,104.492,0
1486663984.213,24.414,30.273,42.969,71.777,229.004,0
1486663984.217,22.461,27.832,41.504,32.715,75.684,0
1486663984.221,25.391,26.367,37.598,30.762,-98.633,0
1486663984.225,21.973,28.809,36.621,45.410,-90.332,0
1486663984.229,29.785,33.203,40.039,77.637,55.664,0
1486663984.233,40.039,34.668,41.992,86.426,226.074,0
1486663984.237,33.203,35.156,35.645,46.875,90.820,0
1486663984.241,37.598,34.180,34.180,40.527,-102.539,0
1486663984.245,42.969,32.715,35.645,54.199,-98.633,0
1486663984.249,41.992,32.715,38.574,80.566,23.438,0
1486663984.252,49.805,35.645,41.992,103.516,164.062,0
1486663984.256,37.109,31.738,40.527,59.082,93.750,0
1486663984.260,33.691,30.762,38.574,33.203,-59.570,0
1486663984.264,38.574,35.645,38.574,54.688,-66.895,0
1486663984.268,36.621,35.645,37.598,73.730,32.227,0
1486663984.272,45.898,34.180,39.062,90.332,161.621,0
1486663984.276,34.180,33.691,37.109,57.129,114.258,0
1486663984.280,28.320,34.668,34.180,27.832,-41.016,0
1486663984.284,30.762,31.250,35.645,44.434,-69.824,0
1486663984.288,24.902,31.738,38.574,61.523,18.555,0
1486663984.292,34.668,34.668,38.574,80.078,187.500,0
1486663984.295,34.668,34.180,36.621,54.199,137.207,0
1486663984.299,26.367,34.668,36.621,25.879,-52.734,0
1486663984.303,29.297,37.598,37.598,39.551,-70.801,0
1486663984.307,23.438,37.598,38.086,54.199,-12.695,0
1486663984.311,33.691,35.156,36.621,83.008,162.598,0
1486663984.315,33.203,30.762,36.133,64.453,197.754,0
1486663984.319,15.137,26.367,36.133,21.484,10.742,0
1486663984.323,22.949,27.344,34.668,31.738,-60.059,0
1486663984.327,22.949,29.785,37.598,53.711,-16.602,0
1486663984.331,21.973,26.367,37.109,69.336,162.598,0
1486663984.334,38.086,20.996,37.109,59.570,211.914,0
1486663984.338,33.691,20.020,34.180,25.879,31.250,0
1486663984.342,35.645,24.902,32.715,32.715,-56.152,0
1486663984.346,42.480,28.320,39.551,63.477,-46.875,0
1486663984.350,44.434,28.320,38.086,87.891,92.773,0
1486663984.354,52.246,28.809,36.621,78.613,178.711,0
1486663984.358,44.434,25.879,37.109,48.828,18.555,0
1486663984.362,46.875,25.391,37.598,52.246,-90.332,0
1486663984.366,37.109,28.320,39.062,67.871,-61.035,0
1486663984.370,38.086,31.250,37.598,96.680,83.008,0
1486663984.374,49.316,32.227,38.086,92.773,179.688,0
1486663984.377,41.016,31.250,38.086,51.270,49.805,0
1486663984.381,40.527,29.297,39.062,48.828,-65.918,0
1486663984.385,40.039,29.297,41.016,64.941,-72.754,0
1486663984.389,41.504,33.691,44.434,87.891,58.105,0
1486663984.393,47.852,33.691,46.387,88.379,183.594,0
1486663984.397,34.668,28.320,40.527,43.457,17.578,0
1486663984.401,24.902,27.344,35.645,26.855,-96.191,0
1486663984.405,26.855,29.785,37.109,37.598,-63.477,0
1486663984.409,31.250,32.227,37.109,62.988,40.039,0
1486663984.413,37.109,32.715,37.598,74.219,173.828,0
1486663984.417,27.344,27.832,36.621,37.109,89.844,0
1486663984.420,27.832,28.320,35.645,27.832,-62.988,0
1486663984.424,37.109,33.203,37.109,45.898,-82.031,0
1486663984.428,34.180,32.227,37.109,64.941,-4.395,0
1486663984.432,37.598,31.250,34.668,86.426,150.879,0
1486663984.436,32.715,31.738,32.715,46.387,118.164,0
1486663984.440,22.461,33.691,30.273,16.602,-60.059,0
1486663984.444,25.391,34.180,32.227,37.109,-73.242,0
1486663984.448,25.391,34.668,32.715,64.941,-12.695,0
1486663984.452,38.086,34.668,32.227,86.914,135.254,0
1486663984.456,33.203,31.738,28.809,53.223,166.016,0
1486663984.459,25.879,30.273,29.297,29.785,-21.973,0
1486663984.463,24.902,30.273,32.227,35.156,-69.336,0
1486663984.467,20.508,33.691,29.297,52.246,27.832,0
1486663984.471,36.133,34.668,32.227,87.402,173.340,0
1486663984.475,36.621,32.227,33.691,63.965,145.508,0
1486663984.479,25.879,26.855,33.691,22.949,-7.324,0
1486663984.483,28.809,24.414,34.668,33.691,-42.480,0
1486663984.487,29.785,28.809,37.109,57.617,-17.578,0
1486663984.491,42.480,29.297,38.086,84.473,128.906,0
1486663984.495,40.527,27.344,37.109,68.848,207.031,0
1486663984.499,30.273,27.832,37.109,33.203,72.754,0
1486663984.502,32.227,27.832,38.574,40.527,-26.855,0
1486663984.506,32.715,30.273,40.039,58.594,-6.836,0
1486663984.510,44.434,35.645,43.945,86.426,134.766,0
1486663984.514,45.898,35.645,43.457,77.637,183.594,0
1486663984.518,35.645,31.250,37.598,38.086,20.508,0
1486663984.522,33.691,29.297,38.574,37.109,-63.965,0
1486663984.526,23.438,32.227,40.527,56.152,7.812,0
1486663984.530,29.297,32.227,38.086,83.008,149.414,0
1486663984.534,39.062,29.297,37.109,81.543,194.824,0
1486663984.538,30.273,27.344,33.203,41.992,48.828,0
1486663984.541,31.738,28.809,31.738,35.645,-74.707,0
1486663984.545,26.367,32.715,36.133,50.293,-50.293,0
1486663984.549,29.297,36.133,38.086,79.102,86.914,0
1486663984.553,37.109,39.062,42.969,84.473,203.613,0
1486663984.557,28.809,36.133,42.480,43.945,52.246,0
1486663984.561,28.320,29.785,34.180,33.203,-93.750,0
1486663984.565,30.273,33.203,37.109,52.734,-86.426,0
1486663984.569,32.227,36.133,39.062,82.031,61.523,0
1486663984.573,48.828,34.668,37.109,96.680,221.680,0
