timestamps,TP9,AF7,AF8,TP10,Right AUX,Marker
1486664247.336,24.414,23.438,34.668,37.598,69.824,0
1486664247.340,23.438,24.414,36.621,27.344,-100.098,0
1486664247.344,28.809,26.855,39.551,42.480,-60.547,0
1486664247.348,28.320,26.367,39.551,62.988,60.059,0
1486664247.352,31.250,27.832,44.434,72.754,195.312,0
1486664247.356,19.043,26.367,45.410,45.410,91.309,0
1486664247.360,15.137,21.973,38.086,36.133,-52.734,0
1486664247.364,20.996,26.855,35.645,49.805,-69.336,0
1486664247.368,25.879,26.855,35.156,71.289,20.508,0
1486664247.372,41.504,21.973,41.016,92.773,211.426,0
1486664247.375,41.016,24.902,39.551,67.383,142.090,0
1486664247.379,45.898,24.902,38.086,49.805,-87.891,0
1486664247.383,62.988,26.855,47.852,68.359,-155.273,0
1486664247.387,46.875,22.461,45.410,81.543,-20.020,0
1486664247.391,41.992,19.043,31.738,89.355,204.102,0
1486664247.395,50.781,23.926,37.598,66.895,142.578,0
1486664247.399,39.551,25.879,41.504,41.016,-72.754,0
1486664247.403,34.180,24.414,33.691,41.016,-86.914,0
1486664247.407,38.574,26.855,37.109,55.664,-37.598,0
1486664247.411,49.316,32.227,36.133,73.730,157.227,0
1486664247.414,50.293,31.738,29.785,55.664,193.359,0
1486664247.418,40.527,30.762,30.762,28.320,-42.969,0
1486664247.422,41.992,32.227,26.855,31.250,-110.840,0
1486664247.426,42.480,33.691,31.250,44.434,-36.133,0
1486664247.430,49.316,31.738,37.598,68.848,128.906,0
1486664247.434,47.852,30.762,42.480,66.406,180.664,0
1486664247.438,36.621,34.668,42.480,35.645,-29.297,0
1486664247.442,34.180,31.250,29.785,31.250,-153.320,0
1486664247.446,25.391,27.832,32.715,52.734,-73.242,0
1486664247.450,34.180,28.320,37.598,80.078,113.770,0
1486664247.454,41.992,32.227,36.621,78.125,197.266,0
1486664247.457,37.598,32.715,40.039,46.387,-5.859,0
1486664247.461,36.621,30.762,36.133,43.945,-88.379,0
1486664247.465,41.504,32.227,33.203,67.383,-51.270,0
1486664247.469,49.316,31.250,41.504,89.355,115.234,0
1486664247.473,47.852,29.785,35.645,81.543,254.883,0
1486664247.477,36.621,24.902,36.133,49.316,43.945,0
1486664247.481,32.715,20.996,38.086,45.898,-76.172,0
1486664247.485,28.320,20.508,39.551,61.523,-40.039,0
1486664247.489,34.180,20.996,42.969,81.543,128.906,0
1486664247.493,43.457,20.996,40.527,82.031,271.484,0
1486664247.496,26.855,19.531,40.039,45.898,97.656,0
1486664247.500,29.297,22.461,40.527,35.156,-38.574,0
1486664247.504,36.133,23.926,40.527,48.828,-48.828,0
1486664247.508,28.320,20.020,32.715,61.035,84.473,0
1486664247.512,39.062,23.438,37.109,70.801,255.371,0
1486664247.516,31.738,28.809,38.086,41.504,116.699,0
1486664247.520,22.949,27.344,23.926,28.320,-78.613,0
1486664247.524,22.461,25.879,20.996,43.457,-100.586,0
1486664247.528,31.250,26.855,34.668,68.848,36.133,0
1486664247.532,44.922,30.273,40.039,85.449,237.305,0
1486664247.536,34.180,33.203,33.203,56.641,131.348,0
1486664247.539,30.273,33.203,35.645,36.621,-105.469,0
1486664247.543,32.715,33.203,33.203,44.434,-115.723,0
1486664247.547,36.133,35.645,25.879,57.617,24.902,0
1486664247.551,45.898,32.227,24.414,68.359,192.383,0
1486664247.555,40.039,27.832,27.832,47.363,133.301,0
1486664247.559,32.715,28.809,33.691,26.855,-55.176,0
1486664247.563,40.527,33.203,42.969,41.504,-81.055,0
1486664247.567,39.551,34.180,37.598,66.406,1.953,0
1486664247.571,44.434,27.832,30.273,86.426,202.148,0
1486664247.575,45.410,25.391,38.574,69.824,181.641,0
1486664247.579,35.645,24.902,37.109,43.945,-56.641,0
1486664247.582,28.320,23.926,35.156,48.828,-118.164,0
1486664247.586,22.949,26.367,41.504,66.406,-29.297,0
1486664247.590,31.250,27.344,41.992,87.402,166.016,0
1486664247.594,24.902,24.902,40.527,75.684,251.465,0
1486664247.598,12.695,18.555,43.945,50.781,38.086,0
1486664247.602,17.578,13.184,41.016,52.246,-87.402,0
1486664247.606,15.137,16.113,39.551,64.453,-55.176,0
1486664247.610,29.297,20.020,41.016,87.891,112.793,0
1486664247.614,38.574,20.020,41.504,85.938,201.172,0
1486664247.618,28.320,24.414,42.480,59.570,16.113,0
1486664247.621,25.879,28.320,41.504,55.176,-71.777,0
1486664247.625,23.438,21.484,41.016,64.453,-35.156,0
1486664247.629,23.438,19.043,42.969,83.008,119.629,0
1486664247.633,32.227,23.438,39.551,77.148,214.844,0
1486664247.637,23.926,24.902,41.992,41.992,28.320,0
1486664247.641,12.695,23.438,38.574,32.227,-112.305,0
1486664247.645,14.160,22.461,35.645,44.922,-90.332,0
1486664247.649,29.297,29.297,38.086,67.871,56.152,0
1486664247.653,42.969,29.785,35.156,73.242,200.195,0
1486664247.657,30.273,25.391,34.180,40.527,48.340,0
1486664247.661,33.691,30.273,34.668,31.738,-101.562,0
1486664247.664,41.504,36.133,35.645,45.898,-116.211,0
1486664247.668,38.086,37.109,35.156,62.988,40.039,0
1486664247.672,48.828,37.109,36.621,71.777,256.836,0
1486664247.676,47.852,35.156,43.457,48.340,102.051,0
1486664247.680,38.574,35.645,34.180,37.598,-104.980,0
1486664247.684,43.945,37.598,28.809,55.664,-122.559,0
1486664247.688,49.316,33.691,38.574,79.102,16.602,0
1486664247.692,55.664,30.762,38.574,88.867,209.473,0
1486664247.696,39.062,33.203,40.039,64.941,96.680,0
1486664247.700,31.250,31.738,45.898,51.758,-111.816,0
1486664247.704,41.992,31.250,46.387,63.965,-114.746,0
1486664247.707,42.480,27.832,40.527,83.008,13.672,0
1486664247.711,41.992,21.484,35.156,95.215,196.777,0
1486664247.715,39.551,22.461,39.551,74.219,114.746,0
1486664247.719,26.855,24.902,41.016,52.734,-119.141,0
1486664247.723,21.973,26.367,41.992,53.711,-127.441,0
1486664247.727,24.414,25.391,43.945,69.336,-8.789,0
1486664247.731,36.621,28.809,41.504,91.309,172.363,0
1486664247.735,45.410,30.273,43.945,67.383,140.625,0
1486664247.739,25.879,29.297,50.293,41.016,-56.641,0
1486664247.743,19.531,30.762,44.922,49.316,-115.723,0
1486664247.746,29.785,25.879,37.109,59.570,-57.617,0
1486664247.750,42.480,28.320,35.645,77.148,138.672,0
1486664247.754,48.340,33.203,36.133,65.918,182.129,0
1486664247.758,35.156,31.250,33.203,36.621,-36.133,0
1486664247.762,36.621,34.180,33.203,43.457,-113.281,0
1486664247.766,36.133,36.133,37.598,56.641,-45.410,0
1486664247.770,44.434,33.203,39.551,73.730,146.484,0
1486664247.774,47.852,30.762,44.922,62.500,218.750,0
1486664247.778,32.715,31.738,41.504,35.156,11.719,0
1486664247.782,29.297,34.668,29.785,39.551,-82.520,0
1486664247.786,30.273,34.180,35.645,47.852,-64.941,0
1486664247.789,32.715,25.391,37.109,62.988,105.469,0
1486664247.793,33.203,26.367,35.156,62.500,221.191,0
1486664247.797,29.297,32.715,41.992,35.156,23.438,0
1486664247.801,20.996,28.320,36.621,28.320,-121.582,0
1486664247.805,23.926,26.855,37.598,43.457,-82.031,0
1486664247.809,35.645,27.832,42.969,76.172,112.305,0
1486664247.813,29.297,28.320,41.016,76.172,212.402,0
1486664247.817,21.484,24.902,38.086,43.945,0.977,0
1486664247.821,24.902,24.414,42.480,41.016,-127.930,0
1486664247.825,26.367,27.344,46.875,56.641,-97.168,0
1486664247.828,31.738,22.949,40.527,72.266,83.008,0
1486664247.832,39.551,24.902,38.574,72.754,245.117,0
1486664247.836,27.832,30.762,41.992,47.363,77.148,0
1486664247.840,24.414,30.273,34.668,31.250,-96.191,0
1486664247.844,27.344,29.297,30.273,41.504,-103.027,0
1486664247.848,30.273,32.715,33.203,65.918,24.902,0
1486664247.852,38.086,30.762,35.645,82.031,226.074,0
1486664247.856,32.715,29.297,39.551,56.152,113.770,0
1486664247.860,25.391,32.227,37.109,34.668,-99.121,1
1486664247.864,30.273,28.320,35.156,45.410,-124.512,0
1486664247.868,31.250,26.855,36.621,64.941,-8.789,0
1486664247.871,36.133,27.344,36.621,77.637,193.848,0
1486664247.875,30.762,25.391,35.645,52.734,78.125,0
1486664247.879,27.832,25.879,41.504,32.715,-143.555,0
1486664247.883,37.109,26.367,38.574,49.805,-179.199,0
1486664247.887,41.016,24.902,33.203,71.289,-73.730,0
1486664247.891,52.734,28.809,36.621,89.355,164.551,0
1486664247.895,42.969,30.762,40.527,70.801,179.688,0
1486664247.899,47.363,27.344,40.527,49.316,-48.828,0
1486664247.903,49.316,30.273,33.203,57.129,-110.840,0
1486664247.907,36.133,31.738,31.250,66.895,-5.859,0
1486664247.911,47.363,27.832,36.621,85.938,180.176,0
1486664247.914,34.180,27.344,34.668,68.359,155.273,0
1486664247.918,19.531,29.785,31.738,35.645,-45.898,0
1486664247.922,20.508,30.762,34.668,38.574,-91.309,0
1486664247.926,16.113,29.785,34.180,44.922,-74.219,0
1486664247.930,21.973,26.855,30.762,62.500,139.160,0
1486664247.934,30.273,26.855,33.691,56.641,212.402,0
1486664247.938,21.973,28.809,36.621,29.297,-22.461,0
1486664247.942,24.414,27.344,35.156,35.156,-88.867,0
1486664247.946,25.391,25.391,33.203,51.758,-26.855,0
1486664247.950,37.598,26.855,35.156,75.684,173.828,0
1486664247.953,43.457,23.438,37.598,74.219,245.117,0
1486664247.957,32.715,23.926,41.016,43.945,25.391,0
1486664247.961,46.387,26.855,43.457,45.410,-68.359,0
1486664247.965,43.945,27.344,38.086,62.500,-20.996,0
1486664247.969,45.898,26.855,35.645,81.543,133.789,0
1486664247.973,54.688,29.785,40.527,84.473,262.207,0
1486664247.977,38.574,30.762,36.621,50.781,60.059,0
1486664247.981,36.133,25.879,32.715,43.945,-77.148,0
1486664247.985,41.016,25.879,37.598,60.547,-37.598,0
1486664247.989,50.293,29.297,37.598,82.031,133.301,0
1486664247.993,58.105,30.762,39.062,92.773,297.363,0
1486664247.996,43.457,29.785,38.574,62.988,84.473,0
1486664248.000,40.039,29.297,33.691,39.062,-58.105,0
1486664248.004,37.598,30.762,39.062,41.016,-22.461,0
1486664248.008,38.086,29.785,43.457,59.082,91.797,0
1486664248.012,41.992,27.832,33.691,66.406,281.738,0
1486664248.016,30.762,32.227,31.738,34.668,163.086,0
1486664248.020,22.461,29.785,31.738,20.508,-32.227,0
1486664248.024,23.438,23.926,32.227,41.504,-36.133,0
1486664248.028,26.855,26.855,37.598,69.336,38.086,0
1486664248.032,46.875,27.344,37.109,91.797,234.375,0
1486664248.035,49.316,26.367,35.156,70.801,178.223,0
1486664248.039,35.645,25.391,32.715,60.059,-40.527,0
1486664248.043,41.992,30.273,36.621,73.730,-75.684,0
1486664248.047,43.945,28.320,39.062,81.055,26.367,0
1486664248.051,55.176,23.926,42.969,98.633,220.215,0
1486664248.055,53.711,27.344,43.945,79.102,154.785,0
1486664248.059,45.898,25.391,41.992,57.129,-66.895,0
1486664248.063,49.316,26.855,45.898,65.918,-94.238,0
1486664248.067,47.852,30.273,38.086,70.312,-29.297,0
1486664248.071,52.246,31.250,28.809,84.473,179.688,0
1486664248.075,53.223,28.809,30.273,66.895,221.680,0
1486664248.078,42.969,27.344,29.297,38.086,-2.930,0
1486664248.082,28.809,30.273,29.785,41.992,-50.293,0
1486664248.086,27.344,31.738,34.180,56.152,8.301,0
1486664248.090,41.992,26.367,37.109,74.707,197.266,0
1486664248.094,36.133,26.367,32.715,52.734,227.051,0
1486664248.098,22.949,26.855,32.715,20.020,-17.578,0
1486664248.102,25.391,25.391,36.133,20.996,-82.520,0
1486664248.106,25.391,26.367,28.809,32.227,-11.719,0
1486664248.110,35.645,28.809,29.297,58.594,161.133,0
1486664248.114,35.645,30.762,33.203,52.246,216.797,0
1486664248.118,24.902,27.344,36.133,21.973,0.000,0
1486664248.121,33.691,24.902,37.598,32.715,-119.629,0
1486664248.125,34.180,29.297,37.598,50.781,-50.781,0
1486664248.129,45.898,32.715,47.363,84.473,164.062,0
1486664248.133,56.152,34.668,42.969,89.355,244.629,0
1486664248.137,42.969,29.297,29.297,48.340,39.551,0
1486664248.141,39.551,24.902,30.273,48.828,-56.641,0
1486664248.145,44.434,30.273,30.762,64.453,-16.602,0
1486664248.149,47.363,32.227,32.715,78.125,131.836,0
1486664248.153,45.898,27.344,36.621,80.078,262.207,0
1486664248.157,37.598,25.391,38.574,45.410,111.328,0
1486664248.160,34.180,25.879,36.621,31.738,-41.504,0
1486664248.164,40.527,30.273,35.645,42.480,-46.875,0
1486664248.168,59.082,34.668,44.434,60.059,84.961,0
1486664248.172,61.035,35.156,40.039,63.477,278.809,0
1486664248.176,44.922,28.320,31.738,32.227,146.973,0
1486664248.180,42.480,26.855,34.668,21.484,-60.059,0
1486664248.184,44.434,30.273,38.086,36.133,-50.293,0
1486664248.188,40.527,28.320,37.109,59.082,96.191,0
1486664248.192,45.410,26.367,34.668,74.707,257.812,0
1486664248.196,35.156,26.367,36.133,46.387,121.094,0
1486664248.200,28.809,26.367,41.016,32.227,-70.312,0
1486664248.203,36.133,24.414,41.992,43.457,-73.242,0
1486664248.207,39.062,28.809,38.086,61.035,42.480,0
1486664248.211,45.898,26.855,32.227,78.613,266.113,0
1486664248.215,46.387,21.484,34.668,59.082,217.285,0
1486664248.219,42.480,27.344,39.551,43.457,-6.348,0
1486664248.223,44.434,27.832,43.945,59.082,-44.434,0
1486664248.227,49.316,23.926,41.504,81.055,67.871,0
1486664248.231,57.617,23.438,39.062,94.238,258.301,0
1486664248.235,48.340,21.973,42.969,77.637,204.102,0
1486664248.239,36.621,22.949,40.527,53.711,-32.715,0
1486664248.243,40.039,25.391,39.551,60.547,-96.680,0
1486664248.246,38.574,22.949,39.062,77.637,9.277,0
1486664248.250,52.246,20.996,43.945,95.215,206.543,0
1486664248.254,43.945,23.926,42.480,76.660,209.473,0
1486664248.258,24.902,23.438,36.133,41.016,-5.371,0
1486664248.262,25.391,22.949,33.691,38.086,-84.961,0
1486664248.266,25.391,25.391,30.762,51.758,-41.504,0
1486664248.270,36.621,28.809,31.250,70.801,177.734,0
1486664248.274,36.621,29.785,37.109,56.641,269.531,0
1486664248.278,29.785,28.809,40.527,31.738,17.578,0
1486664248.282,35.645,27.832,33.203,34.180,-104.492,0
1486664248.285,34.180,31.250,33.203,46.875,-83.984,0
1486664248.289,43.945,30.762,38.086,66.406,96.191,0
1486664248.293,52.734,26.367,36.133,69.824,201.660,0
1486664248.297,43.945,24.902,36.621,46.875,-4.883,0
1486664248.301,41.016,23.926,37.109,42.969,-137.207,0
1486664248.305,41.016,24.414,37.598,59.082,-130.371,0
1486664248.309,46.387,23.926,38.086,84.473,58.105,0
1486664248.313,51.758,26.855,37.109,84.961,215.820,0
1486664248.317,30.273,26.367,37.598,54.688,23.438,0
1486664248.321,38.086,28.320,35.156,50.781,-132.812,0
1486664248.325,36.133,28.320,37.109,60.059,-116.699,0
1486664248.328,29.297,22.949,41.504,80.566,45.410,0
1486664248.332,42.480,23.438,42.969,85.449,201.660,0
1486664248.336,22.949,23.926,43.457,51.758,47.363,0
1486664248.340,17.090,21.973,33.203,37.109,-117.188,0
1486664248.344,24.414,21.973,29.785,52.734,-121.582,0
1486664248.348,33.691,26.367,32.715,72.754,-6.836,0
1486664248.352,43.945,26.855,29.297,71.777,196.777,0
1486664248.356,32.715,28.320,35.645,44.922,71.777,0
1486664248.360,30.762,33.203,34.668,35.156,-132.812,0
1486664248.364,28.809,26.367,28.809,38.574,-117.676,0
1486664248.367,31.738,24.414,38.086,57.617,3.906,0
1486664248.371,52.246,25.391,41.992,78.125,195.312,0
1486664248.375,56.152,19.043,35.156,66.895,149.902,0
1486664248.379,43.457,22.949,33.203,53.223,-66.895,0
1486664248.383,34.668,32.715,37.598,52.734,-126.953,1
1486664248.387,38.574,30.762,37.598,69.824,16.113,0
1486664248.391,52.734,27.832,36.133,93.750,243.164,0
1486664248.395,47.852,28.809,43.945,75.195,196.777,0
1486664248.399,16.113,25.879,36.621,35.645,-13.184,0
1486664248.403,13.672,24.414,26.855,39.062,-62.988,0
1486664248.407,25.391,24.902,31.738,60.059,-25.391,0
1486664248.410,35.645,24.414,32.715,76.660,177.734,0
1486664248.414,32.715,24.414,38.086,62.500,229.492,0
1486664248.418,22.461,22.949,40.527,36.621,-13.672,0
1486664248.422,20.508,24.414,33.203,40.039,-104.492,0
1486664248.426,22.461,29.785,41.504,59.570,-23.438,0
1486664248.430,43.945,32.715,44.434,83.008,183.594,0
1486664248.434,45.410,26.855,40.039,67.383,259.277,0
1486664248.438,27.832,26.855,33.691,34.180,20.996,0
1486664248.442,26.855,32.715,28.809,30.762,-98.145,0
1486664248.446,30.762,31.250,34.180,40.039,-20.020,0
1486664248.450,50.781,30.762,33.691,61.035,147.461,0
1486664248.453,57.617,33.691,29.297,62.988,220.215,0
1486664248.457,38.086,35.156,34.668,39.062,22.461,0
1486664248.461,29.785,28.320,37.109,34.668,-131.348,0
1486664248.465,39.062,24.414,36.133,52.734,-111.328,0
1486664248.469,48.828,28.809,39.062,82.031,104.004,0
1486664248.473,46.875,28.320,38.086,85.449,244.141,0
1486664248.477,28.809,27.832,41.016,53.711,35.156,0
1486664248.481,16.113,27.344,40.039,45.410,-124.023,0
1486664248.485,15.137,26.367,36.133,51.758,-108.887,0
1486664248.489,24.414,30.273,36.133,70.312,52.246,0
1486664248.492,28.809,30.762,34.668,71.289,221.680,0
1486664248.496,13.672,26.855,33.691,41.016,62.012,0
1486664248.500,15.625,26.367,35.156,34.668,-135.254,0
1486664248.504,26.855,26.855,35.645,43.945,-135.254,0
1486664248.508,43.457,26.367,38.086,69.336,21.973,0
1486664248.512,60.059,32.227,37.109,84.961,204.102,0
1486664248.516,48.340,30.273,33.691,61.523,101.562,0
1486664248.520,43.457,24.902,31.250,46.875,-77.637,0
1486664248.524,46.387,27.832,36.621,62.500,-98.145,0
1486664248.528,51.758,26.367,37.598,79.102,30.762,0
1486664248.532,61.523,24.414,31.738,84.473,230.957,0
1486664248.535,41.016,23.926,32.715,56.641,129.395,0
1486664248.539,23.438,27.344,30.762,39.062,-64.453,0
1486664248.543,31.738,28.809,35.645,59.082,-76.660,0
1486664248.547,31.738,24.414,40.039,67.871,-10.254,0
1486664248.551,33.691,22.461,34.180,76.172,170.410,0
1486664248.555,33.203,23.438,33.691,60.547,154.297,0
1486664248.559,14.160,22.949,36.621,38.574,-61.523,0
1486664248.563,7.324,18.066,37.109,48.340,-127.441,0
1486664248.567,21.973,20.996,41.992,68.848,-25.879,0
1486664248.571,43.457,25.391,42.969,84.473,185.547,0
1486664248.575,46.387,22.949,35.156,70.312,205.078,0
1486664248.578,36.621,24.414,37.109,46.875,-26.367,0
1486664248.582,39.062,27.832,37.109,51.270,-149.414,0
1486664248.586,48.828,28.320,29.785,64.453,-81.055,0
1486664248.590,71.289,32.227,34.668,84.961,132.812,0
1486664248.594,69.824,35.645,32.715,75.684,168.945,0
1486664248.598,41.992,32.227,29.297,38.574,-33.691,0
1486664248.602,40.527,33.691,36.133,41.016,-115.723,0
1486664248.606,37.598,31.738,32.227,54.199,-75.684,0
1486664248.610,44.434,24.902,28.320,74.219,151.367,0
1486664248.614,50.293,23.926,36.133,76.660,255.371,0
1486664248.617,25.391,29.297,39.551,46.387,18.066,0
1486664248.621,27.832,29.785,41.016,50.293,-100.586,0
1486664248.625,38.574,26.855,43.945,70.312,-58.594,0
1486664248.629,45.898,25.391,36.621,84.473,102.539,0
1486664248.633,50.293,27.832,39.062,86.426,208.496,0
1486664248.637,27.344,30.762,42.969,46.875,23.438,0
1486664248.641,14.648,26.855,34.668,33.691,-104.980,0
1486664248.645,21.973,26.855,33.691,48.340,-88.867,0
1486664248.649,38.086,27.344,34.668,62.012,83.984,0
1486664248.653,53.223,29.785,36.133,66.406,220.215,0
1486664248.657,34.180,35.156,37.109,38.574,18.066,0
1486664248.660,25.879,32.227,32.715,24.902,-128.906,0
1486664248.664,36.133,30.273,32.227,42.969,-74.707,0
1486664248.668,54.199,38.086,32.227,70.312,41.992,0
1486664248.672,66.406,35.156,25.879,78.613,192.871,0
1486664248.676,48.828,28.320,21.484,48.828,75.195,0
1486664248.680,37.109,27.832,23.438,36.621,-140.137,0
1486664248.684,35.645,29.297,28.809,50.293,-148.438,0
1486664248.688,57.617,34.668,35.645,78.125,-31.738,0
1486664248.692,76.660,33.203,32.715,91.797,198.242,0
1486664248.696,42.480,28.320,29.785,55.176,125.977,0
1486664248.699,17.578,26.855,38.574,39.062,-105.469,0
1486664248.703,27.832,21.973,36.621,51.270,-124.023,0
1486664248.707,40.039,24.902,27.832,71.289,3.906,0
1486664248.711,42.480,25.391,29.297,85.938,228.516,0
1486664248.715,38.086,26.855,35.156,64.453,185.059,0
1486664248.719,23.926,32.715,37.598,44.922,-49.316,0
1486664248.723,19.531,27.344,35.645,43.457,-88.379,0
1486664248.727,24.902,22.461,33.691,47.852,-21.484,0
1486664248.731,44.922,27.344,35.156,63.477,167.969,0
1486664248.735,47.363,31.250,38.086,51.758,155.273,0
1486664248.739,29.297,30.762,33.203,25.391,-57.617,0
1486664248.742,30.762,27.344,27.832,32.715,-130.859,0
1486664248.746,43.945,26.855,35.156,55.664,-90.332,0
1486664248.750,63.965,33.203,36.133,78.613,120.605,0
1486664248.754,66.406,31.250,32.715,69.824,175.781,0
1486664248.758,47.363,32.227,38.574,44.434,-32.227,0
1486664248.762,39.062,31.250,39.062,50.781,-101.074,0
1486664248.766,38.574,33.203,27.832,66.406,-31.738,0
1486664248.770,55.664,33.203,27.832,85.449,147.949,0
1486664248.774,57.617,30.273,34.180,79.102,224.609,0
1486664248.778,31.738,32.227,36.133,49.316,-17.578,0
1486664248.782,19.531,29.297,36.621,44.922,-109.863,0
1486664248.785,22.949,26.855,44.434,57.129,-74.707,0
1486664248.789,41.992,28.320,39.062,75.684,104.492,0
1486664248.793,55.664,25.879,25.391,68.359,200.195,0
1486664248.797,24.902,21.484,27.344,36.621,-31.738,0
1486664248.801,14.648,25.391,33.691,35.156,-168.457,0
1486664248.805,26.855,24.902,37.109,43.457,-135.742,0
1486664248.809,35.156,20.020,40.527,60.547,62.988,0
1486664248.813,50.781,23.438,43.457,70.801,259.766,0
1486664248.817,29.297,28.809,35.156,36.133,83.008,0
1486664248.821,21.484,27.832,36.133,30.762,-122.559,0
1486664248.824,33.203,26.855,37.598,48.340,-102.539,0
1486664248.828,44.922,30.273,36.621,62.988,76.660,0
1486664248.832,61.523,30.273,38.086,78.125,256.348,0
1486664248.836,46.387,31.738,39.062,58.594,117.676,0
1486664248.840,23.926,28.320,37.598,44.434,-106.445,0
1486664248.844,25.879,28.809,35.645,60.547,-118.164,0
1486664248.848,39.551,29.297,36.621,73.730,33.691,0
1486664248.852,53.223,26.855,42.969,84.473,221.191,0
1486664248.856,39.062,29.297,39.551,63.477,147.461,0
1486664248.860,21.484,24.414,27.832,43.457,-72.266,0
1486664248.864,13.672,20.020,31.738,51.758,-103.516,0
1486664248.867,22.461,22.949,40.039,65.430,54.199,0
1486664248.871,42.480,26.855,43.945,78.125,256.836,0
1486664248.875,27.344,20.996,38.574,53.223,206.055,0
1486664248.879,19.043,20.020,33.691,37.109,10.254,0
1486664248.883,24.902,27.344,32.227,41.016,-57.617,0
1486664248.887,35.156,25.879,33.203,55.176,35.156,0
1486664248.891,55.664,27.344,33.691,75.684,255.371,0
1486664248.895,49.316,30.273,31.738,59.570,225.098,0
1486664248.899,29.297,31.250,42.480,39.551,-21.484,0
1486664248.903,23.438,30.762,44.434,44.922,-57.129,0
1486664248.907,27.344,28.320,32.715,61.523,17.090,0
1486664248.910,54.688,33.203,30.273,85.938,231.445,0
1486664248.914,55.176,32.715,31.738,73.730,305.664,0
1486664248.918,29.297,29.297,34.180,48.340,63.965,0
1486664248.922,24.414,27.344,36.621,50.293,-41.016,0
1486664248.926,31.738,25.879,32.227,68.359,43.945,0
1486664248.930,62.500,29.297,33.203,95.215,243.652,0
1486664248.934,66.895,28.320,38.574,85.938,304.688,0
1486664248.938,47.852,23.926,37.598,58.105,90.820,0
1486664248.942,43.945,24.902,37.109,54.688,-9.277,0
1486664248.946,33.691,30.273,37.109,64.941,48.828,0
1486664248.949,58.594,28.809,43.457,82.520,222.168,0
1486664248.953,69.824,24.414,44.434,76.660,323.730,0
1486664248.957,36.621,24.902,31.250,39.551,130.859,0
1486664248.961,21.484,24.902,32.715,30.762,0.977,0
1486664248.965,29.297,31.250,37.109,49.805,43.457,0
1486664248.969,44.922,29.785,31.250,70.801,221.191,0
1486664248.973,57.617,25.879,32.227,74.707,367.676,0
1486664248.977,40.527,28.320,34.180,51.758,234.863,0
1486664248.981,28.809,32.227,34.180,43.457,54.199,0
1486664248.985,39.062,30.273,35.156,59.082,36.621,0
1486664248.989,57.617,25.391,36.621,81.055,210.938,0
1486664248.992,68.848,26.367,37.109,84.961,364.746,0
1486664248.996,46.387,33.203,35.156,65.430,202.148,0
1486664249.000,35.156,29.297,32.227,49.316,33.203,0
1486664249.004,39.062,22.949,34.668,59.570,57.129,0
1486664249.008,50.293,29.297,37.598,82.520,200.195,0
1486664249.012,68.359,33.203,34.668,80.566,355.469,0
1486664249.016,41.992,29.785,38.086,51.270,226.562,0
1486664249.020,24.414,29.297,47.363,39.551,44.434,0
1486664249.024,27.344,27.832,41.016,44.434,54.199,0
1486664249.028,32.715,25.879,30.273,59.570,166.504,0
1486664249.031,57.129,30.273,36.133,77.637,358.398,0
1486664249.035,40.527,30.273,37.598,54.688,278.320,0
1486664249.039,21.973,23.438,33.691,30.273,46.875,0
1486664249.043,29.297,25.391,36.621,38.086,17.578,0
1486664249.047,37.109,26.855,41.992,53.711,137.207,1
1486664249.051,64.941,26.855,30.273,73.730,333.008,0
1486664249.055,67.383,30.273,24.414,54.688,296.387,0
1486664249.059,50.781,34.180,31.738,21.973,73.242,0
1486664249.063,49.316,34.180,32.715,39.551,30.762,0
1486664249.067,62.988,33.203,37.109,61.035,122.070,0
1486664249.071,70.801,31.250,36.133,69.336,316.406,0
1486664249.074,61.035,27.832,37.598,64.453,291.992,0
1486664249.078,34.668,29.785,36.133,42.969,43.457,0
1486664249.082,17.578,29.297,28.320,39.062,-15.625,0
1486664249.086,21.484,26.367,33.691,51.270,76.660,0
1486664249.090,46.875,27.832,38.574,76.172,263.184,0
1486664249.094,43.945,27.832,43.945,62.500,268.066,0
1486664249.098,18.066,27.832,43.457,32.715,39.551,0
1486664249.102,9.766,27.344,36.133,35.156,-54.199,0
1486664249.106,11.719,23.926,41.504,42.480,-5.371,0
1486664249.110,35.645,25.391,37.598,65.918,193.848,0
1486664249.114,35.156,25.391,30.273,61.523,268.066,0
1486664249.117,11.719,23.926,31.738,30.762,46.387,0
1486664249.121,8.301,26.855,28.320,33.203,-81.543,0
1486664249.125,12.695,27.832,33.203,50.781,-64.453,0
1486664249.129,44.922,32.227,41.504,78.613,120.605,0
1486664249.133,59.082,33.203,34.668,81.055,242.188,0
1486664249.137,37.598,27.832,34.180,53.223,43.457,0
1486664249.141,28.320,31.250,35.156,50.781,-90.332,0
1486664249.145,30.762,34.668,34.668,58.105,-84.961,0
1486664249.149,49.805,30.273,34.180,76.172,46.387,0
1486664249.153,62.500,31.250,25.879,85.449,242.676,0
1486664249.156,37.598,33.691,29.785,53.711,88.867,0
1486664249.160,20.020,31.250,35.645,36.133,-122.559,0
1486664249.164,30.762,34.180,41.016,55.664,-83.496,0
1486664249.168,46.387,35.156,41.504,75.195,73.730,0
1486664249.172,56.152,29.785,36.133,79.590,200.684,0
1486664249.176,38.574,28.809,37.109,56.641,68.848,0
1486664249.180,25.391,30.762,46.387,46.387,-106.445,0
1486664249.184,27.832,32.227,44.434,58.594,-116.211,0
1486664249.188,35.645,34.180,33.203,74.219,19.043,0
1486664249.192,52.246,28.809,36.133,79.590,214.844,0
1486664249.196,38.086,29.785,40.039,54.199,118.164,0
1486664249.199,7.324,30.762,38.574,42.480,-107.910,0
1486664249.203,9.766,29.785,39.551,49.805,-110.840,0
1486664249.207,20.020,28.320,41.504,61.523,11.230,0
1486664249.211,30.273,23.438,38.086,85.938,163.086,0
1486664249.215,14.160,21.973,36.621,61.523,64.941,0
1486664249.219,-9.766,22.949,37.598,33.203,-153.809,0
1486664249.223,-3.418,24.414,40.039,47.852,-172.363,0
1486664249.227,13.672,28.809,42.480,65.918,-98.145,0
1486664249.231,34.668,31.738,39.551,80.078,68.359,0
1486664249.235,33.203,31.250,40.527,61.035,72.266,0
1486664249.239,15.137,36.133,38.574,36.621,-157.227,0
1486664249.242,14.648,37.109,33.203,43.457,-225.586,0
1486664249.246,19.531,31.250,33.203,52.246,-160.645,0
1486664249.250,42.480,31.250,35.645,72.266,64.941,0
1486664249.254,45.898,33.691,38.574,60.547,120.117,0
1486664249.258,9.766,33.203,35.156,27.832,-129.395,0
1486664249.262,0.977,35.156,31.738,31.738,-224.121,0
1486664249.266,8.301,38.086,39.551,45.898,-158.203,0
1486664249.270,22.461,35.645,32.227,62.500,57.617,0
1486664249.274,28.320,34.668,29.785,57.129,90.332,0
1486664249.278,2.930,33.203,38.086,28.809,-123.047,0
1486664249.281,-3.906,27.344,31.250,28.320,-176.270,0
1486664249.285,4.883,28.320,33.203,45.898,-171.875,0
1486664249.289,19.531,29.297,37.109,65.918,-4.395,0
1486664249.293,32.715,27.832,35.645,66.895,149.414,0
1486664249.297,14.160,26.855,40.039,42.969,-38.086,0
1486664249.301,2.930,25.391,35.645,42.969,-175.781,0
1486664249.305,6.836,27.344,42.969,58.594,-159.668,0
1486664249.309,14.648,23.926,44.922,68.848,5.371,0
1486664249.313,21.973,17.578,32.227,69.824,161.621,0
1486664249.317,4.883,19.531,33.203,42.480,13.184,0
1486664249.321,-3.418,22.461,39.551,29.785,-156.738,0
1486664249.324,12.207,23.438,36.621,47.363,-171.387,0
1486664249.328,31.250,28.320,34.180,59.570,-15.137,0
1486664249.332,41.016,31.250,40.039,70.312,157.715,0
1486664249.336,26.855,29.785,34.668,49.316,24.414,0
1486664249.340,20.020,33.203,28.809,35.156,-102.051,0
1486664249.344,26.367,34.668,32.227,48.828,-81.543,0
1486664249.348,31.738,30.273,31.250,65.918,20.508,0
1486664249.352,45.410,29.297,33.691,72.266,189.453,0
1486664249.356,28.320,30.762,36.621,41.016,84.961,0
1486664249.360,12.695,28.809,33.691,24.902,-64.453,0
1486664249.363,17.090,28.809,32.715,35.645,-84.961,0
1486664249.367,20.020,31.250,36.621,53.711,-19.531,0
1486664249.371,36.133,28.809,38.574,69.824,183.105,0
1486664249.375,27.344,22.949,37.598,52.734,169.922,0
1486664249.379,5.859,23.926,34.180,34.180,-26.855,0
1486664249.383,7.324,23.438,30.762,45.410,-78.613,0
1486664249.387,13.672,20.508,35.156,60.547,-17.578,0
1486664249.391,35.645,21.484,38.086,77.148,172.852,0
1486664249.395,36.133,23.926,33.203,61.035,194.336,0
1486664249.399,16.113,25.879,36.621,36.621,-15.137,0
1486664249.403,15.137,28.320,37.109,42.480,-84.961,0
1486664249.406,27.832,28.809,35.645,63.965,-24.902,0
1486664249.410,43.945,24.414,41.504,84.961,158.203,0
1486664249.414,39.062,23.926,32.715,69.336,212.402,0
1486664249.418,28.320,27.832,32.227,46.387,15.137,0
1486664249.422,34.180,32.715,38.574,50.293,-85.938,0
1486664249.426,31.738,31.738,30.762,57.129,-30.762,0
1486664249.430,41.016,29.785,37.109,75.195,175.781,0
1486664249.434,45.898,27.344,38.574,67.383,218.750,0
1486664249.438,29.785,27.832,30.762,37.598,-2.441,0
1486664249.442,28.809,29.785,34.668,45.898,-131.348,0
1486664249.446,28.320,27.344,41.992,61.523,-75.195,0
1486664249.449,41.504,28.809,38.086,69.824,128.906,0
1486664249.453,48.340,34.180,35.645,65.918,251.953,0
1486664249.457,24.902,32.715,38.574,39.551,64.453,0
1486664249.461,14.648,26.855,31.250,28.809,-66.895,0
1486664249.465,25.391,29.785,37.109,41.504,-21.484,0
1486664249.469,35.156,28.320,38.086,65.430,111.328,0
1486664249.473,38.574,26.367,30.762,72.754,260.742,0
1486664249.477,25.879,27.344,33.203,42.480,87.891,0
1486664249.481,26.367,25.391,36.133,34.668,-92.773,0
1486664249.485,29.785,27.344,41.504,57.129,-101.074,0
1486664249.488,36.621,28.809,41.016,79.102,60.547,0
1486664249.492,48.340,29.785,38.086,84.473,221.191,0
1486664249.496,31.738,31.738,37.598,49.316,75.195,0
1486664249.500,20.996,26.855,35.645,34.668,-73.242,0
1486664249.504,28.809,29.785,34.180,46.387,-83.008,0
1486664249.508,38.574,33.691,39.062,62.012,39.062,0
1486664249.512,52.734,32.715,43.945,73.730,202.148,0
1486664249.516,37.598,33.691,41.992,48.828,122.070,0
1486664249.520,21.484,29.297,39.551,32.715,-45.898,0
1486664249.524,25.879,30.273,36.621,46.875,-89.355,0
1486664249.528,37.109,33.203,41.992,60.547,-12.207,0
1486664249.531,53.223,32.715,44.922,76.660,207.520,0
1486664249.535,42.969,32.715,42.480,61.523,167.969,0
1486664249.539,32.227,25.879,42.969,37.598,-67.383,0
1486664249.543,36.133,21.973,45.898,52.246,-96.191,0
1486664249.547,37.598,28.809,49.316,74.707,1.953,0
1486664249.551,55.176,29.785,41.504,86.426,192.871,0
1486664249.555,53.711,28.320,37.109,64.453,166.992,0
1486664249.559,37.109,29.785,41.504,41.992,-55.664,0
1486664249.563,34.668,32.715,36.133,48.340,-116.211,0
1486664249.567,31.738,31.738,33.203,55.664,-41.992,0
1486664249.571,51.758,30.762,35.156,73.242,187.012,0
1486664249.574,56.152,34.180,37.598,67.871,233.398,0
1486664249.578,29.785,31.250,36.621,41.016,12.695,0
1486664249.582,34.180,31.250,36.133,49.316,-99.609,0
1486664249.586,35.645,33.691,41.016,65.430,-57.129,0
1486664249.590,47.363,28.809,41.504,83.008,162.109,0
1486664249.594,48.828,23.438,37.598,73.242,211.426,0
1486664249.598,23.438,21.973,39.551,45.410,3.418,0
1486664249.602,22.461,26.367,36.621,44.922,-101.562,0
1486664249.606,30.762,29.297,33.691,57.617,-62.988,0
1486664249.610,49.316,30.762,36.621,81.055,151.367,0
1486664249.613,56.152,33.203,32.715,74.219,267.578,0
1486664249.617,36.621,34.668,30.273,43.945,42.480,0
1486664249.621,32.227,34.668,31.738,47.363,-103.516,0
1486664249.625,39.062,32.715,34.180,63.965,-52.246,0
1486664249.629,46.875,27.832,31.250,80.078,125.000,0
1486664249.633,51.270,31.250,25.879,69.824,245.117,0
1486664249.637,35.645,36.133,25.391,32.227,83.496,0
1486664249.641,28.809,34.668,32.227,43.457,-41.016,0
1486664249.645,32.715,34.180,37.109,57.617,-54.688,0
1486664249.649,32.227,35.645,32.715,65.430,94.727,0
1486664249.653,33.203,35.645,30.762,71.289,240.234,0
1486664249.656,15.137,33.203,34.180,37.598,99.121,0
1486664249.660,13.184,29.785,37.109,35.156,-48.828,0
1486664249.664,20.020,28.320,40.039,50.781,-58.594,0
1486664249.668,29.785,22.461,40.527,59.570,53.711,0
1486664249.672,41.504,20.020,38.086,70.801,223.633,0
1486664249.676,28.809,22.461,34.180,44.434,111.328,0
1486664249.680,24.902,21.973,33.203,26.855,-65.430,0
1486664249.684,35.645,24.902,31.250,41.016,-56.641,0
1486664249.688,41.504,29.785,31.250,60.547,63.477,1
1486664249.692,52.734,26.855,33.203,73.730,243.652,0
1486664249.695,41.016,24.414,31.250,44.434,157.715,0
1486664249.699,24.414,25.879,28.320,19.043,-31.738,0
1486664249.703,27.832,24.414,25.879,33.203,-54.199,0
1486664249.707,33.203,28.320,28.809,48.828,-0.488,0
1486664249.711,40.527,29.785,29.785,64.941,205.566,0
1486664249.715,38.574,28.320,31.738,55.176,185.059,0
1486664249.719,28.809,30.762,38.574,36.621,-47.852,0
1486664249.723,35.645,34.180,39.062,50.293,-102.051,0
1486664249.727,36.621,30.273,32.227,69.336,-53.223,0
1486664249.731,35.156,24.902,33.203,77.148,141.113,0
1486664249.735,39.062,26.367,31.738,63.477,188.477,0
1486664249.738,29.785,26.367,32.715,43.457,-31.250,0
1486664249.742,34.180,28.320,34.180,45.898,-107.910,0
1486664249.746,29.297,30.762,32.227,53.223,-26.367,0
1486664249.750,36.621,30.762,33.203,69.824,183.594,0
1486664249.754,41.992,30.273,34.668,59.570,201.660,0
1486664249.758,22.461,31.738,30.762,24.902,-52.246,0
1486664249.762,23.926,36.133,35.156,34.668,-129.395,0
1486664249.766,26.855,35.156,36.133,43.945,-63.477,0
1486664249.770,31.250,30.762,29.785,50.781,137.695,0
1486664249.774,37.598,25.391,31.250,54.199,237.793,0
1486664249.778,24.902,24.902,32.715,31.738,31.250,0
1486664249.781,20.020,26.855,31.738,29.297,-110.840,0
1486664249.785,23.438,27.832,33.203,44.922,-57.617,0
1486664249.789,35.156,26.855,35.156,69.824,118.652,0
1486664249.793,41.016,21.484,37.109,68.359,220.215,0
1486664249.797,25.879,21.484,36.133,40.039,27.832,0
1486664249.801,24.414,24.902,41.504,45.410,-83.984,0
1486664249.805,30.762,26.367,42.969,55.664,-57.129,0
1486664249.809,38.574,26.855,29.297,70.801,80.078,0
1486664249.813,48.828,28.809,27.832,77.148,236.328,0
1486664249.817,39.551,35.156,34.668,51.758,47.363,0
1486664249.820,36.621,31.738,32.715,46.875,-108.398,0
1486664249.824,40.039,25.391,32.715,60.547,-57.129,0
1486664249.828,42.480,30.762,38.086,84.473,117.188,0
1486664249.832,51.758,31.250,40.527,91.309,243.652,0
1486664249.836,35.645,26.855,39.062,60.547,89.355,0
1486664249.840,31.738,29.785,44.434,53.223,-33.203,0
1486664249.844,34.668,30.762,48.828,60.059,-48.828,0
1486664249.848,31.738,28.320,35.645,74.219,66.895,0
1486664249.852,39.062,27.344,29.297,83.008,264.648,0
1486664249.856,31.738,25.879,38.574,51.758,132.812,0
1486664249.860,25.879,28.809,40.039,37.598,-45.410,0
1486664249.863,20.996,27.832,34.180,50.781,-34.180,0
1486664249.867,27.344,24.414,37.109,67.383,42.480,0
1486664249.871,41.504,26.855,37.598,83.496,236.328,0
1486664249.875,37.109,30.762,39.062,58.105,157.227,0
1486664249.879,26.367,26.855,43.945,28.809,-58.105,0
1486664249.883,20.508,24.414,34.180,33.691,-47.852,0
1486664249.887,23.926,28.809,27.344,47.363,41.016,0
1486664249.891,41.504,28.809,28.320,74.219,213.379,0
1486664249.895,40.527,26.855,30.273,60.059,172.852,0
1486664249.899,26.367,28.809,35.156,28.809,-51.270,0
1486664249.903,35.156,30.762,39.062,43.457,-79.590,0
1486664249.906,37.598,28.809,41.016,64.453,-14.648,0
1486664249.910,52.734,31.738,42.480,92.285,189.453,0
1486664249.914,48.828,31.738,43.945,85.938,204.102,0
1486664249.918,30.762,27.832,41.504,53.223,-8.789,0
1486664249.922,38.086,29.785,39.551,54.688,-78.613,0
1486664249.926,39.062,30.762,36.621,64.453,-41.016,0
1486664249.930,44.922,29.297,37.109,85.449,138.672,0
1486664249.934,46.387,31.738,37.598,80.078,201.172,0
1486664249.938,35.645,31.250,38.574,50.781,2.930,0
1486664249.942,37.598,26.367,39.062,48.340,-91.309,0
1486664249.945,36.621,28.809,36.133,61.035,-58.105,0
1486664249.949,38.574,27.344,39.551,80.078,97.656,0
1486664249.953,46.875,27.832,38.086,77.637,226.562,0
1486664249.957,38.574,31.738,36.621,51.758,91.797,0
1486664249.961,24.414,25.391,47.852,38.574,-77.637,0
1486664249.965,21.484,22.461,40.039,49.805,-81.055,0
1486664249.969,38.086,28.320,30.762,74.707,100.098,0
1486664249.973,45.410,27.832,42.969,78.125,201.660,0
1486664249.977,19.043,25.391,40.527,46.387,33.691,0
1486664249.981,15.625,26.367,33.691,35.645,-87.402,0
1486664249.985,27.832,25.391,35.156,48.340,-41.504,0
1486664249.988,34.180,28.320,39.062,73.242,77.148,0
1486664249.992,46.387,30.762,39.551,80.566,238.770,0
1486664249.996,38.086,30.273,35.645,51.270,96.680,0
1486664250.000,33.203,29.297,32.715,40.039,-93.262,0
1486664250.004,29.297,30.762,40.527,56.152,-41.504,0
1486664250.008,34.668,31.738,40.527,76.660,106.445,0
1486664250.012,51.270,30.273,29.785,85.938,251.465,0
1486664250.016,35.156,34.180,32.227,59.570,124.023,0
1486664250.020,23.926,34.180,33.203,43.457,-82.520,0
1486664250.024,27.832,29.297,32.715,55.176,-118.164,0
1486664250.027,31.738,29.297,35.156,73.242,10.254,0
1486664250.031,39.062,28.809,35.156,76.172,203.613,0
1486664250.035,36.621,29.785,34.180,50.781,170.898,0
1486664250.039,34.668,31.250,33.691,33.203,-10.742,0
1486664250.043,34.180,29.785,32.227,34.668,-88.867,0
1486664250.047,46.387,31.738,34.668,54.688,-5.371,0
1486664250.051,65.430,37.598,39.551,73.730,214.355,0
1486664250.055,48.828,39.062,38.086,50.781,216.309,0
1486664250.059,36.133,36.621,33.203,32.715,-30.273,0
1486664250.063,35.645,35.156,29.785,47.363,-90.332,0
1486664250.067,22.949,32.715,35.156,59.570,18.066,0
1486664250.070,30.762,28.809,35.645,76.172,188.965,0
1486664250.074,31.738,29.297,34.180,66.406,181.152,0
1486664250.078,21.484,25.879,36.133,42.969,-15.625,0
1486664250.082,24.414,23.926,38.086,49.316,-51.270,0
1486664250.086,26.367,27.832,41.016,65.918,0.000,0
1486664250.090,41.016,28.809,39.062,84.961,187.012,0
1486664250.094,39.062,24.902,35.156,71.289,241.211,0
1486664250.098,16.602,24.902,33.691,38.086,19.531,0
1486664250.102,22.461,27.832,31.738,37.598,-95.703,0
1486664250.106,25.391,30.273,36.621,54.688,-64.941,0
1486664250.110,47.852,35.156,39.551,81.055,136.719,0
1486664250.113,52.734,32.715,38.574,75.684,209.961,0
1486664250.117,22.461,28.320,37.598,50.781,-5.371,0
1486664250.121,29.297,32.227,33.691,49.805,-93.262,0
1486664250.125,37.598,32.715,37.598,58.105,-46.387,0
1486664250.129,41.504,30.762,33.691,74.707,125.977,0
1486664250.133,41.504,29.297,28.320,66.895,282.715,0
1486664250.137,32.715,27.832,33.203,39.551,73.242,0
1486664250.141,29.785,29.297,38.086,36.133,-83.496,0
1486664250.145,25.879,28.809,34.668,46.875,-46.875,0
1486664250.149,38.086,28.809,32.715,66.406,86.914,0
1486664250.152,42.480,31.250,33.203,69.824,245.117,0
1486664250.156,25.391,31.738,34.180,44.922,96.680,0
1486664250.160,22.949,34.668,40.039,38.574,-97.168,0
1486664250.164,22.461,33.203,38.574,49.316,-90.332,0
1486664250.168,25.391,27.344,33.203,66.895,92.285,0
1486664250.172,36.621,27.832,31.738,70.801,257.324,0
1486664250.176,31.738,30.273,32.715,49.316,88.379,0
1486664250.180,21.484,29.785,31.250,31.738,-95.703,0
1486664250.184,24.902,31.738,31.250,36.621,-46.387,0
1486664250.188,35.645,32.715,38.574,61.523,41.016,0
1486664250.192,46.387,28.320,39.062,75.195,205.078,0
1486664250.195,30.762,27.832,39.551,50.781,149.414,0
1486664250.199,19.531,28.809,41.504,30.273,-55.664,0
1486664250.203,27.832,29.785,38.574,41.504,-69.824,0
1486664250.207,30.762,30.762,37.598,61.523,25.879,0
1486664250.211,44.922,31.738,36.133,81.055,224.609,0
1486664250.215,42.969,35.156,34.668,67.383,197.754,0
1486664250.219,37.598,35.156,35.645,47.852,-6.836,0
1486664250.223,41.992,35.156,34.180,57.617,-74.219,0
1486664250.227,43.945,34.180,36.133,74.219,-22.461,0
1486664250.231,57.617,32.715,35.645,89.355,181.641,0
1486664250.235,49.805,29.297,35.645,74.707,173.828,0
1486664250.238,38.086,28.320,33.691,46.875,-40.527,0
1486664250.242,35.645,27.832,32.715,50.781,-82.520,0
1486664250.246,37.109,28.809,37.598,63.965,-11.230,0
1486664250.250,44.434,30.762,34.180,75.195,187.988,0
1486664250.254,34.180,29.785,32.715,63.477,215.820,0
1486664250.258,21.484,27.344,34.180,31.738,-27.832,0
1486664250.262,23.926,26.367,33.203,31.738,-82.520,0
1486664250.266,35.156,28.320,35.645,47.852,-42.480,0
1486664250.270,43.457,29.785,37.109,63.965,107.422,0
1486664250.274,47.852,35.156,42.969,67.383,229.492,0
1486664250.277,36.133,34.180,35.156,41.992,19.531,0
1486664250.281,35.645,28.809,27.832,37.109,-90.820,0
1486664250.285,40.039,30.273,35.156,54.688,-35.156,0
1486664250.289,48.340,31.738,31.738,83.984,148.438,0
1486664250.293,57.617,28.320,30.762,86.426,262.695,0
1486664250.297,43.945,29.785,35.156,51.758,51.758,0
1486664250.301,43.945,30.273,35.156,50.293,-95.703,0
1486664250.305,41.016,27.832,38.574,63.965,-61.523,0
1486664250.309,45.410,28.809,42.969,82.520,93.750,1
1486664250.313,62.012,27.832,34.180,91.309,233.887,0
1486664250.317,42.480,26.855,33.203,59.082,51.758,0
1486664250.320,27.832,30.762,37.109,43.945,-66.406,0
1486664250.324,30.762,27.344,35.645,51.270,-20.996,0
1486664250.328,34.180,20.508,36.133,67.383,42.969,0
1486664250.332,43.457,23.926,35.156,71.777,235.352,0
1486664250.336,35.156,25.391,33.203,39.062,149.414,0
1486664250.340,33.203,23.926,31.738,27.344,-63.965,0
1486664250.344,35.156,29.297,31.738,41.016,-78.613,0
1486664250.348,35.156,30.762,30.273,61.523,33.691,0
1486664250.352,47.363,26.855,31.738,76.172,232.910,0
1486664250.356,35.156,29.785,33.691,50.293,135.742,0
1486664250.359,24.414,29.785,30.762,28.809,-47.852,0
1486664250.363,30.273,30.273,30.762,38.086,-90.820,0
1486664250.367,33.203,30.762,34.668,62.988,-17.578,0
1486664250.371,47.852,34.668,33.203,79.102,224.121,0
1486664250.375,40.039,31.250,30.762,58.594,165.527,0
1486664250.379,31.738,26.367,34.668,41.504,-47.363,0
1486664250.383,37.598,27.832,33.203,43.457,-101.562,0
1486664250.387,40.527,28.320,30.762,64.453,9.277,0
1486664250.391,46.875,30.273,38.574,86.426,223.145,0
1486664250.395,39.062,33.203,36.133,63.965,170.898,0
1486664250.399,28.809,32.715,32.715,36.133,-28.809,0
1486664250.402,34.668,30.762,31.738,38.086,-95.215,0
1486664250.406,33.691,34.180,29.785,50.293,-50.781,0
1486664250.410,38.086,31.738,35.156,67.871,137.207,0
1486664250.414,39.062,28.809,37.109,57.617,200.684,0
1486664250.418,21.484,31.250,38.574,27.344,5.859,0
1486664250.422,18.066,27.832,35.645,23.926,-72.266,0
1486664250.426,21.973,26.367,30.273,35.645,-43.945,0
1486664250.430,37.109,30.762,33.203,61.035,141.113,0
1486664250.434,39.551,28.809,31.250,56.641,249.023,0
1486664250.438,23.926,28.320,28.809,30.762,5.859,0
1486664250.442,34.668,30.762,31.738,36.133,-106.445,0
1486664250.445,41.504,37.109,36.621,51.758,-63.477,0
1486664250.449,51.270,41.504,39.551,77.637,132.324,0
1486664250.453,59.082,34.180,32.715,76.172,256.836,0
1486664250.457,44.922,30.762,32.715,50.293,43.945,0
1486664250.461,43.457,32.227,35.156,58.594,-72.266,0
1486664250.465,46.875,32.715,35.645,70.312,-55.176,0
1486664250.469,51.270,34.668,41.016,82.520,83.008,0
1486664250.473,46.387,33.203,44.922,88.867,240.234,0
1486664250.477,29.297,29.785,38.086,52.734,46.875,0
1486664250.481,23.926,29.297,34.668,38.086,-124.512,0
1486664250.484,22.461,30.762,36.621,50.781,-93.750,0
1486664250.488,25.879,30.762,34.668,69.336,65.430,0
1486664250.492,36.133,25.879,40.527,76.660,203.613,0
1486664250.496,22.461,23.438,44.434,50.293,86.914,0
1486664250.500,17.090,26.367,38.574,37.109,-72.266,0
1486664250.504,23.926,27.344,34.180,40.527,-79.590,0
1486664250.508,39.551,27.832,32.227,61.035,50.293,0
1486664250.512,58.105,29.785,35.156,77.637,217.773,0
1486664250.516,42.969,30.762,34.668,51.270,110.352,0
1486664250.520,36.133,30.762,25.879,36.133,-101.562,0
1486664250.524,46.875,30.762,22.949,45.410,-112.305,0
1486664250.527,51.758,34.180,27.344,62.500,5.859,0
1486664250.531,65.430,36.621,27.344,83.008,207.520,0
1486664250.535,58.594,33.691,26.855,60.547,144.043,0
1486664250.539,54.199,35.156,26.367,36.133,-68.359,0
1486664250.543,60.059,40.527,20.508,44.434,-91.797,0
1486664250.547,58.594,40.527,28.320,64.453,-25.879,0
1486664250.551,62.500,38.086,34.180,78.613,163.574,0
1486664250.555,49.316,41.504,32.227,65.430,172.852,0
1486664250.559,26.367,39.551,35.156,42.969,-66.895,0
1486664250.563,25.391,33.691,36.133,41.504,-97.168,0
1486664250.567,34.668,33.691,36.621,62.988,1.465,0
1486664250.570,37.598,30.273,31.250,79.590,175.781,0
1486664250.574,32.227,27.832,33.203,69.336,200.195,0
1486664250.578,23.438,26.855,33.203,48.340,-13.672,0
1486664250.582,21.973,28.320,31.250,50.293,-84.473,0
1486664250.586,18.066,25.879,41.016,68.848,-23.926,0
1486664250.590,30.273,19.043,45.898,85.449,162.598,0
1486664250.594,40.039,17.090,42.480,80.566,225.586,0
1486664250.598,20.508,20.508,44.434,54.688,41.992,0
1486664250.602,14.648,21.484,48.340,52.734,-42.969,0
1486664250.606,27.344,17.578,39.551,65.430,-8.789,0
1486664250.609,46.387,22.461,34.180,82.031,130.859,0
1486664250.613,48.828,26.855,34.180,77.637,247.559,0
1486664250.617,40.527,27.832,34.180,48.340,47.852,0
1486664250.621,39.551,32.715,35.645,43.945,-102.539,0
1486664250.625,38.086,38.086,32.715,48.340,-55.176,0
1486664250.629,46.387,37.109,32.715,62.012,108.398,0
1486664250.633,55.176,33.203,33.203,63.965,192.871,0
1486664250.637,41.016,38.086,30.762,36.133,22.461,0
1486664250.641,36.621,38.574,31.738,29.297,-76.660,0
1486664250.645,37.598,29.785,35.645,39.062,-90.332,0
1486664250.649,37.598,26.367,27.344,61.523,16.113,0
1486664250.652,41.016,26.855,23.438,70.312,213.379,0
1486664250.656,32.715,29.297,33.203,41.504,94.727,0
1486664250.660,28.809,32.715,31.250,33.691,-105.957,0
1486664250.664,26.855,30.762,28.809,49.805,-114.258,0
1486664250.668,39.551,29.297,34.668,70.312,53.711,0
1486664250.672,50.781,28.320,42.969,83.984,253.418,0
1486664250.676,34.180,28.320,41.016,62.500,130.859,0
1486664250.680,23.438,26.855,32.715,37.598,-98.633,0
1486664250.684,22.461,21.973,33.691,46.875,-93.262,0
1486664250.688,34.668,20.996,37.109,70.801,45.410,0
1486664250.691,39.551,22.949,41.504,77.637,232.422,0
1486664250.695,19.531,24.414,41.504,54.199,159.668,0
1486664250.699,14.648,21.973,39.062,37.598,-55.176,0
1486664250.703,19.531,21.484,39.551,51.270,-83.008,0
1486664250.707,26.367,21.484,40.527,69.824,-30.273,0
1486664250.711,44.922,24.902,46.387,84.473,150.391,0
1486664250.715,37.109,25.391,44.434,67.871,161.621,0
1486664250.719,16.602,14.648,37.598,43.945,-24.902,0
1486664250.723,20.508,15.625,40.527,57.129,-102.051,0
1486664250.727,25.879,21.973,37.109,71.289,-32.227,0
1486664250.731,42.480,21.484,34.668,83.984,174.805,0
1486664250.734,45.898,23.926,35.645,64.941,190.918,0
1486664250.738,28.320,26.367,37.109,37.109,-27.832,0
1486664250.742,23.926,23.926,34.180,46.387,-88.379,0
1486664250.746,33.203,32.227,31.250,53.711,-64.453,0
1486664250.750,48.828,34.668,31.250,76.172,113.770,0
1486664250.754,51.270,28.809,33.691,71.777,194.824,0
1486664250.758,34.180,31.738,31.250,38.086,-17.578,0
1486664250.762,24.902,31.250,26.855,46.387,-104.980,0
1486664250.766,30.762,32.715,31.250,62.500,-64.941,0
1486664250.770,40.527,34.180,37.598,73.242,154.785,0
1486664250.774,43.945,31.250,31.738,66.895,274.902,0
1486664250.777,26.367,27.832,29.785,37.598,49.316,0
1486664250.781,15.625,27.344,34.668,30.273,-81.543,0
1486664250.785,20.996,29.297,38.574,48.340,-26.367,0
1486664250.789,35.645,28.320,39.062,74.219,111.816,0
1486664250.793,37.598,26.367,35.645,71.777,226.074,0
1486664250.797,22.949,27.344,36.621,43.945,50.781,0
1486664250.801,21.484,32.715,39.062,39.062,-76.660,0
1486664250.805,23.438,30.762,39.551,53.711,-36.621,0
1486664250.809,35.156,28.809,38.574,76.660,99.609,0
1486664250.813,42.969,29.785,41.992,79.102,229.004,0
1486664250.816,27.344,25.879,40.039,49.805,102.051,0
1486664250.820,14.160,25.391,37.109,37.598,-28.809,0
1486664250.824,18.066,26.855,38.574,48.340,-15.137,0
1486664250.828,22.949,26.367,38.574,63.477,103.027,0
1486664250.832,35.645,25.391,38.574,67.383,266.602,0
1486664250.836,25.391,27.344,38.574,40.039,126.465,0
1486664250.840,9.277,29.785,32.715,27.344,-94.727,0
1486664250.844,16.602,28.320,34.180,42.480,-79.590,0
1486664250.848,21.484,24.902,33.691,60.059,42.480,0
1486664250.852,45.410,28.320,30.762,80.566,239.258,0
1486664250.856,34.180,27.832,37.109,62.500,140.625,0
1486664250.859,11.719,24.414,32.715,36.621,-57.129,0
1486664250.863,24.414,26.367,34.180,44.434,-79.590,0
1486664250.867,36.133,28.320,36.621,64.941,7.812,0
1486664250.871,47.363,28.320,32.227,81.055,200.195,0
1486664250.875,40.527,24.902,31.738,60.059,179.688,0
1486664250.879,28.809,28.320,34.180,40.527,-35.645,0
1486664250.883,32.715,30.273,38.574,51.270,-99.121,0
1486664250.887,42.480,29.785,39.062,68.359,-30.273,0
1486664250.891,55.176,31.250,34.668,81.543,166.504,0
1486664250.895,45.898,27.344,29.297,62.500,202.148,0
1486664250.899,33.203,29.297,32.227,45.898,-28.320,0
1486664250.902,35.156,30.762,32.227,48.828,-93.750,0
1486664250.906,41.992,26.367,31.738,60.547,-49.316,0
1486664250.910,50.781,29.297,29.297,75.684,140.625,0
1486664250.914,46.875,31.738,29.785,53.711,204.590,0
1486664250.918,25.879,27.344,34.180,28.809,-6.348,0
1486664250.922,20.020,29.297,26.855,33.691,-53.223,0
1486664250.926,22.949,30.762,22.949,42.480,-33.203,0
1486664250.930,33.691,24.414,26.855,55.664,125.977,0
1486664250.934,33.203,23.438,27.344,52.734,225.098,0
1486664250.938,27.344,26.855,30.762,33.203,14.648,0
1486664250.941,29.785,27.832,33.203,40.527,-54.199,0
1486664250.945,28.809,25.879,32.715,58.105,-20.020,0
1486664250.949,49.805,24.902,38.086,83.496,129.883,0
1486664250.953,57.129,26.855,43.945,91.309,246.094,0
1486664250.957,37.598,25.879,34.668,62.500,38.086,0
1486664250.961,36.133,24.902,32.227,57.617,-97.656,0
1486664250.965,41.016,26.855,39.062,73.242,-55.664,0
1486664250.969,52.246,26.367,39.551,90.820,100.586,0
1486664250.973,55.664,23.926,39.062,88.867,236.328,0
1486664250.977,33.691,25.879,36.133,53.711,49.805,0
1486664250.981,25.879,28.809,34.180,41.504,-117.188,0
1486664250.984,21.484,30.762,35.645,48.340,-83.496,0
1486664250.988,29.297,32.227,39.062,64.453,92.285,0
1486664250.992,44.922,28.809,34.668,73.730,269.531,1
1486664250.996,26.855,27.832,29.297,44.434,111.816,0
1486664251.000,18.066,30.273,39.062,33.691,-101.562,0
1486664251.004,29.297,26.367,38.574,52.734,-109.863,0
1486664251.008,41.016,25.391,26.367,76.172,48.340,0
1486664251.012,66.895,26.855,29.297,91.797,202.148,0
1486664251.016,47.852,23.926,30.762,59.570,94.238,0
1486664251.020,28.809,23.926,29.785,40.039,-57.129,0
1486664251.023,44.922,25.879,35.156,56.152,-84.961,0
1486664251.027,49.805,26.855,40.527,70.801,9.277,0
1486664251.031,57.617,26.855,41.992,76.660,196.777,0
1486664251.035,55.176,26.367,36.621,53.223,160.645,0
1486664251.039,54.688,27.344,34.668,39.551,-32.715,0
1486664251.043,56.641,31.738,41.016,53.223,-92.285,0
1486664251.047,54.688,32.227,34.668,68.848,-1.953,0
1486664251.051,59.570,27.344,28.809,83.984,213.867,0
1486664251.055,43.945,25.879,32.227,63.477,209.961,0
1486664251.059,23.926,25.879,30.762,41.016,-6.836,0
1486664251.063,21.973,24.902,32.715,49.805,-69.336,0
1486664251.066,20.508,24.902,39.062,64.453,-9.277,0
1486664251.070,33.691,25.391,41.992,82.520,180.176,0
1486664251.074,34.668,21.973,35.156,73.242,207.031,0
1486664251.078,26.367,20.020,34.180,52.734,-7.812,0
1486664251.082,31.738,20.020,37.109,50.781,-69.824,0
1486664251.086,33.203,22.949,31.738,56.152,11.230,0
1486664251.090,48.828,27.344,31.250,81.055,175.293,0
1486664251.094,51.758,30.273,32.715,73.730,213.379,0
1486664251.098,34.180,26.367,29.785,41.992,32.715,0
1486664251.102,35.645,24.902,31.738,45.410,-65.430,0
1486664251.106,36.621,28.809,34.668,52.734,-58.105,0
1486664251.109,46.387,28.320,35.156,67.383,104.980,0
1486664251.113,43.945,26.855,33.203,67.383,251.953,0
1486664251.117,25.879,25.879,31.250,42.480,81.543,0
1486664251.121,29.297,24.414,34.668,46.875,-87.402,0
1486664251.125,30.273,26.855,38.086,62.500,-85.449,0
1486664251.129,31.738,28.320,39.551,79.102,90.332,0
1486664251.133,43.945,29.297,39.551,78.125,208.496,0
1486664251.137,33.691,29.297,41.016,50.781,33.203,0
1486664251.141,27.344,27.344,36.621,46.875,-94.727,0
1486664251.145,24.902,27.344,32.715,56.641,-91.309,0
1486664251.148,32.227,25.391,31.250,68.359,78.125,0
1486664251.152,43.945,27.344,30.273,78.613,257.324,0
1486664251.156,29.785,29.297,33.691,48.340,92.285,0
1486664251.160,25.391,27.832,35.645,35.156,-78.125,0
1486664251.164,36.133,33.203,35.645,52.246,-94.238,0
1486664251.168,43.945,35.156,33.691,68.359,-1.465,0
1486664251.172,54.688,27.832,27.832,70.312,196.289,0
1486664251.176,43.457,31.738,31.738,47.363,110.840,0
1486664251.180,33.691,33.691,36.133,41.016,-84.961,0
1486664251.184,37.598,33.203,31.250,55.176,-129.395,0
1486664251.188,41.016,35.156,33.203,75.195,-26.367,0
1486664251.191,52.246,30.273,36.621,85.938,176.758,0
1486664251.195,44.922,30.762,41.992,65.430,125.000,0
1486664251.199,33.691,37.598,40.039,54.688,-38.574,0
1486664251.203,30.762,35.645,33.203,52.246,-38.574,0
1486664251.207,41.504,32.227,32.715,53.223,3.906,0
1486664251.211,59.082,31.738,33.691,66.895,178.223,0
1486664251.215,47.363,28.320,36.621,54.199,169.922,0
1486664251.219,37.109,26.855,37.598,36.133,-27.832,0
1486664251.223,40.527,25.391,37.598,42.969,-59.082,0
1486664251.227,25.391,25.879,36.621,54.199,13.184,0
1486664251.231,43.945,30.762,34.180,75.684,206.055,0
1486664251.234,51.758,35.645,34.668,64.453,215.332,0
1486664251.238,25.879,28.320,27.344,34.668,-17.578,0
1486664251.242,22.949,24.902,25.391,41.504,-82.031,0
1486664251.246,25.391,26.367,31.250,50.781,-19.531,0
1486664251.250,44.434,23.926,33.203,70.801,157.227,0
1486664251.254,45.410,26.855,33.691,65.430,185.547,0
1486664251.258,25.391,32.227,35.156,36.621,-44.922,0
1486664251.262,26.855,30.762,33.691,42.480,-87.891,0
1486664251.266,25.391,31.250,29.297,53.711,-47.363,0
1486664251.270,39.551,34.180,30.273,71.289,110.840,0
1486664251.273,42.480,33.203,32.227,70.312,206.543,0
1486664251.277,23.438,28.809,32.227,42.480,28.320,0
1486664251.281,25.879,29.785,34.180,44.922,-66.895,0
1486664251.285,31.250,33.203,39.551,60.547,-28.809,0
1486664251.289,44.922,32.715,41.016,80.566,141.113,0
1486664251.293,50.781,28.320,39.551,82.031,204.590,0
1486664251.297,32.227,23.438,35.156,48.340,31.738,0
1486664251.301,27.832,24.902,29.297,39.062,-67.383,0
1486664251.305,26.367,25.391,39.062,53.223,-69.336,0
1486664251.309,41.504,23.926,35.645,66.406,74.707,0
1486664251.313,57.617,26.855,27.832,63.965,229.492,0
1486664251.316,33.203,27.832,30.273,34.180,73.242,0
1486664251.320,27.344,29.297,33.203,28.809,-81.543,0
1486664251.324,30.273,33.203,33.691,38.574,-73.730,0
1486664251.328,38.574,33.203,29.785,53.711,62.500,0
1486664251.332,52.246,34.180,32.715,67.383,232.910,0
1486664251.336,33.691,37.598,33.203,45.410,104.492,0
1486664251.340,20.020,36.621,27.832,27.832,-71.289,0
1486664251.344,22.949,27.344,27.344,38.574,-67.871,0
1486664251.348,33.691,26.367,31.250,63.965,32.227,0
1486664251.352,45.898,26.855,33.203,77.148,219.727,0
1486664251.355,31.738,25.879,34.180,58.105,121.094,0
1486664251.359,14.648,26.855,35.156,42.969,-65.918,0
1486664251.363,13.672,26.367,36.133,50.781,-90.332,0
1486664251.367,19.531,23.438,45.898,69.336,0.000,0
1486664251.371,31.738,21.973,41.992,91.797,203.125,0
1486664251.375,16.113,22.461,29.785,71.289,130.371,0
1486664251.379,0.488,22.461,28.320,41.016,-53.711,0
1486664251.383,15.137,26.367,33.203,54.688,-90.332,0
1486664251.387,24.414,32.227,36.621,76.660,-53.223,0
1486664251.391,43.945,31.250,28.320,85.938,141.602,0
1486664251.395,40.527,31.738,29.785,68.359,155.273,0
1486664251.398,23.926,32.227,33.203,41.504,-60.547,0
1486664251.402,28.809,31.250,27.832,37.109,-121.094,0
1486664251.406,33.203,32.227,34.180,54.199,-51.758,0
1486664251.410,47.852,30.762,38.086,73.242,130.859,0
1486664251.414,48.340,31.250,27.832,58.105,192.383,0
1486664251.418,32.227,29.785,24.902,34.180,-30.762,0
1486664251.422,29.785,31.738,27.344,37.109,-143.555,0
1486664251.426,30.273,32.227,30.273,50.293,-101.074,0
1486664251.430,47.363,30.273,33.203,71.777,116.211,0
1486664251.434,51.758,29.785,36.133,66.406,192.383,0
1486664251.438,25.879,30.273,36.133,37.598,-19.531,0
1486664251.441,26.367,31.738,38.086,41.992,-91.309,0
1486664251.445,35.156,36.621,38.086,51.758,-54.688,0
1486664251.449,43.457,33.203,33.203,65.430,134.766,0
1486664251.453,42.969,25.879,35.156,73.730,245.605,0
1486664251.457,26.367,28.320,34.668,44.922,47.852,0
1486664251.461,18.066,27.344,32.715,34.668,-52.734,0
1486664251.465,14.648,23.438,37.598,52.734,-29.297,0
1486664251.469,34.668,26.367,41.992,76.660,132.324,0
1486664251.473,51.758,29.297,43.945,80.078,272.461,0
1486664251.477,34.180,27.832,44.434,51.758,60.547,0
1486664251.480,24.902,26.855,38.086,44.434,-86.426,0
1486664251.484,24.414,26.855,38.574,52.734,-43.945,0
1486664251.488,42.480,25.391,38.574,64.941,92.773,0
1486664251.492,57.617,25.879,32.715,73.242,245.605,0
1486664251.496,35.645,26.855,35.156,51.270,119.141,0
1486664251.500,32.227,28.320,38.086,41.504,-57.617,0
1486664251.504,29.785,28.320,31.250,49.805,-60.547,1
1486664251.508,41.016,26.367,31.250,75.195,53.711,0
1486664251.512,62.988,24.902,39.551,89.355,242.676,0
1486664251.516,36.621,27.344,37.109,57.129,130.859,0
1486664251.520,16.113,26.855,39.062,41.504,-57.617,0
1486664251.523,20.020,28.809,47.363,51.270,-57.129,0
1486664251.527,28.320,31.250,39.062,69.336,30.273,0
1486664251.531,42.969,29.297,33.691,79.102,239.746,0
1486664251.535,31.250,27.832,35.645,58.594,187.988,0
1486664251.539,14.648,28.320,36.133,42.480,-33.691,0
1486664251.543,15.625,27.832,35.645,44.922,-84.473,0
1486664251.547,30.273,29.297,40.039,60.547,-12.695,0
1486664251.551,49.805,29.297,48.340,77.148,200.684,0
1486664251.555,39.062,23.438,37.598,62.500,219.727,0
1486664251.559,30.762,26.367,28.809,50.293,-16.602,0
1486664251.562,30.273,27.344,30.762,49.316,-114.258,0
1486664251.566,34.180,23.438,33.691,61.035,-26.855,0
1486664251.570,61.523,23.926,38.086,91.797,196.289,0
1486664251.574,59.082,25.391,35.645,77.148,242.676,0
1486664251.578,31.738,25.879,41.016,51.758,30.273,0
1486664251.582,31.738,25.391,43.945,62.500,-71.289,0
1486664251.586,35.156,23.438,33.203,69.336,-22.949,0
1486664251.590,38.574,22.949,30.273,77.637,176.758,0
1486664251.594,35.156,24.414,32.715,71.289,280.273,0
1486664251.598,25.879,29.785,31.250,47.363,46.875,0
1486664251.602,19.531,30.762,34.180,40.039,-61.523,0
1486664251.605,12.207,26.367,34.180,43.457,2.930,0
1486664251.609,35.645,26.367,28.320,65.918,161.621,0
1486664251.613,40.039,25.391,29.785,63.477,264.160,0
1486664251.617,19.531,23.926,30.273,37.109,66.406,0
1486664251.621,14.648,25.391,33.691,36.621,-60.547,0
1486664251.625,22.949,27.832,39.551,46.387,-27.344,0
1486664251.629,43.457,26.367,41.016,70.312,91.797,0
1486664251.633,45.898,24.902,35.156,74.219,240.234,0
1486664251.637,27.832,24.902,32.227,44.922,83.496,0
1486664251.641,22.949,28.320,39.062,46.387,-63.477,0
1486664251.645,27.832,30.762,42.480,64.453,-62.988,0
1486664251.648,44.922,25.391,33.691,82.520,88.867,0
1486664251.652,62.988,22.461,31.250,91.797,278.320,0
1486664251.656,41.016,24.902,33.691,58.105,152.832,0
1486664251.660,29.785,28.320,39.062,44.434,-25.879,0
1486664251.664,34.668,32.227,40.039,62.988,-42.480,0
1486664251.668,37.109,29.785,40.527,76.172,108.398,0
1486664251.672,47.363,24.414,39.551,75.684,270.996,0
1486664251.676,29.297,26.367,29.785,43.457,147.949,0
1486664251.680,9.766,27.344,33.203,24.414,-13.672,0
1486664251.684,20.508,29.297,34.668,45.410,-32.227,0
1486664251.687,36.621,30.762,32.715,60.059,62.500,0
1486664251.691,52.734,26.855,34.668,66.895,240.723,0
1486664251.695,51.270,29.297,37.109,56.152,167.969,0
1486664251.699,28.809,31.250,40.039,36.133,-44.922,0
1486664251.703,21.973,28.809,32.715,42.480,-95.215,0
1486664251.707,29.297,26.367,30.762,60.547,28.320,0
1486664251.711,44.434,26.367,37.598,75.684,228.516,0
1486664251.715,46.875,30.762,36.621,59.570,179.688,0
1486664251.719,23.438,27.832,33.691,39.062,-33.203,0
1486664251.723,20.996,22.461,33.691,42.480,-101.074,0
1486664251.727,33.691,24.902,32.715,54.199,-36.133,0
1486664251.730,56.641,29.297,33.691,75.195,180.664,0
1486664251.734,55.176,30.273,39.062,67.871,224.121,0
1486664251.738,26.855,26.855,39.551,41.016,-14.648,0
1486664251.742,30.273,25.879,37.109,47.852,-91.309,0
1486664251.746,38.086,29.297,34.180,62.012,-35.156,0
1486664251.750,63.477,29.297,34.668,84.961,145.508,0
1486664251.754,74.707,27.832,40.039,75.684,228.516,0
1486664251.758,41.992,31.250,35.645,42.969,38.574,0
1486664251.762,35.645,35.156,32.715,45.898,-62.988,0
1486664251.766,45.410,31.738,38.086,59.570,-58.105,0
1486664251.770,55.664,29.785,41.016,77.148,89.355,0
1486664251.773,54.199,29.785,34.180,70.312,273.438,0
1486664251.777,33.691,25.391,26.855,37.109,91.797,0
1486664251.781,20.996,24.902,28.320,34.180,-77.637,0
1486664251.785,21.484,26.855,31.738,42.969,-22.949,0
1486664251.789,45.898,25.391,31.250,62.988,153.809,0
1486664251.793,53.223,27.832,32.715,68.848,271.484,0
1486664251.797,28.320,28.320,34.668,36.133,83.496,0
1486664251.801,17.090,24.902,39.551,30.273,-52.734,0
1486664251.805,18.555,24.902,39.062,44.434,-26.855,0
1486664251.809,36.621,26.367,32.715,69.336,83.984,0
1486664251.812,49.805,25.879,34.180,80.566,284.180,0
1486664251.816,30.762,25.391,36.621,45.898,159.180,0
1486664251.820,26.855,24.902,38.086,41.992,-39.551,0
1486664251.824,29.297,27.832,40.527,56.152,-57.617,0
1486664251.828,43.457,31.738,41.016,69.824,66.406,0
1486664251.832,67.383,34.668,37.109,81.055,240.234,0
1486664251.836,43.457,34.668,28.320,50.781,143.555,0
1486664251.840,25.879,29.297,24.902,35.645,-47.363,0
1486664251.844,31.250,27.344,29.785,46.875,-81.543,0
1486664251.848,40.527,27.832,29.785,57.617,57.617,0
1486664251.852,64.453,30.273,25.391,72.754,233.887,0
1486664251.855,57.617,29.297,32.715,57.129,188.965,0
1486664251.859,38.574,28.809,33.203,36.621,5.371,0
1486664251.863,36.621,29.785,24.414,45.898,-49.805,0
1486664251.867,39.062,30.762,24.414,64.941,38.574,0
1486664251.871,53.223,29.785,25.879,75.684,229.004,0
1486664251.875,47.852,32.227,30.762,65.918,220.215,0
1486664251.879,24.414,35.645,35.156,45.898,-22.461,0
1486664251.883,13.672,33.203,32.715,38.574,-90.332,0
1486664251.887,18.555,32.227,33.203,51.758,14.160,0
1486664251.891,35.645,29.297,36.621,72.266,210.449,0
1486664251.894,31.738,30.762,34.180,57.617,210.449,0
1486664251.898,12.695,31.738,33.203,29.297,-18.066,0
1486664251.902,17.090,30.273,38.574,44.434,-103.027,0
1486664251.906,34.668,31.250,36.133,62.500,-25.879,0
1486664251.910,63.477,32.715,34.668,77.148,183.594,0
1486664251.914,73.730,35.156,38.086,71.777,232.910,0
1486664251.918,53.223,32.715,41.992,48.340,10.742,0
1486664251.922,47.852,27.832,39.062,49.805,-107.910,0
1486664251.926,56.152,28.320,30.273,62.012,-11.230,0
1486664251.930,74.707,29.297,31.250,87.891,156.738,0
1486664251.934,74.219,29.297,35.156,80.078,209.961,0
1486664251.937,40.039,30.762,32.227,42.969,6.836,0
1486664251.941,22.949,33.691,34.180,33.691,-120.117,0
1486664251.945,23.926,34.668,37.109,43.945,-75.684,0
1486664251.949,39.551,35.156,32.715,60.547,104.492,0
1486664251.953,44.434,33.691,37.109,55.664,238.770,0
1486664251.957,29.785,32.715,37.109,27.344,42.969,0
1486664251.961,11.719,27.832,27.832,18.555,-128.418,0
1486664251.965,4.883,24.414,34.180,28.320,-103.516,0
1486664251.969,23.926,26.855,38.086,49.316,70.312,0
1486664251.973,37.598,28.320,36.621,54.688,226.074,0
1486664251.977,23.926,28.320,32.227,25.879,89.355,0
1486664251.980,9.766,27.832,27.344,18.066,-82.031,0
1486664251.984,16.113,29.785,32.227,39.062,-85.449,0
1486664251.988,36.621,29.297,42.480,65.918,85.938,0
1486664251.992,56.641,29.297,39.062,77.148,270.508,0
1486664251.996,40.039,29.785,30.273,56.152,123.535,0
1486664252.000,29.297,27.344,33.691,47.852,-90.332,0
1486664252.004,37.598,31.250,33.691,61.035,-86.914,0
1486664252.008,53.223,35.156,31.250,87.891,43.945,0
1486664252.012,70.801,30.273,28.809,101.562,243.164,0
1486664252.016,53.223,27.344,29.297,73.730,173.340,0
1486664252.019,24.902,30.273,26.855,46.875,-66.406,0
1486664252.023,22.949,34.668,24.902,48.828,-112.305,0
1486664252.027,32.715,32.227,31.250,65.430,8.789,0
1486664252.031,49.805,28.320,37.109,73.730,218.262,0
1486664252.035,36.133,28.809,29.297,46.875,164.551,0
1486664252.039,16.602,31.250,21.973,27.832,-62.500,0
1486664252.043,15.137,29.297,27.344,27.344,-108.887,0
1486664252.047,24.902,30.273,30.762,39.551,2.930,0
1486664252.051,45.410,35.156,30.762,65.430,193.359,0
1486664252.055,38.086,30.273,34.668,53.223,172.363,0
1486664252.059,15.625,26.367,39.551,20.996,-45.898,0
1486664252.062,15.137,25.391,32.715,24.414,-102.051,0
1486664252.066,27.832,25.391,30.762,43.945,-69.336,0
1486664252.070,47.363,25.391,37.598,64.453,104.492,0
1486664252.074,43.945,22.949,38.086,55.664,171.387,0
1486664252.078,25.879,25.391,37.598,33.203,-57.129,0
1486664252.082,14.160,26.855,34.668,38.574,-137.207,0
1486664252.086,20.996,28.809,33.691,56.152,-40.039,0
1486664252.090,50.293,33.691,35.645,83.984,164.551,0
1486664252.094,55.664,34.668,37.598,89.844,222.656,0
1486664252.098,32.715,31.738,36.621,66.406,31.738,0
1486664252.102,24.414,30.762,36.621,59.082,-44.434,0
1486664252.105,28.809,28.809,35.156,64.941,-47.363,0
1486664252.109,45.410,28.809,33.203,84.473,100.098,0
1486664252.113,54.688,30.762,35.645,82.520,228.027,0
1486664252.117,26.855,31.738,34.668,42.480,22.461,0
1486664252.121,12.695,30.762,37.598,30.762,-116.211,0
1486664252.125,18.555,29.785,37.598,37.598,-73.242,1
1486664252.129,33.203,28.809,31.738,49.316,115.234,0
1486664252.133,47.852,30.762,38.574,50.781,274.414,0
1486664252.137,31.250,33.203,41.992,25.391,79.590,0
1486664252.141,16.113,25.879,33.691,18.555,-90.820,0
1486664252.144,28.320,26.367,40.039,36.133,-74.219,0
1486664252.148,45.410,29.785,36.133,59.082,83.496,0
1486664252.152,62.012,28.809,31.250,68.848,229.980,0
1486664252.156,42.969,31.738,40.039,46.387,46.875,0
1486664252.160,32.227,30.762,35.645,39.062,-125.488,0
1486664252.164,33.691,28.809,32.227,59.570,-101.074,0
1486664252.168,31.250,35.156,37.109,73.242,22.461,0
1486664252.172,50.781,34.668,36.133,78.125,205.078,0
1486664252.176,36.621,30.273,37.598,53.223,101.562,0
1486664252.180,17.578,32.227,42.969,38.574,-106.445,0
1486664252.184,15.625,33.691,41.016,52.246,-104.492,0
1486664252.187,23.438,31.250,42.969,67.871,4.883,0
1486664252.191,39.062,26.855,47.852,81.055,194.336,0
1486664252.195,25.879,25.391,29.785,62.988,155.762,0
1486664252.199,10.742,26.367,26.855,42.969,-41.992,0
1486664252.203,7.812,24.902,36.621,51.270,-100.098,0
1486664252.207,20.020,24.414,37.598,74.219,-18.066,0
1486664252.211,42.480,24.414,38.086,94.238,174.316,0
1486664252.215,45.898,29.785,39.551,75.195,146.973,0
1486664252.219,29.785,32.715,38.086,47.852,-56.641,0
1486664252.223,28.320,26.367,29.297,46.387,-121.582,0
1486664252.226,39.551,27.832,29.297,60.547,-37.598,0
1486664252.230,53.223,30.273,36.133,78.125,218.750,0
1486664252.234,57.129,28.320,34.668,57.129,234.375,0
1486664252.238,34.668,27.832,33.691,28.320,-9.766,0
1486664252.242,26.855,27.344,35.645,34.668,-73.730,0
1486664252.246,35.645,26.367,35.645,48.340,-46.875,0
1486664252.250,49.316,28.320,35.645,63.477,116.211,0
1486664252.254,53.711,29.297,37.109,65.430,218.262,0
1486664252.258,26.367,27.832,38.086,40.527,6.348,0
1486664252.262,21.973,30.762,40.039,41.504,-134.277,0
1486664252.266,31.250,34.180,40.039,63.965,-80.566,0
1486664252.269,42.969,27.344,36.133,80.078,138.672,0
1486664252.273,49.316,25.879,39.551,80.078,244.629,0
1486664252.277,30.273,27.832,43.945,56.152,41.016,0
1486664252.281,19.531,25.879,45.898,47.852,-111.816,0
1486664252.285,14.648,26.855,49.316,60.059,-113.281,0
1486664252.289,20.508,22.461,48.828,82.031,91.309,0
1486664252.293,28.320,18.555,46.875,80.078,232.422,0
1486664252.297,6.348,20.996,44.922,48.340,36.133,0
1486664252.301,3.906,17.090,38.086,47.852,-128.418,0
1486664252.305,15.137,15.137,40.039,58.594,-142.090,0
1486664252.309,32.227,18.555,41.992,74.707,41.016,0
1486664252.312,44.922,23.926,36.621,80.078,224.609,0
1486664252.316,19.531,27.344,44.434,43.945,43.945,0
1486664252.320,11.230,28.320,40.039,28.809,-139.648,0
1486664252.324,16.602,29.297,21.484,37.598,-119.141,0
1486664252.328,28.809,29.785,25.879,54.199,36.133,0
1486664252.332,52.246,33.691,32.227,67.871,215.332,0
1486664252.336,33.691,35.645,32.715,39.062,61.035,0
1486664252.340,14.160,32.715,33.203,16.113,-158.691,0
1486664252.344,22.461,29.785,33.691,30.273,-149.414,0
1486664252.348,32.227,27.832,36.133,55.664,-13.184,0
1486664252.351,47.852,29.785,38.086,67.871,190.430,0
1486664252.355,33.691,29.297,38.086,43.457,86.426,0
1486664252.359,18.555,27.344,35.156,28.320,-142.090,0
1486664252.363,19.531,25.391,30.762,40.527,-181.152,0
1486664252.367,23.926,26.855,31.250,59.570,-110.352,0
1486664252.371,40.527,27.344,31.738,76.172,139.648,0
1486664252.375,23.926,24.902,36.133,56.152,147.461,0
1486664252.379,0.977,23.438,39.551,35.645,-116.699,0
1486664252.383,7.812,24.902,41.016,52.246,-175.781,0
1486664252.387,14.160,28.320,47.363,72.266,-77.637,0
1486664252.391,27.344,26.855,41.992,88.867,129.883,0
1486664252.394,27.832,21.973,34.668,82.031,155.273,0
1486664252.398,15.625,20.996,33.691,57.617,-59.570,0
1486664252.402,6.348,19.043,33.203,52.734,-128.418,0
1486664252.406,11.719,18.555,37.109,64.453,-88.867,0
1486664252.410,36.621,19.531,38.086,88.379,109.375,0
1486664252.414,34.668,20.996,38.086,79.590,179.199,0
1486664252.418,11.719,19.043,35.645,39.551,-44.434,0
1486664252.422,13.672,19.531,33.203,41.992,-131.836,0
1486664252.426,20.508,26.855,38.086,51.270,-89.844,0
1486664252.430,31.250,26.855,35.645,63.477,66.406,0
1486664252.434,34.668,26.367,33.203,62.988,177.246,0
1486664252.437,17.578,30.762,30.273,30.273,-47.363,0
1486664252.441,14.648,30.273,29.297,23.438,-231.445,0
1486664252.445,17.090,27.344,33.691,39.551,-160.645,0
1486664252.449,27.832,26.855,29.785,58.594,66.406,0
1486664252.453,33.691,28.809,32.227,58.594,182.617,0
1486664252.457,10.254,28.809,35.645,28.809,3.418,0
1486664252.461,4.395,25.879,30.273,24.902,-152.832,0
1486664252.465,16.113,23.438,33.203,38.574,-111.328,0
1486664252.469,19.043,24.414,35.645,64.941,72.754,0
1486664252.473,30.273,23.926,34.668,80.078,203.613,0
1486664252.476,22.461,24.414,37.598,50.781,-5.859,0
1486664252.480,15.625,28.320,31.738,41.504,-183.594,0
1486664252.484,22.949,27.832,32.715,51.758,-153.809,0
1486664252.488,22.461,26.367,37.109,68.359,-2.441,0
1486664252.492,32.715,29.297,31.250,79.102,187.012,0
1486664252.496,15.625,29.785,31.250,48.340,70.312,0
1486664252.500,1.953,25.391,36.621,33.203,-156.738,0
1486664252.504,4.883,24.902,40.039,44.922,-166.504,0
1486664252.508,13.672,25.391,33.203,66.406,-22.461,0
1486664252.512,31.738,20.508,32.227,82.520,184.082,0
1486664252.516,11.230,18.066,36.621,54.688,90.332,0
1486664252.519,1.465,20.508,38.086,42.969,-122.559,0
1486664252.523,13.672,21.973,39.551,57.617,-159.180,0
1486664252.527,22.949,20.996,39.551,67.383,-91.309,0
1486664252.531,44.922,20.996,40.039,93.750,171.875,0
1486664252.535,34.668,20.020,40.039,74.219,143.066,0
1486664252.539,15.625,20.020,35.645,37.109,-166.504,0
1486664252.543,19.043,22.461,28.809,44.434,-190.918,0
1486664252.547,20.996,24.902,32.227,58.105,-79.590,0
1486664252.551,33.691,27.832,34.668,73.242,124.023,0
1486664252.555,21.484,27.832,30.762,53.711,174.316,0
1486664252.558,5.859,26.367,30.762,32.227,-54.688,0
1486664252.562,13.184,30.762,34.180,41.016,-123.047,0
1486664252.566,12.695,27.344,38.574,52.734,-98.145,0
1486664252.570,24.414,22.461,36.133,73.242,57.129,0
1486664252.574,23.438,26.855,33.203,67.871,147.949,0
1486664252.578,7.324,27.832,35.156,34.180,-99.609,0
1486664252.582,14.648,27.832,39.551,43.457,-186.523,0
1486664252.586,23.926,29.297,40.039,66.406,-115.723,0
1486664252.590,31.738,30.273,37.598,83.008,92.285,0
1486664252.594,30.762,27.832,29.785,71.777,213.379,0
1486664252.598,14.648,27.344,29.297,41.504,-17.578,0
1486664252.601,13.184,29.297,31.738,37.109,-142.578,0
1486664252.605,17.090,29.297,33.691,47.852,-110.352,0
1486664252.609,39.062,29.785,36.621,75.684,72.266,0
1486664252.613,40.039,29.785,37.109,70.312,194.824,0
1486664252.617,13.672,25.879,36.133,36.621,1.953,0
1486664252.621,15.625,22.461,35.156,39.551,-111.328,0
1486664252.625,16.602,22.461,39.062,50.293,-79.102,0
1486664252.629,20.996,24.902,41.992,62.500,85.449,0
1486664252.633,32.227,25.391,36.621,68.848,239.746,2
1486664252.637,21.484,27.344,29.297,37.598,41.992,0
1486664252.641,14.160,26.855,26.367,27.344,-109.375,0
1486664252.644,16.602,22.461,29.297,49.805,-57.129,0
1486664252.648,26.855,22.949,34.180,75.195,74.219,0
1486664252.652,36.133,26.367,32.227,73.730,261.230,0
1486664252.656,21.973,26.855,30.273,45.410,122.559,0
1486664252.660,13.184,25.391,28.320,30.762,-107.422,0
1486664252.664,19.043,27.832,35.645,42.969,-115.723,0
1486664252.668,32.227,27.832,38.574,69.824,29.785,0
1486664252.672,41.992,26.855,31.738,75.195,247.559,0
1486664252.676,28.320,29.297,30.273,44.922,184.082,0
1486664252.680,22.949,27.344,30.273,24.902,-54.199,0
1486664252.683,21.484,26.367,32.715,32.715,-106.445,0
1486664252.687,18.555,30.273,35.645,54.199,28.809,0
1486664252.691,37.598,30.273,37.598,75.195,234.375,0
1486664252.695,25.879,26.855,36.133,57.617,164.062,0
1486664252.699,10.254,26.367,41.504,39.062,-74.707,0
1486664252.703,11.719,26.367,38.574,48.828,-99.121,0
1486664252.707,17.090,30.762,29.785,56.152,-46.875,0
1486664252.711,36.621,30.273,36.133,73.730,155.762,0
1486664252.715,33.691,27.344,40.527,64.453,193.848,0
1486664252.719,17.578,27.344,33.691,34.668,-40.039,0
1486664252.723,19.043,27.832,35.645,41.016,-111.816,0
1486664252.726,17.578,27.344,35.156,56.152,-32.227,0
1486664252.730,34.668,25.879,32.715,74.707,201.172,0
1486664252.734,34.180,22.949,38.086,68.848,217.773,0
1486664252.738,10.742,21.973,39.551,39.062,-32.227,0
1486664252.742,17.090,25.879,37.598,41.016,-112.793,0
1486664252.746,24.902,27.832,39.062,57.617,-41.992,0
1486664252.750,30.273,24.414,38.086,75.195,184.570,0
1486664252.754,30.273,24.414,40.527,63.965,251.953,0
1486664252.758,16.602,22.461,40.527,31.250,-11.719,0
1486664252.762,16.113,22.949,34.668,33.203,-133.301,0
1486664252.766,21.973,28.320,40.039,49.805,-90.332,0
1486664252.769,41.504,24.414,38.574,68.359,113.770,0
1486664252.773,45.898,22.949,34.180,70.312,254.883,0
1486664252.777,31.738,26.855,33.691,40.527,65.430,0
1486664252.781,34.668,25.879,26.855,34.668,-94.727,0
1486664252.785,40.039,29.297,31.250,49.316,-61.523,0
1486664252.789,46.875,33.203,32.227,68.848,140.137,0
1486664252.793,51.758,32.715,32.715,78.125,280.273,0
1486664252.797,38.086,33.203,36.621,47.363,114.258,0
1486664252.801,32.715,30.762,30.273,37.109,-70.801,0
1486664252.805,39.062,29.297,30.762,54.688,-70.801,0
1486664252.808,42.480,33.203,39.551,80.078,99.609,0
1486664252.812,49.805,30.273,38.086,92.285,283.691,0
1486664252.816,34.668,24.414,35.156,56.152,143.555,0
1486664252.820,29.785,25.879,31.738,45.898,-57.617,0
1486664252.824,31.738,25.391,35.645,65.430,-74.707,0
1486664252.828,42.969,23.926,43.457,88.379,61.523,0
1486664252.832,55.664,24.902,35.156,102.539,275.391,0
1486664252.836,37.598,24.414,29.297,67.871,140.137,0
1486664252.840,35.156,26.367,34.180,47.363,-74.707,0
1486664252.844,41.016,28.320,33.691,55.176,-35.156,0
1486664252.848,45.898,30.762,35.645,69.336,78.125,0
1486664252.851,60.547,32.227,35.645,79.590,290.039,0
1486664252.855,46.387,32.227,30.762,48.828,208.496,0
1486664252.859,27.832,32.715,32.715,30.762,-13.184,0
1486664252.863,28.320,32.227,35.156,41.992,-37.598,0
1486664252.867,28.809,33.203,40.039,53.711,73.730,0
1486664252.871,36.621,33.203,35.156,70.312,294.434,0
1486664252.875,41.992,33.691,30.762,56.152,270.996,0
1486664252.879,30.273,31.250,32.227,34.668,54.688,0
1486664252.883,26.855,25.879,36.133,38.574,-12.695,0
1486664252.887,36.133,25.879,41.992,61.035,47.852,0
1486664252.890,42.480,28.320,35.156,80.566,291.992,0
1486664252.894,36.133,27.344,31.250,65.430,328.125,0
1486664252.898,29.297,24.414,32.715,41.504,96.680,0
1486664252.902,29.785,25.879,34.180,44.922,12.207,0
1486664252.906,38.086,31.250,36.621,62.988,41.016,0
1486664252.910,44.434,32.227,35.156,82.520,221.680,0
1486664252.914,35.156,28.809,33.691,72.266,281.250,0
1486664252.918,29.785,31.738,36.133,45.410,45.898,0
1486664252.922,35.645,37.598,40.039,49.316,-53.223,0
1486664252.926,26.367,29.297,42.480,59.570,35.645,0
1486664252.930,34.668,21.484,40.527,84.473,243.652,0
1486664252.933,45.410,24.414,39.062,82.031,354.004,0
1486664252.937,30.762,25.879,40.527,43.945,111.816,0
1486664252.941,30.273,24.414,37.598,45.410,-47.852,0
1486664252.945,40.527,25.879,39.551,61.035,-46.387,0
1486664252.949,44.922,30.273,38.574,74.219,147.461,0
1486664252.953,45.898,30.762,31.738,79.590,299.805,0
1486664252.957,41.504,28.320,34.180,53.711,72.754,0
1486664252.961,43.457,31.250,40.039,45.898,-79.590,0
1486664252.965,38.574,32.227,34.180,62.988,-39.062,0
1486664252.969,47.363,31.250,28.320,83.008,135.742,0
1486664252.973,56.641,31.250,28.809,83.008,299.805,0
1486664252.976,35.645,29.785,29.297,49.805,124.512,0
1486664252.980,30.762,28.809,30.762,37.598,-54.199,0
1486664252.984,39.062,31.738,36.133,51.270,-36.621,0
1486664252.988,43.945,30.762,39.551,67.871,82.031,0
1486664252.992,39.551,31.250,38.086,71.289,266.113,0
1486664252.996,30.273,32.715,33.203,44.434,135.742,0
1486664253.000,26.855,25.391,37.109,34.180,-95.215,0
1486664253.004,28.809,23.926,46.875,50.781,-124.023,0
1486664253.008,35.645,25.879,44.922,73.242,0.977,0
1486664253.012,46.387,26.855,39.551,94.238,228.516,0
1486664253.015,41.992,28.320,39.062,70.801,158.203,0
1486664253.019,36.621,29.297,40.039,52.734,-89.355,0
1486664253.023,38.086,27.344,38.086,63.477,-114.746,0
1486664253.027,33.691,26.855,41.016,74.219,-0.977,0
1486664253.031,39.551,31.738,43.457,84.961,215.332,0
1486664253.035,33.203,31.738,44.434,59.570,169.434,0
1486664253.039,27.832,27.832,43.457,36.133,-71.289,0
1486664253.043,29.785,24.414,35.645,44.922,-122.070,0
1486664253.047,27.344,25.879,34.668,66.406,-46.875,0
1486664253.051,36.133,30.273,34.668,74.707,215.332,0
1486664253.055,38.086,30.762,31.250,56.152,255.371,0
1486664253.058,26.367,28.809,33.203,32.715,-31.738,0
1486664253.062,32.227,31.738,37.598,37.598,-129.883,0
1486664253.066,40.527,31.738,41.016,60.059,-36.621,0
1486664253.070,44.434,30.273,42.480,84.961,173.828,0
1486664253.074,47.363,31.738,44.922,78.613,240.723,0
1486664253.078,43.457,30.762,37.598,48.340,18.066,0
1486664253.082,40.527,32.227,28.320,47.852,-115.723,0
1486664253.086,41.016,28.320,34.668,61.035,-87.402,0
1486664253.090,46.387,25.391,39.551,84.473,126.953,0
1486664253.094,40.039,25.879,29.785,75.195,257.812,0
1486664253.098,38.086,25.391,31.738,39.551,14.648,0
1486664253.101,33.203,25.879,33.691,36.133,-115.234,0
1486664253.105,36.621,27.832,32.227,51.758,-68.359,0
1486664253.109,48.340,28.320,35.645,76.172,95.703,0
1486664253.113,50.293,28.320,41.992,71.289,223.145,0
1486664253.117,40.039,28.809,39.551,36.621,27.832,0
1486664253.121,46.875,30.273,37.598,40.527,-120.605,0
1486664253.125,49.316,30.762,36.133,57.617,-98.633,0
1486664253.129,53.711,30.762,31.250,78.125,73.242,0
1486664253.133,66.895,31.250,33.203,87.402,259.766,0
1486664253.137,49.805,30.273,31.738,54.688,87.891,0
1486664253.140,43.457,26.367,33.203,46.875,-108.398,0
1486664253.144,48.828,26.367,36.621,56.641,-127.441,0
1486664253.148,46.387,27.832,37.109,77.148,36.133,0
1486664253.152,49.316,29.297,41.992,89.355,236.816,0
1486664253.156,34.668,30.762,42.969,50.293,120.605,0
1486664253.160,32.227,26.855,33.691,36.133,-89.844,0
1486664253.164,31.250,25.391,31.250,47.363,-93.262,0
1486664253.168,34.180,28.809,35.156,67.383,91.309,0
1486664253.172,49.316,31.250,33.203,82.031,273.926,0
1486664253.176,40.039,33.691,30.273,54.199,159.180,0
1486664253.180,37.598,33.691,29.297,44.922,-59.570,0
1486664253.183,45.410,34.180,30.762,64.453,-85.449,0
1486664253.187,47.852,33.203,35.156,83.008,22.949,0
1486664253.191,58.105,29.785,37.598,98.145,241.699,0
1486664253.195,47.852,27.832,37.109,77.148,214.844,0
1486664253.199,39.062,29.785,34.180,50.293,-29.785,0
1486664253.203,42.480,29.785,34.180,48.340,-74.219,0
1486664253.207,41.016,27.832,38.086,66.895,33.691,0
1486664253.211,44.434,27.344,36.133,86.914,261.230,1
1486664253.215,34.180,27.344,39.062,59.570,236.328,0
1486664253.219,24.902,26.367,35.645,30.762,-39.062,0
1486664253.222,28.809,25.391,27.344,36.621,-94.238,0
1486664253.226,30.762,25.879,30.762,51.758,-12.207,0
1486664253.230,36.621,24.902,32.715,66.895,192.383,0
1486664253.234,30.273,24.902,28.809,56.152,257.324,0
1486664253.238,18.066,25.391,31.250,31.250,30.273,0
1486664253.242,27.832,27.832,39.551,35.156,-52.734,0
1486664253.246,31.250,23.926,31.738,53.711,16.113,0
1486664253.250,39.062,20.020,27.344,77.637,198.730,0
1486664253.254,49.316,25.879,32.227,74.707,274.902,0
1486664253.258,46.387,24.902,38.574,50.781,60.059,0
1486664253.262,50.781,23.926,38.574,53.711,-60.059,0
1486664253.265,49.316,26.855,34.668,64.453,-17.578,0
1486664253.269,59.082,29.785,36.621,81.543,166.504,0
1486664253.273,62.012,32.227,32.715,80.566,296.875,0
1486664253.277,42.969,31.250,32.227,46.875,60.547,0
1486664253.281,37.109,29.297,31.250,40.527,-108.398,0
1486664253.285,40.039,31.738,28.809,48.828,-72.754,0
1486664253.289,36.621,33.203,31.250,67.871,134.766,0
1486664253.293,33.691,29.785,35.156,67.871,281.738,0
1486664253.297,25.879,27.832,30.762,26.367,86.426,0
1486664253.301,22.461,26.367,26.855,16.113,-78.613,0
1486664253.305,22.461,26.367,34.180,35.645,-93.262,0
1486664253.308,28.809,26.855,32.227,61.523,76.172,0
1486664253.312,36.621,28.809,34.668,67.383,297.363,0
1486664253.316,23.438,30.273,38.086,37.109,87.402,0
1486664253.320,22.949,28.809,34.180,26.367,-127.930,0
1486664253.324,26.367,23.926,33.691,40.527,-64.453,0
1486664253.328,25.391,23.438,36.621,61.523,60.547,0
1486664253.332,36.621,30.273,42.480,76.172,253.906,0
1486664253.336,33.203,27.344,43.945,53.711,144.043,0
1486664253.340,22.949,22.461,32.715,35.156,-65.430,0
1486664253.344,29.785,24.902,29.785,48.828,-59.082,0
1486664253.347,40.039,24.902,35.645,71.289,62.988,0
1486664253.351,51.270,27.344,37.109,93.750,267.578,0
1486664253.355,44.434,30.762,39.062,73.242,175.781,0
1486664253.359,31.738,27.344,37.598,42.969,-54.688,0
1486664253.363,39.062,29.297,33.203,52.734,-109.375,0
1486664253.367,36.621,31.738,34.180,68.848,-29.297,0
1486664253.371,40.039,29.785,36.133,81.543,240.723,0
1486664253.375,41.992,28.809,33.691,62.012,237.305,0
1486664253.379,34.668,27.344,31.738,34.180,-13.184,0
1486664253.383,26.855,27.344,30.273,36.133,-61.035,0
1486664253.387,18.066,24.414,30.273,48.340,25.879,0
1486664253.390,28.320,22.949,33.203,65.430,252.930,0
1486664253.394,29.297,25.391,34.180,53.711,273.438,0
1486664253.398,20.508,22.949,35.645,25.391,-6.348,0
1486664253.402,26.367,25.391,29.785,24.902,-100.098,0
1486664253.406,25.391,28.809,33.691,42.480,-42.480,0
1486664253.410,27.832,26.855,35.645,61.523,187.012,0
1486664253.414,32.715,24.902,24.902,52.734,268.066,0
1486664253.418,28.320,28.809,28.320,25.391,3.906,0
1486664253.422,26.855,29.297,31.738,28.809,-118.652,0
1486664253.426,22.461,26.367,32.715,38.574,-102.539,0
1486664253.430,31.250,29.297,36.621,61.035,105.469,0
1486664253.433,43.945,31.250,38.574,71.289,242.188,0
1486664253.437,32.715,30.762,39.062,41.016,-0.488,0
1486664253.441,32.227,32.227,30.762,39.062,-178.711,0
1486664253.445,40.527,31.738,30.273,54.199,-137.207,0
1486664253.449,43.945,30.762,39.062,77.148,96.191,0
1486664253.453,36.133,30.273,39.551,80.078,266.602,0
1486664253.457,21.484,24.902,35.156,44.922,81.055,0
1486664253.461,18.555,26.367,33.691,34.180,-92.773,0
1486664253.465,29.785,35.645,38.574,50.293,-71.777,0
1486664253.469,32.227,30.273,35.156,67.871,76.172,0
1486664253.472,27.344,21.973,31.250,68.359,236.328,0
1486664253.476,24.902,24.902,35.645,46.387,111.328,0
1486664253.480,20.508,22.461,35.645,25.879,-82.031,0
1486664253.484,18.066,20.996,34.668,33.203,-114.258,0
1486664253.488,30.273,24.414,38.086,68.359,41.992,0
1486664253.492,37.109,24.902,35.156,77.637,241.699,0
1486664253.496,23.438,23.438,32.227,40.527,131.836,0
1486664253.500,24.902,25.879,34.180,26.855,-109.375,0
1486664253.504,27.832,26.855,36.133,41.504,-148.926,0
1486664253.508,34.180,26.855,31.738,57.617,8.301,0
1486664253.512,42.480,28.809,30.273,74.707,214.844,0
1486664253.515,38.086,30.762,31.250,53.711,124.512,0
1486664253.519,37.109,31.738,35.645,34.668,-115.723,0
1486664253.523,35.156,31.738,39.062,46.387,-142.090,0
1486664253.527,38.086,35.156,34.180,62.012,-47.363,0
1486664253.531,43.945,32.227,32.715,83.008,166.992,0
1486664253.535,39.551,33.691,35.645,63.965,164.551,0
1486664253.539,40.527,35.645,41.016,36.621,-76.172,0
1486664253.543,37.109,26.855,36.621,42.969,-134.766,0
1486664253.547,22.949,23.926,38.086,54.688,-33.203,0
1486664253.551,34.180,25.391,42.480,71.777,194.336,0
1486664253.554,35.645,25.391,37.598,60.547,256.836,0
1486664253.558,22.461,23.438,36.621,30.762,1.465,0
1486664253.562,28.809,23.926,38.574,33.691,-111.328,0
1486664253.566,28.320,26.367,36.133,45.898,-32.227,0
1486664253.570,34.668,26.855,30.762,70.801,154.785,0
1486664253.574,42.480,27.832,34.180,69.336,227.539,0
1486664253.578,34.668,31.738,34.180,37.598,2.441,0
1486664253.582,34.668,28.809,28.809,41.992,-137.695,0
1486664253.586,39.062,25.391,31.250,62.012,-95.703,0
1486664253.590,44.922,30.273,36.621,85.938,92.285,0
1486664253.594,41.992,25.879,37.598,83.984,228.027,0
1486664253.597,33.691,19.531,30.273,51.758,16.113,0
1486664253.601,42.480,22.949,29.297,53.711,-130.859,0
1486664253.605,47.363,26.367,37.598,68.359,-64.453,0
1486664253.609,55.176,28.320,41.504,99.121,96.680,0
1486664253.613,58.105,27.344,35.645,101.562,219.727,0
1486664253.617,47.852,22.949,36.133,55.176,55.664,0
1486664253.621,46.387,22.949,39.551,43.457,-83.496,0
1486664253.625,41.992,27.832,37.598,58.594,-72.754,0
1486664253.629,42.969,26.855,35.156,81.055,104.980,0
1486664253.633,45.410,26.855,31.738,83.496,290.527,0
1486664253.637,36.621,27.832,35.645,45.898,118.652,0
1486664253.640,32.227,25.879,36.133,28.809,-65.918,0
1486664253.644,39.551,27.344,33.203,46.387,-70.801,0
1486664253.648,44.922,30.273,37.598,71.289,60.059,0
1486664253.652,48.828,31.250,37.109,80.566,235.352,0
1486664253.656,42.480,26.855,33.203,51.758,128.418,0
1486664253.660,47.852,27.344,34.180,39.062,-105.957,0
1486664253.664,48.340,33.691,34.668,51.270,-133.789,0
1486664253.668,45.410,35.156,34.668,74.219,29.297,0
1486664253.672,54.688,34.180,36.133,91.309,242.676,0
1486664253.676,47.363,28.809,35.156,61.523,172.852,0
1486664253.679,40.039,27.832,35.156,39.551,-81.055,0
1486664253.683,43.457,28.320,35.156,53.711,-127.441,0
1486664253.687,41.016,24.902,42.969,76.172,20.020,0
1486664253.691,41.504,26.855,46.875,85.938,232.422,0
1486664253.695,39.062,25.879,38.086,61.035,178.223,0
1486664253.699,29.297,20.996,35.156,37.598,-81.543,0
1486664253.703,30.762,21.484,37.598,41.504,-134.766,0
1486664253.707,30.762,25.391,37.598,58.594,-16.602,0
1486664253.711,35.645,22.461,37.598,75.195,191.895,0
1486664253.715,38.086,19.531,37.109,53.711,161.133,0
1486664253.719,23.438,19.043,33.691,24.902,-89.355,0
1486664253.722,26.367,22.461,38.574,33.691,-153.320,0
1486664253.726,26.367,24.414,37.598,58.105,-48.828,0
1486664253.730,30.273,26.367,29.297,80.078,152.344,0
1486664253.734,36.133,26.367,30.273,69.336,190.918,0
1486664253.738,31.250,22.949,33.691,41.992,-8.301,0
1486664253.742,35.156,24.414,32.715,47.363,-94.238,0
1486664253.746,35.645,24.902,33.203,61.035,-49.805,0
1486664253.750,48.828,29.297,37.598,86.426,137.695,0
1486664253.754,52.734,29.297,35.156,82.520,243.652,0
1486664253.758,39.062,22.461,31.250,46.387,0.977,0
1486664253.762,43.457,25.879,29.785,42.480,-140.625,0
1486664253.765,41.504,29.297,32.715,59.082,-87.402,0
1486664253.769,40.039,27.344,32.715,81.055,121.582,0
1486664253.773,41.016,25.391,30.273,78.613,238.281,0
1486664253.777,28.809,24.902,29.785,41.504,16.602,0
1486664253.781,24.902,26.855,32.227,29.785,-100.098,0
1486664253.785,23.438,26.855,38.086,42.480,-92.285,0
1486664253.789,29.785,25.391,36.621,69.336,84.473,0
1486664253.793,37.109,23.926,31.738,79.590,275.879,0
1486664253.797,31.250,24.414,29.297,42.480,77.637,0
1486664253.801,27.832,20.996,33.691,32.715,-97.168,0
1486664253.804,30.762,26.855,32.715,50.293,-68.359,0
1486664253.808,30.273,30.762,30.273,71.289,102.539,0
1486664253.812,31.250,22.949,32.227,79.590,289.551,0
1486664253.816,28.320,21.484,33.691,45.410,151.855,0
1486664253.820,32.715,22.461,38.086,27.344,-53.711,0
1486664253.824,42.480,21.484,34.668,38.574,-82.031,0
1486664253.828,46.875,20.996,36.621,60.547,41.992,0
1486664253.832,49.805,23.438,38.574,73.730,225.098,0
1486664253.836,44.922,22.949,34.668,45.898,130.859,0
1486664253.840,46.875,21.973,38.086,30.273,-75.684,0
1486664253.844,46.875,21.484,42.969,44.434,-129.395,1
1486664253.847,41.016,20.508,45.898,71.289,-3.418,0
1486664253.851,49.805,24.902,42.969,97.168,271.484,0
1486664253.855,42.480,27.344,40.039,72.754,188.965,0
1486664253.859,39.551,23.926,41.992,47.363,-85.449,0
1486664253.863,45.898,22.949,42.480,61.035,-114.746,0
1486664253.867,42.480,25.879,39.551,77.148,0.977,0
1486664253.871,48.828,25.879,36.621,87.891,204.590,0
1486664253.875,48.828,23.438,36.133,73.242,233.398,0
1486664253.879,45.410,24.414,35.156,40.039,1.465,0
1486664253.883,40.039,24.902,31.250,36.133,-91.797,0
1486664253.886,37.598,29.297,36.621,56.152,-32.715,0
1486664253.890,42.969,32.227,40.527,78.125,187.012,0
1486664253.894,36.133,27.832,28.320,61.523,250.000,0
1486664253.898,35.156,23.438,26.367,26.855,32.715,0
1486664253.902,32.715,25.879,31.250,27.832,-46.387,0
1486664253.906,14.648,25.391,31.738,45.410,2.930,0
1486664253.910,26.855,23.926,34.668,71.289,205.566,0
1486664253.914,33.203,24.902,39.062,70.312,275.391,0
1486664253.918,29.297,24.414,42.969,39.062,46.387,0
1486664253.922,36.621,25.391,35.156,39.062,-57.617,0
1486664253.926,30.762,25.879,32.227,57.617,-3.418,0
1486664253.929,36.133,29.785,39.551,85.449,183.594,0
1486664253.933,46.387,30.273,33.691,87.402,305.664,0
1486664253.937,41.504,27.344,30.273,44.434,61.035,0
1486664253.941,40.527,26.855,37.109,41.992,-103.516,0
1486664253.945,40.039,28.809,35.156,58.594,-29.297,0
1486664253.949,43.945,31.250,32.227,77.637,175.781,0
1486664253.953,44.434,28.809,33.691,82.520,333.984,0
1486664253.957,37.598,28.320,34.668,44.434,125.488,0
1486664253.961,41.504,31.250,36.133,37.109,-57.129,0
1486664253.965,41.504,29.785,33.691,53.223,-30.762,0
1486664253.969,37.109,30.762,29.297,65.918,92.285,0
1486664253.972,40.527,31.738,27.344,75.195,249.023,0
1486664253.976,41.016,33.203,29.785,51.270,118.652,0
1486664253.980,42.969,31.738,38.086,41.016,-88.379,0
1486664253.984,48.340,30.762,37.109,59.570,-88.867,0
1486664253.988,47.852,32.715,34.180,82.031,100.098,0
1486664253.992,47.852,27.344,38.086,91.797,284.180,0
1486664253.996,40.039,27.832,35.156,59.082,149.902,0
1486664254.000,34.668,29.785,28.809,41.016,-47.852,0
1486664254.004,32.227,26.855,32.227,47.363,-50.781,0
1486664254.008,27.344,31.250,36.133,62.988,79.102,0
1486664254.011,33.691,32.715,39.062,82.520,273.926,0
1486664254.015,33.691,31.250,40.527,56.152,205.078,0
1486664254.019,33.203,27.832,37.109,39.062,-8.789,0
1486664254.023,44.922,26.855,37.109,56.641,-71.777,0
1486664254.027,48.340,34.668,40.527,80.078,-22.949,0
1486664254.031,44.922,31.250,39.551,96.191,217.773,0
1486664254.035,43.457,24.902,29.785,73.730,225.586,0
1486664254.039,49.805,25.879,33.691,49.316,-52.734,0
1486664254.043,52.246,29.297,38.086,51.758,-113.770,0
1486664254.047,36.133,29.785,35.645,57.617,3.906,0
1486664254.051,41.504,29.785,36.133,76.172,223.633,0
1486664254.054,41.992,31.738,31.250,57.129,220.215,0
1486664254.058,32.715,29.297,24.902,20.996,-19.531,0
1486664254.062,46.875,30.762,30.762,29.297,-78.613,0
1486664254.066,47.852,33.203,35.156,47.363,-29.297,0
1486664254.070,51.270,37.109,33.691,70.801,169.922,0
1486664254.074,51.270,40.527,33.691,66.406,252.930,0
1486664254.078,49.805,34.668,28.320,37.598,0.977,0
1486664254.082,57.129,29.785,25.879,35.156,-117.676,0
1486664254.086,39.062,31.738,28.320,51.758,-16.113,0
1486664254.090,41.016,27.832,35.156,83.984,199.707,0
1486664254.094,47.852,28.320,37.598,82.520,268.555,0
1486664254.097,39.551,28.320,33.691,45.898,47.852,0
1486664254.101,43.945,26.855,31.250,47.852,-76.660,0
1486664254.105,43.457,28.809,36.133,63.477,-14.648,0
1486664254.109,41.016,27.832,39.551,75.684,190.430,0
1486664254.113,47.363,33.203,29.297,77.637,330.078,0
1486664254.117,36.621,30.762,28.320,39.551,123.535,0
1486664254.121,30.273,26.367,30.273,23.926,-82.031,0
1486664254.125,35.645,31.250,31.250,41.504,-57.129,0
1486664254.129,34.668,30.762,32.227,67.383,131.348,0
1486664254.133,35.645,27.344,33.691,73.242,295.898,0
1486664254.136,32.715,30.273,35.645,42.480,128.906,0
1486664254.140,33.203,28.320,33.203,36.621,-73.242,0
1486664254.144,33.691,27.832,32.715,49.316,-81.055,0
1486664254.148,35.645,32.715,31.738,68.848,57.617,0
1486664254.152,40.527,32.227,32.715,79.590,243.164,0
1486664254.156,35.645,30.273,34.180,48.828,117.676,0
1486664254.160,35.645,27.344,28.809,32.715,-105.957,0
1486664254.164,38.086,31.250,29.785,49.316,-136.719,0
1486664254.168,37.109,33.691,32.715,66.895,-35.645,0
1486664254.172,41.992,27.344,36.133,82.031,208.984,0
1486664254.176,38.086,24.414,38.086,58.594,168.945,0
1486664254.179,33.691,24.414,26.855,28.809,-77.637,0
1486664254.183,35.156,25.879,27.832,44.922,-137.695,0
1486664254.187,29.297,23.926,34.180,70.312,5.371,0
1486664254.191,34.668,27.832,35.156,84.473,237.305,0
1486664254.195,37.598,28.809,35.645,69.336,205.566,0
1486664254.199,35.156,24.902,38.086,47.363,-31.738,0
1486664254.203,37.598,26.367,35.645,50.293,-122.070,0
1486664254.207,40.527,29.785,33.691,67.383,-20.020,0
1486664254.211,45.898,29.785,37.598,91.797,206.543,0
1486664254.215,50.781,25.391,32.715,79.590,208.008,0
1486664254.218,48.340,25.879,31.250,51.758,-47.852,0
1486664254.222,50.781,28.809,34.668,52.246,-131.836,0
1486664254.226,47.852,31.250,37.109,71.777,-60.059,0
1486664254.230,46.387,32.715,41.992,98.145,178.223,0
1486664254.234,43.457,27.344,41.504,83.008,236.816,0
1486664254.238,32.227,23.438,32.715,45.898,-25.879,0
1486664254.242,32.227,22.461,29.785,45.898,-147.461,0
1486664254.246,33.203,24.902,38.574,62.988,-80.566,0
1486664254.250,26.855,25.879,40.527,83.008,146.484,0
1486664254.254,27.344,26.367,41.504,78.613,270.996,0
1486664254.258,28.320,28.809,37.109,45.898,19.531,0
1486664254.261,34.180,27.832,30.273,35.645,-132.324,0
1486664254.265,34.180,26.855,32.715,49.805,-116.699,0
1486664254.269,32.227,26.367,33.203,73.242,71.289,0
1486664254.273,28.809,31.250,34.668,68.848,248.535,0
1486664254.277,29.785,33.691,39.062,35.645,47.852,0
1486664254.281,29.785,25.879,34.668,27.832,-124.023,0
1486664254.285,14.648,25.391,31.738,38.086,-79.590,0
1486664254.289,24.414,31.250,36.621,71.289,102.539,0
1486664254.293,35.156,30.273,39.062,83.496,229.492,0
1486664254.297,24.902,24.414,34.668,45.410,64.941,0
1486664254.301,25.879,24.414,31.250,35.645,-111.816,0
1486664254.304,29.785,30.273,35.645,50.293,-96.191,0
1486664254.308,37.109,32.715,39.551,77.148,48.340,0
1486664254.312,39.062,31.738,36.621,88.867,225.586,0
1486664254.316,27.344,28.809,31.250,54.199,105.469,0
1486664254.320,35.156,26.367,36.621,42.969,-125.000,0
1486664254.324,37.598,30.273,39.551,57.129,-159.180,0
1486664254.328,26.855,28.809,34.668,74.219,-13.672,0
1486664254.332,30.273,23.926,32.715,84.961,222.656,0
1486664254.336,31.250,25.879,37.109,59.570,137.695,0
1486664254.340,31.250,28.809,38.574,39.062,-131.836,0
1486664254.343,37.598,28.809,34.180,47.852,-183.594,0
1486664254.347,31.738,29.297,38.086,68.848,-68.848,0
1486664254.351,30.762,29.785,41.504,84.473,157.715,0
1486664254.355,29.297,27.832,44.434,58.594,145.020,0
1486664254.359,29.297,27.344,40.039,30.273,-89.844,0
1486664254.363,38.086,27.344,35.156,42.480,-142.090,0
1486664254.367,39.062,32.715,43.457,68.359,-54.688,0
1486664254.371,39.062,34.668,41.992,82.520,184.082,0
1486664254.375,34.668,31.738,31.250,62.988,192.383,0
1486664254.379,41.992,31.250,32.715,40.039,-39.062,0
1486664254.383,49.316,30.762,34.668,46.875,-132.324,0
1486664254.386,35.156,27.832,36.621,60.547,-72.754,0
1486664254.390,37.109,27.344,42.969,82.031,165.039,0
1486664254.394,38.086,27.832,37.598,70.801,226.074,0
1486664254.398,27.832,27.832,29.297,32.715,-33.203,0
1486664254.402,28.320,31.250,33.203,30.273,-133.301,0
1486664254.406,31.250,33.691,37.109,52.246,-72.266,0
1486664254.410,30.273,32.227,35.645,76.172,121.582,0
1486664254.414,27.832,31.738,35.156,65.918,227.051,0
1486664254.418,22.949,28.320,33.203,39.551,-0.977,0
1486664254.422,27.344,29.297,31.738,43.457,-156.250,1
1486664254.426,25.391,33.691,39.062,52.246,-90.332,0
1486664254.429,26.855,30.762,41.992,72.754,145.996,0
1486664254.433,32.227,23.438,37.109,77.148,230.469,0
1486664254.437,24.414,22.949,36.621,44.922,3.906,0
1486664254.441,32.227,25.391,36.133,37.598,-82.031,0
1486664254.445,41.504,24.414,32.227,51.758,-47.852,0
1486664254.449,33.203,25.879,35.156,70.801,98.145,0
1486664254.453,32.715,28.809,37.109,78.125,253.418,0
1486664254.457,31.250,29.297,33.203,43.945,65.430,0
1486664254.461,34.180,31.250,33.691,39.062,-105.469,0
1486664254.465,36.621,31.250,40.039,54.199,-62.988,0
1486664254.468,36.133,32.715,37.598,69.824,97.656,0
1486664254.472,38.574,32.715,28.809,76.660,242.676,0
1486664254.476,34.180,27.344,29.785,43.945,96.680,0
1486664254.480,41.504,28.320,33.203,37.598,-108.398,0
1486664254.484,44.434,28.320,33.691,45.410,-114.258,0
1486664254.488,34.668,27.344,39.062,61.523,27.832,0
1486664254.492,41.992,26.855,33.203,81.543,244.141,0
1486664254.496,41.504,27.344,34.180,55.664,115.234,0
1486664254.500,34.180,27.344,33.691,37.109,-122.559,0
1486664254.504,41.016,29.297,23.438,46.875,-106.445,0
1486664254.508,40.039,31.738,28.809,71.777,44.434,0
1486664254.511,43.457,33.203,33.203,90.820,251.465,0
1486664254.515,37.109,31.250,35.156,61.035,169.922,0
1486664254.519,35.645,26.855,37.109,40.039,-57.129,0
1486664254.523,41.504,27.832,31.738,48.828,-121.582,0
1486664254.527,36.133,34.180,35.156,69.336,-20.508,0
1486664254.531,30.273,29.785,36.621,84.473,213.379,0
1486664254.535,37.109,24.902,34.668,62.500,208.496,0
1486664254.539,42.480,30.273,31.250,40.527,-36.621,0
1486664254.543,36.621,29.785,28.809,44.434,-123.535,0
1486664254.547,42.969,30.273,33.203,65.430,-51.270,0
1486664254.550,51.270,32.715,36.133,93.262,166.504,0
1486664254.554,52.246,31.738,39.551,78.125,213.379,0
1486664254.558,55.176,27.344,32.227,47.363,-9.766,0
1486664254.562,53.223,24.902,26.855,49.805,-81.055,0
1486664254.566,47.363,26.367,32.227,67.871,-36.621,0
1486664254.570,42.480,30.762,32.715,83.984,163.574,0
1486664254.574,38.086,27.344,32.715,70.312,234.375,0
1486664254.578,39.551,27.832,35.645,41.992,16.602,0
1486664254.582,44.922,27.832,35.645,47.363,-53.223,0
1486664254.586,43.945,21.484,39.062,63.477,-30.273,0
1486664254.590,44.434,25.879,39.551,81.543,162.598,0
1486664254.593,37.598,25.391,29.785,76.172,274.414,0
1486664254.597,32.715,20.020,27.832,41.016,17.090,0
1486664254.601,41.504,21.484,33.691,43.945,-117.676,0
1486664254.605,39.062,25.391,33.203,60.547,-81.055,0
1486664254.609,37.109,24.902,35.645,77.148,97.168,0
1486664254.613,32.715,28.809,34.180,72.754,241.699,0
1486664254.617,30.273,30.762,36.133,47.852,41.016,0
1486664254.621,41.016,27.832,41.504,40.527,-127.930,0
1486664254.625,41.504,32.715,37.109,45.898,-89.844,0
1486664254.629,35.645,28.809,31.250,68.848,111.816,0
1486664254.633,34.668,27.832,35.156,73.730,283.203,0
1486664254.636,33.691,27.832,35.645,42.969,113.770,0
1486664254.640,31.250,27.832,30.762,30.762,-77.148,0
1486664254.644,29.785,29.785,33.203,43.945,-75.195,0
1486664254.648,32.715,30.273,39.062,67.383,90.332,0
1486664254.652,38.574,28.809,43.945,82.031,296.875,0
1486664254.656,30.273,26.855,41.504,52.246,164.062,0
1486664254.660,39.062,27.832,38.574,40.039,-67.871,0
1486664254.664,44.434,27.344,41.016,52.246,-100.098,0
1486664254.668,35.156,31.738,43.457,72.266,42.969,0
1486664254.672,34.668,28.320,39.551,86.914,283.203,0
1486664254.675,27.832,19.531,37.109,49.805,190.918,0
1486664254.679,35.156,21.973,44.434,30.762,-67.383,0
1486664254.683,43.945,25.391,40.039,40.039,-100.098,0
1486664254.687,38.086,26.367,30.762,54.688,-3.906,0
1486664254.691,43.945,25.391,33.203,75.684,195.312,0
1486664254.695,47.852,29.297,37.109,58.105,213.379,0
1486664254.699,48.340,25.879,37.109,36.621,-23.926,0
1486664254.703,46.387,22.949,32.715,45.410,-87.402,0
1486664254.707,31.250,30.273,34.180,63.965,24.902,0
1486664254.711,33.203,32.227,38.086,89.844,217.773,0
1486664254.715,30.273,27.344,37.598,69.824,236.328,0
1486664254.718,24.902,27.832,34.668,31.250,-5.371,0
1486664254.722,34.668,27.344,30.762,39.551,-113.770,0
1486664254.726,27.344,26.855,33.691,50.293,-50.293,0
1486664254.730,22.949,31.250,39.062,64.941,159.668,0
1486664254.734,27.344,30.273,39.551,60.059,233.398,0
1486664254.738,25.879,24.902,34.180,27.832,-12.695,0
1486664254.742,32.715,29.297,37.109,30.762,-102.539,0
1486664254.746,36.621,33.203,43.945,60.059,-54.688,0
1486664254.750,29.297,25.879,34.180,78.613,130.859,0
1486664254.754,30.273,21.484,29.785,72.266,259.766,0
1486664254.758,37.109,25.391,36.621,50.293,39.551,0
1486664254.761,39.062,25.391,37.109,42.480,-81.543,0
1486664254.765,37.109,24.902,36.133,56.152,-72.266,0
1486664254.769,37.598,30.273,38.574,80.566,65.430,0
1486664254.773,31.250,28.320,37.109,72.754,245.117,0
1486664254.777,27.832,27.344,39.062,41.016,43.457,0
1486664254.781,34.668,28.320,44.922,35.645,-120.605,0
1486664254.785,27.832,26.367,42.480,49.316,-75.684,0
1486664254.789,29.297,25.391,36.133,74.707,107.422,0
1486664254.793,38.574,24.414,34.668,77.637,273.926,0
1486664254.797,15.625,23.438,32.715,41.504,86.914,0
1486664254.800,22.461,25.879,36.133,30.762,-88.867,0
1486664254.804,35.156,28.809,39.062,47.852,-74.219,0
1486664254.808,27.832,27.832,36.133,72.266,47.363,0
1486664254.812,32.715,29.785,37.109,79.590,225.098,0
1486664254.816,34.180,29.785,38.086,47.363,62.500,0
1486664254.820,35.156,27.344,34.180,33.203,-148.926,0
1486664254.824,45.410,33.203,34.668,50.293,-169.434,0
1486664254.828,48.828,36.133,36.133,77.148,-75.684,0
1486664254.832,42.480,31.250,35.156,87.402,174.805,0
1486664254.836,41.992,27.832,35.156,60.059,112.305,0
1486664254.840,45.898,26.367,31.250,41.504,-87.402,0
1486664254.843,44.922,28.809,37.109,51.758,-117.676,0
1486664254.847,38.086,28.809,42.480,72.754,-40.039,0
1486664254.851,38.574,25.879,34.668,88.867,188.965,0
1486664254.855,41.992,27.832,33.691,68.359,171.875,0
1486664254.859,46.387,30.762,35.645,47.363,-75.684,0
1486664254.863,47.363,33.203,38.574,57.129,-141.602,0
1486664254.867,42.480,33.203,39.551,71.777,-46.387,0
1486664254.871,41.992,28.809,40.039,86.914,179.199,0
1486664254.875,43.945,30.273,34.668,70.801,195.801,0
1486664254.879,44.922,32.227,33.691,42.480,-28.320,0
1486664254.882,43.945,32.715,36.133,48.340,-108.398,0
1486664254.886,36.621,35.156,27.344,63.477,-35.156,0
1486664254.890,39.062,33.691,29.297,82.031,201.172,0
1486664254.894,32.227,33.203,34.180,68.848,218.750,0
1486664254.898,23.926,31.738,31.738,34.668,-38.086,0
1486664254.902,33.203,30.273,28.809,38.574,-132.812,0
1486664254.906,32.227,33.203,33.203,52.734,-87.402,0
1486664254.910,35.156,31.738,41.992,68.359,134.766,0
1486664254.914,38.574,32.715,34.668,66.895,255.371,0
1486664254.918,44.922,38.086,30.762,38.574,10.742,0
1486664254.922,58.105,34.180,36.621,39.551,-117.188,0
1486664254.925,50.781,28.809,36.133,54.688,-71.289,0
1486664254.929,46.387,34.668,36.133,75.684,103.516,0
1486664254.933,52.734,35.156,33.203,79.102,260.254,0
1486664254.937,51.270,31.738,32.715,46.875,72.266,0
1486664254.941,52.246,33.691,34.668,37.598,-97.168,0
1486664254.945,43.945,31.738,36.133,51.758,-76.172,0
1486664254.949,40.039,30.762,36.621,75.684,89.844,1
1486664254.953,46.387,28.320,35.645,80.078,258.789,0
1486664254.957,42.480,30.762,37.598,51.270,72.266,0
1486664254.961,47.363,29.785,32.715,37.109,-121.582,0
1486664254.965,46.875,28.320,28.809,45.898,-118.164,0
1486664254.968,43.457,35.156,33.691,72.266,31.250,0
1486664254.972,37.598,34.668,36.621,77.637,237.793,0
1486664254.976,25.391,29.297,36.133,39.551,68.848,0
1486664254.980,32.715,27.344,33.691,18.066,-108.887,0
1486664254.984,34.180,29.785,33.691,33.203,-73.730,0
1486664254.988,17.578,34.180,38.574,57.129,48.340,0
1486664254.992,25.391,35.156,40.527,76.660,225.098,0
1486664254.996,29.297,30.762,29.297,51.758,124.023,0
1486664255.000,32.715,26.367,24.902,31.738,-69.336,0
1486664255.004,40.527,25.879,31.738,52.734,-85.938,0
1486664255.007,35.156,31.250,38.574,74.219,49.316,0
1486664255.011,40.527,32.715,42.480,93.750,259.766,0
1486664255.015,41.992,30.273,37.109,74.707,166.504,0
1486664255.019,40.039,30.273,34.180,44.434,-73.730,0
1486664255.023,37.598,28.320,35.156,49.316,-83.008,0
1486664255.027,27.344,24.902,38.086,65.918,31.250,0
1486664255.031,28.809,25.879,40.527,83.984,221.191,0
1486664255.035,26.855,27.832,36.133,58.105,229.980,0
1486664255.039,23.438,25.391,34.668,24.902,16.602,0
1486664255.043,29.297,22.461,32.227,36.621,-68.848,0
1486664255.047,24.902,24.414,32.227,48.340,-9.277,0
1486664255.050,21.973,28.809,35.645,64.453,197.266,0
1486664255.054,27.344,29.297,37.109,60.059,233.398,0
1486664255.058,27.832,27.344,39.062,36.133,-13.184,0
1486664255.062,30.762,23.926,36.133,38.086,-100.586,0
1486664255.066,32.227,29.297,40.039,64.453,-20.508,0
1486664255.070,36.133,32.715,41.504,91.797,206.055,0
1486664255.074,33.691,27.344,29.785,77.148,257.812,0
1486664255.078,28.320,24.414,31.250,46.387,3.906,0
1486664255.082,34.668,22.461,37.598,45.410,-115.234,0
1486664255.086,29.785,23.438,39.551,60.059,-59.082,0
1486664255.090,24.902,23.926,37.109,82.520,162.109,0
1486664255.093,29.297,24.902,37.109,79.102,267.578,0
1486664255.097,27.344,23.438,41.016,46.387,54.199,0
1486664255.101,33.203,22.461,39.551,43.945,-80.078,0
1486664255.105,30.273,22.949,36.133,55.664,-72.754,0
1486664255.109,25.879,22.949,35.156,79.102,112.305,0
1486664255.113,35.156,25.879,35.156,83.496,252.930,0
1486664255.117,32.227,28.809,37.109,46.875,53.223,0
1486664255.121,31.250,26.855,35.156,34.180,-105.469,0
1486664255.125,37.598,28.320,32.715,46.875,-103.027,0
1486664255.129,37.109,27.832,32.715,67.871,76.172,0
1486664255.132,40.039,29.785,28.809,76.172,247.559,0
1486664255.136,36.621,33.203,34.668,42.480,93.262,0
1486664255.140,39.062,26.367,32.227,20.996,-62.500,0
1486664255.144,39.062,30.762,21.973,33.691,-98.633,0
1486664255.148,32.715,34.668,28.809,61.523,13.184,0
1486664255.152,39.062,27.832,35.645,77.637,226.562,0
1486664255.156,33.203,28.320,33.203,46.875,121.582,0
1486664255.160,37.109,32.227,31.250,29.297,-63.477,0
1486664255.164,41.992,31.738,32.227,41.016,-81.055,0
1486664255.168,34.668,28.809,37.109,65.918,36.133,0
1486664255.172,31.738,26.855,37.598,83.008,245.605,0
1486664255.175,30.273,23.926,34.180,58.105,178.223,0
1486664255.179,33.203,21.973,34.668,41.992,-77.148,0
1486664255.183,43.945,22.949,34.180,45.410,-122.070,0
1486664255.187,40.527,24.414,37.598,64.941,-14.160,0
1486664255.191,31.738,21.973,40.039,91.797,173.828,0
1486664255.195,26.855,21.973,36.621,66.895,193.359,0
1486664255.199,33.691,26.855,39.551,41.016,-27.832,0
1486664255.203,43.945,30.273,33.691,48.828,-124.023,0
1486664255.207,38.086,28.320,23.438,58.105,-36.621,0
1486664255.211,38.574,28.320,27.344,78.613,153.320,0
1486664255.214,34.668,29.297,31.738,64.453,209.961,0
1486664255.218,37.598,29.785,28.809,35.156,-11.230,0
1486664255.222,39.551,29.297,30.762,37.598,-121.582,0
1486664255.226,36.133,30.273,40.527,57.129,-53.223,0
1486664255.230,37.109,28.320,40.527,80.566,169.922,0
1486664255.234,37.598,26.367,32.227,71.289,283.691,0
1486664255.238,38.574,32.227,37.109,37.598,34.180,0
1486664255.242,36.133,33.203,41.504,38.086,-123.535,0
1486664255.246,25.879,25.391,34.668,50.781,-61.035,0
1486664255.250,26.855,24.414,34.180,67.383,141.602,0
1486664255.254,28.320,23.926,36.133,70.312,251.465,0
1486664255.257,26.367,23.926,31.738,39.062,63.477,0
1486664255.261,37.109,24.902,34.668,35.156,-90.332,0
1486664255.265,34.668,26.367,35.156,55.664,-75.684,0
1486664255.269,27.832,28.320,30.273,77.637,109.375,0
1486664255.273,33.691,26.855,39.062,73.730,242.188,0
1486664255.277,31.738,25.879,41.016,38.086,36.621,0
1486664255.281,36.621,23.926,32.227,32.715,-133.301,0
1486664255.285,38.086,23.438,33.691,50.781,-116.699,0
1486664255.289,34.180,26.855,37.598,68.848,30.273,0
1486664255.293,41.504,29.785,37.598,75.195,248.535,0
1486664255.297,44.434,33.691,35.645,47.363,108.398,0
1486664255.300,47.852,29.785,35.156,41.016,-122.070,0
1486664255.304,45.410,31.250,34.668,53.711,-124.512,0
1486664255.308,41.504,33.203,37.598,74.707,60.547,0
1486664255.312,44.434,27.832,40.527,93.750,249.023,0
1486664255.316,38.574,31.250,42.480,61.035,104.492,0
1486664255.320,41.992,31.250,45.410,41.504,-121.582,0
1486664255.324,49.805,32.715,40.527,58.105,-142.090,0
1486664255.328,43.457,33.691,39.551,79.590,9.277,0
1486664255.332,38.086,37.109,41.504,94.238,236.816,0
1486664255.336,33.691,32.227,35.156,65.430,180.176,0
1486664255.339,44.922,25.391,33.203,40.527,-52.246,0
1486664255.343,47.852,27.832,37.598,54.199,-104.980,0
1486664255.347,36.621,27.832,45.410,73.730,13.672,0
1486664255.351,39.551,25.879,47.363,88.867,230.957,0
1486664255.355,34.668,26.855,38.086,67.871,195.801,0
1486664255.359,29.785,26.855,35.156,35.645,-49.316,0
1486664255.363,39.551,25.879,38.574,43.945,-130.371,0
1486664255.367,34.668,30.273,35.645,63.965,-30.273,0
1486664255.371,31.738,31.250,34.180,76.660,200.195,0
1486664255.375,36.133,27.832,30.762,63.477,210.938,0
1486664255.379,39.062,21.973,32.227,41.016,-16.602,0
1486664255.382,43.945,23.926,33.203,39.551,-96.191,0
1486664255.386,46.387,31.250,38.574,56.641,-50.293,0
1486664255.390,47.363,34.180,42.969,78.613,133.301,0
1486664255.394,46.875,31.738,36.133,67.383,232.422,0
1486664255.398,35.645,30.273,36.621,31.738,15.137,0
1486664255.402,32.715,31.250,35.645,31.738,-104.004,0
1486664255.406,34.668,30.762,36.133,50.293,-43.457,0
1486664255.410,26.855,29.297,38.574,65.918,161.621,0
1486664255.414,27.344,29.297,36.133,68.848,276.855,0
1486664255.418,34.668,30.762,34.668,40.039,41.992,0
1486664255.421,39.062,26.367,31.250,33.691,-110.352,0
1486664255.425,33.691,29.297,32.715,53.711,-65.430,0
1486664255.429,35.645,28.809,36.133,78.613,143.066,0
1486664255.433,36.133,28.320,35.645,75.684,275.391,0
1486664255.437,31.250,30.273,39.551,45.898,41.992,0
1486664255.441,36.133,27.344,43.457,44.922,-105.957,0
1486664255.445,32.227,26.367,38.574,58.594,-52.246,0
1486664255.449,32.227,27.832,35.645,81.543,108.887,0
1486664255.453,36.133,30.273,39.551,85.449,230.469,0
1486664255.457,23.438,31.250,38.574,48.340,62.500,0
1486664255.461,33.691,29.785,34.180,41.016,-119.141,0
1486664255.464,42.480,27.832,35.645,56.641,-104.492,0
1486664255.468,33.691,28.809,37.109,73.242,48.828,0
1486664255.472,34.180,26.367,35.645,80.078,236.816,0
1486664255.476,29.785,26.855,34.668,46.875,132.812,0
1486664255.480,34.180,24.902,33.691,29.785,-81.055,0
1486664255.484,39.551,22.461,35.156,44.434,-101.074,0
1486664255.488,32.227,25.879,41.992,66.895,65.918,0
1486664255.492,29.297,27.344,41.992,77.148,245.605,0
1486664255.496,25.391,24.902,33.203,46.387,150.391,0
1486664255.500,22.461,22.949,35.645,24.414,-44.434,0
1486664255.504,20.996,23.438,35.645,34.180,-65.918,0
1486664255.507,25.879,26.855,36.133,57.129,28.320,0
1486664255.511,27.344,27.344,36.133,73.242,225.586,0
1486664255.515,28.320,21.484,33.203,50.293,168.457,0
1486664255.519,35.156,21.973,34.668,33.203,-63.965,0
1486664255.523,37.109,27.832,36.133,47.852,-105.469,0
1486664255.527,34.668,26.367,38.574,62.988,-40.527,0
1486664255.531,34.180,21.484,40.039,77.637,188.477,1
1486664255.535,36.621,24.414,30.762,63.477,175.293,0
1486664255.539,32.715,26.367,26.367,36.133,-57.129,0
1486664255.543,31.738,25.879,34.180,38.086,-106.934,0
1486664255.546,31.250,25.391,34.668,58.594,-42.480,0
1486664255.550,35.156,27.832,30.762,79.590,164.551,0
1486664255.554,37.598,27.832,32.227,62.500,190.918,0
1486664255.558,30.762,25.391,30.273,30.273,-20.996,0
1486664255.562,39.062,25.391,32.715,32.715,-109.863,0
1486664255.566,39.551,33.691,43.457,54.199,-89.355,0
1486664255.570,34.180,38.574,39.062,79.102,115.234,0
1486664255.574,35.156,32.715,28.320,72.754,246.582,0
1486664255.578,37.109,30.273,33.691,38.574,41.992,0
1486664255.582,47.852,31.250,37.109,33.691,-87.891,0
1486664255.586,41.504,31.738,34.668,50.293,-31.250,0
1486664255.589,33.203,32.227,35.645,76.172,152.344,0
1486664255.593,35.156,29.297,35.156,67.383,264.160,0
1486664255.597,31.738,25.879,35.645,34.180,43.945,0
1486664255.601,36.133,28.320,34.180,37.598,-101.562,0
1486664255.605,30.273,28.809,41.016,45.898,-65.918,0
1486664255.609,24.414,25.879,44.922,66.406,85.449,0
1486664255.613,30.273,28.809,35.156,75.684,252.930,0
1486664255.617,25.879,28.320,35.156,41.992,82.520,0
1486664255.621,32.227,20.996,40.527,32.227,-84.961,0
1486664255.625,38.574,24.414,41.016,49.805,-50.781,0
1486664255.629,36.133,24.902,39.551,76.660,89.844,0
1486664255.632,36.133,21.973,38.574,88.867,247.070,0
1486664255.636,28.320,23.438,34.180,52.734,77.637,0
1486664255.640,33.691,26.367,36.621,38.086,-119.141,0
1486664255.644,38.574,27.832,42.480,58.105,-120.605,0
1486664255.648,31.738,27.344,42.969,78.613,41.992,0
1486664255.652,37.109,30.273,38.574,88.867,268.066,0
1486664255.656,40.039,27.832,33.203,59.082,143.555,0
1486664255.660,45.410,26.367,36.621,34.668,-64.453,0
1486664255.664,56.152,30.273,36.133,46.875,-90.820,0
1486664255.668,56.152,30.273,31.738,62.988,-12.695,0
1486664255.671,56.641,30.762,33.203,78.125,207.031,0
1486664255.675,53.223,30.762,34.180,48.340,148.926,0
1486664255.679,56.152,31.738,36.621,26.855,-84.473,0
1486664255.683,57.617,30.273,33.691,44.922,-131.348,0
1486664255.687,44.434,28.809,29.785,65.918,-29.297,0
1486664255.691,39.062,30.273,35.645,89.355,199.219,0
1486664255.695,33.203,27.832,33.691,69.824,178.711,0
1486664255.699,32.227,28.809,28.320,38.086,-59.082,0
1486664255.703,41.016,33.691,36.621,46.387,-107.910,0
1486664255.707,30.273,28.809,41.016,63.965,-8.301,0
1486664255.711,33.203,25.391,35.156,85.449,173.340,0
1486664255.714,39.551,30.273,35.645,80.078,197.266,0
1486664255.718,36.621,29.297,39.551,50.293,-46.387,0
1486664255.722,45.410,26.855,32.715,51.270,-146.973,0
1486664255.726,41.992,30.762,32.227,69.336,-47.852,0
1486664255.730,37.598,30.762,40.039,88.867,156.738,0
1486664255.734,33.691,26.855,39.062,73.730,218.262,0
1486664255.738,26.855,29.785,32.227,35.156,15.137,0
1486664255.742,27.832,28.320,33.691,34.668,-104.492,0
1486664255.746,31.250,26.855,37.598,55.176,-83.984,0
1486664255.750,31.250,29.785,38.574,77.637,97.168,0
1486664255.753,33.691,23.926,34.180,74.219,200.195,0
1486664255.757,33.691,24.414,27.344,36.621,6.348,0
1486664255.761,37.109,28.809,30.273,30.273,-113.281,0
1486664255.765,40.527,30.273,31.250,50.293,-77.148,0
1486664255.769,36.621,33.203,35.645,70.801,83.496,0
1486664255.773,34.180,31.250,35.645,72.266,213.867,0
1486664255.777,34.668,28.809,39.551,42.480,29.297,0
1486664255.781,32.227,26.367,42.480,33.203,-127.441,0
1486664255.785,30.273,27.344,32.715,43.945,-67.871,0
1486664255.789,36.133,33.691,34.668,72.266,92.773,0
1486664255.793,33.203,31.738,34.668,80.566,214.355,0
1486664255.796,28.809,29.785,30.273,44.922,61.035,0
1486664255.800,40.527,30.273,31.738,37.598,-108.398,0
1486664255.804,42.969,30.762,29.785,50.781,-145.508,0
1486664255.808,45.898,33.203,33.203,74.707,-7.324,0
1486664255.812,52.246,32.715,43.457,92.773,253.418,0
1486664255.816,41.992,31.250,41.016,62.012,156.738,0
1486664255.820,40.527,30.273,28.320,39.551,-83.984,0
1486664255.824,45.898,30.273,32.715,58.105,-120.117,0
1486664255.828,41.016,28.809,39.062,83.984,3.906,0
1486664255.832,37.109,28.809,40.527,95.215,211.914,0
1486664255.836,33.691,27.344,41.016,68.359,136.230,0
1486664255.839,36.133,23.926,43.945,48.828,-44.922,0
1486664255.843,36.133,25.391,42.969,53.711,-78.125,0
1486664255.847,32.227,30.762,40.039,71.777,-5.371,0
1486664255.851,36.133,32.227,42.480,93.262,227.051,0
1486664255.855,31.738,24.902,36.621,61.523,206.543,0
1486664255.859,31.250,21.484,30.273,30.762,-49.805,0
1486664255.863,39.551,24.902,32.227,49.316,-149.902,0
1486664255.867,33.203,29.785,31.250,63.477,-61.035,0
1486664255.871,37.109,30.273,31.250,79.102,170.898,0
1486664255.875,43.945,28.320,34.180,70.801,181.152,0
1486664255.878,35.156,25.391,31.738,36.133,-52.734,0
1486664255.882,39.062,26.367,32.715,39.551,-118.652,0
1486664255.886,38.086,28.809,40.039,57.129,-40.527,0
1486664255.890,38.574,28.809,35.156,79.102,172.363,0
1486664255.894,44.922,30.273,29.297,79.102,238.281,0
1486664255.898,42.480,27.344,31.738,48.828,11.230,0
1486664255.902,43.945,26.855,33.691,39.551,-83.496,0
1486664255.906,43.457,27.832,34.668,56.152,-54.688,0
1486664255.910,38.086,27.832,33.203,77.637,125.977,0
1486664255.914,35.645,28.809,32.715,71.777,260.742,0
1486664255.918,40.527,31.738,32.227,44.434,32.227,0
1486664255.921,44.434,31.738,34.180,40.039,-118.164,0
1486664255.925,39.062,28.809,36.621,54.199,-68.359,0
1486664255.929,37.598,30.762,37.598,77.148,138.184,0
1486664255.933,39.062,29.297,38.574,79.590,277.344,0
1486664255.937,30.273,23.926,38.574,49.316,84.473,0
1486664255.941,31.738,24.902,30.762,35.645,-63.477,0
1486664255.945,30.273,26.367,31.738,53.223,-30.762,0
1486664255.949,22.949,27.344,37.598,78.125,128.418,0
1486664255.953,25.879,26.367,33.691,79.102,266.602,0
1486664255.957,31.250,25.879,34.668,48.340,102.539,0
1486664255.961,34.668,30.273,32.715,37.598,-84.473,0
1486664255.964,38.574,31.738,33.691,55.176,-125.488,0
1486664255.968,38.086,31.250,41.992,77.637,56.641,0
1486664255.972,31.250,29.785,36.621,86.426,274.414,0
1486664255.976,30.762,31.738,30.762,54.199,104.980,0
1486664255.980,37.109,27.832,35.645,33.691,-88.867,0
1486664255.984,43.945,25.879,34.668,50.781,-121.094,0
1486664255.988,39.551,31.250,41.992,74.219,-4.883,0
1486664255.992,35.645,32.227,44.922,83.984,225.586,0
1486664255.996,37.598,33.691,29.785,57.129,159.668,0
1486664256.000,41.992,35.156,26.855,34.668,-36.621,0
1486664256.003,45.898,32.715,36.133,47.363,-100.098,0
1486664256.007,42.480,35.156,35.645,71.289,-10.742,0
1486664256.011,44.434,31.250,36.621,88.867,191.895,0
1486664256.015,44.434,23.926,41.016,66.895,173.340,0
1486664256.019,38.574,25.879,39.062,40.039,-51.270,0
1486664256.023,37.109,28.320,41.504,42.480,-147.949,0
1486664256.027,30.762,29.297,42.969,54.688,-48.828,0
1486664256.031,28.809,28.320,34.668,73.242,204.102,0
1486664256.035,25.391,24.414,28.320,60.547,218.262,0
1486664256.039,26.855,23.926,33.203,34.668,-48.340,0
1486664256.043,34.668,29.297,37.109,39.062,-132.324,0
1486664256.046,26.367,27.832,36.621,62.988,-63.477,0
1486664256.050,26.367,26.855,40.039,85.938,147.949,0
1486664256.054,25.391,27.832,39.062,67.871,215.820,0
1486664256.058,24.902,25.391,34.668,36.133,-4.883,0
1486664256.062,33.691,22.949,36.621,42.480,-92.773,0
1486664256.066,35.156,24.902,39.551,60.547,-22.949,0
1486664256.070,35.645,30.273,36.621,80.566,165.039,0
1486664256.074,30.762,28.809,34.668,75.195,252.930,0
1486664256.078,36.133,26.367,30.273,43.945,26.855,0
1486664256.082,43.457,26.855,25.391,35.156,-97.656,0
1486664256.085,38.574,31.738,31.250,45.410,-72.266,0
1486664256.089,39.062,30.273,33.691,66.406,108.887,0
1486664256.093,38.574,28.809,28.320,62.500,255.371,0
1486664256.097,39.551,32.227,30.762,38.574,49.805,0
1486664256.101,45.898,32.715,38.086,41.016,-104.980,0
1486664256.105,41.992,30.762,35.645,49.316,-70.312,0
1486664256.109,41.992,29.785,36.133,73.730,106.445,0
1486664256.113,45.410,30.273,36.621,89.844,246.094,0
1486664256.117,40.527,30.762,32.227,53.711,44.922,0
1486664256.121,50.293,32.715,33.691,43.457,-134.277,0
1486664256.125,51.270,33.691,35.156,60.059,-107.422,0
1486664256.128,38.574,31.250,38.574,77.148,49.316,0
1486664256.132,33.691,26.855,37.598,85.449,240.234,0
1486664256.136,26.367,26.367,39.551,53.711,67.383,0
1486664256.140,35.156,28.320,42.969,40.527,-123.047,0
1486664256.144,41.016,30.273,41.016,60.059,-109.375,0
1486664256.148,25.879,28.320,42.969,75.684,48.340,0
1486664256.152,29.785,26.367,41.992,85.449,253.906,0
1486664256.156,30.273,26.367,37.109,53.223,124.023,0
1486664256.160,27.344,24.414,34.180,26.855,-99.609,0
1486664256.164,31.738,27.344,33.203,39.062,-102.051,0
1486664256.168,25.879,28.320,36.621,60.547,27.832,0
1486664256.171,29.297,28.320,40.039,78.613,237.305,0
1486664256.175,30.762,30.762,40.039,58.105,208.496,0
1486664256.179,34.668,28.809,40.039,35.645,-37.598,0
1486664256.183,40.527,26.855,36.621,42.969,-117.188,0
1486664256.187,33.203,28.809,31.250,59.570,-54.199,1
