timestamps,TP9,AF7,AF8,TP10,Right AUX,Marker
1486664479.064,38.086,23.926,41.992,71.777,20.508,0
1486664479.068,42.480,21.973,35.645,86.914,199.707,0
1486664479.072,41.504,18.066,32.715,76.172,209.961,0
1486664479.076,39.062,19.043,43.457,55.664,37.109,0
1486664479.079,41.992,22.461,41.992,49.805,-31.738,0
1486664479.083,30.762,21.484,28.320,49.316,-1.953,0
1486664479.087,42.480,23.438,32.715,76.660,170.898,0
1486664479.091,45.898,28.809,41.504,74.707,217.285,0
1486664479.095,34.180,24.414,42.480,46.875,1.953,0
1486664479.099,41.504,18.555,32.715,49.316,-93.750,0
1486664479.103,42.969,20.508,32.715,59.570,-46.387,0
1486664479.107,51.758,20.020,44.922,84.473,114.258,0
1486664479.111,55.664,18.555,46.875,86.426,229.004,0
1486664479.115,50.781,19.043,39.062,64.941,43.945,0
1486664479.119,55.176,21.973,36.621,66.895,-98.145,0
1486664479.122,51.270,26.367,40.527,74.707,-43.457,0
1486664479.126,51.758,27.344,40.039,88.379,102.051,0
1486664479.130,51.270,23.926,38.086,82.031,212.891,0
1486664479.134,44.434,23.438,41.504,58.594,66.406,0
1486664479.138,40.527,20.508,36.621,57.129,-63.965,0
1486664479.142,36.621,20.020,40.527,64.453,-40.527,0
1486664479.146,45.410,21.484,51.270,86.426,85.449,0
1486664479.150,54.688,24.414,46.387,91.797,207.031,0
1486664479.154,40.039,25.391,34.668,60.547,81.055,0
1486664479.158,39.551,18.066,35.645,51.758,-73.242,0
1486664479.162,42.480,17.090,39.062,59.570,-85.449,0
1486664479.165,34.180,19.531,37.598,67.383,50.781,0
1486664479.169,41.504,22.949,37.109,74.219,204.102,0
1486664479.173,38.086,20.508,39.062,49.805,111.328,0
1486664479.177,31.738,16.602,36.133,34.180,-55.176,0
1486664479.181,35.156,19.043,32.715,43.945,-74.219,0
1486664479.185,38.086,27.344,38.086,59.082,28.320,0
1486664479.189,42.480,27.344,40.527,68.848,205.566,0
1486664479.193,38.086,19.043,36.621,48.828,137.695,0
1486664479.197,31.738,20.996,32.715,31.250,-70.801,0
1486664479.201,36.621,23.438,35.645,42.969,-105.957,0
1486664479.204,33.203,21.484,38.574,61.035,-5.371,0
1486664479.208,38.086,24.414,36.621,79.102,187.012,0
1486664479.212,43.945,28.809,36.621,74.219,142.578,0
1486664479.216,42.480,26.367,40.527,59.570,-71.777,0
1486664479.220,53.223,24.414,38.086,70.312,-106.445,0
1486664479.224,49.805,21.484,29.297,79.590,-22.949,0
1486664479.228,49.805,19.531,35.645,89.844,140.137,0
1486664479.232,55.664,26.367,43.945,83.984,164.551,0
1486664479.236,44.434,26.367,35.156,55.664,11.230,0
1486664479.240,38.574,23.438,36.133,54.199,-77.148,0
1486664479.244,40.039,25.879,40.527,67.871,-53.223,0
1486664479.247,45.410,24.414,32.715,82.031,131.348,0
1486664479.251,50.781,28.320,36.133,77.148,185.547,0
1486664479.255,49.805,27.344,38.574,58.594,-2.441,0
1486664479.259,48.340,20.020,34.668,59.082,-81.055,0
1486664479.263,44.922,22.949,36.621,69.824,-33.203,0
1486664479.267,46.387,23.438,36.621,85.938,120.605,0
1486664479.271,49.805,19.043,40.039,76.660,215.332,0
1486664479.275,43.945,18.066,43.457,50.781,38.086,0
1486664479.279,40.527,19.531,39.551,52.734,-85.449,0
1486664479.283,41.992,18.555,37.109,65.430,-52.734,0
1486664479.287,42.969,24.902,43.457,83.008,132.324,0
1486664479.290,44.922,28.809,47.363,88.379,251.465,0
1486664479.294,34.180,18.066,45.898,63.477,65.430,0
1486664479.298,31.250,15.625,44.922,55.664,-77.148,0
1486664479.302,38.086,19.531,43.945,68.848,-57.129,0
1486664479.306,35.156,16.602,39.551,78.613,75.684,0
1486664479.310,35.156,16.602,29.297,75.195,215.820,0
1486664479.314,35.645,21.484,32.715,49.316,86.426,0
1486664479.318,35.156,21.973,36.133,39.551,-97.168,0
1486664479.322,32.227,21.973,35.156,50.781,-97.656,0
1486664479.326,30.762,26.855,34.180,62.012,54.688,0
1486664479.329,45.410,33.691,35.645,72.266,200.684,0
1486664479.333,41.992,33.203,34.668,52.246,72.266,0
1486664479.337,33.203,25.391,34.180,35.645,-93.750,0
1486664479.341,37.598,22.949,37.109,46.875,-70.801,0
1486664479.345,38.086,20.996,27.344,60.547,40.527,0
1486664479.349,39.062,19.043,29.785,73.242,223.145,0
1486664479.353,39.551,20.508,36.133,55.664,142.578,0
1486664479.357,41.992,22.461,33.691,44.922,-50.293,0
1486664479.361,40.527,21.973,34.180,51.270,-24.902,0
1486664479.365,38.574,21.484,36.133,60.547,35.156,0
1486664479.369,50.293,23.438,34.180,78.125,188.965,0
1486664479.372,47.852,25.879,39.551,61.523,162.109,0
1486664479.376,41.504,29.785,44.434,47.852,-33.203,0
1486664479.380,45.410,24.902,33.691,58.105,-95.215,0
1486664479.384,42.480,18.555,35.156,67.383,-6.348,0
1486664479.388,47.363,19.043,41.504,84.961,181.152,0
1486664479.392,54.688,20.996,40.527,83.496,181.641,0
1486664479.396,48.828,19.531,38.086,62.988,-7.812,0
1486664479.400,44.922,16.602,35.645,64.941,-78.125,0
1486664479.404,45.410,20.020,39.062,78.613,-9.766,0
1486664479.408,47.852,20.996,42.969,93.262,152.344,0
1486664479.411,47.363,19.043,43.945,83.984,177.246,0
1486664479.415,42.969,26.855,39.551,64.453,15.625,0
1486664479.419,41.504,32.715,40.039,58.105,-45.898,0
1486664479.423,34.180,23.438,39.551,61.035,9.277,0
1486664479.427,39.062,21.973,29.297,73.242,159.180,0
1486664479.431,47.852,24.902,34.668,68.848,190.430,0
1486664479.435,39.551,20.996,39.062,48.828,23.926,0
1486664479.439,41.016,20.508,34.668,42.969,-81.055,0
1486664479.443,41.992,24.414,40.527,49.316,-85.938,0
1486664479.447,45.898,25.879,41.992,68.359,90.332,0
1486664479.451,55.176,27.832,40.527,69.824,199.219,0
1486664479.454,49.805,31.250,38.574,54.199,9.766,0
1486664479.458,55.176,28.809,34.180,56.152,-104.492,0
1486664479.462,55.664,23.926,37.109,65.430,-49.316,0
1486664479.466,54.199,25.391,40.039,82.520,107.910,0
1486664479.470,58.594,26.855,42.480,80.566,219.238,0
1486664479.474,40.039,23.926,45.410,49.805,48.828,0
1486664479.478,36.621,20.996,46.387,47.852,-101.562,0
1486664479.482,43.457,22.461,37.598,62.988,-85.938,0
1486664479.486,41.504,27.832,33.691,79.102,41.504,0
1486664479.490,41.504,21.484,35.645,78.125,203.125,0
1486664479.494,34.180,16.113,32.227,47.363,83.984,0
1486664479.497,31.738,20.996,31.738,35.645,-93.750,0
1486664479.501,38.574,24.902,37.598,52.246,-60.059,0
1486664479.505,43.457,29.785,40.039,75.684,79.102,0
1486664479.509,44.434,26.855,37.109,83.496,243.164,1
1486664479.513,39.551,22.949,30.762,58.594,107.422,0
1486664479.517,44.434,24.902,29.785,53.223,-87.402,0
1486664479.521,49.316,25.391,33.203,65.430,-43.457,0
1486664479.525,48.340,31.738,40.039,77.148,58.594,0
1486664479.529,53.711,34.180,47.852,91.797,186.035,0
1486664479.533,44.922,24.902,41.016,71.289,155.762,0
1486664479.536,41.504,21.484,35.156,52.246,-34.180,0
1486664479.540,41.504,22.461,39.062,59.570,-87.891,0
1486664479.544,34.668,23.926,43.457,78.125,3.418,0
1486664479.548,45.898,21.973,43.945,92.285,203.125,0
1486664479.552,47.852,21.973,41.992,74.707,162.109,0
1486664479.556,38.574,20.996,41.504,53.711,-52.734,0
1486664479.560,42.969,21.484,43.457,53.711,-76.172,0
1486664479.564,41.504,25.879,41.992,63.965,-16.113,0
1486664479.568,48.340,30.273,41.992,78.613,143.555,0
1486664479.572,52.734,29.785,38.574,67.383,153.809,0
1486664479.576,45.410,25.391,34.180,42.969,-22.949,0
1486664479.579,53.223,25.879,36.621,47.363,-85.449,0
1486664479.583,62.988,31.738,41.016,68.359,-61.523,0
1486664479.587,65.918,32.227,43.457,79.102,96.191,0
1486664479.591,64.941,24.414,41.016,74.219,169.922,0
1486664479.595,58.105,26.367,40.039,62.500,-27.832,0
1486664479.599,46.387,25.879,41.504,60.059,-106.934,0
1486664479.603,36.133,19.531,41.016,69.824,-35.156,0
1486664479.607,37.109,27.832,43.457,85.938,133.301,0
1486664479.611,39.062,29.785,46.387,75.684,201.172,0
1486664479.615,31.250,20.996,38.574,52.734,28.809,0
1486664479.619,31.738,22.461,35.156,58.105,-63.477,0
1486664479.622,28.320,23.926,38.086,60.059,-64.453,0
1486664479.626,33.203,21.484,40.527,75.684,70.801,0
1486664479.630,37.109,22.949,40.039,83.008,188.477,0
1486664479.634,27.344,26.367,37.598,56.641,20.020,0
1486664479.638,30.273,23.926,37.109,53.223,-106.934,0
1486664479.642,31.738,24.414,41.992,64.941,-77.148,0
1486664479.646,34.668,29.297,45.410,78.613,55.664,0
1486664479.650,38.574,26.367,40.527,79.590,191.406,0
1486664479.654,31.250,20.508,37.109,53.223,60.059,0
1486664479.658,34.180,22.461,40.527,47.363,-74.707,0
1486664479.661,32.227,26.855,42.969,51.270,-109.375,0
1486664479.665,28.320,22.949,39.551,64.941,2.441,0
1486664479.669,34.668,18.555,44.434,76.172,176.758,0
1486664479.673,31.250,23.438,45.410,58.594,103.516,0
1486664479.677,30.762,26.367,38.086,44.434,-79.590,0
1486664479.681,27.832,18.066,36.621,49.316,-104.004,0
1486664479.685,34.668,19.043,38.086,70.801,2.441,0
1486664479.689,44.922,24.902,39.062,81.543,181.152,0
1486664479.693,42.480,29.785,43.457,66.406,127.930,0
1486664479.697,46.387,35.156,43.457,55.664,-75.684,0
1486664479.701,47.363,30.273,41.016,57.129,-90.332,0
1486664479.704,41.016,24.414,37.109,72.266,21.484,0
1486664479.708,50.293,31.738,38.574,89.355,155.273,0
1486664479.712,49.316,39.551,41.016,69.336,116.699,0
1486664479.716,36.133,27.344,30.762,46.875,-48.340,0
1486664479.720,33.203,22.949,28.809,53.711,-85.449,0
1486664479.724,29.785,25.879,38.086,64.453,-32.715,0
1486664479.728,40.039,24.414,44.922,77.637,161.621,0
1486664479.732,36.621,25.391,48.828,66.406,169.434,0
1486664479.736,22.949,20.508,42.480,40.527,-50.781,0
1486664479.740,21.973,18.066,34.668,41.992,-82.520,0
1486664479.743,20.996,22.461,41.992,57.617,-6.348,0
1486664479.747,33.203,28.809,45.898,72.754,125.000,0
1486664479.751,33.203,27.344,41.992,58.105,181.152,0
1486664479.755,22.949,20.020,41.504,32.227,9.277,0
1486664479.759,27.344,21.484,41.016,38.574,-105.469,0
1486664479.763,30.762,21.973,36.621,54.688,-48.828,0
1486664479.767,46.387,27.344,43.457,83.008,146.973,0
1486664479.771,53.711,32.715,44.922,88.867,226.562,0
1486664479.775,46.387,26.855,37.598,68.359,52.734,0
1486664479.779,47.363,25.391,36.133,68.359,-46.387,0
1486664479.783,55.664,33.691,40.039,83.984,-13.672,0
1486664479.786,56.152,32.715,46.387,95.703,129.883,0
1486664479.790,55.176,26.855,45.410,86.914,237.793,0
1486664479.794,50.781,24.902,38.086,62.988,65.918,0
1486664479.798,50.781,25.879,36.133,61.035,-49.805,0
1486664479.802,50.781,28.320,38.086,64.453,-4.395,0
1486664479.806,45.410,29.785,39.551,73.242,135.254,0
1486664479.810,50.781,31.738,39.062,76.660,255.371,0
1486664479.814,40.039,26.855,35.645,44.922,95.703,0
1486664479.818,38.574,22.949,40.039,37.109,-50.781,0
1486664479.822,42.480,28.809,41.504,46.387,-17.578,0
1486664479.826,42.969,29.785,45.410,67.383,98.633,0
1486664479.829,54.199,31.738,45.898,81.543,220.703,0
1486664479.833,45.898,25.879,37.598,55.176,124.512,0
1486664479.837,39.062,19.531,41.504,47.363,-20.508,0
1486664479.841,40.039,18.555,43.457,60.547,-32.715,0
1486664479.845,36.133,18.066,46.875,77.148,68.848,0
1486664479.849,44.434,23.438,46.387,90.820,221.191,0
1486664479.853,41.504,21.973,42.480,70.801,156.738,0
1486664479.857,42.480,18.555,41.016,55.176,-27.832,0
1486664479.861,48.340,20.020,41.992,65.918,-89.844,0
1486664479.865,47.852,27.832,45.410,84.473,13.184,0
1486664479.868,58.105,26.855,42.969,95.215,182.617,0
1486664479.872,54.199,18.555,36.621,79.102,162.109,0
1486664479.876,48.828,22.949,38.574,62.500,-16.602,0
1486664479.880,52.734,26.367,42.480,66.406,-90.332,0
1486664479.884,51.270,30.273,39.062,76.660,6.836,0
1486664479.888,50.781,32.715,39.551,83.496,200.195,0
1486664479.892,48.828,25.879,41.504,69.824,126.465,0
1486664479.896,41.016,26.367,39.062,46.875,-38.574,0
1486664479.900,40.039,22.461,33.203,48.340,-20.996,0
1486664479.904,44.434,22.949,38.574,64.941,27.832,0
1486664479.908,50.781,29.297,41.992,78.125,128.906,0
1486664479.911,60.059,27.832,41.504,81.543,175.293,0
1486664479.915,53.223,27.832,46.875,63.965,14.160,0
1486664479.919,52.246,27.344,41.016,63.477,-97.656,0
1486664479.923,56.641,30.273,36.133,82.031,-68.359,0
1486664479.927,52.246,30.273,38.574,89.844,105.469,0
1486664479.931,48.828,25.391,40.527,82.031,137.695,0
1486664479.935,38.574,20.508,40.039,59.082,-46.875,0
1486664479.939,32.715,24.902,44.434,55.176,-88.379,0
1486664479.943,38.086,27.344,52.246,72.754,-49.316,0
1486664479.947,41.504,22.949,47.852,87.402,107.910,0
1486664479.951,40.527,22.949,42.969,80.078,192.383,0
1486664479.954,43.457,23.438,42.969,62.988,12.695,0
1486664479.958,46.875,24.414,39.551,65.918,-80.078,0
1486664479.962,42.969,26.367,42.969,70.801,-62.988,0
1486664479.966,48.828,30.273,44.434,83.008,86.426,0
1486664479.970,53.711,27.344,40.039,84.961,230.957,0
1486664479.974,47.852,24.902,35.645,62.500,62.500,0
1486664479.978,48.340,28.320,35.645,54.688,-93.750,0
1486664479.982,46.387,25.879,37.109,59.082,-73.730,0
1486664479.986,46.387,26.367,32.227,74.707,52.246,0
1486664479.990,51.270,27.344,33.691,77.637,185.059,0
1486664479.993,44.922,21.484,37.598,54.199,101.562,0
1486664479.997,43.457,22.949,41.016,48.340,-41.016,0
1486664480.001,43.945,27.344,42.480,56.641,-32.715,0
1486664480.005,43.457,23.926,39.062,67.871,63.965,0
1486664480.009,50.293,23.926,39.551,79.102,181.641,0
1486664480.013,46.387,30.762,37.598,66.895,135.254,0
1486664480.017,42.480,25.879,33.691,49.316,-33.203,0
1486664480.021,46.875,18.066,36.133,58.594,-87.891,0
1486664480.025,43.945,20.508,37.598,72.754,28.809,0
1486664480.029,41.992,21.973,43.945,81.055,175.781,0
1486664480.033,42.480,21.973,48.828,71.777,126.465,0
1486664480.036,40.039,21.484,46.387,61.523,-31.250,0
1486664480.040,34.668,20.020,41.504,65.430,-42.969,0
1486664480.044,35.645,21.973,38.574,79.590,43.945,0
1486664480.048,40.527,32.227,40.527,92.285,190.918,0
1486664480.052,36.133,30.762,38.086,77.148,193.848,0
1486664480.056,36.133,20.996,46.387,62.500,24.414,0
1486664480.060,38.086,20.996,48.828,62.988,-17.090,0
1486664480.064,37.109,20.996,36.133,74.707,20.020,0
1486664480.068,40.527,25.879,30.762,84.961,156.738,0
1486664480.072,39.551,28.809,36.621,67.383,191.406,0
1486664480.075,41.504,24.902,40.039,49.316,-6.348,0
1486664480.079,43.457,27.344,41.992,45.898,-77.637,0
1486664480.083,39.062,31.738,47.852,49.316,-24.902,2
1486664480.087,46.875,31.738,42.480,67.871,128.906,0
1486664480.091,47.852,28.809,35.645,66.406,180.664,0
1486664480.095,41.992,26.367,31.738,47.852,12.207,0
1486664480.099,48.340,23.926,32.715,47.363,-77.637,0
1486664480.103,48.828,27.832,36.621,62.500,-23.438,0
1486664480.107,51.270,30.762,42.969,77.148,146.484,0
1486664480.111,52.734,26.367,44.922,76.660,197.754,0
1486664480.115,49.316,27.344,41.992,63.965,27.344,0
1486664480.118,46.387,24.902,41.016,62.500,-43.945,0
1486664480.122,41.992,17.578,35.156,70.312,-24.414,0
1486664480.126,45.410,23.438,42.969,89.844,133.301,0
1486664480.130,46.387,26.855,48.828,90.820,229.004,0
1486664480.134,39.551,22.949,46.387,66.895,42.969,0
1486664480.138,42.969,24.414,48.828,65.918,-66.406,0
1486664480.142,37.598,23.926,41.992,67.871,-34.668,0
1486664480.146,37.598,22.949,41.992,80.078,69.336,0
1486664480.150,47.363,23.926,51.270,84.961,195.312,0
1486664480.154,38.574,24.414,48.340,58.105,70.801,0
1486664480.158,32.227,20.020,38.574,48.828,-90.820,0
1486664480.161,37.598,27.344,44.922,64.941,-61.523,0
1486664480.165,34.180,32.715,46.875,75.195,75.195,0
1486664480.169,35.645,20.508,39.062,75.195,181.641,0
1486664480.173,43.945,22.949,45.410,69.336,80.566,0
1486664480.177,45.410,27.832,49.805,62.012,-36.621,0
1486664480.181,45.410,24.902,40.039,62.500,-52.734,0
1486664480.185,46.387,30.273,34.668,76.660,40.527,0
1486664480.189,48.340,31.250,38.574,84.961,188.477,0
1486664480.193,46.875,27.832,39.551,63.477,143.555,0
1486664480.197,51.758,30.273,37.598,51.270,-6.836,0
1486664480.200,55.664,37.109,40.527,61.035,-23.438,0
1486664480.204,47.852,35.645,40.527,62.500,54.199,0
1486664480.208,50.293,29.785,37.598,66.406,214.355,0
1486664480.212,43.945,29.785,42.480,54.688,190.430,0
1486664480.216,38.574,26.367,41.992,43.457,-41.504,0
1486664480.220,49.805,24.414,34.668,53.223,-93.262,0
1486664480.224,54.199,28.320,41.992,69.824,3.906,0
1486664480.228,53.711,27.832,45.410,86.426,176.270,0
1486664480.232,52.246,24.902,42.480,78.613,211.914,0
1486664480.236,51.758,25.391,45.898,62.988,-5.371,0
1486664480.240,48.828,29.785,48.828,65.918,-73.730,0
1486664480.243,43.945,34.180,50.781,78.125,-0.488,0
1486664480.247,46.387,27.344,50.781,91.309,146.973,0
1486664480.251,39.062,24.414,46.875,77.148,214.355,0
1486664480.255,42.969,26.855,41.992,66.895,43.945,0
1486664480.259,48.828,22.949,39.551,72.754,-43.457,0
1486664480.263,38.574,25.879,47.363,74.707,-18.066,0
1486664480.267,46.875,28.320,55.664,96.680,96.191,0
1486664480.271,46.875,25.879,49.316,90.332,172.363,0
1486664480.275,38.086,29.297,46.875,54.199,11.719,0
1486664480.279,42.480,31.250,42.969,53.711,-80.566,0
1486664480.283,38.086,26.367,39.551,60.059,-45.410,0
1486664480.286,36.133,21.973,37.109,67.383,83.496,0
1486664480.290,40.039,20.996,38.574,67.383,187.012,0
1486664480.294,36.133,21.973,42.969,44.434,53.711,0
1486664480.298,39.062,23.438,40.039,40.527,-38.574,0
1486664480.302,35.645,25.391,39.551,44.434,-41.504,0
1486664480.306,31.250,26.855,38.086,51.270,83.984,0
1486664480.310,37.598,25.391,38.574,58.105,179.688,0
1486664480.314,37.109,30.762,41.016,41.504,52.246,0
1486664480.318,34.668,31.738,36.621,36.621,-57.129,0
1486664480.322,34.180,24.902,38.574,47.852,-13.672,0
1486664480.325,32.715,26.367,43.457,61.523,102.051,0
1486664480.329,37.109,29.297,42.969,74.219,207.520,0
1486664480.333,39.062,30.762,40.039,59.570,105.957,0
1486664480.337,39.551,31.738,41.992,45.898,-28.320,0
1486664480.341,42.969,31.738,45.410,55.664,-0.488,0
1486664480.345,44.922,32.227,47.852,76.660,86.426,0
1486664480.349,47.363,36.133,50.293,83.496,184.570,0
1486664480.353,43.945,36.133,52.246,61.523,119.141,0
1486664480.357,38.574,23.438,50.293,51.270,-4.883,0
1486664480.361,34.180,17.090,42.969,57.129,-54.199,0
1486664480.365,34.668,21.484,47.852,72.754,32.715,0
1486664480.368,36.133,25.879,56.152,83.008,203.125,0
1486664480.372,27.832,22.949,50.781,63.965,148.926,0
1486664480.376,32.715,23.926,49.316,53.711,12.695,0
1486664480.380,38.086,28.320,56.641,60.547,-7.324,0
1486664480.384,37.109,23.926,47.363,68.359,42.969,0
1486664480.388,46.387,32.715,42.480,83.984,182.617,0
1486664480.392,52.246,44.434,46.875,73.730,158.691,0
1486664480.396,47.363,35.156,43.945,45.898,16.113,0
1486664480.400,48.828,28.809,45.410,47.852,-44.922,0
1486664480.404,48.340,32.227,45.898,58.594,-25.391,0
1486664480.407,52.246,35.645,46.387,67.383,157.715,0
1486664480.411,51.270,33.691,45.898,55.176,213.379,0
1486664480.415,36.621,25.879,36.621,34.180,50.293,0
1486664480.419,39.062,27.344,39.551,42.480,-36.133,0
1486664480.423,48.340,34.180,44.434,61.523,0.488,0
1486664480.427,47.852,34.180,44.922,75.195,131.348,0
1486664480.431,45.410,26.855,53.223,73.730,196.777,0
1486664480.435,48.828,26.367,55.664,61.035,49.805,0
1486664480.439,44.922,28.809,43.457,50.781,-42.480,0
1486664480.443,39.551,22.461,42.969,60.059,-10.254,0
1486664480.447,43.457,25.391,43.945,77.637,97.656,0
1486664480.450,41.504,28.809,38.086,68.359,159.180,0
1486664480.454,33.691,23.926,38.574,47.852,49.316,0
1486664480.458,37.109,26.367,48.340,52.734,-18.555,0
1486664480.462,37.598,31.738,51.270,63.477,-24.414,0
1486664480.466,32.715,27.344,42.969,77.148,107.910,0
1486664480.470,40.039,22.949,40.527,74.219,252.441,0
1486664480.474,39.062,27.344,38.574,50.293,100.098,0
1486664480.478,39.551,22.461,39.062,46.875,-38.086,0
1486664480.482,43.457,20.508,41.504,60.059,-15.137,0
1486664480.486,40.039,24.414,40.527,73.730,68.359,0
1486664480.490,43.457,26.855,42.480,74.219,185.547,0
1486664480.493,42.969,27.832,46.875,51.758,75.195,0
1486664480.497,46.387,26.855,40.527,51.270,-96.680,0
1486664480.501,46.387,28.320,34.180,59.570,-76.660,0
1486664480.505,42.480,28.320,36.133,67.871,64.453,0
1486664480.509,45.898,30.762,41.504,76.172,183.594,0
1486664480.513,42.969,31.738,41.504,51.758,106.445,0
1486664480.517,42.969,26.367,42.480,41.992,-1.953,0
1486664480.521,36.133,23.438,51.758,48.828,-35.156,0
1486664480.525,28.809,23.438,45.898,54.199,50.293,0
1486664480.529,40.527,23.438,38.086,67.383,206.543,0
1486664480.532,31.250,17.578,38.574,51.270,161.621,0
1486664480.536,30.273,16.113,38.574,45.898,2.930,0
1486664480.540,39.551,20.996,41.504,58.105,-36.621,0
1486664480.544,36.621,23.926,44.922,67.871,27.832,0
1486664480.548,55.176,29.785,53.223,90.820,157.227,0
1486664480.552,64.453,31.738,53.223,79.102,139.160,0
1486664480.556,59.082,25.879,43.945,55.664,-12.207,0
1486664480.560,64.453,19.043,37.598,60.547,-49.316,0
1486664480.564,55.176,20.020,37.598,67.383,7.812,0
1486664480.568,52.246,30.762,43.457,78.613,152.344,0
1486664480.572,55.664,27.832,47.363,74.219,189.941,0
1486664480.575,48.340,21.484,47.852,54.688,26.367,0
1486664480.579,42.969,22.461,44.922,56.641,-66.895,0
1486664480.583,41.504,24.902,46.875,72.266,4.395,0
1486664480.587,42.969,26.855,46.875,86.426,140.625,0
1486664480.591,45.410,31.250,46.875,78.125,173.828,1
1486664480.595,44.434,31.738,45.410,55.664,35.156,0
1486664480.599,47.363,28.320,36.621,50.781,-68.359,0
1486664480.603,42.969,31.250,34.668,50.781,-44.922,0
1486664480.607,44.922,33.203,37.598,65.430,133.301,0
1486664480.611,55.664,33.691,42.480,67.871,199.707,0
1486664480.614,49.316,33.203,47.852,41.992,13.672,0
1486664480.618,49.316,30.273,44.434,47.363,-89.844,0
1486664480.622,50.781,31.738,44.922,66.895,-61.035,0
1486664480.626,48.828,36.621,49.805,80.078,76.172,0
1486664480.630,56.641,28.320,46.875,87.402,161.133,0
1486664480.634,45.898,22.949,39.062,60.547,32.715,0
1486664480.638,41.504,26.367,37.109,51.758,-81.543,0
1486664480.642,54.199,27.832,51.758,75.684,-86.426,0
1486664480.646,48.828,31.738,56.641,87.402,30.762,0
1486664480.650,52.734,26.855,45.898,88.379,171.387,0
1486664480.654,61.523,27.832,47.852,76.172,80.078,0
1486664480.657,52.246,25.879,46.875,65.918,-28.809,0
1486664480.661,51.270,23.926,45.410,76.660,-26.855,0
1486664480.665,50.293,30.762,46.387,88.867,60.547,0
1486664480.669,45.410,24.902,41.016,83.984,206.543,0
1486664480.673,39.551,22.949,41.992,61.523,138.184,0
1486664480.677,37.598,29.297,43.457,47.363,-24.902,0
1486664480.681,46.875,33.203,44.434,62.500,-24.902,0
1486664480.685,44.434,36.621,47.852,79.102,64.941,0
1486664480.689,42.969,29.297,46.875,78.613,208.984,0
1486664480.693,42.969,25.879,50.293,59.082,141.113,0
1486664480.697,37.598,28.809,43.945,41.992,-58.105,0
1486664480.700,40.039,29.297,38.086,48.828,-76.660,0
1486664480.704,42.480,33.203,48.340,67.383,4.883,0
1486664480.708,41.992,34.180,50.781,75.684,142.578,0
1486664480.712,46.387,26.367,40.527,62.012,147.949,0
1486664480.716,57.617,32.227,37.598,49.805,-62.500,0
1486664480.720,60.547,36.133,42.480,57.617,-128.418,0
1486664480.724,59.570,26.367,46.875,70.801,-30.762,0
1486664480.728,66.406,30.273,51.270,82.520,137.207,0
1486664480.732,57.129,31.738,41.504,69.336,161.621,0
1486664480.736,48.340,32.227,34.180,52.246,-40.039,0
1486664480.739,51.758,30.273,43.457,61.523,-145.996,0
1486664480.743,43.457,28.320,45.898,73.730,-46.387,0
1486664480.747,46.875,32.715,46.387,89.844,124.512,0
1486664480.751,46.875,30.273,48.828,84.961,135.254,0
1486664480.755,41.992,25.879,56.152,64.941,-19.531,0
1486664480.759,47.363,25.391,53.223,64.941,-82.031,0
1486664480.763,39.062,21.973,45.898,72.754,-18.066,0
1486664480.767,38.086,20.020,46.875,87.891,130.371,0
1486664480.771,42.480,24.902,42.480,78.613,180.664,0
1486664480.775,38.086,25.391,39.062,53.223,35.156,0
1486664480.779,37.598,23.926,42.969,50.781,-91.309,0
1486664480.782,36.133,29.297,48.340,54.688,-72.754,0
1486664480.786,41.504,28.320,51.270,71.289,101.074,0
1486664480.790,41.016,24.414,43.457,67.383,185.547,0
1486664480.794,33.691,23.926,37.109,39.551,14.648,0
1486664480.798,41.504,26.855,39.062,42.969,-69.824,0
1486664480.802,36.621,30.273,38.574,53.711,-55.176,0
1486664480.806,36.621,26.367,41.504,66.895,72.754,0
1486664480.810,46.875,25.879,40.039,72.754,213.867,0
1486664480.814,41.992,28.809,39.062,50.781,82.031,0
1486664480.818,43.945,30.762,44.922,46.387,-51.758,0
1486664480.822,51.270,30.273,45.410,62.012,-45.410,0
1486664480.825,54.688,33.203,40.039,77.148,85.449,0
1486664480.829,62.500,34.668,31.738,81.055,245.605,0
1486664480.833,60.547,31.738,32.227,63.477,123.535,0
1486664480.837,57.129,34.668,33.203,55.176,-43.457,0
1486664480.841,54.199,31.738,28.809,59.570,-45.898,0
1486664480.845,47.852,25.391,37.109,68.848,71.777,0
1486664480.849,54.688,31.250,45.898,84.473,225.098,0
1486664480.853,53.711,38.574,37.109,64.453,160.156,0
1486664480.857,47.363,31.738,33.691,45.410,-10.742,0
1486664480.861,41.992,24.414,33.203,49.805,-45.410,0
1486664480.864,41.504,24.414,32.715,64.941,52.246,0
1486664480.868,50.293,27.832,33.691,81.055,196.777,0
1486664480.872,49.805,31.738,37.109,67.383,190.430,0
1486664480.876,45.898,24.902,48.340,53.711,11.230,0
1486664480.880,48.828,20.996,41.992,60.547,-64.941,0
1486664480.884,49.316,27.832,35.156,72.754,9.277,0
1486664480.888,54.199,33.691,45.410,92.285,168.457,0
1486664480.892,58.105,37.109,41.992,79.590,212.891,0
1486664480.896,54.199,31.738,33.203,57.129,33.203,0
1486664480.900,51.270,27.832,36.621,61.523,-61.523,0
1486664480.904,45.898,26.367,40.039,70.312,-41.504,0
1486664480.907,52.246,28.809,41.992,86.914,132.812,0
1486664480.911,55.176,34.180,43.457,83.496,184.570,0
1486664480.915,44.922,28.809,44.434,58.594,-41.504,0
1486664480.919,43.945,25.391,36.621,54.199,-109.863,0
1486664480.923,46.875,31.738,37.598,67.871,-27.832,0
1486664480.927,52.734,32.227,45.410,87.402,107.910,0
1486664480.931,49.316,29.785,39.551,73.242,170.898,0
1486664480.935,43.945,28.320,37.109,44.922,17.578,0
1486664480.939,48.340,26.367,35.645,48.340,-104.004,0
1486664480.943,45.410,28.809,30.762,55.176,-100.098,0
1486664480.946,46.875,31.738,28.809,68.359,108.887,0
1486664480.950,54.199,36.621,35.645,72.754,242.676,0
1486664480.954,51.270,38.086,34.668,52.246,54.199,0
1486664480.958,49.316,26.855,31.250,51.758,-82.520,0
1486664480.962,45.410,24.414,35.645,62.988,-66.895,0
1486664480.966,44.922,32.227,43.945,81.055,86.914,0
1486664480.970,51.270,30.762,42.969,84.961,223.633,0
1486664480.974,41.016,23.438,33.691,57.617,81.055,0
1486664480.978,38.086,21.973,36.133,54.688,-86.426,0
1486664480.982,44.434,24.414,39.551,67.383,-63.477,0
1486664480.986,41.504,23.926,40.527,79.590,77.148,0
1486664480.989,47.363,28.320,43.945,90.820,231.445,0
1486664480.993,44.922,26.367,40.527,67.383,122.070,0
1486664480.997,40.039,21.484,40.039,56.641,-93.262,0
1486664481.001,44.434,28.320,44.434,63.477,-138.184,0
1486664481.005,47.852,29.785,41.992,71.289,5.859,0
1486664481.009,47.852,24.414,36.621,78.613,173.828,0
1486664481.013,42.969,23.926,32.227,60.547,57.617,0
1486664481.017,40.527,26.367,33.203,47.363,-127.441,0
1486664481.021,39.062,27.832,34.180,51.270,-127.930,0
1486664481.025,38.574,33.203,34.180,69.824,-4.395,0
1486664481.029,42.480,31.738,34.668,81.543,154.297,0
1486664481.032,38.086,23.438,33.691,63.965,111.328,0
1486664481.036,34.668,24.902,34.180,47.852,-57.617,0
1486664481.040,38.086,29.297,41.016,56.152,-128.418,0
1486664481.044,32.715,27.832,44.922,68.359,-57.129,0
1486664481.048,36.621,22.461,39.551,77.637,172.363,0
1486664481.052,39.062,21.973,33.203,65.430,176.758,0
1486664481.056,33.203,25.391,36.621,47.363,-39.551,0
1486664481.060,34.668,29.785,41.992,55.176,-116.699,0
1486664481.064,36.621,30.762,41.016,72.266,-47.363,0
1486664481.068,46.387,31.250,41.504,90.332,128.418,0
1486664481.071,46.875,33.691,40.527,78.125,145.020,0
1486664481.075,39.551,29.297,44.434,54.688,-10.742,0
1486664481.079,45.898,26.367,51.270,59.570,-100.586,0
1486664481.083,42.969,30.762,45.898,71.777,-80.078,0
1486664481.087,47.363,30.762,44.922,89.355,129.883,0
1486664481.091,53.711,24.902,47.363,85.938,217.285,0
1486664481.095,50.293,24.902,40.527,61.523,41.992,0
1486664481.099,52.246,25.879,42.480,55.664,-75.684,0
1486664481.103,45.410,26.367,44.434,59.570,-60.059,0
1486664481.107,46.387,24.902,39.551,77.148,95.215,0
1486664481.111,46.387,24.902,37.598,72.754,195.801,0
1486664481.114,41.504,30.273,38.574,48.340,20.020,0
1486664481.118,44.922,30.273,37.109,54.688,-129.395,0
1486664481.122,31.250,22.461,34.668,61.523,-82.031,0
1486664481.126,28.809,19.531,33.691,74.219,107.422,0
1486664481.130,38.574,24.902,39.551,81.543,197.754,0
1486664481.134,29.785,26.855,42.480,54.688,9.766,0
1486664481.138,24.902,24.902,40.527,43.457,-109.863,0
1486664481.142,25.391,26.855,40.527,55.664,-76.660,0
1486664481.146,31.738,29.785,42.969,74.707,37.598,0
1486664481.150,40.527,29.785,42.480,75.195,169.922,0
1486664481.154,36.133,31.738,36.621,48.828,44.922,0
1486664481.157,40.039,35.645,32.227,45.898,-104.004,0
1486664481.161,42.480,32.715,34.668,54.688,-91.309,0
1486664481.165,42.480,25.879,37.109,65.430,35.156,0
1486664481.169,52.734,28.320,40.527,76.172,217.773,0
1486664481.173,42.969,28.809,41.992,53.223,140.625,0
1486664481.177,44.434,25.391,37.598,41.016,-51.270,0
1486664481.181,49.805,28.320,33.691,52.734,-75.195,0
1486664481.185,44.922,29.297,35.156,70.801,45.898,0
1486664481.189,51.758,31.250,39.062,91.309,220.215,0
1486664481.193,51.758,31.250,44.434,79.102,152.344,0
1486664481.196,51.270,24.414,43.457,62.500,-36.133,0
1486664481.200,52.246,28.809,40.039,72.754,-57.129,0
1486664481.204,45.898,30.762,45.898,87.402,42.969,0
1486664481.208,54.199,26.367,44.434,98.633,223.145,0
1486664481.212,56.641,30.762,43.457,86.914,168.457,0
1486664481.216,50.293,30.762,41.992,68.359,-12.695,0
1486664481.220,50.781,32.715,35.645,71.777,-35.645,0
1486664481.224,41.992,33.691,42.480,78.125,53.711,0
1486664481.228,42.969,31.738,46.875,86.426,197.266,1
1486664481.232,42.969,29.297,46.387,70.312,184.082,0
1486664481.236,36.621,22.949,51.270,43.457,17.578,0
1486664481.239,37.109,19.531,46.387,42.480,-51.270,0
1486664481.243,31.738,22.461,42.480,53.223,0.000,0
1486664481.247,39.062,30.762,43.945,73.242,190.430,0
1486664481.251,46.387,30.273,42.969,71.289,244.141,0
1486664481.255,35.645,27.832,39.062,42.480,27.832,0
1486664481.259,36.621,27.344,40.527,42.480,-54.199,0
1486664481.263,41.504,28.809,45.898,61.523,-24.902,0
1486664481.267,41.504,31.738,39.062,75.195,145.508,0
1486664481.271,46.387,27.832,32.715,75.684,240.234,0
1486664481.275,49.316,23.926,35.645,59.082,56.152,0
1486664481.278,52.734,25.879,40.527,56.152,-41.016,0
1486664481.282,54.688,34.668,42.480,67.383,-13.184,0
1486664481.286,57.129,35.645,38.086,86.426,129.395,0
1486664481.290,59.082,31.738,40.527,86.914,220.703,0
1486664481.294,46.387,29.297,42.969,55.664,54.199,0
1486664481.298,44.434,29.297,41.992,56.641,-39.551,0
1486664481.302,47.852,32.715,41.504,70.801,19.043,0
1486664481.306,48.828,28.809,46.387,83.984,150.391,0
1486664481.310,55.176,20.996,49.805,90.332,266.113,0
1486664481.314,45.410,19.043,44.434,62.012,162.109,0
1486664481.318,40.527,23.438,44.434,46.387,11.230,0
1486664481.321,39.551,27.832,44.922,56.641,-4.883,0
1486664481.325,34.668,25.879,36.621,66.406,97.168,0
1486664481.329,40.039,25.391,37.598,73.730,254.883,0
1486664481.333,41.992,29.785,41.992,57.617,154.297,0
1486664481.337,39.551,24.414,40.039,41.504,-28.320,0
1486664481.341,36.621,27.832,43.457,51.758,-16.113,0
1486664481.345,38.086,35.645,45.410,69.336,69.336,0
1486664481.349,45.898,31.738,45.898,76.660,226.074,0
1486664481.353,37.109,28.320,46.875,50.293,155.762,0
1486664481.357,32.715,23.926,34.180,37.598,-30.273,0
1486664481.361,37.598,24.902,27.344,47.852,-34.668,0
1486664481.364,38.086,33.691,32.715,62.988,31.738,0
1486664481.368,46.875,35.156,38.574,81.543,193.359,0
1486664481.372,56.641,37.598,45.410,70.801,182.129,0
1486664481.376,61.523,45.898,44.434,59.570,-57.617,0
1486664481.380,56.152,38.086,37.598,62.500,-83.984,0
1486664481.384,44.922,24.902,36.621,66.406,19.531,0
1486664481.388,56.152,24.902,38.574,89.355,181.152,0
1486664481.392,62.500,28.809,39.062,77.148,166.016,0
1486664481.396,52.734,28.809,36.133,53.223,-57.129,0
1486664481.400,46.875,27.344,37.109,59.082,-112.793,0
1486664481.403,37.598,27.344,40.039,65.918,-28.320,0
1486664481.407,40.527,26.855,49.316,84.961,154.297,0
1486664481.411,41.016,24.902,47.852,76.660,195.801,0
1486664481.415,30.273,20.508,35.156,50.293,5.859,0
1486664481.419,35.156,20.996,38.086,53.711,-77.148,0
1486664481.423,34.180,17.090,36.621,62.500,-3.418,0
1486664481.427,36.133,17.578,38.086,77.148,171.875,0
1486664481.431,39.062,25.391,41.504,72.266,254.395,0
1486664481.435,35.645,27.344,38.086,43.945,44.434,0
1486664481.439,37.598,26.855,36.133,43.945,-87.402,0
1486664481.443,39.062,31.738,42.480,56.152,-52.246,0
1486664481.446,43.457,32.227,42.480,66.406,93.262,0
1486664481.450,49.805,30.762,35.156,69.824,206.543,0
1486664481.454,43.457,34.668,33.203,46.387,25.391,0
1486664481.458,48.340,34.668,35.156,45.898,-92.773,0
1486664481.462,52.734,37.598,41.016,60.059,-37.109,0
1486664481.466,50.293,39.551,39.062,74.707,75.684,0
1486664481.470,53.711,33.203,34.668,80.078,214.355,0
1486664481.474,46.387,25.391,41.016,57.617,80.566,0
1486664481.478,41.992,26.367,38.086,45.898,-99.609,0
1486664481.482,42.480,25.879,37.598,50.293,-72.754,0
1486664481.486,40.527,25.391,42.480,68.848,46.875,0
1486664481.489,43.457,32.227,39.551,76.660,181.641,0
1486664481.493,40.039,33.691,40.527,54.199,97.168,0
1486664481.497,38.086,31.250,43.945,49.316,-91.309,0
1486664481.501,34.668,32.227,39.551,65.918,-86.426,0
1486664481.505,36.133,30.762,39.551,82.031,42.969,0
1486664481.509,37.598,20.996,38.086,84.961,202.637,0
1486664481.513,29.785,19.043,36.621,67.383,150.391,0
1486664481.517,31.738,22.949,40.039,53.223,-42.480,0
1486664481.521,35.645,21.973,37.598,59.570,-80.566,0
1486664481.525,37.598,22.949,41.504,76.172,44.434,0
1486664481.528,50.781,24.902,43.457,85.449,205.078,0
1486664481.532,57.129,29.297,39.551,63.965,108.398,0
1486664481.536,58.105,30.762,36.621,47.363,-65.918,0
1486664481.540,64.941,30.762,34.180,53.223,-61.523,0
1486664481.544,64.941,32.227,37.598,66.895,59.082,0
1486664481.548,66.895,32.227,44.922,78.125,219.727,0
1486664481.552,59.082,28.809,41.016,60.059,193.848,0
1486664481.556,51.270,27.344,36.621,47.852,2.930,0
1486664481.560,51.270,35.645,36.621,53.223,-38.086,0
1486664481.564,42.969,37.598,31.250,61.035,30.762,0
1486664481.568,43.457,30.273,30.273,75.195,154.297,0
1486664481.571,43.457,29.297,33.203,60.547,187.988,0
1486664481.575,38.574,32.227,33.203,42.480,6.836,0
1486664481.579,42.480,33.203,40.527,50.781,-88.379,0
1486664481.583,37.109,30.762,39.551,60.059,-8.301,0
1486664481.587,44.434,31.738,34.668,80.566,170.410,0
1486664481.591,48.340,33.203,35.645,75.684,237.305,0
1486664481.595,34.668,28.809,37.598,48.828,2.930,0
1486664481.599,34.180,23.438,38.086,51.758,-108.398,0
1486664481.603,34.668,22.949,37.598,64.941,-40.527,0
1486664481.607,32.715,29.785,41.504,78.125,110.840,0
1486664481.610,33.203,28.320,42.969,74.707,214.355,0
1486664481.614,23.926,20.996,40.039,51.270,31.250,0
1486664481.618,24.414,23.926,45.410,47.852,-64.941,0
1486664481.622,29.297,25.879,48.828,59.082,-25.879,0
1486664481.626,32.227,25.391,41.504,73.242,103.516,0
1486664481.630,39.062,27.832,39.551,77.148,213.867,0
1486664481.634,35.645,29.297,40.527,55.664,44.922,0
1486664481.638,37.109,25.879,41.504,50.293,-100.586,0
1486664481.642,45.898,26.855,41.016,64.453,-105.469,0
1486664481.646,52.734,26.367,40.039,81.543,29.297,0
1486664481.650,54.199,24.902,39.062,85.449,208.496,0
1486664481.653,51.270,30.273,44.922,62.012,95.215,0
1486664481.657,51.758,29.785,40.527,47.852,-50.293,0
1486664481.661,47.363,26.367,28.809,55.664,-32.227,0
1486664481.665,44.434,28.809,35.156,71.777,62.500,0
1486664481.669,52.734,27.344,38.574,80.078,203.125,0
1486664481.673,47.363,27.344,37.598,57.129,107.422,0
1486664481.677,36.621,30.273,40.527,44.434,-63.477,0
1486664481.681,33.691,31.250,37.109,50.781,-60.059,0
1486664481.685,31.738,29.785,38.086,63.965,44.434,0
1486664481.689,38.086,30.762,44.434,83.496,208.984,0
1486664481.693,39.551,26.855,42.480,66.895,140.625,0
1486664481.696,44.922,28.809,40.527,54.199,-62.500,0
1486664481.700,44.922,34.668,36.133,63.477,-66.895,0
1486664481.704,41.992,31.738,37.598,77.637,36.621,0
1486664481.708,50.781,30.762,40.039,88.379,203.125,0
1486664481.712,41.016,29.785,35.156,67.871,166.504,0
1486664481.716,35.156,29.785,34.668,50.781,-71.289,0
1486664481.720,37.109,29.297,35.645,53.711,-104.004,0
1486664481.724,30.762,22.949,35.645,61.035,-18.066,0
1486664481.728,39.551,24.902,36.621,78.613,144.043,0
1486664481.732,39.062,30.273,38.086,64.941,197.754,0
1486664481.735,34.180,23.926,38.086,41.992,-13.672,0
1486664481.739,45.898,20.020,34.668,52.246,-103.516,0
1486664481.743,43.457,29.785,37.598,66.406,-37.598,0
1486664481.747,39.062,32.227,35.645,75.195,123.047,0
1486664481.751,37.598,25.879,33.203,63.965,190.430,0
1486664481.755,31.250,29.297,35.156,42.480,-38.574,0
1486664481.759,38.574,30.273,32.227,46.875,-172.363,0
1486664481.763,40.039,30.762,37.109,61.035,-120.605,0
1486664481.767,40.527,36.621,36.133,70.801,45.898,0
1486664481.771,53.223,32.227,30.273,69.336,147.949,0
1486664481.775,45.898,27.832,34.180,45.898,-31.738,0
1486664481.778,48.828,30.273,38.086,42.969,-150.879,0
1486664481.782,51.270,33.203,41.016,59.082,-110.352,0
1486664481.786,46.387,31.738,40.039,76.660,46.387,1
1486664481.790,48.828,27.832,35.156,77.148,154.297,0
1486664481.794,41.992,29.785,33.203,51.758,-24.902,0
1486664481.798,39.062,29.785,39.551,49.316,-145.996,0
1486664481.802,36.621,27.832,41.016,62.012,-93.262,0
1486664481.806,40.527,23.926,38.086,81.055,57.129,0
1486664481.810,44.434,25.879,39.062,88.379,183.594,0
1486664481.814,31.250,32.227,43.945,60.547,33.691,0
1486664481.818,30.273,30.273,46.387,51.270,-70.801,0
1486664481.821,32.227,28.320,49.316,62.500,-57.617,0
1486664481.825,28.320,26.855,44.922,74.219,72.754,0
1486664481.829,40.527,25.879,38.574,83.984,251.465,0
1486664481.833,41.504,27.344,39.551,63.477,141.602,0
1486664481.837,39.062,26.855,38.574,48.340,-83.496,0
1486664481.841,42.969,30.762,40.039,59.570,-83.008,0
1486664481.845,43.457,37.598,34.180,75.195,30.762,0
1486664481.849,55.664,34.668,33.203,84.473,192.871,0
1486664481.853,51.758,37.109,39.551,63.965,136.719,0
1486664481.857,47.363,36.133,39.062,52.246,-99.609,0
1486664481.860,48.828,30.762,31.738,59.082,-117.676,0
1486664481.864,48.828,32.715,33.203,72.266,24.902,0
1486664481.868,57.617,31.738,37.109,90.332,160.156,0
1486664481.872,56.152,30.273,38.574,78.125,123.047,0
1486664481.876,48.828,27.344,38.574,56.641,-69.824,0
1486664481.880,41.504,29.785,37.109,59.570,-133.301,0
1486664481.884,35.645,35.156,42.480,73.242,-67.871,0
1486664481.888,36.133,31.250,41.016,85.938,119.629,0
1486664481.892,28.320,29.297,39.062,66.895,166.016,0
1486664481.896,18.555,25.879,41.016,44.922,-32.227,0
1486664481.900,25.391,24.414,44.434,53.223,-117.676,0
1486664481.903,18.066,27.344,44.434,60.547,-40.039,0
1486664481.907,27.344,25.879,39.551,73.242,148.926,0
1486664481.911,35.645,24.414,37.109,66.895,174.316,0
1486664481.915,25.391,23.438,39.551,44.434,-29.785,0
1486664481.919,31.250,25.391,39.551,51.270,-91.309,0
1486664481.923,35.156,28.809,40.039,66.406,-42.969,0
1486664481.927,42.969,34.180,44.922,82.031,114.746,0
1486664481.931,41.504,30.762,35.645,73.730,210.938,0
1486664481.935,36.621,20.020,30.273,49.805,28.809,0
1486664481.939,41.016,17.578,38.086,56.152,-100.098,0
1486664481.942,39.551,23.438,37.109,68.848,-82.520,0
1486664481.946,43.945,28.809,31.738,82.031,81.543,0
1486664481.950,46.387,25.879,34.668,81.055,182.617,0
1486664481.954,35.156,28.809,36.621,56.152,-2.441,0
1486664481.958,29.785,31.738,37.109,48.828,-101.562,0
1486664481.962,28.809,27.344,36.621,57.617,-62.988,0
1486664481.966,30.273,29.785,37.109,74.707,82.031,0
1486664481.970,38.086,28.320,41.504,75.195,204.590,0
1486664481.974,35.645,22.949,41.016,50.781,20.996,0
1486664481.978,35.156,20.996,35.645,42.969,-138.184,0
1486664481.982,43.945,26.855,33.203,56.641,-92.773,0
1486664481.985,50.293,33.691,36.133,72.266,70.801,0
1486664481.989,57.129,34.668,41.016,79.102,181.641,0
1486664481.993,49.316,35.156,37.109,56.152,53.711,0
1486664481.997,42.969,31.738,31.738,43.457,-76.172,0
1486664482.001,48.828,34.668,41.504,56.152,-73.242,0
1486664482.005,51.270,37.109,47.852,75.684,21.973,0
1486664482.009,48.828,33.203,40.527,85.938,165.527,0
1486664482.013,40.527,28.809,36.133,62.988,116.211,0
1486664482.017,39.551,29.297,37.109,49.316,-49.805,0
1486664482.021,37.598,28.809,39.551,56.152,-65.918,0
1486664482.025,33.203,30.273,40.527,70.801,30.273,0
1486664482.028,40.527,32.715,42.480,84.473,195.312,0
1486664482.032,37.109,26.855,42.480,63.965,157.227,0
1486664482.036,28.320,22.949,45.898,42.969,-48.828,0
1486664482.040,36.133,25.391,45.898,50.293,-64.941,0
1486664482.044,34.180,31.738,44.922,61.035,32.715,0
1486664482.048,40.039,33.691,42.480,75.684,184.570,0
1486664482.052,43.945,26.367,36.133,64.453,177.734,0
1486664482.056,33.691,22.949,32.715,41.504,-2.930,0
1486664482.060,38.086,25.391,33.203,50.293,-68.848,0
1486664482.064,40.527,26.855,36.133,66.406,-23.926,0
1486664482.067,45.410,29.297,35.645,79.590,165.527,0
1486664482.071,45.898,27.832,39.551,74.219,215.332,0
1486664482.075,36.621,21.484,44.434,55.176,6.348,0
1486664482.079,34.668,22.461,42.480,50.781,-105.957,0
1486664482.083,35.156,26.367,39.062,62.988,-58.105,0
1486664482.087,39.062,31.250,34.180,81.055,136.719,0
1486664482.091,34.180,28.320,34.668,65.430,208.496,0
1486664482.095,24.414,19.531,35.156,41.016,43.457,0
1486664482.099,25.879,22.461,32.715,41.992,-66.895,0
1486664482.103,29.297,31.250,39.062,53.711,-54.688,0
1486664482.107,32.227,31.738,43.945,72.266,114.746,0
1486664482.110,35.645,26.367,39.551,67.383,219.238,0
1486664482.114,27.344,23.438,36.133,37.598,58.594,0
1486664482.118,27.832,23.926,38.086,37.109,-78.125,0
1486664482.122,33.691,30.273,45.898,56.152,-77.148,0
1486664482.126,32.715,31.250,41.504,71.777,89.844,0
1486664482.130,41.016,25.391,37.109,73.730,222.656,0
1486664482.134,41.504,21.484,40.527,56.641,59.570,0
1486664482.138,39.062,21.973,36.621,55.664,-85.938,0
1486664482.142,38.086,24.414,35.156,64.453,-52.246,0
1486664482.146,37.598,25.391,43.945,75.684,73.242,0
1486664482.150,43.945,26.367,46.387,82.520,196.777,0
1486664482.153,33.203,23.438,39.551,59.082,98.633,0
1486664482.157,28.320,27.344,40.527,47.363,-62.012,0
1486664482.161,32.715,34.668,41.504,56.641,-71.289,0
1486664482.165,30.762,32.227,41.504,71.777,76.172,0
1486664482.169,41.992,30.273,45.410,85.449,246.094,0
1486664482.173,34.668,25.391,37.109,61.035,152.832,0
1486664482.177,27.344,23.926,32.227,37.109,-26.855,0
1486664482.181,38.086,25.391,39.062,46.875,-53.711,0
1486664482.185,40.527,27.344,38.086,66.406,33.203,0
1486664482.189,50.781,29.297,35.156,79.102,197.754,0
1486664482.192,56.641,29.785,39.551,66.406,99.121,0
1486664482.196,54.199,33.691,37.109,52.246,-61.035,0
1486664482.200,58.105,33.691,40.039,61.523,-45.898,0
1486664482.204,58.105,32.715,46.875,80.078,27.832,0
1486664482.208,62.988,32.715,45.410,95.215,204.102,0
1486664482.212,55.176,28.809,36.621,73.730,211.914,0
1486664482.216,47.363,29.785,33.691,54.199,19.043,0
1486664482.220,53.711,29.785,36.621,63.965,-54.199,0
1486664482.224,47.852,29.297,37.109,71.289,24.414,0
1486664482.228,46.875,30.273,39.062,81.055,217.773,0
1486664482.232,52.246,29.297,39.062,71.289,225.098,0
1486664482.235,43.945,32.715,41.016,48.828,52.734,0
1486664482.239,35.645,29.297,43.945,51.270,-7.812,0
1486664482.243,39.062,24.414,44.922,65.918,32.715,0
1486664482.247,46.387,24.902,42.480,79.590,209.961,0
1486664482.251,46.387,31.250,41.992,69.824,268.066,0
1486664482.255,39.062,31.738,40.039,43.945,81.055,0
1486664482.259,42.480,24.414,30.762,40.039,-48.340,0
1486664482.263,43.457,27.344,28.809,48.828,-15.137,0
1486664482.267,52.246,37.109,35.156,65.918,160.645,0
1486664482.271,58.594,35.156,41.016,65.430,253.906,0
1486664482.274,52.246,29.297,39.551,49.316,58.594,0
1486664482.278,53.223,32.715,34.668,53.223,-55.176,0
1486664482.282,45.898,28.809,31.250,60.547,4.395,0
1486664482.286,44.434,30.762,31.250,74.219,159.668,0
1486664482.290,50.293,35.156,36.133,77.148,256.836,0
1486664482.294,42.480,32.227,40.039,57.129,99.609,0
1486664482.298,47.363,29.297,42.969,60.059,-28.320,0
1486664482.302,42.969,30.762,45.410,64.941,-28.809,0
1486664482.306,38.086,34.180,42.480,78.613,128.906,0
1486664482.310,52.734,33.691,45.410,92.773,288.574,0
1486664482.314,45.898,36.133,48.828,67.383,120.605,0
1486664482.317,46.387,35.156,41.504,60.059,-64.453,0
1486664482.321,51.270,27.344,37.109,67.871,-65.918,0
1486664482.325,47.363,29.297,34.180,75.195,56.641,0
1486664482.329,50.293,31.250,34.668,79.590,230.957,0
1486664482.333,41.504,27.344,36.621,51.270,121.094,0
1486664482.337,39.062,26.855,42.480,36.133,-68.848,0
1486664482.341,50.293,35.156,44.922,51.758,-67.383,0
1486664482.345,47.852,36.133,35.156,66.895,49.805,0
1486664482.349,52.246,30.273,30.762,73.730,216.797,0
1486664482.353,53.711,33.691,36.133,58.105,164.062,0
1486664482.357,45.410,31.250,39.062,41.016,-3.906,0
1486664482.360,48.828,30.762,37.598,52.734,-19.531,0
1486664482.364,48.828,33.691,39.062,73.730,65.430,0
1486664482.368,50.293,30.762,43.945,82.031,230.957,0
1486664482.372,48.828,33.203,42.969,64.453,210.938,0
1486664482.376,37.109,33.691,33.203,48.340,-10.742,0
1486664482.380,35.645,32.227,30.762,53.711,-81.055,0
1486664482.384,37.109,30.762,41.504,69.336,30.273,0
1486664482.388,47.852,35.156,48.340,89.355,209.473,0
1486664482.392,51.758,41.504,43.457,82.031,221.680,0
1486664482.396,45.410,31.738,39.062,60.059,24.414,0
1486664482.399,42.969,20.996,37.109,55.664,-83.008,0
1486664482.403,45.410,28.809,43.945,67.383,0.977,0
1486664482.407,51.270,29.785,42.480,85.938,198.242,0
1486664482.411,48.340,24.414,37.109,76.172,207.520,0
1486664482.415,39.551,28.320,41.016,51.270,17.578,0
1486664482.419,36.133,30.273,40.039,45.898,-82.031,0
1486664482.423,31.738,30.273,37.598,49.316,-40.527,0
1486664482.427,37.598,30.273,36.133,69.336,155.762,0
1486664482.431,45.410,30.273,26.855,62.500,192.871,0
1486664482.435,42.969,32.227,27.344,36.621,12.207,0
1486664482.439,45.898,33.203,32.227,42.480,-66.895,1
1486664482.442,41.016,23.438,33.203,49.805,-29.785,0
1486664482.446,43.457,19.043,37.109,69.824,129.395,0
1486664482.450,49.316,25.879,38.574,77.148,196.289,0
1486664482.454,40.039,29.785,37.598,56.152,40.039,0
1486664482.458,40.527,29.297,36.133,55.664,-73.242,0
1486664482.462,40.527,29.297,38.574,68.848,-40.527,0
1486664482.466,41.992,29.297,38.574,85.449,110.352,0
1486664482.470,54.688,33.203,41.016,94.727,240.234,0
1486664482.474,45.898,38.574,41.504,70.312,79.102,0
1486664482.478,35.645,27.344,33.691,58.105,-58.594,0
1486664482.482,38.086,19.043,35.156,66.406,-51.270,0
1486664482.485,43.945,27.344,40.527,82.520,59.082,0
1486664482.489,51.270,31.738,47.363,91.309,234.863,0
1486664482.493,41.992,29.297,46.875,65.430,127.441,0
1486664482.497,38.574,27.344,40.527,55.664,-62.500,0
1486664482.501,43.457,34.180,43.945,64.453,-67.871,0
1486664482.505,41.992,33.203,41.992,72.266,57.129,0
1486664482.509,49.805,25.879,33.203,76.660,231.934,0
1486664482.513,51.758,35.645,34.180,54.199,137.207,0
1486664482.517,52.734,34.668,35.645,37.598,-78.125,0
1486664482.521,61.523,27.832,34.668,45.410,-128.418,0
1486664482.524,58.594,34.180,31.250,58.594,-12.207,0
1486664482.528,60.547,34.668,28.320,70.801,213.867,0
1486664482.532,58.105,31.738,32.227,56.641,160.645,0
1486664482.536,47.363,32.227,39.551,43.945,-62.012,0
1486664482.540,46.387,31.250,41.016,55.176,-88.867,0
1486664482.544,39.062,31.738,41.016,69.336,0.977,0
1486664482.548,41.016,25.879,38.086,77.637,181.152,0
1486664482.552,38.086,22.461,33.203,62.988,175.781,0
1486664482.556,29.785,27.832,34.668,44.434,-36.621,0
1486664482.560,39.062,29.297,37.598,53.223,-96.191,0
1486664482.564,32.227,25.391,33.203,58.105,-3.418,0
1486664482.567,33.691,24.902,34.668,72.266,150.879,0
1486664482.571,41.016,26.855,41.016,68.848,153.809,0
1486664482.575,30.762,26.855,38.574,41.992,-30.273,0
1486664482.579,31.250,28.320,37.598,46.875,-85.938,0
1486664482.583,34.668,34.180,41.504,65.430,-11.230,0
1486664482.587,38.086,32.227,42.969,82.031,165.527,0
1486664482.591,39.551,22.461,36.133,75.195,189.453,0
1486664482.595,34.668,24.414,34.180,52.246,-30.762,0
1486664482.599,31.738,29.297,31.250,49.805,-101.562,0
1486664482.603,28.320,22.949,29.785,55.176,-71.777,0
1486664482.606,34.668,21.973,35.156,76.660,83.496,0
1486664482.610,38.574,27.832,39.551,74.219,188.477,0
1486664482.614,34.180,29.785,44.434,49.316,5.859,0
1486664482.618,34.668,30.273,39.062,49.805,-86.914,0
1486664482.622,34.668,30.762,36.621,57.129,-70.801,0
1486664482.626,40.527,31.250,33.203,77.148,73.730,0
1486664482.630,45.410,27.832,29.785,81.055,182.129,0
1486664482.634,40.039,31.250,30.762,53.711,29.297,0
1486664482.638,37.109,32.227,30.273,47.363,-94.727,0
1486664482.642,38.086,26.855,33.203,54.199,-120.605,0
1486664482.646,41.992,30.273,40.527,71.289,25.879,0
1486664482.649,50.293,36.133,40.039,80.566,197.266,0
1486664482.653,41.504,33.203,27.344,51.270,84.961,0
1486664482.657,34.180,28.809,26.367,41.016,-70.801,0
1486664482.661,34.180,28.320,31.250,51.270,-94.727,0
1486664482.665,32.227,28.320,38.574,64.453,28.320,0
1486664482.669,37.598,29.785,42.480,73.730,200.195,0
1486664482.673,30.273,27.832,40.039,51.270,89.355,0
1486664482.677,29.297,25.391,41.504,41.992,-100.586,0
1486664482.681,35.645,23.438,39.062,55.664,-104.004,0
1486664482.685,37.598,30.273,31.738,70.312,16.113,0
1486664482.689,45.898,34.180,29.297,82.520,195.312,0
1486664482.692,48.828,30.273,34.180,70.312,119.141,0
1486664482.696,44.434,27.832,38.574,55.664,-62.012,0
1486664482.700,48.340,28.809,41.016,60.547,-119.141,0
1486664482.704,50.781,36.133,44.434,78.125,-24.902,0
1486664482.708,56.152,39.062,38.574,91.309,165.039,0
1486664482.712,55.664,34.180,32.227,74.219,112.793,0
1486664482.716,49.316,34.668,32.715,51.758,-70.312,0
1486664482.720,53.223,38.086,28.809,56.641,-110.352,0
1486664482.724,55.176,41.016,30.762,72.266,-15.137,0
1486664482.728,62.500,42.480,36.621,88.379,190.918,0
1486664482.731,56.641,38.574,41.992,77.148,197.754,0
1486664482.735,44.922,33.203,40.527,54.688,-29.785,0
1486664482.739,43.457,30.762,33.691,54.688,-104.004,0
1486664482.743,37.109,31.250,34.180,65.430,-46.387,0
1486664482.747,45.410,34.180,40.039,85.938,141.602,0
1486664482.751,45.410,33.691,38.086,74.219,206.543,0
1486664482.755,32.715,27.344,33.203,48.340,8.301,0
1486664482.759,35.156,26.855,37.109,54.199,-64.453,0
1486664482.763,33.691,23.926,42.969,65.430,-9.277,0
1486664482.767,41.504,22.949,43.945,85.449,166.504,0
1486664482.771,56.641,26.855,41.016,85.938,248.047,0
1486664482.774,46.875,25.391,40.039,55.664,54.199,0
1486664482.778,41.504,23.926,41.504,55.664,-47.363,0
1486664482.782,44.434,24.902,46.387,68.848,-11.719,0
1486664482.786,49.316,25.391,46.387,81.543,171.875,0
1486664482.790,58.594,30.762,40.039,82.031,274.414,0
1486664482.794,49.316,34.668,33.203,49.805,106.934,0
1486664482.798,46.875,29.297,36.621,40.527,-35.645,0
1486664482.802,45.410,26.855,36.133,52.246,-11.719,0
1486664482.806,45.410,25.391,27.832,64.453,144.043,0
1486664482.810,49.805,25.391,28.809,65.430,265.137,0
1486664482.814,36.133,31.250,31.250,41.016,145.996,0
1486664482.817,34.668,32.227,32.227,38.574,-42.480,0
1486664482.821,32.227,25.879,36.621,48.828,-50.781,0
1486664482.825,40.039,31.250,42.969,69.336,102.051,0
1486664482.829,47.363,36.621,36.133,78.125,265.625,0
1486664482.833,36.133,31.738,33.203,55.664,157.715,0
1486664482.837,38.086,33.203,41.016,52.246,-0.977,0
1486664482.841,38.574,29.785,39.062,64.941,-24.414,0
1486664482.845,40.527,26.855,37.598,83.496,63.477,0
1486664482.849,55.176,31.738,42.969,97.168,216.309,0
1486664482.853,53.711,29.297,48.828,83.496,146.484,0
1486664482.856,48.340,26.855,49.805,67.871,-27.832,0
1486664482.860,49.316,31.250,42.969,70.801,-66.406,0
1486664482.864,48.828,33.203,34.668,79.102,40.527,0
1486664482.868,55.664,34.180,36.621,85.449,225.098,0
1486664482.872,53.711,38.086,38.574,70.312,205.566,0
1486664482.876,44.434,36.621,36.133,47.852,23.438,0
1486664482.880,41.016,29.297,34.668,46.387,-57.129,0
1486664482.884,41.016,29.297,37.598,61.035,7.812,0
1486664482.888,47.363,25.879,40.039,75.684,186.035,0
1486664482.892,39.551,21.484,37.109,61.035,188.965,0
1486664482.896,28.320,27.344,37.598,40.527,-9.277,0
1486664482.899,31.738,31.250,38.086,44.434,-92.285,0
1486664482.903,30.762,28.809,32.715,55.664,-29.297,0
1486664482.907,40.527,29.297,32.227,77.148,150.391,0
1486664482.911,41.992,28.809,32.715,73.242,181.152,0
1486664482.915,33.691,29.785,35.645,50.293,-22.949,0
1486664482.919,41.504,31.738,38.574,56.641,-96.680,0
1486664482.923,41.992,28.809,41.992,69.336,-90.820,0
1486664482.927,46.875,24.414,40.039,82.031,44.922,0
1486664482.931,52.246,24.414,41.504,82.031,156.250,0
1486664482.935,38.086,26.855,37.598,54.199,-47.852,0
1486664482.938,34.180,24.902,29.785,49.316,-150.879,0
1486664482.942,41.504,29.297,36.621,66.406,-114.258,0
1486664482.946,42.969,33.691,36.621,77.148,52.734,0
1486664482.950,43.457,28.809,35.156,77.148,171.875,0
1486664482.954,34.180,25.879,39.551,52.246,-19.043,0
1486664482.958,33.691,29.297,43.945,46.387,-153.320,0
1486664482.962,37.109,31.250,51.270,61.035,-116.211,0
1486664482.966,36.621,25.879,46.875,74.219,19.531,0
1486664482.970,39.062,24.414,35.156,68.848,149.414,0
1486664482.974,32.715,29.297,32.715,43.945,10.254,0
1486664482.978,22.949,30.762,38.086,37.598,-150.879,0
1486664482.981,21.484,29.785,44.434,43.945,-154.785,0
1486664482.985,32.227,28.809,45.898,63.477,-39.062,0
1486664482.989,36.621,30.273,43.457,69.336,123.535,0
1486664482.993,28.320,31.250,37.109,43.945,6.348,0
1486664482.997,29.785,26.855,37.598,39.551,-174.316,0
1486664483.001,30.762,29.297,40.039,50.781,-189.941,0
1486664483.005,31.738,37.109,38.086,65.430,-54.199,0
1486664483.009,45.898,38.574,41.992,84.961,149.414,0
1486664483.013,37.598,32.227,41.016,61.035,47.852,0
1486664483.017,27.344,23.926,35.645,39.062,-150.391,0
1486664483.021,30.273,25.879,39.062,50.293,-167.480,0
1486664483.024,24.414,27.344,37.109,62.500,-51.758,1
1486664483.028,28.320,22.461,35.645,71.777,120.605,0
1486664483.032,22.461,20.020,41.504,50.293,58.105,0
1486664483.036,14.160,20.996,39.551,33.691,-125.488,0
1486664483.040,17.578,21.973,39.062,40.527,-147.949,0
1486664483.044,23.926,24.902,46.875,54.688,-59.570,0
1486664483.048,44.434,29.785,46.387,76.172,122.559,0
1486664483.052,43.945,33.691,41.504,60.547,95.703,0
1486664483.056,34.668,33.203,35.645,35.645,-128.418,0
1486664483.060,40.527,29.785,25.391,38.574,-200.684,0
1486664483.063,40.039,30.273,32.227,52.734,-115.723,0
1486664483.067,50.293,33.691,35.156,77.637,90.332,0
1486664483.071,54.199,37.109,32.227,65.918,152.832,0
1486664483.075,38.574,36.621,37.109,41.992,-75.684,0
1486664483.079,34.180,35.156,36.621,46.875,-169.922,0
1486664483.083,30.762,36.133,36.621,57.617,-101.562,0
1486664483.087,34.668,42.969,43.457,76.660,76.172,0
1486664483.091,37.598,40.039,38.086,74.219,152.344,0
1486664483.095,23.926,25.391,34.668,46.387,-41.016,0
1486664483.099,25.391,24.902,38.574,43.945,-138.672,0
1486664483.103,27.832,29.297,35.156,56.152,-63.965,0
1486664483.106,29.785,28.809,34.668,70.801,100.586,0
1486664483.110,31.250,27.344,40.039,66.895,197.266,0
1486664483.114,23.926,29.785,43.945,41.992,20.996,0
1486664483.118,21.973,30.762,41.504,41.504,-100.586,0
1486664483.122,21.484,28.320,35.156,52.246,-56.152,0
1486664483.126,24.902,31.250,35.156,67.871,104.980,0
1486664483.130,28.809,32.227,32.715,65.918,257.324,0
1486664483.134,21.484,31.250,29.297,38.574,50.293,0
1486664483.138,17.090,23.926,28.320,32.715,-103.516,0
1486664483.142,21.484,23.438,35.156,44.922,-57.617,0
1486664483.146,30.273,31.250,40.527,62.500,83.984,0
1486664483.149,38.086,25.391,37.598,72.754,267.578,0
1486664483.153,30.273,23.438,31.738,49.805,109.863,0
1486664483.157,29.785,28.320,32.227,38.574,-65.918,0
1486664483.161,40.527,33.691,37.109,55.176,-25.879,0
1486664483.165,48.828,32.715,33.691,72.754,104.980,0
1486664483.169,55.176,33.203,31.738,75.684,261.230,0
1486664483.173,42.969,33.691,35.156,48.828,156.250,0
1486664483.177,38.086,26.855,34.180,38.086,-39.551,0
1486664483.181,40.039,29.297,30.273,47.852,-77.148,0
1486664483.185,39.062,33.691,32.227,62.988,31.250,0
1486664483.188,53.711,33.691,35.645,84.961,249.512,0
1486664483.192,48.828,33.203,38.574,65.430,195.312,0
1486664483.196,39.551,30.273,37.109,46.875,-48.340,0
1486664483.200,46.875,36.133,45.410,61.035,-88.867,0
1486664483.204,39.551,32.715,41.992,71.289,30.762,0
1486664483.208,46.875,29.297,32.227,86.914,211.914,0
1486664483.212,48.828,35.156,37.598,73.730,167.969,0
1486664483.216,34.668,27.832,38.574,47.363,-8.789,0
1486664483.220,35.645,26.367,34.668,49.805,-63.965,0
1486664483.224,34.180,30.762,35.645,62.988,5.371,0
1486664483.228,40.039,25.391,38.574,79.102,228.516,0
1486664483.231,47.852,27.344,37.109,72.754,262.695,0
1486664483.235,30.762,30.762,31.250,45.898,46.875,0
1486664483.239,25.391,24.902,32.227,42.969,-37.598,0
1486664483.243,34.668,24.902,37.109,62.988,6.348,0
1486664483.247,45.410,32.715,40.527,82.520,175.293,0
1486664483.251,45.898,34.180,41.016,74.219,245.117,0
1486664483.255,29.785,26.367,35.645,51.758,49.316,0
1486664483.259,29.785,20.020,37.598,52.734,-61.035,0
1486664483.263,36.133,26.367,44.434,66.406,-24.414,0
1486664483.267,43.457,28.320,39.551,83.496,149.414,0
1486664483.270,44.434,25.391,31.738,76.172,223.633,0
1486664483.274,35.156,23.926,33.203,50.293,34.180,0
1486664483.278,34.668,24.902,40.039,49.805,-54.199,0
1486664483.282,38.574,28.809,40.039,62.012,-32.715,0
1486664483.286,47.363,32.227,35.645,77.637,125.977,0
1486664483.290,52.246,32.715,33.691,77.637,255.859,0
1486664483.294,45.898,31.250,31.738,56.641,87.402,0
1486664483.298,45.898,37.109,32.715,49.805,-58.105,0
1486664483.302,42.480,33.203,28.320,53.711,13.184,0
1486664483.306,45.410,26.367,29.785,70.801,157.227,0
1486664483.310,53.223,30.273,38.086,74.707,283.203,0
1486664483.313,41.504,31.738,34.668,45.410,159.180,0
1486664483.317,39.062,29.785,36.133,41.992,-18.066,0
1486664483.321,38.086,28.809,41.992,53.223,2.441,0
1486664483.325,41.016,32.715,34.180,71.289,137.695,0
1486664483.329,53.223,32.715,30.273,83.984,291.016,0
1486664483.333,47.363,32.227,37.598,64.941,199.707,0
1486664483.337,41.016,35.645,42.480,58.105,-15.137,0
1486664483.341,40.527,30.762,41.504,63.965,-19.043,0
1486664483.345,40.527,26.367,42.480,75.684,139.160,0
1486664483.349,47.852,23.926,38.574,83.496,286.621,0
1486664483.353,47.363,23.438,36.133,65.430,191.895,0
1486664483.356,44.922,28.320,45.898,54.199,-44.922,0
1486664483.360,48.828,34.668,43.457,61.523,-83.496,0
1486664483.364,46.875,34.668,31.738,71.777,16.113,0
1486664483.368,55.664,33.203,34.180,82.031,202.637,0
1486664483.372,52.246,36.621,37.598,63.965,222.168,0
1486664483.376,41.016,36.621,37.109,44.922,-1.465,0
1486664483.380,38.574,34.180,33.203,47.363,-83.496,0
1486664483.384,37.598,28.320,35.156,58.594,35.156,0
1486664483.388,48.828,33.691,41.504,78.125,253.906,0
1486664483.392,48.340,35.156,38.574,63.965,262.695,0
1486664483.395,41.016,27.832,33.691,45.898,47.363,0
1486664483.399,44.922,30.762,37.109,53.711,-26.855,0
1486664483.403,48.340,35.645,39.551,65.918,29.785,0
1486664483.407,56.152,33.691,35.156,81.543,183.594,0
1486664483.411,60.059,34.668,32.715,65.918,238.281,0
1486664483.415,56.152,38.086,35.156,42.480,57.617,0
1486664483.419,59.570,34.668,41.504,52.246,-67.383,0
1486664483.423,54.688,30.273,39.551,63.477,-7.324,0
1486664483.427,57.617,31.738,35.156,79.590,172.852,0
1486664483.431,61.035,34.668,39.062,85.449,242.676,0
1486664483.435,44.922,29.785,45.898,62.500,67.383,0
1486664483.438,44.922,24.414,41.504,57.129,-46.387,0
1486664483.442,48.340,26.855,34.180,65.918,-0.977,0
1486664483.446,48.828,30.273,35.645,80.078,161.621,0
1486664483.450,56.152,35.645,41.016,78.613,241.699,0
1486664483.454,48.340,31.250,37.109,55.176,95.215,0
1486664483.458,38.574,23.926,30.762,47.363,-5.371,0
1486664483.462,36.133,25.391,33.203,56.641,-4.395,0
1486664483.466,44.922,27.832,41.992,83.008,123.535,0
1486664483.470,52.734,31.250,46.875,87.402,235.840,0
1486664483.474,40.527,26.367,41.504,60.059,97.168,0
1486664483.478,36.133,22.949,36.621,48.340,-79.102,0
1486664483.481,35.645,30.273,33.203,53.223,-90.820,0
1486664483.485,40.039,32.227,37.109,74.219,88.867,0
1486664483.489,47.363,33.203,36.621,80.566,257.812,0
1486664483.493,36.133,35.645,31.738,50.293,147.461,0
1486664483.497,33.203,28.320,29.297,40.039,-40.039,0
1486664483.501,35.645,27.344,35.645,49.805,-45.898,0
1486664483.505,33.203,29.297,40.039,63.477,55.176,0
1486664483.509,38.086,30.273,33.691,71.777,203.613,0
1486664483.513,35.645,29.785,31.738,50.293,138.672,0
1486664483.517,33.203,32.227,34.180,39.062,-34.180,0
1486664483.520,41.504,38.086,35.645,48.340,-88.379,0
1486664483.524,46.875,28.809,35.645,62.988,-5.859,0
1486664483.528,53.223,23.438,37.598,75.195,192.871,0
1486664483.532,50.781,29.785,39.551,60.059,161.133,0
1486664483.536,44.434,33.691,37.598,45.898,-64.453,0
1486664483.540,41.504,28.320,33.691,50.293,-112.305,0
1486664483.544,39.062,26.367,36.621,62.012,15.625,0
1486664483.548,46.387,32.715,40.039,80.566,177.734,0
1486664483.552,48.340,28.320,39.062,70.801,140.625,0
1486664483.556,40.527,25.391,35.645,47.363,-46.875,0
1486664483.560,42.480,30.762,37.598,52.246,-125.000,0
1486664483.563,41.016,32.715,44.434,65.918,-48.340,0
1486664483.567,42.969,33.203,39.551,80.566,188.965,0
1486664483.571,43.945,29.297,32.715,75.195,206.543,0
1486664483.575,35.156,28.320,35.645,51.270,-39.551,0
1486664483.579,36.621,31.250,45.898,52.734,-126.953,0
1486664483.583,46.387,35.645,45.410,73.730,-45.898,0
1486664483.587,44.434,29.785,34.180,84.473,135.742,0
1486664483.591,46.875,23.926,37.598,74.219,161.133,0
1486664483.595,41.016,27.344,42.480,47.363,-20.020,0
1486664483.599,33.203,30.273,40.039,39.551,-68.359,0
1486664483.602,39.062,32.227,36.621,52.734,-63.477,0
1486664483.606,49.805,31.250,34.668,71.289,87.402,0
1486664483.610,51.758,29.785,35.156,71.289,219.727,0
1486664483.614,48.340,31.250,41.992,53.711,17.090,0
1486664483.618,50.781,32.715,40.039,53.223,-90.820,0
1486664483.622,46.387,28.809,29.785,61.035,-25.879,0
1486664483.626,54.688,28.320,38.086,84.473,113.281,0
1486664483.630,59.570,28.320,41.504,89.355,222.168,0
1486664483.634,40.527,24.414,32.227,53.711,43.945,1
1486664483.638,38.086,23.438,27.344,50.293,-98.633,0
1486664483.642,42.480,27.832,31.250,65.430,-63.965,0
1486664483.645,41.992,31.738,36.133,76.660,80.566,0
1486664483.649,47.852,33.691,43.945,83.496,242.188,0
1486664483.653,34.180,29.785,40.527,56.641,106.445,0
1486664483.657,21.973,25.391,32.227,41.504,-88.867,0
1486664483.661,22.461,26.367,40.039,48.340,-62.988,0
1486664483.665,24.414,28.809,44.922,64.453,52.246,0
1486664483.669,29.785,29.297,35.645,73.730,197.266,0
1486664483.673,27.832,23.926,35.156,50.293,111.328,0
1486664483.677,27.344,27.344,37.598,35.645,-65.918,0
1486664483.681,28.809,23.926,32.227,40.527,-84.473,0
1486664483.685,32.227,21.973,33.691,58.594,5.371,0
1486664483.688,39.551,24.414,41.016,74.707,222.168,0
1486664483.692,41.992,20.508,40.039,57.129,163.574,0
1486664483.696,41.992,23.438,41.992,46.875,-75.195,0
1486664483.700,45.898,30.273,43.945,58.105,-84.961,0
1486664483.704,57.129,32.715,40.527,78.613,15.137,0
1486664483.708,66.406,29.785,40.039,93.750,154.297,0
1486664483.712,59.570,27.832,39.062,79.590,148.926,0
1486664483.716,53.223,36.621,42.969,67.871,-53.223,0
1486664483.720,44.434,35.645,41.992,61.035,-138.184,0
1486664483.724,38.086,22.461,37.598,69.824,-50.293,0
1486664483.727,44.434,24.902,36.621,88.379,154.297,0
1486664483.731,34.668,29.785,35.156,68.848,175.781,0
1486664483.735,27.832,27.344,43.945,50.293,-30.273,0
1486664483.739,25.879,25.391,45.898,51.270,-108.887,0
1486664483.743,17.578,26.367,32.227,57.617,-41.504,0
1486664483.747,32.715,23.926,32.715,83.008,179.199,0
1486664483.751,33.203,23.438,36.133,71.289,255.859,0
1486664483.755,24.902,27.832,38.574,46.875,28.809,0
1486664483.759,32.227,31.738,37.598,49.805,-101.074,0
1486664483.763,31.738,29.785,38.574,57.129,-57.617,0
1486664483.767,40.039,29.785,44.922,82.520,104.980,0
1486664483.770,41.504,30.273,38.086,77.637,196.777,0
1486664483.774,33.203,22.949,35.645,49.316,24.902,0
1486664483.778,37.598,19.531,32.227,46.875,-131.348,0
1486664483.782,35.156,24.902,31.738,54.199,-96.191,0
1486664483.786,41.992,30.762,36.621,76.660,90.332,0
1486664483.790,53.711,29.297,36.133,80.078,216.309,0
1486664483.794,44.434,26.367,38.574,53.223,59.570,0
1486664483.798,41.016,29.297,40.039,48.340,-96.191,0
1486664483.802,41.016,35.156,41.992,61.035,-104.980,0
1486664483.806,42.969,28.320,43.457,83.984,62.988,0
1486664483.810,46.875,19.531,36.133,89.844,235.352,0
1486664483.813,36.621,27.832,32.227,65.430,72.754,0
1486664483.817,33.691,27.832,39.062,59.082,-78.125,0
1486664483.821,29.297,23.926,39.062,64.941,-69.336,0
1486664483.825,26.855,26.367,31.250,78.613,38.574,0
1486664483.829,33.203,24.902,35.156,82.520,223.633,0
1486664483.833,29.785,25.879,43.457,56.641,117.676,0
1486664483.837,30.762,31.250,43.945,43.945,-72.754,0
1486664483.841,27.832,29.785,37.109,48.340,-89.355,0
1486664483.845,28.809,24.902,31.250,61.523,36.621,0
1486664483.849,39.062,27.832,31.738,72.754,239.746,0
1486664483.852,35.156,25.391,31.250,53.223,167.969,0
1486664483.856,33.203,25.879,28.809,36.621,-52.734,0
1486664483.860,39.062,31.738,34.668,46.875,-114.746,0
1486664483.864,41.504,28.809,39.062,67.871,7.812,0
1486664483.868,42.480,26.855,34.180,81.055,240.723,0
1486664483.872,40.039,24.902,35.645,67.383,195.801,0
1486664483.876,39.062,25.879,37.598,50.781,-35.645,0
1486664483.880,36.621,31.738,36.133,52.734,-116.699,0
1486664483.884,34.180,27.344,35.645,69.824,-18.066,0
1486664483.888,42.969,23.438,35.156,90.820,166.992,0
1486664483.892,36.133,24.414,37.109,74.219,187.012,0
1486664483.895,32.227,24.902,38.574,52.734,-15.625,0
1486664483.899,41.504,30.762,39.551,57.129,-116.211,0
1486664483.903,40.039,38.086,39.062,68.848,-52.734,0
1486664483.907,44.922,35.156,36.133,83.008,128.418,0
1486664483.911,41.992,28.809,30.762,69.824,197.754,0
1486664483.915,37.598,30.273,39.551,46.387,-0.977,0
1486664483.919,41.504,34.668,39.062,47.363,-84.961,0
1486664483.923,35.645,27.832,28.320,56.641,-16.113,0
1486664483.927,39.551,23.926,34.180,71.777,153.809,0
1486664483.931,46.875,28.320,40.039,72.266,227.051,0
1486664483.934,40.527,26.855,37.598,46.387,23.438,0
1486664483.938,38.574,27.832,36.133,36.133,-113.281,0
1486664483.942,40.039,32.715,36.621,48.828,-51.758,0
1486664483.946,47.852,35.645,37.109,72.754,114.746,0
1486664483.950,49.805,31.738,37.109,72.754,235.352,0
1486664483.954,44.922,26.367,37.598,47.852,57.129,0
1486664483.958,45.898,25.879,39.551,41.992,-109.863,0
1486664483.962,41.016,26.855,39.551,50.781,-78.125,0
1486664483.966,44.922,27.832,34.668,70.312,94.727,0
1486664483.970,46.387,27.832,34.180,71.289,225.098,0
1486664483.974,32.227,22.461,35.645,47.363,86.914,0
1486664483.977,32.715,20.020,38.574,44.434,-51.270,0
1486664483.981,36.621,23.438,41.016,60.547,-58.594,0
1486664483.985,40.527,24.902,39.062,83.008,86.426,0
1486664483.989,45.898,28.320,40.527,93.750,263.672,0
1486664483.993,34.668,25.391,41.016,65.918,146.973,0
1486664483.997,33.691,19.531,38.086,53.711,-61.035,0
1486664484.001,40.039,21.484,39.062,67.383,-83.496,0
1486664484.005,45.898,25.391,45.898,85.938,32.227,0
1486664484.009,52.734,25.879,43.457,91.309,219.727,0
1486664484.013,49.316,23.926,38.086,65.430,120.605,0
1486664484.017,47.852,26.855,36.133,46.387,-56.152,0
1486664484.020,47.852,33.691,40.039,51.270,-47.363,0
1486664484.024,49.805,32.715,41.992,69.824,50.781,0
1486664484.028,57.129,34.668,34.180,82.520,254.395,0
1486664484.032,47.852,33.691,34.180,59.082,207.031,0
1486664484.036,45.410,29.785,34.668,39.062,-33.691,0
1486664484.040,44.434,33.203,29.297,41.992,-50.781,0
1486664484.044,30.762,30.762,27.344,47.852,52.246,0
1486664484.048,38.574,26.855,32.227,64.453,203.613,0
1486664484.052,47.363,31.738,37.598,61.523,217.285,0
1486664484.056,38.574,32.715,36.133,39.062,-13.672,0
1486664484.059,32.715,26.855,29.785,41.504,-84.473,0
1486664484.063,37.109,27.344,30.762,64.453,19.043,0
1486664484.067,41.992,28.809,40.039,82.031,189.453,0
1486664484.071,42.969,26.367,37.598,71.777,206.055,0
1486664484.075,42.480,22.949,37.109,49.316,24.414,0
1486664484.079,42.480,22.461,35.156,49.805,-59.082,0
1486664484.083,41.992,27.344,32.227,66.406,-27.832,0
1486664484.087,48.340,30.762,36.621,87.402,148.438,0
1486664484.091,44.434,23.438,35.156,78.613,228.027,0
1486664484.095,36.621,20.508,35.156,55.176,33.691,0
1486664484.099,46.387,26.367,39.551,54.199,-111.816,0
1486664484.102,47.852,29.297,42.969,62.500,-74.219,0
1486664484.106,40.039,23.926,44.922,78.125,116.699,0
1486664484.110,43.945,20.508,39.062,71.289,195.312,0
1486664484.114,41.504,23.438,36.133,45.898,6.836,0
1486664484.118,40.039,27.344,38.574,44.922,-99.121,0
1486664484.122,40.527,31.738,34.668,49.805,-55.664,0
1486664484.126,37.109,30.762,34.180,65.430,73.242,0
1486664484.130,34.180,27.344,34.180,64.453,223.145,0
1486664484.134,31.738,28.809,35.645,34.180,51.270,0
1486664484.138,41.992,34.668,39.551,34.668,-103.516,0
1486664484.142,43.945,36.133,37.109,46.387,-64.453,1
1486664484.145,34.180,30.273,31.738,62.500,63.477,0
1486664484.149,38.574,25.391,32.715,74.219,224.609,0
1486664484.153,40.527,29.297,36.133,46.875,63.477,0
1486664484.157,40.527,32.715,36.133,36.133,-87.402,0
1486664484.161,43.945,34.668,36.133,52.246,-89.355,0
1486664484.165,48.828,37.109,37.109,77.148,8.789,0
1486664484.169,53.711,35.645,35.156,91.309,194.336,0
1486664484.173,50.781,34.668,36.133,72.754,105.469,0
1486664484.177,55.664,30.762,41.992,68.359,-96.191,0
1486664484.181,54.688,33.203,41.992,74.707,-117.676,0
1486664484.184,43.457,31.250,33.203,82.520,-9.766,0
1486664484.188,46.387,22.949,35.645,97.656,179.199,0
1486664484.192,41.016,27.832,39.551,68.848,106.934,0
1486664484.196,37.109,29.297,33.691,43.945,-86.914,0
1486664484.200,38.574,19.531,32.715,52.246,-81.543,0
1486664484.204,32.715,21.973,35.645,62.988,22.949,0
1486664484.208,34.180,25.391,39.551,79.590,196.289,0
1486664484.212,33.691,20.020,41.992,62.500,165.039,0
1486664484.216,27.344,23.438,39.062,32.715,-33.691,0
1486664484.220,31.250,29.785,37.598,41.016,-89.844,0
1486664484.224,28.809,28.320,34.668,57.617,-13.672,0
1486664484.227,31.738,25.391,34.180,78.613,196.289,0
1486664484.231,41.016,29.297,42.480,77.148,267.578,0
1486664484.235,39.062,29.297,38.574,47.852,26.855,0
1486664484.239,45.898,23.926,35.156,46.387,-85.938,0
1486664484.243,50.293,26.855,40.039,61.523,-14.648,0
1486664484.247,55.664,31.738,36.133,82.520,177.734,0
1486664484.251,61.035,29.785,30.762,77.637,258.789,0
1486664484.255,59.082,28.320,27.344,44.434,31.738,0
1486664484.259,60.547,26.855,29.785,44.434,-115.234,0
1486664484.263,51.758,27.344,36.133,59.570,-70.312,0
1486664484.266,51.758,33.203,36.621,84.473,138.184,0
1486664484.270,57.129,36.133,41.016,90.332,229.004,0
1486664484.274,46.387,29.297,38.574,54.688,23.926,0
1486664484.278,47.363,21.484,35.645,47.852,-68.359,0
1486664484.282,42.480,24.414,36.133,60.059,-55.664,0
1486664484.286,37.109,28.809,28.809,75.195,129.395,0
1486664484.290,42.480,29.785,28.320,72.754,252.930,0
1486664484.294,40.039,25.879,33.691,44.434,43.945,0
1486664484.298,40.039,22.949,37.109,43.945,-74.219,0
1486664484.302,37.598,24.414,40.039,58.105,-61.523,0
1486664484.306,40.039,24.414,39.062,81.055,88.867,0
1486664484.309,41.992,25.391,43.945,87.402,260.254,0
1486664484.313,37.109,27.832,42.969,59.082,88.867,0
1486664484.317,39.062,22.461,35.645,52.246,-72.754,0
1486664484.321,38.086,17.090,30.762,60.059,-14.160,0
1486664484.325,39.062,16.113,32.715,78.125,98.633,0
1486664484.329,49.316,22.461,37.598,91.309,270.020,0
1486664484.333,48.828,29.785,39.062,66.406,165.039,0
1486664484.337,45.410,27.344,33.691,45.898,-52.246,0
1486664484.341,48.340,29.297,34.668,56.152,-58.594,0
1486664484.345,50.293,33.691,38.574,78.613,66.895,0
1486664484.349,49.316,33.691,38.574,83.984,260.254,0
1486664484.352,42.969,28.809,32.715,57.129,152.832,0
1486664484.356,38.574,20.020,30.762,36.133,-43.945,0
1486664484.360,38.574,24.414,36.133,42.480,-69.824,0
1486664484.364,35.645,27.344,34.180,60.059,23.438,0
1486664484.368,33.203,24.902,34.668,70.801,252.441,0
1486664484.372,34.180,27.832,36.621,51.758,209.961,0
1486664484.376,34.180,28.809,33.691,34.668,-13.184,0
1486664484.380,36.621,27.344,28.809,43.945,-83.496,0
1486664484.384,37.598,28.809,32.227,60.547,-16.113,0
1486664484.388,47.363,32.227,41.016,83.496,210.449,0
1486664484.391,55.176,37.109,44.922,75.195,225.098,0
1486664484.395,45.898,28.320,34.180,50.293,-5.371,0
1486664484.399,53.223,22.949,33.203,60.547,-95.215,0
1486664484.403,55.664,31.250,39.551,77.637,-63.477,0
1486664484.407,53.223,28.809,35.156,92.773,134.277,0
1486664484.411,57.129,17.578,34.180,86.426,256.348,0
1486664484.415,47.852,17.578,35.156,58.594,35.645,0
1486664484.419,48.340,26.367,35.645,59.082,-73.242,0
1486664484.423,44.922,25.879,38.574,68.848,-33.203,0
1486664484.427,40.039,26.367,37.598,82.031,129.395,0
1486664484.431,48.828,29.297,36.621,83.008,269.043,0
1486664484.434,44.922,33.203,40.039,54.199,53.223,0
1486664484.438,41.016,31.250,41.504,45.410,-111.816,0
1486664484.442,38.086,24.902,36.621,59.082,-47.852,0
1486664484.446,38.574,28.809,34.180,77.637,133.301,0
1486664484.450,49.805,31.250,36.133,81.543,276.367,0
1486664484.454,42.480,22.949,34.668,51.758,111.328,0
1486664484.458,43.457,21.973,32.715,40.527,-56.152,0
1486664484.462,48.828,28.809,33.691,54.688,-39.551,0
1486664484.466,50.293,31.738,39.062,70.312,109.863,0
1486664484.470,62.500,30.762,37.598,81.543,254.883,0
1486664484.474,53.223,30.273,33.203,57.129,88.379,0
1486664484.477,53.223,32.715,40.527,46.875,-93.262,0
1486664484.481,58.105,34.180,43.457,58.594,-115.723,0
1486664484.485,47.852,29.785,33.203,70.801,35.156,0
1486664484.489,51.758,26.367,34.180,82.031,241.211,0
1486664484.493,50.781,25.391,37.109,60.059,130.859,0
1486664484.497,47.363,24.414,36.133,49.316,-70.312,0
1486664484.501,45.410,29.297,39.062,62.012,-93.262,0
1486664484.505,38.574,27.832,42.969,79.102,20.996,0
1486664484.509,40.039,22.949,47.852,93.262,218.750,0
1486664484.513,39.551,24.902,46.875,74.707,188.477,0
1486664484.516,42.969,28.320,47.363,62.988,-28.320,0
1486664484.520,48.828,29.785,49.805,73.242,-98.633,0
1486664484.524,49.805,29.785,43.945,89.355,14.160,0
1486664484.528,50.781,33.203,41.016,100.586,204.590,0
1486664484.532,49.316,27.344,36.133,80.566,133.789,0
1486664484.536,46.875,20.020,32.715,58.105,-91.797,0
1486664484.540,47.852,21.484,36.133,63.477,-112.305,0
1486664484.544,50.293,24.414,38.086,77.148,10.742,0
1486664484.548,57.129,27.832,43.457,95.703,195.801,0
1486664484.552,61.523,31.250,46.875,86.914,190.918,0
1486664484.556,58.105,34.668,42.969,62.012,-27.832,0
1486664484.559,59.570,31.738,37.598,63.477,-85.449,0
1486664484.563,54.688,26.367,33.203,71.777,17.090,0
1486664484.567,57.617,25.391,35.645,91.309,246.582,0
1486664484.571,66.895,24.902,42.480,88.379,257.324,0
1486664484.575,62.012,29.297,41.992,62.988,14.160,0
1486664484.579,64.453,33.203,43.945,67.871,-82.520,0
1486664484.583,59.082,36.133,45.410,78.125,-12.207,0
1486664484.587,52.246,32.227,41.504,87.402,170.410,0
1486664484.591,50.781,29.297,42.969,80.566,250.000,0
1486664484.595,41.504,27.832,34.668,51.270,62.988,0
1486664484.598,44.922,27.832,35.645,48.828,-72.266,0
1486664484.602,42.969,28.809,41.992,64.941,-3.906,0
1486664484.606,41.504,30.273,44.434,81.543,159.180,0
1486664484.610,42.480,32.227,46.387,80.078,242.188,0
1486664484.614,38.086,25.391,50.293,55.664,85.938,0
1486664484.618,42.969,27.344,54.688,52.246,-41.992,0
1486664484.622,38.086,27.832,44.434,60.059,-19.531,0
1486664484.626,32.227,23.438,35.156,76.172,147.461,0
1486664484.630,35.645,25.391,37.109,81.055,244.141,0
1486664484.634,27.832,22.949,40.039,50.781,73.242,0
1486664484.638,24.902,23.438,40.527,40.039,-42.969,0
1486664484.641,33.203,31.250,41.992,58.105,-59.082,0
1486664484.645,32.715,29.785,45.410,72.266,102.539,0
1486664484.649,41.016,27.344,39.062,76.660,284.668,0
1486664484.653,49.316,29.785,37.598,58.594,103.516,0
1486664484.657,51.270,32.715,44.434,45.410,-82.520,0
1486664484.661,53.711,33.691,34.180,56.641,-104.492,0
1486664484.665,56.152,35.645,29.297,73.730,12.695,0
1486664484.669,61.523,34.180,34.180,78.125,233.398,0
1486664484.673,61.523,32.227,37.109,55.664,117.676,0
1486664484.677,58.594,35.645,38.086,42.969,-96.191,0
1486664484.681,57.617,36.133,35.156,54.199,-109.863,0
1486664484.684,48.340,34.180,32.227,68.359,29.785,0
1486664484.688,51.758,34.180,34.668,83.984,235.840,0
1486664484.692,55.176,33.691,38.086,66.895,186.035,0
1486664484.696,52.734,35.156,39.551,49.316,-13.184,0
1486664484.700,56.152,38.574,40.527,61.035,-86.914,0
1486664484.704,54.688,36.133,42.480,76.660,-10.254,0
1486664484.708,54.688,31.738,41.016,91.797,216.797,0
1486664484.712,47.363,27.344,37.598,70.801,243.652,0
1486664484.716,41.504,24.902,34.668,45.410,11.230,0
1486664484.720,43.945,26.855,37.598,52.246,-94.727,0
1486664484.723,40.527,29.785,43.945,65.918,-52.734,0
1486664484.727,38.574,27.344,41.992,83.984,158.203,0
1486664484.731,37.109,25.879,37.109,72.754,224.609,0
1486664484.735,40.039,28.809,39.062,47.363,7.812,0
1486664484.739,45.410,29.785,37.598,48.340,-119.629,0
1486664484.743,41.016,34.180,35.645,60.059,-41.992,0
1486664484.747,42.969,37.109,41.016,79.102,182.129,0
1486664484.751,42.969,41.504,39.551,69.336,214.844,0
1486664484.755,33.203,39.551,34.180,39.551,1.953,0
1486664484.759,29.785,26.855,38.574,34.180,-99.609,0
1486664484.763,27.832,27.344,39.062,46.387,-70.312,0
1486664484.766,32.715,31.738,35.156,69.336,121.094,0
1486664484.770,34.180,29.297,39.062,66.406,226.074,0
1486664484.774,28.809,29.297,39.551,39.551,0.000,0
1486664484.778,32.715,29.785,35.156,41.016,-152.832,0
1486664484.782,27.344,29.297,28.320,46.875,-104.980,0
1486664484.786,27.344,29.785,26.855,62.988,72.754,0
1486664484.790,36.133,28.809,34.668,70.801,182.617,0
1486664484.794,31.738,25.879,39.551,45.410,45.898,0
1486664484.798,34.180,24.902,39.062,41.992,-111.816,0
1486664484.802,33.203,27.832,36.621,48.828,-127.930,0
1486664484.805,32.227,26.367,43.457,63.477,55.176,2
1486664484.809,37.109,23.926,43.945,74.707,204.102,0
1486664484.813,21.484,20.508,34.180,44.434,49.316,0
1486664484.817,25.879,20.508,33.691,35.156,-103.516,0
1486664484.821,29.785,24.414,40.527,49.805,-103.027,0
1486664484.825,29.785,27.344,46.387,73.242,43.457,0
1486664484.829,39.551,27.344,41.016,86.914,226.074,0
1486664484.833,38.574,24.414,36.621,62.988,109.375,0
1486664484.837,41.016,25.391,38.086,46.875,-85.938,0
1486664484.841,41.504,27.344,38.086,53.711,-84.961,0
1486664484.845,34.668,29.297,37.109,71.289,35.156,0
1486664484.848,41.992,37.598,37.598,82.031,219.727,0
1486664484.852,40.039,36.133,33.691,53.223,157.227,0
1486664484.856,31.738,24.414,32.227,33.203,-70.312,0
1486664484.860,39.551,29.297,40.527,45.410,-114.258,0
1486664484.864,41.016,31.738,35.156,62.012,6.348,0
1486664484.868,40.039,26.855,23.438,75.195,216.309,0
1486664484.872,38.086,30.273,28.320,60.059,156.738,0
1486664484.876,41.016,31.738,32.715,40.527,-65.430,0
1486664484.880,43.457,30.273,37.598,44.922,-111.816,0
1486664484.884,35.156,30.762,36.133,55.176,-25.879,0
1486664484.888,35.156,30.273,32.227,70.801,159.668,0
1486664484.891,38.086,33.691,36.621,62.500,181.641,0
1486664484.895,36.621,37.598,43.945,40.039,-27.344,0
1486664484.899,36.133,30.762,35.645,43.945,-103.027,0
1486664484.903,34.180,26.367,31.738,59.570,-13.184,0
1486664484.907,37.109,28.320,37.109,80.078,179.688,0
1486664484.911,41.016,25.391,38.086,77.148,206.543,0
1486664484.915,35.645,25.391,36.621,47.363,1.953,0
1486664484.919,35.645,24.414,36.621,45.410,-59.082,0
1486664484.923,39.551,24.902,41.016,65.918,-44.434,0
1486664484.927,39.551,29.297,43.945,86.426,125.977,0
1486664484.930,39.551,29.297,44.434,83.008,242.676,0
1486664484.934,42.480,26.855,40.527,60.059,32.227,0
1486664484.938,49.805,20.996,37.598,56.641,-114.258,0
1486664484.942,50.293,25.391,37.598,70.312,-82.031,0
1486664484.946,49.316,29.785,40.527,89.844,92.773,0
1486664484.950,50.293,29.297,41.016,85.449,187.500,0
1486664484.954,38.086,30.762,36.133,49.316,-10.742,0
1486664484.958,32.715,24.902,33.203,36.133,-120.605,0
1486664484.962,34.668,25.391,38.574,51.758,-87.402,0
1486664484.966,39.062,28.809,41.504,80.078,42.480,0
1486664484.970,42.480,27.344,33.203,86.426,193.359,0
1486664484.973,39.551,25.391,32.715,57.617,54.688,0
1486664484.977,49.805,27.344,36.621,49.805,-113.770,0
1486664484.981,45.898,30.762,34.668,57.617,-92.285,0
1486664484.985,43.945,35.156,36.621,79.590,80.566,0
1486664484.989,51.270,35.645,35.156,90.332,235.352,0
1486664484.993,43.457,27.832,35.156,55.176,69.336,0
1486664484.997,48.340,30.273,42.480,48.340,-115.723,0
1486664485.001,45.898,30.762,38.086,57.129,-100.098,0
1486664485.005,33.203,23.438,29.785,64.941,5.371,0
1486664485.009,41.016,26.855,34.180,81.055,181.152,0
1486664485.013,41.016,27.832,39.062,57.129,86.426,0
1486664485.016,38.574,23.438,42.480,35.645,-110.840,0
1486664485.020,41.504,26.855,40.039,43.945,-146.484,0
1486664485.024,33.691,30.762,33.691,55.664,-20.508,0
1486664485.028,33.203,32.715,34.668,67.383,203.613,0
1486664485.032,36.621,34.180,39.062,56.641,149.902,0
1486664485.036,37.598,31.250,41.504,39.062,-67.871,0
1486664485.040,31.250,28.809,34.180,38.086,-88.379,0
1486664485.044,27.832,28.809,33.691,55.664,-5.371,0
1486664485.048,34.668,30.762,36.621,76.660,151.367,0
1486664485.052,39.551,33.203,39.551,62.500,152.832,0
1486664485.055,44.922,26.367,39.551,48.340,-35.156,0
1486664485.059,48.828,25.391,39.062,62.012,-122.070,0
1486664485.063,42.969,30.762,39.551,73.242,-29.297,0
1486664485.067,45.898,35.156,44.434,92.285,194.824,0
1486664485.071,47.363,32.715,48.340,87.891,233.887,0
1486664485.075,41.016,27.344,39.551,58.594,13.672,0
1486664485.079,44.922,24.902,35.645,57.617,-133.301,0
1486664485.083,45.410,28.320,39.062,72.754,-65.430,0
1486664485.087,42.480,33.203,41.016,89.355,137.695,0
1486664485.091,45.410,31.250,39.062,77.148,191.895,0
1486664485.095,46.387,33.691,36.133,46.875,-43.945,0
1486664485.098,46.387,32.715,33.203,44.922,-154.297,0
1486664485.102,43.945,32.227,36.133,59.570,-64.453,0
1486664485.106,43.945,34.180,38.574,80.566,121.582,0
1486664485.110,47.363,35.156,34.180,79.102,263.184,0
1486664485.114,42.969,35.156,35.645,51.270,61.035,0
1486664485.118,39.551,27.344,36.133,41.016,-118.164,0
1486664485.122,34.180,28.320,29.785,50.781,-66.406,0
1486664485.126,33.691,32.715,32.715,71.777,130.859,0
1486664485.130,37.109,28.809,36.133,73.242,239.258,0
1486664485.134,37.109,30.762,34.668,48.340,60.059,0
1486664485.137,35.156,26.855,35.156,42.969,-91.309,0
1486664485.141,35.156,24.902,42.480,57.129,-74.219,0
1486664485.145,39.551,30.273,43.457,84.473,83.496,0
1486664485.149,42.480,31.250,39.062,90.820,254.395,0
1486664485.153,37.598,29.785,38.086,58.105,109.863,0
1486664485.157,42.969,27.832,35.156,48.340,-92.773,0
1486664485.161,45.898,26.855,34.668,61.523,-90.820,0
1486664485.165,41.992,25.391,36.621,74.707,55.176,0
1486664485.169,44.434,25.391,39.551,86.426,211.914,0
1486664485.173,38.086,28.320,33.691,58.105,135.254,0
1486664485.177,39.062,29.297,32.227,40.039,-57.129,0
1486664485.180,38.574,29.785,35.645,52.734,-84.961,0
1486664485.184,27.832,27.832,29.785,66.406,53.223,0
1486664485.188,32.715,31.250,38.574,82.520,224.121,0
1486664485.192,32.227,31.250,42.480,59.570,157.227,0
1486664485.196,27.344,25.879,32.227,35.156,-42.480,0
1486664485.200,35.156,27.832,36.621,51.270,-62.012,0
1486664485.204,36.621,31.250,42.480,67.383,25.879,0
1486664485.208,37.109,26.367,41.016,77.637,223.633,0
1486664485.212,41.016,23.926,39.551,68.359,204.590,0
1486664485.216,41.992,24.902,38.086,43.945,-16.113,0
1486664485.220,41.016,25.879,39.551,42.969,-55.664,0
1486664485.223,36.621,27.832,38.574,56.152,-0.488,0
1486664485.227,39.551,27.832,31.250,77.148,187.500,0
1486664485.231,43.457,28.320,36.133,69.336,226.562,0
1486664485.235,43.457,31.738,42.480,43.457,2.930,0
1486664485.239,47.852,30.273,37.598,46.387,-84.473,0
1486664485.243,43.945,27.832,39.062,56.641,-44.434,0
1486664485.247,42.969,26.855,39.062,70.801,124.512,0
1486664485.251,47.852,26.855,38.086,62.988,205.566,0
1486664485.255,48.340,28.809,42.480,33.203,5.371,0
1486664485.259,50.781,25.391,36.133,29.297,-104.492,0
1486664485.262,48.828,28.809,32.227,41.992,-56.641,0
1486664485.266,48.340,30.762,38.086,66.406,133.789,0
1486664485.270,48.828,25.879,41.016,73.730,258.301,0
1486664485.274,38.574,24.414,36.621,44.434,38.086,0
1486664485.278,41.992,26.855,39.551,40.527,-128.418,0
1486664485.282,41.992,28.809,39.551,55.664,-82.031,0
1486664485.286,33.203,24.902,31.250,75.195,99.609,0
1486664485.290,40.527,24.414,34.668,80.078,230.957,0
1486664485.294,39.062,27.832,34.180,50.293,61.035,0
1486664485.298,41.504,27.832,36.133,50.293,-105.957,0
1486664485.302,43.945,25.879,44.434,71.289,-78.125,0
1486664485.305,35.156,22.949,42.480,84.473,96.191,0
1486664485.309,34.668,23.926,41.504,88.867,238.281,0
1486664485.313,31.250,26.367,46.387,59.082,58.594,0
1486664485.317,33.203,23.926,43.945,43.945,-124.023,0
1486664485.321,31.250,23.926,41.016,53.223,-89.355,0
1486664485.325,22.949,31.738,47.852,71.777,67.871,0
1486664485.329,18.066,29.297,47.363,71.289,219.727,0
1486664485.333,14.160,20.996,37.109,36.621,130.859,0
1486664485.337,16.602,20.996,35.645,20.996,-50.293,0
1486664485.341,22.461,22.461,41.504,31.738,-70.312,0
1486664485.345,27.832,26.855,38.086,56.641,26.367,0
1486664485.348,35.645,30.762,33.203,70.312,217.285,0
1486664485.352,39.062,24.902,35.156,53.711,194.824,0
1486664485.356,43.945,21.484,32.715,41.992,-69.824,0
1486664485.360,53.223,30.273,34.180,52.734,-128.906,0
1486664485.364,50.293,33.203,35.156,67.383,-2.441,0
1486664485.368,51.270,32.227,32.227,81.055,226.562,0
1486664485.372,57.617,34.668,36.133,68.848,188.965,0
1486664485.376,50.781,36.621,35.645,44.922,-55.176,0
1486664485.380,48.340,35.645,38.086,50.781,-100.586,0
1486664485.384,46.875,36.133,43.945,70.801,-35.156,0
1486664485.387,40.039,34.180,43.945,86.426,170.410,0
1486664485.391,41.016,31.738,45.410,77.148,191.406,0
1486664485.395,45.410,31.250,47.852,59.082,-26.367,0
1486664485.399,47.363,31.738,46.875,60.547,-90.820,0
1486664485.403,39.062,29.785,45.898,71.289,-35.645,0
1486664485.407,32.227,26.367,43.457,84.473,155.762,0
1486664485.411,38.086,24.902,39.062,77.637,209.961,0
1486664485.415,41.016,22.461,36.621,54.688,-24.902,0
1486664485.419,46.387,26.855,39.551,56.152,-104.004,0
1486664485.423,44.922,29.785,39.062,66.895,-41.992,0
1486664485.427,42.969,26.367,33.203,82.520,126.465,0
1486664485.430,51.270,31.738,34.668,81.543,217.285,0
1486664485.434,53.711,33.691,41.016,54.199,18.555,0
1486664485.438,55.176,26.367,38.574,51.270,-86.914,0
1486664485.442,58.105,25.879,36.621,68.848,-41.016,0
1486664485.446,58.105,30.762,39.551,87.891,136.230,0
1486664485.450,55.176,32.227,41.016,81.543,259.766,0
1486664485.454,53.711,35.156,37.109,54.199,55.176,0
1486664485.458,58.594,39.062,30.762,51.758,-106.445,0
1486664485.462,54.688,35.645,30.273,58.105,-79.590,0
1486664485.466,45.898,34.668,36.621,74.707,73.730,0
1486664485.469,48.828,31.250,41.016,85.449,195.801,1
1486664485.473,43.945,30.273,35.156,60.547,28.320,0
1486664485.477,34.180,27.344,33.203,46.387,-72.754,0
1486664485.481,35.645,17.578,38.086,63.965,-50.781,0
1486664485.485,33.691,18.555,40.039,85.938,62.988,0
1486664485.489,33.691,21.973,35.156,85.938,251.465,0
1486664485.493,40.527,23.926,37.109,64.453,110.840,0
1486664485.497,47.852,21.484,38.574,55.176,-106.445,0
1486664485.501,52.246,18.066,36.621,63.477,-117.188,0
1486664485.505,51.758,23.926,40.039,83.984,38.086,0
1486664485.509,55.664,32.715,44.922,95.703,229.980,0
1486664485.512,54.688,30.273,43.457,67.871,109.863,0
1486664485.516,55.176,23.926,35.156,48.828,-96.191,0
1486664485.520,56.641,26.367,34.180,56.152,-132.812,0
1486664485.524,51.758,29.785,32.227,66.406,5.859,0
1486664485.528,52.734,29.785,33.691,77.148,235.352,0
1486664485.532,51.270,28.809,40.039,60.059,183.594,0
1486664485.536,57.129,31.738,41.992,45.898,-19.531,0
1486664485.540,62.988,32.227,37.598,51.758,-95.215,0
1486664485.544,49.805,30.273,38.574,58.105,-37.109,0
1486664485.548,45.410,31.250,40.039,76.660,180.176,0
1486664485.552,47.363,31.738,36.621,69.336,186.523,0
1486664485.555,49.316,28.320,36.133,49.316,-18.066,0
1486664485.559,51.270,22.461,33.691,56.152,-71.777,0
1486664485.563,43.457,28.809,38.086,73.242,-13.184,0
1486664485.567,35.645,30.762,48.340,88.867,160.645,0
1486664485.571,32.227,22.949,46.875,79.102,190.918,0
1486664485.575,29.297,16.113,38.086,54.199,-34.668,0
1486664485.579,34.180,17.090,40.039,59.082,-88.867,0
1486664485.583,34.180,22.461,42.969,75.195,-16.113,0
1486664485.587,34.180,24.414,43.457,88.867,164.062,0
1486664485.591,39.062,25.879,46.875,88.379,234.375,0
1486664485.594,36.621,20.996,44.434,57.617,-24.902,0
1486664485.598,38.574,17.578,43.945,50.293,-138.184,0
1486664485.602,39.551,24.414,47.363,66.406,-78.613,0
1486664485.606,44.922,32.715,44.922,85.449,111.816,0
1486664485.610,46.875,30.762,46.875,76.172,246.094,0
1486664485.614,41.992,25.879,41.504,41.992,49.316,0
1486664485.618,44.434,26.367,31.250,33.203,-81.543,0
1486664485.622,39.062,27.344,33.691,41.992,-46.387,0
1486664485.626,35.645,26.855,36.133,61.035,117.188,0
1486664485.630,35.156,30.273,38.086,65.918,260.742,0
1486664485.634,30.762,28.809,38.086,41.992,100.098,0
1486664485.637,40.527,29.297,39.551,38.086,-65.918,0
1486664485.641,41.016,33.691,38.086,49.805,-57.129,0
1486664485.645,36.621,30.273,33.203,74.707,115.234,0
1486664485.649,37.598,26.367,41.504,85.938,291.016,0
1486664485.653,29.785,22.949,39.551,52.246,139.648,0
1486664485.657,38.574,23.438,30.273,45.898,-34.668,0
1486664485.661,39.062,26.367,34.668,62.012,-40.039,0
1486664485.665,30.762,30.273,42.480,80.078,42.480,0
1486664485.669,34.180,31.738,47.363,92.285,207.031,0
1486664485.673,27.832,24.414,42.480,64.941,154.297,0
1486664485.677,25.879,17.090,36.621,49.316,-53.711,0
1486664485.680,30.762,24.414,45.410,58.105,-89.355,0
1486664485.684,25.391,25.391,44.922,66.895,64.453,0
1486664485.688,27.832,19.043,38.574,79.102,263.672,0
1486664485.692,30.762,17.090,45.898,60.547,197.266,0
1486664485.696,30.762,19.531,46.387,32.715,-27.832,0
1486664485.700,35.156,24.414,40.527,39.062,-71.777,0
1486664485.704,28.809,26.367,36.133,53.223,24.414,0
1486664485.708,26.367,21.973,36.133,64.453,212.402,0
1486664485.712,27.344,20.508,38.086,49.316,193.359,0
1486664485.716,32.227,23.438,37.598,32.715,-18.555,0
1486664485.719,39.062,22.461,38.574,42.969,-68.848,0
1486664485.723,41.016,25.391,42.480,64.941,-0.488,0
1486664485.727,47.852,30.762,43.945,86.426,180.176,0
1486664485.731,50.781,24.414,33.691,73.242,212.402,0
1486664485.735,56.152,19.531,32.715,54.688,-10.254,0
1486664485.739,65.430,31.738,41.016,62.500,-117.676,0
1486664485.743,54.688,35.645,38.574,68.848,-50.293,0
1486664485.747,46.387,29.297,40.527,82.520,155.273,0
1486664485.751,48.828,31.250,46.875,75.684,229.980,0
1486664485.755,41.992,30.273,36.621,41.992,30.762,0
1486664485.759,41.504,26.855,31.250,42.969,-59.570,0
1486664485.762,36.621,31.250,38.086,55.664,-24.414,0
1486664485.766,30.762,36.621,42.480,72.266,135.254,0
1486664485.770,28.809,36.621,38.086,74.219,279.297,0
1486664485.774,29.297,35.645,33.203,46.387,92.773,0
1486664485.778,37.109,31.250,33.203,45.410,-99.609,0
1486664485.782,34.668,27.344,41.016,56.152,-79.590,0
1486664485.786,35.645,31.738,41.992,77.148,88.379,0
1486664485.790,45.410,32.227,38.574,85.449,238.770,0
1486664485.794,39.551,29.785,37.109,48.828,58.105,0
1486664485.798,42.480,25.391,32.715,45.410,-51.758,0
1486664485.801,53.711,30.762,39.551,73.242,-21.973,0
1486664485.805,53.223,39.062,44.922,91.797,94.727,0
1486664485.809,49.316,26.367,36.133,87.402,257.812,0
1486664485.813,45.898,18.066,33.691,58.105,87.402,0
1486664485.817,55.664,19.531,41.016,51.758,-86.426,0
1486664485.821,60.547,18.555,40.527,64.941,-79.590,0
1486664485.825,51.270,24.414,36.621,81.543,55.664,0
1486664485.829,51.270,28.809,40.039,92.773,241.699,0
1486664485.833,49.316,24.902,38.574,71.289,129.883,0
1486664485.837,47.852,22.461,35.156,54.688,-62.012,0
1486664485.841,45.410,26.855,42.969,61.035,-66.895,0
1486664485.844,37.598,30.762,41.992,78.125,65.430,0
1486664485.848,36.621,23.926,38.574,89.355,251.953,0
1486664485.852,34.668,18.066,43.457,66.406,166.992,0
1486664485.856,31.738,21.973,33.691,44.922,-43.457,0
1486664485.860,35.645,23.926,31.738,50.781,-71.289,0
1486664485.864,39.551,26.367,39.551,68.359,18.555,0
1486664485.868,42.969,30.273,40.527,84.961,200.684,0
1486664485.872,48.340,27.832,39.062,64.941,204.102,0
1486664485.876,56.641,26.855,39.062,40.527,-41.016,0
1486664485.880,60.547,29.785,36.621,46.875,-127.441,0
1486664485.884,48.340,33.691,41.992,60.547,-29.297,0
1486664485.887,42.969,37.109,41.016,77.637,149.414,0
1486664485.891,43.945,29.297,32.715,64.941,176.270,0
1486664485.895,41.016,17.578,31.738,38.574,-18.066,0
1486664485.899,43.945,22.461,34.668,41.504,-111.816,0
1486664485.903,41.992,30.762,41.016,63.477,-21.973,0
1486664485.907,47.852,30.762,44.434,91.309,167.480,0
1486664485.911,51.270,27.832,45.410,84.961,201.172,0
1486664485.915,51.270,29.297,42.480,60.059,-11.719,0
1486664485.919,54.199,36.621,38.574,56.152,-116.211,0
1486664485.923,47.363,34.668,37.598,63.477,-59.570,0
1486664485.926,49.316,26.855,35.645,86.426,148.438,0
1486664485.930,55.176,34.668,35.645,82.031,200.195,0
1486664485.934,57.129,36.621,35.156,54.688,-23.438,0
1486664485.938,61.523,29.297,34.180,52.734,-126.465,0
1486664485.942,57.129,34.668,35.156,63.477,-92.285,0
1486664485.946,54.688,40.527,38.574,85.938,108.398,0
1486664485.950,51.758,35.645,44.434,83.984,240.234,0
1486664485.954,48.340,34.668,41.016,49.805,39.062,0
1486664485.958,47.852,29.785,38.086,41.504,-88.867,0
1486664485.962,41.504,23.926,42.969,48.828,-68.848,0
1486664485.966,34.180,24.902,39.062,63.477,90.820,0
1486664485.969,39.551,26.855,35.645,73.242,210.449,0
1486664485.973,41.992,32.715,37.109,50.781,43.457,0
1486664485.977,41.016,30.273,37.109,41.016,-72.754,0
1486664485.981,36.621,25.879,31.738,52.246,-67.871,0
1486664485.985,26.855,30.273,27.832,70.312,90.820,0
1486664485.989,32.227,28.320,34.668,82.031,243.652,0
1486664485.993,36.621,29.297,38.574,58.594,117.676,0
1486664485.997,41.504,34.668,36.133,42.969,-84.961,0
1486664486.001,45.410,28.809,33.691,55.176,-101.074,0
1486664486.005,41.992,26.367,36.133,73.242,34.180,0
1486664486.009,42.480,27.344,41.504,80.566,267.578,0
1486664486.012,40.039,25.391,38.086,57.617,196.777,0
1486664486.016,44.434,27.832,35.645,42.969,-70.312,0
1486664486.020,46.875,29.785,35.156,52.734,-96.191,0
1486664486.024,40.527,29.297,36.621,67.383,0.000,0
1486664486.028,46.875,31.738,37.598,82.031,181.152,0
1486664486.032,51.270,31.250,42.969,67.383,161.621,0
1486664486.036,53.711,28.320,44.434,51.758,-37.109,0
1486664486.040,53.223,28.809,41.992,59.570,-78.125,0
1486664486.044,39.551,29.785,41.016,70.312,16.113,0
1486664486.048,36.133,28.320,38.086,83.496,211.426,0
1486664486.051,32.715,27.832,35.645,68.848,227.051,0
1486664486.055,30.762,25.879,36.133,42.969,-9.277,0
1486664486.059,42.480,23.926,38.086,52.246,-111.816,1
1486664486.063,37.109,26.367,40.039,63.965,-28.320,0
1486664486.067,36.621,32.715,42.969,82.031,152.832,0
1486664486.071,41.992,33.691,49.805,70.312,189.941,0
1486664486.075,37.598,25.391,45.410,33.691,-19.043,0
1486664486.079,37.109,24.414,31.738,38.574,-83.496,0
1486664486.083,31.738,32.227,33.691,55.664,-32.227,0
1486664486.087,24.414,30.762,35.156,70.801,107.910,0
1486664486.091,23.438,21.484,32.715,63.965,211.426,0
1486664486.094,31.250,22.949,34.180,42.969,32.227,0
1486664486.098,34.668,28.320,33.203,39.062,-95.215,0
1486664486.102,33.691,29.785,45.410,54.199,-83.984,0
1486664486.106,34.668,31.250,49.316,79.590,86.426,0
1486664486.110,34.180,33.691,38.574,78.125,190.430,0
1486664486.114,38.086,28.809,37.109,53.711,-1.953,0
1486664486.118,43.945,26.855,37.598,45.410,-118.652,0
1486664486.122,38.574,31.738,37.109,49.316,-77.148,0
1486664486.126,34.668,26.367,37.598,72.266,90.820,0
1486664486.130,41.992,25.879,41.016,76.172,182.617,0
1486664486.133,44.922,31.250,36.621,43.945,17.578,0
1486664486.137,48.828,30.762,30.273,38.574,-94.238,0
1486664486.141,48.340,28.320,31.250,50.781,-87.402,0
1486664486.145,46.387,35.156,31.738,73.730,64.941,0
1486664486.149,42.969,41.504,35.156,79.102,263.672,0
1486664486.153,35.156,29.785,37.109,46.387,119.629,0
1486664486.157,37.598,22.461,37.109,37.109,-84.473,0
1486664486.161,34.668,25.391,37.109,45.410,-81.543,0
1486664486.165,26.855,25.391,34.668,60.547,28.320,0
1486664486.169,27.832,25.391,31.738,75.684,188.477,0
1486664486.173,25.879,26.855,37.109,55.176,117.676,0
1486664486.176,27.344,25.391,37.598,37.109,-60.547,0
1486664486.180,28.809,23.438,37.598,44.434,-93.262,0
1486664486.184,25.879,26.367,41.016,65.430,31.738,0
1486664486.188,30.273,24.902,41.504,81.055,227.051,0
1486664486.192,29.297,20.020,40.527,60.059,158.691,0
1486664486.196,36.133,22.949,33.691,44.922,-50.781,0
1486664486.200,47.363,23.926,32.227,52.734,-58.105,0
1486664486.204,45.410,23.438,40.039,71.289,8.789,0
1486664486.208,50.293,28.809,48.340,96.191,204.102,0
1486664486.212,52.246,30.273,42.480,80.078,198.242,0
1486664486.216,57.617,27.832,36.621,57.129,-58.105,0
1486664486.219,62.012,26.855,41.992,60.059,-127.441,0
1486664486.223,56.641,35.645,49.805,77.148,-32.715,0
1486664486.227,52.246,38.086,41.016,93.750,184.570,0
1486664486.231,45.410,22.461,35.645,75.684,192.871,0
1486664486.235,47.852,23.438,39.551,53.711,-29.297,0
1486664486.239,52.734,32.227,36.621,55.176,-101.074,0
1486664486.243,46.387,31.738,40.039,68.848,-26.855,0
1486664486.247,42.480,32.227,42.969,87.891,171.875,0
1486664486.251,42.969,32.715,41.992,81.055,233.398,0
1486664486.255,40.527,32.227,43.457,52.246,28.809,0
1486664486.258,41.504,32.227,39.551,49.316,-72.754,0
1486664486.262,35.645,29.785,32.715,57.617,-36.133,0
1486664486.266,26.367,28.809,33.203,72.754,151.855,0
1486664486.270,31.250,26.855,37.109,72.754,253.418,0
1486664486.274,31.738,29.297,41.016,43.457,27.344,0
1486664486.278,30.762,30.273,43.457,36.621,-99.609,0
1486664486.282,36.133,28.809,47.363,55.176,-41.016,0
1486664486.286,35.645,31.738,41.016,78.613,124.023,0
1486664486.290,35.645,29.785,33.691,79.102,266.602,0
1486664486.294,40.527,25.391,32.227,49.805,80.078,0
1486664486.298,55.664,26.855,33.691,43.945,-78.125,0
1486664486.301,60.059,33.203,40.039,62.012,-46.875,0
1486664486.305,51.758,34.668,44.434,77.637,103.516,0
1486664486.309,56.152,30.762,41.992,78.125,235.840,0
1486664486.313,54.199,30.273,37.109,51.270,95.215,0
1486664486.317,49.805,27.344,31.738,41.992,-80.078,0
1486664486.321,43.945,27.832,37.109,57.129,-97.168,0
1486664486.325,33.203,33.691,41.992,73.730,68.848,0
1486664486.329,28.320,31.250,41.992,82.031,240.723,0
1486664486.333,28.320,31.738,37.598,57.129,128.906,0
1486664486.337,30.273,31.738,36.621,33.691,-87.891,0
1486664486.341,29.297,25.879,41.992,43.945,-101.074,0
1486664486.344,21.484,26.855,39.062,66.406,18.555,0
1486664486.348,25.391,27.832,37.109,80.078,157.715,0
1486664486.352,32.715,30.273,38.086,61.523,97.656,0
1486664486.356,31.250,26.855,38.574,41.992,-99.121,0
1486664486.360,30.273,21.484,38.086,46.875,-138.184,0
1486664486.364,25.391,29.785,40.527,63.965,-28.320,0
1486664486.368,29.297,34.668,45.410,84.473,177.246,0
1486664486.372,33.691,29.297,41.992,66.406,156.250,0
1486664486.376,41.504,28.320,33.691,45.410,-59.082,0
1486664486.380,52.246,29.297,28.809,52.734,-112.793,0
1486664486.383,43.457,33.691,31.738,64.453,-21.973,0
1486664486.387,41.992,41.504,39.551,83.008,193.359,0
1486664486.391,49.805,43.457,41.992,73.242,240.723,0
1486664486.395,48.828,37.109,38.574,47.363,32.227,0
1486664486.399,52.246,34.180,40.527,49.805,-85.938,0
1486664486.403,49.316,39.551,41.992,65.918,-34.668,0
1486664486.407,45.410,42.969,41.504,86.914,158.691,0
1486664486.411,45.898,37.109,34.668,77.637,228.027,0
1486664486.415,43.945,28.320,30.762,47.852,8.789,0
1486664486.419,45.410,26.855,32.715,50.781,-113.770,0
1486664486.423,33.203,31.738,37.598,59.570,-51.270,0
1486664486.426,30.273,38.574,43.945,78.125,143.066,0
1486664486.430,37.598,34.668,45.898,83.008,256.836,0
1486664486.434,32.227,25.879,40.527,53.223,64.453,0
1486664486.438,36.133,26.367,40.039,47.852,-83.984,0
1486664486.442,41.992,31.738,43.945,68.848,-44.434,0
1486664486.446,36.621,31.738,41.992,87.402,125.488,0
1486664486.450,38.086,25.879,41.016,84.473,265.137,0
1486664486.454,44.434,23.926,43.457,62.988,118.164,0
1486664486.458,50.293,28.809,46.387,56.641,-55.664,0
1486664486.462,47.363,35.156,45.410,63.965,-46.875,0
1486664486.465,38.574,31.738,38.574,77.637,120.605,0
1486664486.469,37.109,22.949,38.086,75.684,265.625,0
1486664486.473,37.598,26.855,40.527,46.875,141.113,0
1486664486.477,45.898,30.273,40.527,42.480,-57.129,0
1486664486.481,45.898,32.715,42.480,56.641,-92.773,0
1486664486.485,39.062,34.180,41.016,70.312,63.965,0
1486664486.489,45.410,30.762,41.016,80.078,231.934,0
1486664486.493,44.922,28.320,38.086,54.199,119.629,0
1486664486.497,50.781,27.832,33.203,39.062,-97.168,0
1486664486.501,58.105,32.715,37.109,56.641,-99.609,0
1486664486.505,46.387,35.156,34.180,71.777,28.320,0
1486664486.508,43.457,32.715,37.109,81.543,220.703,0
1486664486.512,48.340,32.715,42.480,67.383,165.039,0
1486664486.516,50.781,33.691,38.574,48.340,-58.105,0
1486664486.520,50.293,28.809,34.668,52.246,-98.633,0
1486664486.524,40.527,28.320,36.621,70.312,-4.395,0
1486664486.528,36.621,34.180,42.480,83.496,145.020,0
1486664486.532,36.621,30.762,37.109,64.941,137.695,0
1486664486.536,38.086,29.785,32.715,43.457,-55.176,0
1486664486.540,40.527,32.715,38.086,49.316,-123.535,0
1486664486.544,37.109,29.785,43.945,68.359,-57.617,0
1486664486.548,37.598,31.250,44.434,82.520,148.438,0
1486664486.551,41.992,31.250,37.109,66.895,187.500,0
1486664486.555,45.410,28.320,35.156,43.457,-35.156,0
1486664486.559,49.805,28.809,40.527,45.410,-127.441,0
1486664486.563,43.457,32.227,41.016,58.105,-59.082,0
1486664486.567,37.598,37.109,40.039,72.754,135.742,0
1486664486.571,34.668,33.691,41.504,53.711,167.969,0
1486664486.575,36.621,29.785,41.504,30.762,-18.555,0
1486664486.579,39.551,25.879,34.180,35.156,-113.281,0
1486664486.583,30.762,24.414,33.691,44.922,-77.637,0
1486664486.587,32.715,31.250,38.574,68.359,143.066,0
1486664486.590,38.574,31.250,38.086,64.941,226.562,0
1486664486.594,41.504,28.320,37.109,40.527,11.230,0
1486664486.598,54.199,29.297,38.086,49.316,-104.004,0
1486664486.602,57.129,36.133,43.457,66.895,-54.688,0
1486664486.606,47.852,39.062,40.039,78.125,133.789,0
1486664486.610,44.922,34.180,40.527,73.730,229.004,0
1486664486.614,45.410,33.691,39.551,47.852,42.969,0
1486664486.618,51.270,32.227,32.715,45.898,-121.094,0
1486664486.622,52.246,29.785,43.945,62.012,-79.102,0
1486664486.626,39.062,29.297,46.875,78.125,121.094,0
1486664486.630,33.203,31.250,40.527,78.125,234.863,0
1486664486.633,35.156,29.785,40.527,53.223,76.660,0
1486664486.637,39.551,24.902,40.039,42.969,-98.633,0
1486664486.641,34.180,30.273,39.062,52.734,-92.285,0
1486664486.645,24.414,29.785,41.504,72.266,53.223,0
1486664486.649,25.879,27.344,48.828,81.543,216.797,0
1486664486.653,23.926,29.297,40.527,52.734,102.539,0
1486664486.657,26.367,20.508,30.762,37.598,-30.762,0
1486664486.661,31.738,23.438,37.109,51.270,-33.203,0
1486664486.665,28.809,33.691,44.434,71.777,70.801,0
1486664486.669,27.832,30.273,42.969,83.008,263.672,0
1486664486.673,30.762,26.855,37.109,57.129,166.016,0
1486664486.676,43.945,33.203,37.109,42.969,-40.039,0
1486664486.680,54.199,39.062,41.992,57.129,-87.402,0
1486664486.684,45.410,34.180,47.852,71.289,21.973,0
1486664486.688,41.016,25.879,48.340,79.102,215.332,0
1486664486.692,45.898,27.344,42.969,62.500,157.715,0
1486664486.696,46.387,27.832,40.527,44.434,-63.965,0
1486664486.700,43.457,25.391,37.109,51.270,-95.703,0
1486664486.704,35.156,28.320,33.691,66.895,20.508,0
1486664486.708,35.645,30.273,35.156,84.961,189.453,0
1486664486.712,37.598,24.414,39.551,75.195,179.199,0
1486664486.715,36.621,24.902,41.992,52.246,-32.227,0
1486664486.719,43.457,31.738,46.387,58.594,-115.234,0
1486664486.723,35.156,26.367,45.410,70.312,-41.504,0
1486664486.727,26.855,20.508,36.621,84.961,140.137,0
1486664486.731,29.297,21.973,35.645,71.289,178.711,0
1486664486.735,34.180,20.996,33.691,45.410,-44.922,1
1486664486.739,40.039,21.973,33.691,50.293,-133.301,0
1486664486.743,38.086,28.809,39.551,63.477,-61.035,0
1486664486.747,37.598,33.691,42.480,81.543,139.160,0
1486664486.751,41.504,31.250,41.016,79.590,184.570,0
1486664486.755,45.410,30.273,43.457,55.176,-27.832,0
1486664486.758,46.387,28.320,41.016,50.781,-100.586,0
1486664486.762,41.504,23.438,37.109,62.988,-26.855,0
1486664486.766,40.527,28.809,38.574,81.543,135.254,0
1486664486.770,43.945,28.320,39.551,83.496,210.938,0
1486664486.774,47.852,27.832,38.086,61.035,45.898,0
1486664486.778,54.199,32.715,39.062,57.129,-87.402,0
1486664486.782,51.270,32.227,40.039,66.406,-52.246,0
1486664486.786,49.805,31.738,43.457,89.355,128.906,0
1486664486.790,45.898,30.273,50.293,88.379,206.543,0
1486664486.794,32.715,25.391,38.574,48.828,57.617,0
1486664486.797,41.992,20.508,28.809,45.898,-57.617,0
1486664486.801,41.504,19.043,31.250,54.199,-54.199,0
1486664486.805,37.109,22.949,37.598,74.219,74.707,0
1486664486.809,38.574,23.438,38.574,85.449,223.633,0
1486664486.813,30.762,22.949,37.109,50.293,119.629,0
1486664486.817,37.109,27.832,41.992,33.691,-42.969,0
1486664486.821,39.551,35.645,41.016,44.922,-44.922,0
1486664486.825,30.273,34.668,36.133,62.012,68.848,0
1486664486.829,28.809,28.809,29.785,70.801,226.562,0
1486664486.833,23.926,20.020,28.809,42.480,116.211,0
1486664486.837,25.391,20.996,32.227,26.367,-33.691,0
1486664486.840,30.762,27.832,35.645,43.457,-57.129,0
1486664486.844,23.926,28.320,35.156,60.059,36.133,0
1486664486.848,29.297,34.180,41.016,74.219,257.812,0
1486664486.852,38.574,36.133,46.387,62.012,167.480,0
1486664486.856,40.039,28.320,37.598,41.016,-82.520,0
1486664486.860,47.363,28.320,34.180,47.363,-123.047,0
1486664486.864,48.340,29.297,38.574,71.289,-24.414,0
1486664486.868,48.340,31.738,37.598,86.426,176.758,0
1486664486.872,50.293,32.227,36.621,67.871,121.094,0
1486664486.876,54.688,32.715,38.086,51.270,-105.469,0
1486664486.880,62.988,34.668,43.457,60.547,-133.301,0
1486664486.883,52.734,32.715,47.852,69.824,-49.805,0
1486664486.887,46.875,35.156,43.945,85.449,149.414,0
1486664486.891,48.828,29.785,39.551,76.172,144.043,0
1486664486.895,44.434,23.438,34.668,49.316,-80.078,0
1486664486.899,47.363,25.391,32.715,53.223,-125.000,0
1486664486.903,42.969,31.738,39.062,67.383,-26.855,0
1486664486.907,38.086,37.109,45.410,82.520,165.039,0
1486664486.911,39.062,28.809,44.434,76.172,218.750,0
1486664486.915,37.598,27.344,43.457,52.246,24.414,0
1486664486.919,40.039,27.832,44.922,53.711,-96.191,0
1486664486.922,41.016,21.973,46.387,69.824,-40.527,0
1486664486.926,39.551,22.949,40.527,87.402,145.508,0
1486664486.930,38.574,27.344,35.156,77.148,203.125,0
1486664486.934,41.992,31.738,40.527,47.363,12.695,0
1486664486.938,45.898,29.785,40.039,44.922,-108.887,0
1486664486.942,41.016,29.785,36.133,48.340,-99.609,0
1486664486.946,38.086,34.180,38.086,65.918,88.867,0
1486664486.950,40.527,31.738,37.109,71.289,256.348,0
1486664486.954,43.457,28.320,35.645,44.922,52.734,0
1486664486.958,49.316,34.668,39.062,41.992,-64.453,0
1486664486.962,43.457,36.621,38.086,53.223,-41.016,0
1486664486.965,34.180,31.738,40.039,71.777,94.238,0
1486664486.969,33.203,30.273,45.898,78.613,259.277,0
1486664486.973,35.156,30.762,42.969,51.758,83.008,0
1486664486.977,47.852,29.785,42.480,45.898,-74.219,0
1486664486.981,48.340,25.879,42.480,60.059,-70.312,0
1486664486.985,40.039,25.391,43.457,78.613,52.246,0
1486664486.989,43.945,33.203,46.875,91.309,252.930,0
1486664486.993,37.598,32.227,44.434,65.430,120.605,0
1486664486.997,33.203,26.367,44.922,44.922,-74.707,0
1486664487.001,40.039,25.879,44.922,57.617,-52.734,0
1486664487.005,36.621,29.785,37.598,74.707,70.312,0
1486664487.008,28.809,29.297,37.109,79.590,275.879,0
1486664487.012,33.691,29.785,41.992,58.105,169.922,0
1486664487.016,47.363,36.133,42.969,48.340,-50.293,0
1486664487.020,43.457,30.273,38.086,48.340,-80.078,0
1486664487.024,36.133,24.414,35.156,60.059,16.602,0
1486664487.028,44.922,33.691,43.457,81.543,191.406,0
1486664487.032,41.504,38.086,48.828,59.082,166.992,0
1486664487.036,37.598,29.785,34.180,33.203,-9.766,0
1486664487.040,42.969,30.273,34.668,41.016,-76.660,0
1486664487.044,35.645,32.715,36.621,56.641,-19.043,0
1486664487.047,35.156,31.738,33.203,78.125,187.988,0
1486664487.051,40.039,32.715,36.133,68.848,213.867,0
1486664487.055,43.945,30.273,33.203,44.922,-31.250,0
1486664487.059,51.270,34.180,39.551,52.246,-98.633,0
1486664487.063,42.480,38.086,45.410,64.941,-15.137,0
1486664487.067,36.621,32.715,41.504,80.566,154.297,0
1486664487.071,38.086,33.203,49.316,67.871,174.316,0
1486664487.075,37.109,32.715,42.480,39.062,-24.414,0
1486664487.079,41.504,26.367,28.809,42.480,-108.887,0
1486664487.083,41.016,28.320,32.715,60.059,-67.871,0
1486664487.087,41.504,31.250,39.551,85.449,152.832,0
1486664487.090,44.434,28.809,40.527,77.637,230.957,0
1486664487.094,48.340,30.273,37.109,50.781,11.230,0
1486664487.098,54.199,37.598,43.945,52.734,-104.492,0
1486664487.102,44.922,41.992,50.293,60.547,-60.059,0
1486664487.106,38.574,35.156,44.922,81.543,134.766,0
1486664487.110,34.668,28.809,37.109,74.707,205.566,0
1486664487.114,32.715,26.367,31.738,41.016,17.090,0
1486664487.118,40.527,23.926,33.691,41.016,-55.664,0
1486664487.122,31.738,25.879,36.621,51.758,-53.711,0
1486664487.126,27.344,27.832,39.551,75.684,84.961,0
1486664487.129,28.320,30.273,44.434,81.055,238.281,0
1486664487.133,26.367,33.203,44.922,49.316,60.059,0
1486664487.137,37.598,30.273,37.109,43.945,-84.961,0
1486664487.141,39.062,34.180,36.621,56.641,-56.152,0
1486664487.145,34.180,36.621,41.504,72.266,69.336,0
1486664487.149,36.133,28.320,40.527,79.590,230.469,0
1486664487.153,30.762,23.438,34.180,47.363,96.680,0
1486664487.157,34.180,23.926,31.250,34.180,-90.332,0
1486664487.161,41.992,28.320,39.062,52.734,-112.305,0
1486664487.165,28.320,29.785,42.969,67.871,27.832,0
1486664487.169,29.785,30.273,50.781,82.031,251.953,0
1486664487.172,39.551,27.344,46.875,66.406,173.828,0
1486664487.176,42.969,28.320,35.645,46.875,-69.824,0
1486664487.180,43.945,29.785,34.668,53.711,-120.605,0
1486664487.184,42.480,35.156,37.109,70.801,16.113,0
1486664487.188,40.527,35.156,41.016,82.031,227.539,0
1486664487.192,37.598,27.344,44.922,61.523,192.383,0
1486664487.196,41.504,33.203,39.551,39.062,-14.648,0
1486664487.200,39.551,30.762,34.180,42.480,-83.984,0
1486664487.204,31.738,25.879,38.574,60.059,-3.906,0
1486664487.208,31.738,26.855,35.645,75.195,183.594,0
1486664487.212,33.203,30.273,32.227,52.734,183.105,0
1486664487.215,42.480,30.762,29.785,34.180,-45.410,0
1486664487.219,50.781,28.320,29.785,40.039,-100.586,0
1486664487.223,45.410,29.785,35.156,55.664,10.254,0
1486664487.227,47.363,35.645,40.527,79.590,188.477,0
1486664487.231,45.898,37.598,40.527,64.453,211.426,0
1486664487.235,41.992,31.738,36.133,37.598,3.418,0
1486664487.239,41.992,29.297,31.250,41.504,-100.098,0
1486664487.243,22.461,24.414,31.250,48.828,-49.805,0
1486664487.247,13.672,23.438,37.598,64.941,157.715,0
1486664487.251,20.508,25.391,38.574,62.012,221.191,0
1486664487.254,26.855,21.973,37.109,36.621,-20.996,0
1486664487.258,37.109,25.391,38.086,39.062,-129.883,0
1486664487.262,30.762,30.762,36.621,54.199,-68.359,0
1486664487.266,30.762,31.250,34.668,71.289,100.586,0
1486664487.270,32.715,29.785,42.480,69.336,225.586,0
1486664487.274,29.785,32.227,47.363,46.875,44.922,0
1486664487.278,37.109,24.902,39.551,44.434,-90.820,0
1486664487.282,35.645,21.973,38.574,59.082,-28.809,0
1486664487.286,31.738,28.320,41.016,83.984,127.441,0
1486664487.290,32.227,22.949,43.945,84.961,236.816,0
1486664487.294,34.180,24.414,39.062,52.246,58.594,0
1486664487.297,47.363,30.273,36.621,50.293,-71.289,0
1486664487.301,42.969,29.297,45.898,63.477,-52.734,0
1486664487.305,29.297,27.832,44.434,74.219,91.309,0
1486664487.309,31.738,30.273,44.922,79.590,273.926,0
1486664487.313,33.203,31.738,45.410,51.758,108.398,0
1486664487.317,34.180,30.273,35.156,36.621,-135.742,0
1486664487.321,34.668,29.785,36.621,54.199,-88.867,0
1486664487.325,33.203,28.320,41.016,71.289,94.238,0
1486664487.329,38.086,30.762,39.062,80.566,238.281,0
1486664487.333,39.062,34.668,39.062,59.082,117.188,0
1486664487.337,45.410,29.297,43.945,43.457,-62.500,0
1486664487.340,45.898,24.414,37.109,50.293,-52.734,0
1486664487.344,36.621,31.250,32.715,62.988,65.430,0
1486664487.348,45.410,35.645,41.992,83.984,221.191,0
1486664487.352,45.898,35.156,39.551,60.547,124.512,0
1486664487.356,42.969,31.738,32.715,39.062,-82.520,0
1486664487.360,52.246,29.297,31.738,57.129,-121.094,0
1486664487.364,46.387,31.738,37.109,69.824,-15.137,0
1486664487.368,47.363,35.645,43.457,83.496,217.773,0
1486664487.372,49.805,38.086,41.504,68.848,206.055,0
1486664487.376,48.828,36.133,36.621,44.434,-10.254,0
1486664487.379,55.664,29.785,38.086,56.641,-70.801,0
1486664487.383,46.875,29.785,41.504,73.242,-5.859,0
1486664487.387,43.457,33.691,38.086,89.355,183.594,0
1486664487.391,51.758,38.574,33.691,81.543,210.449,0
1486664487.395,48.828,36.133,34.180,51.758,-44.922,2
1486664487.399,47.363,29.785,35.645,47.363,-125.488,0
1486664487.403,41.992,32.227,44.922,61.523,-57.617,0
1486664487.407,33.691,30.762,45.410,74.219,113.770,0
1486664487.411,36.621,26.367,40.039,64.453,225.098,0
1486664487.415,37.109,25.391,40.039,39.551,26.367,0
1486664487.419,39.551,27.344,38.574,38.574,-104.980,0
1486664487.422,41.504,34.668,44.434,58.594,-45.898,0
1486664487.426,29.785,29.297,44.434,72.266,134.277,0
1486664487.430,29.297,25.879,44.922,65.918,215.820,0
1486664487.434,40.039,35.156,50.781,48.828,34.180,0
1486664487.438,42.969,30.762,45.410,46.875,-90.332,0
1486664487.442,39.062,24.902,37.109,56.641,-73.242,0
1486664487.446,38.574,28.809,38.574,78.613,108.398,0
1486664487.450,36.621,32.715,38.574,79.590,250.977,0
1486664487.454,34.668,33.203,37.598,50.293,77.148,0
1486664487.458,48.828,32.715,44.434,50.293,-79.590,0
1486664487.461,41.504,31.738,39.551,55.664,-91.797,0
1486664487.465,32.715,36.621,38.574,71.777,56.641,0
1486664487.469,36.621,39.551,42.969,79.590,240.723,0
1486664487.473,36.621,31.250,44.434,50.781,66.406,0
1486664487.477,45.898,28.809,41.016,43.457,-96.191,0
1486664487.481,47.363,31.250,38.574,56.641,-67.871,0
1486664487.485,41.504,29.297,40.039,76.660,56.152,0
1486664487.489,47.852,26.855,44.434,88.867,194.824,0
1486664487.493,50.293,25.879,43.457,61.035,74.219,0
1486664487.497,55.176,33.691,42.969,48.828,-89.355,0
1486664487.501,55.664,41.016,44.434,56.152,-94.727,0
1486664487.504,49.805,38.086,46.387,69.336,33.691,0
1486664487.508,52.246,38.086,47.852,85.938,226.074,0
1486664487.512,46.875,39.551,40.039,57.617,161.133,0
1486664487.516,47.363,32.715,31.738,41.016,-54.199,0
1486664487.520,51.270,35.156,38.574,56.152,-75.684,0
1486664487.524,38.574,35.645,43.945,66.895,31.250,0
1486664487.528,30.273,28.809,36.133,78.613,218.750,0
1486664487.532,29.785,30.762,41.504,60.059,155.273,0
1486664487.536,35.156,32.227,43.945,38.574,-63.965,0
1486664487.540,42.480,33.691,31.250,47.363,-111.328,0
1486664487.544,36.133,35.156,33.691,61.523,-55.176,0
1486664487.547,36.621,31.738,38.086,82.520,170.410,0
1486664487.551,37.109,34.180,32.715,68.359,166.504,0
1486664487.555,35.645,33.691,33.203,40.527,-74.219,0
1486664487.559,40.039,27.832,35.156,44.922,-145.996,0
1486664487.563,34.668,29.297,41.504,60.059,-74.707,0
1486664487.567,33.691,35.156,47.852,77.637,136.230,0
1486664487.571,32.715,36.133,40.527,66.406,184.082,0
1486664487.575,34.668,26.367,32.715,42.969,2.930,0
1486664487.579,37.598,20.020,32.715,38.086,-121.094,0
1486664487.583,30.762,22.949,34.668,48.828,-85.449,0
1486664487.586,25.879,26.367,34.668,75.195,149.414,0
1486664487.590,28.320,25.879,38.574,71.777,263.672,0
1486664487.594,35.156,28.809,41.992,48.828,49.805,0
1486664487.598,41.504,32.715,38.086,48.340,-72.754,0
1486664487.602,34.180,30.273,37.598,55.664,-33.203,0
1486664487.606,26.855,27.832,39.551,71.777,107.910,0
1486664487.610,32.715,28.320,40.039,72.266,229.492,0
1486664487.614,32.715,27.344,39.551,45.898,55.664,0
1486664487.618,35.156,28.320,35.645,36.621,-91.797,0
1486664487.622,32.227,32.227,37.109,43.945,-108.887,0
1486664487.626,25.391,33.691,40.527,65.430,54.199,0
1486664487.629,34.180,33.691,41.016,75.195,215.820,0
1486664487.633,35.645,35.645,44.434,45.410,46.387,0
1486664487.637,35.645,30.762,40.527,32.227,-112.305,0
1486664487.641,37.598,29.297,41.992,47.852,-105.469,0
1486664487.645,35.645,32.715,41.992,70.801,86.426,0
1486664487.649,35.156,29.297,36.621,78.125,265.137,0
1486664487.653,35.645,31.738,39.551,52.246,106.934,0
1486664487.657,49.805,32.227,42.969,46.387,-109.863,0
1486664487.661,53.711,31.250,42.480,59.082,-134.277,0
1486664487.665,41.992,33.203,42.480,76.660,34.180,0
1486664487.669,42.969,36.133,41.016,90.332,229.004,0
1486664487.672,42.969,35.156,38.574,62.500,112.793,0
1486664487.676,46.387,33.203,42.480,45.410,-62.500,0
1486664487.680,47.852,39.062,43.945,55.176,-56.641,0
1486664487.684,35.645,35.156,39.062,67.383,17.090,0
1486664487.688,34.180,29.297,37.598,83.496,202.637,0
1486664487.692,33.691,27.344,38.086,63.965,173.828,0
1486664487.696,32.715,23.926,38.086,38.574,-45.410,0
1486664487.700,34.668,25.879,36.621,41.992,-92.773,0
1486664487.704,31.250,29.785,38.086,62.012,-13.672,0
1486664487.708,28.809,29.785,38.086,78.125,181.641,0
1486664487.711,25.879,28.809,38.086,60.059,187.500,0
1486664487.715,33.691,27.832,40.039,41.504,-27.344,0
1486664487.719,41.016,26.367,39.062,47.852,-89.844,0
1486664487.723,31.250,33.691,41.992,60.547,-38.574,0
1486664487.727,31.250,35.156,41.504,80.566,167.480,0
1486664487.731,30.762,26.367,37.598,67.871,237.305,0
1486664487.735,30.273,24.414,44.434,41.016,13.184,0
1486664487.739,40.039,30.273,47.363,48.340,-111.328,0
1486664487.743,32.227,30.273,41.016,57.129,-41.504,0
1486664487.747,21.484,25.879,41.992,68.848,151.855,0
1486664487.751,31.738,24.902,43.457,73.730,233.398,0
1486664487.754,39.551,26.367,40.039,48.340,4.883,0
1486664487.758,38.086,28.320,37.109,36.133,-125.977,0
1486664487.762,33.203,32.715,42.969,49.316,-79.590,0
1486664487.766,28.320,35.645,44.434,66.406,118.652,0
1486664487.770,25.879,28.809,43.457,60.059,216.797,0
1486664487.774,30.273,26.367,43.945,35.645,20.508,0
1486664487.778,36.621,28.809,37.109,29.785,-85.449,0
1486664487.782,32.715,31.250,36.133,45.410,-96.191,0
1486664487.786,28.809,33.203,39.062,69.824,68.359,0
1486664487.790,29.785,32.227,40.039,72.754,204.102,0
1486664487.793,34.668,30.273,44.922,49.316,14.160,0
1486664487.797,38.086,28.809,43.457,45.410,-135.742,0
1486664487.801,33.203,31.250,41.992,53.711,-112.793,0
1486664487.805,26.367,29.785,49.805,72.266,62.988,0
1486664487.809,24.414,33.203,50.781,78.613,260.742,0
1486664487.813,29.297,34.180,38.086,46.875,110.840,0
1486664487.817,36.133,26.367,33.203,35.645,-73.730,0
1486664487.821,37.109,30.273,36.621,48.828,-60.059,0
1486664487.825,30.762,38.086,36.621,65.918,56.152,0
1486664487.829,24.902,34.180,35.645,74.219,199.707,0
1486664487.833,28.809,28.809,31.738,51.758,126.953,0
1486664487.836,34.668,28.320,30.762,34.668,-74.707,0
1486664487.840,36.621,31.250,37.109,43.945,-128.906,0
1486664487.844,35.645,35.156,40.527,63.477,24.414,0
1486664487.848,31.738,33.203,38.086,72.266,229.004,0
1486664487.852,30.273,34.180,34.668,46.387,181.152,0
1486664487.856,35.645,32.227,31.738,28.809,-26.855,0
1486664487.860,31.250,24.414,30.273,36.621,-97.168,0
1486664487.864,22.949,28.320,31.250,52.734,34.180,0
1486664487.868,21.973,34.668,38.086,68.359,246.094,0
1486664487.872,25.391,30.273,43.945,56.152,209.961,0
1486664487.876,37.598,27.344,40.527,40.527,-7.812,0
1486664487.879,41.016,29.297,31.738,42.480,-86.426,0
1486664487.883,35.156,31.250,31.738,58.594,-16.113,0
1486664487.887,36.621,34.180,40.527,83.496,170.898,0
1486664487.891,42.969,32.715,42.480,76.660,183.594,0
1486664487.895,45.898,35.156,38.086,55.664,-50.293,0
1486664487.899,46.875,35.156,38.574,55.176,-142.090,0
1486664487.903,36.133,29.297,37.598,62.012,-60.547,0
1486664487.907,33.691,31.250,37.598,81.055,139.160,0
1486664487.911,39.551,33.203,42.969,75.195,180.664,0
1486664487.915,38.574,31.250,38.574,42.969,-13.672,0
1486664487.918,44.922,29.297,34.668,42.969,-104.492,0
1486664487.922,40.039,32.227,38.574,55.664,-58.594,0
1486664487.926,31.738,30.762,38.574,72.266,114.258,0
