timestamps,TP9,AF7,AF8,TP10,Right AUX,Marker
1486664799.048,57.129,28.809,34.668,48.828,-59.082,0
1486664799.052,48.340,25.879,35.156,50.293,-17.090,0
1486664799.056,32.227,24.414,36.621,54.688,65.918,0
1486664799.060,23.438,24.414,36.621,50.293,109.863,0
1486664799.064,30.762,22.461,36.621,37.598,20.020,0
1486664799.068,38.574,23.438,37.109,40.527,-24.414,0
1486664799.072,32.715,25.879,40.527,50.293,-6.348,0
1486664799.076,34.668,23.926,42.480,56.641,31.738,0
1486664799.080,30.273,22.461,40.039,60.059,99.609,0
1486664799.084,25.391,25.879,39.551,50.781,56.152,0
1486664799.087,36.133,24.414,37.109,51.758,-9.277,0
1486664799.091,37.598,21.484,36.133,57.129,-2.930,0
1486664799.095,33.203,23.438,39.551,68.359,58.105,0
1486664799.099,28.320,23.926,42.969,73.730,146.484,0
1486664799.103,31.250,21.973,41.504,56.641,80.078,0
1486664799.107,44.922,21.484,36.133,52.734,-19.531,0
1486664799.111,45.898,25.391,37.109,57.617,9.277,0
1486664799.115,38.574,25.391,39.062,61.523,68.359,0
1486664799.119,31.250,21.484,39.062,68.359,142.090,0
1486664799.123,34.668,21.484,40.039,57.129,76.172,0
1486664799.127,48.828,20.996,39.062,53.711,-42.969,1
1486664799.130,54.688,21.973,41.016,61.035,-29.297,0
1486664799.134,43.457,23.438,41.016,60.547,-24.902,0
1486664799.138,32.715,25.879,41.992,67.871,49.805,0
1486664799.142,37.598,31.250,41.016,61.035,84.961,0
1486664799.146,39.551,24.902,35.645,44.434,-1.953,0
1486664799.150,41.016,22.461,40.527,51.270,-29.785,0
1486664799.154,36.621,27.832,38.574,57.617,3.906,0
1486664799.158,24.414,27.344,34.180,62.988,106.445,0
1486664799.162,20.996,26.367,35.156,57.617,90.820,0
1486664799.166,26.855,26.855,35.156,46.387,-12.695,0
1486664799.169,32.715,27.832,40.039,48.828,-19.043,0
1486664799.173,29.785,27.832,38.086,53.711,10.742,0
1486664799.177,26.367,27.344,36.621,63.965,69.336,0
1486664799.181,29.297,28.809,41.992,62.500,92.285,0
1486664799.185,35.645,28.320,40.527,52.734,2.930,0
1486664799.189,41.992,21.973,33.691,54.199,-11.719,0
1486664799.193,37.598,20.996,35.156,61.035,10.742,0
1486664799.197,28.320,26.855,37.598,68.359,87.891,0
1486664799.201,27.832,26.855,38.086,59.082,125.000,0
1486664799.205,35.156,23.926,37.598,48.828,33.691,0
1486664799.209,44.434,23.438,35.156,51.758,0.488,0
1486664799.212,46.387,28.809,38.086,52.734,7.812,0
1486664799.216,33.691,32.227,43.457,57.129,72.754,0
1486664799.220,16.113,24.414,40.039,49.805,93.262,0
1486664799.224,25.391,20.508,38.086,41.504,4.883,0
1486664799.228,38.574,26.367,38.574,43.457,-1.465,0
1486664799.232,38.574,30.762,37.598,45.898,15.625,0
1486664799.236,28.809,25.391,37.598,56.152,72.266,0
1486664799.240,22.949,25.391,37.109,51.270,154.297,0
1486664799.244,31.250,29.785,34.180,39.551,58.594,0
1486664799.248,42.480,27.832,34.668,42.969,-32.715,0
1486664799.252,38.086,27.344,39.062,48.340,21.484,0
1486664799.255,27.832,26.855,38.574,54.199,114.746,0
1486664799.259,28.320,24.414,36.133,59.082,158.691,0
1486664799.263,34.668,23.438,38.574,54.688,35.645,0
1486664799.267,48.828,23.926,37.598,57.129,-20.020,0
1486664799.271,58.594,29.297,41.016,70.801,17.090,0
1486664799.275,48.828,31.738,43.457,83.008,48.340,0
1486664799.279,38.086,27.832,36.621,85.449,169.434,0
1486664799.283,45.898,28.809,35.645,75.195,99.121,0
1486664799.287,60.547,29.785,41.992,75.684,-24.902,0
1486664799.291,58.594,28.320,38.086,74.707,-15.625,0
1486664799.294,43.945,29.785,33.203,70.801,33.203,0
1486664799.298,40.039,27.832,37.109,78.125,106.445,0
1486664799.302,45.410,26.855,40.039,68.848,54.199,0
1486664799.306,50.781,27.344,38.574,57.129,-54.688,0
1486664799.310,50.781,25.391,39.062,58.594,-50.781,0
1486664799.314,43.457,24.902,42.969,66.895,-23.926,0
1486664799.318,35.156,25.879,41.504,73.242,83.496,0
1486664799.322,31.250,26.855,36.133,62.988,128.906,0
1486664799.326,40.527,27.344,37.109,50.293,28.320,0
1486664799.330,43.945,27.344,36.621,46.387,-7.812,0
1486664799.334,28.809,26.367,37.598,49.316,16.113,0
1486664799.337,22.461,28.320,41.992,56.641,119.629,0
1486664799.341,20.996,27.344,40.527,43.457,133.789,0
1486664799.345,30.762,26.367,35.645,32.715,15.137,0
1486664799.349,42.480,27.832,40.039,47.852,-2.930,0
1486664799.353,38.086,31.738,45.410,61.523,42.969,0
1486664799.357,33.691,32.715,42.480,67.871,119.141,0
1486664799.361,33.203,26.855,37.598,69.336,129.395,0
1486664799.365,39.062,29.785,36.133,61.523,-3.418,0
1486664799.369,47.363,30.273,36.133,63.477,-24.902,0
1486664799.373,45.410,30.762,35.645,71.777,-4.883,0
1486664799.377,37.109,34.180,35.156,80.566,86.426,0
1486664799.380,36.133,30.762,38.574,77.148,136.230,0
1486664799.384,43.457,26.855,40.527,64.453,-15.625,0
1486664799.388,52.246,26.855,39.551,64.941,-43.945,0
1486664799.392,50.293,26.855,45.410,67.871,22.949,0
1486664799.396,39.551,23.438,43.457,70.312,72.754,0
1486664799.400,38.086,20.508,40.527,65.918,120.605,0
1486664799.404,43.945,22.949,39.062,49.316,38.574,0
1486664799.408,53.223,26.367,38.574,49.316,-50.293,0
1486664799.412,52.734,27.344,39.551,52.246,-14.648,0
1486664799.416,38.086,26.367,35.156,50.781,40.039,0
1486664799.419,27.832,26.367,35.645,56.152,100.098,0
1486664799.423,25.391,26.367,32.715,43.457,41.504,0
1486664799.427,28.809,25.391,28.809,35.156,-37.598,0
1486664799.431,31.738,26.855,31.250,41.992,-4.883,0
1486664799.435,23.926,27.832,35.156,52.246,49.316,0
1486664799.439,16.113,26.367,36.133,55.664,159.668,0
1486664799.443,22.949,26.367,34.180,44.922,107.422,0
1486664799.447,36.621,25.391,40.039,45.898,-17.578,0
1486664799.451,32.715,26.367,44.434,54.199,-15.137,0
1486664799.455,24.902,29.785,41.504,68.359,39.062,0
1486664799.459,20.996,27.344,41.992,74.219,127.930,0
1486664799.462,21.973,21.973,38.086,58.105,113.281,0
1486664799.466,38.086,23.438,32.227,55.176,4.395,0
1486664799.470,45.898,28.320,36.621,64.453,7.324,0
1486664799.474,32.227,28.809,41.504,67.871,65.918,0
1486664799.478,28.809,26.855,41.992,72.754,135.742,0
1486664799.482,35.156,27.832,43.945,66.895,105.469,0
1486664799.486,42.480,29.785,44.922,55.664,0.488,0
1486664799.490,51.758,30.273,45.410,62.012,-25.879,0
1486664799.494,40.039,27.344,43.457,59.082,0.977,0
1486664799.498,25.879,24.414,43.945,56.152,81.055,0
1486664799.502,27.344,27.344,42.480,54.688,85.938,0
1486664799.505,36.133,24.902,39.062,40.527,-21.484,0
1486664799.509,47.363,24.414,41.016,46.387,-34.668,0
1486664799.513,39.551,29.785,42.480,60.547,-17.578,0
1486664799.517,26.855,31.738,40.039,67.383,61.523,0
1486664799.521,27.344,28.809,35.156,63.965,120.605,0
1486664799.525,41.016,29.297,37.109,54.688,10.742,0
1486664799.529,43.945,30.273,36.133,54.688,-31.738,0
1486664799.533,33.203,25.391,34.668,59.082,-25.879,0
1486664799.537,30.762,27.344,41.992,67.383,40.039,0
1486664799.541,30.762,28.809,40.527,62.012,104.004,0
1486664799.544,35.156,24.414,32.227,49.805,1.953,0
1486664799.548,39.551,20.508,32.227,53.223,-48.340,0
1486664799.552,36.621,21.484,36.133,62.012,-34.180,0
1486664799.556,30.762,25.391,38.574,64.941,16.113,0
1486664799.560,29.785,24.902,41.504,61.035,75.195,0
1486664799.564,35.645,24.414,41.016,57.129,-6.836,0
1486664799.568,43.457,26.855,37.598,58.105,-31.250,0
1486664799.572,41.504,27.344,42.480,57.617,-44.922,0
1486664799.576,30.762,24.902,42.480,63.477,5.859,0
1486664799.580,29.297,24.414,42.969,61.523,119.629,0
1486664799.584,37.598,24.902,41.992,46.387,2.930,0
1486664799.587,49.316,21.484,40.039,52.246,-76.660,0
1486664799.591,50.781,23.438,41.992,63.477,-47.852,0
1486664799.595,39.062,26.855,41.992,64.941,19.531,0
1486664799.599,40.527,29.297,42.480,66.406,110.352,0
1486664799.603,42.480,29.785,34.668,57.129,54.688,0
1486664799.607,50.293,28.320,32.227,54.199,-22.949,0
1486664799.611,53.711,29.297,35.645,62.988,-11.719,0
1486664799.615,37.598,29.297,37.598,66.895,46.875,0
1486664799.619,28.809,27.344,37.109,67.383,106.445,0
1486664799.623,29.785,25.879,37.598,56.152,41.504,0
1486664799.626,40.039,27.344,42.969,57.129,-53.223,0
1486664799.630,44.922,27.344,40.039,66.406,-42.480,0
1486664799.634,31.738,25.391,37.109,66.895,-1.953,0
1486664799.638,23.926,25.391,36.133,65.918,107.910,0
1486664799.642,28.320,25.391,34.668,59.082,94.727,0
1486664799.646,35.156,23.438,39.062,55.176,-38.574,0
1486664799.650,38.086,22.949,40.039,56.152,-31.250,0
1486664799.654,26.855,20.508,37.109,54.199,-5.859,0
1486664799.658,20.996,20.508,41.016,62.012,79.590,0
1486664799.662,25.391,22.461,41.992,50.781,73.242,0
1486664799.666,33.691,19.043,36.133,43.457,-43.457,0
1486664799.669,44.434,21.973,35.156,54.199,-29.785,0
1486664799.673,48.340,32.715,40.527,60.547,-22.949,0
1486664799.677,45.410,31.738,41.992,71.289,81.055,0
1486664799.681,41.504,25.879,41.992,65.918,136.230,0
1486664799.685,49.805,27.344,39.551,58.594,-11.230,0
1486664799.689,57.617,28.809,30.273,64.453,-34.668,0
1486664799.693,52.734,30.273,30.273,70.801,-8.789,0
1486664799.697,45.898,29.785,33.203,74.707,21.484,0
1486664799.701,42.480,29.297,32.715,72.754,96.191,0
1486664799.705,49.805,28.320,34.668,68.359,23.438,0
1486664799.709,56.641,24.902,35.156,71.289,-49.805,0
1486664799.712,43.945,23.926,34.668,69.824,-27.344,0
1486664799.716,28.809,25.391,38.086,70.312,63.965,0
1486664799.720,24.902,23.438,41.504,66.406,145.020,0
1486664799.724,26.367,20.020,39.551,45.898,34.180,0
1486664799.728,26.855,17.578,36.133,38.574,-26.855,0
1486664799.732,17.578,18.066,33.203,41.992,18.555,0
1486664799.736,15.625,21.484,34.668,48.340,70.312,0
1486664799.740,15.625,24.902,35.645,51.270,137.695,0
1486664799.744,20.996,22.949,34.668,35.645,63.965,0
1486664799.748,32.227,21.973,32.227,32.227,-12.207,0
1486664799.751,35.156,24.414,34.668,47.363,-2.441,0
1486664799.755,33.691,26.367,41.016,62.500,72.754,0
1486664799.759,33.203,27.832,39.551,62.500,152.832,0
1486664799.763,40.527,30.762,38.574,52.246,50.293,0
1486664799.767,52.246,29.785,37.598,55.664,-41.504,0
1486664799.771,52.246,27.832,32.715,62.012,-22.949,0
1486664799.775,40.527,27.344,35.156,66.406,38.086,0
1486664799.779,33.691,27.832,35.156,67.383,140.137,0
1486664799.783,36.133,29.785,36.133,60.547,73.242,1
1486664799.787,43.945,29.297,39.062,57.129,-35.645,0
1486664799.791,41.016,26.367,39.551,65.918,7.324,0
1486664799.794,27.832,25.879,42.480,74.707,61.523,0
1486664799.798,24.902,25.879,44.434,78.125,150.391,0
1486664799.802,27.832,24.414,43.945,71.777,107.422,0
1486664799.806,38.086,23.926,36.133,62.988,19.531,0
1486664799.810,47.363,23.926,35.645,65.918,27.344,0
1486664799.814,46.875,22.949,41.992,71.289,42.480,0
1486664799.818,39.062,25.879,39.062,67.871,147.461,0
1486664799.822,35.645,26.855,35.156,49.805,136.230,0
1486664799.826,46.387,29.297,34.668,40.039,14.648,0
1486664799.830,51.758,33.691,35.645,42.480,14.648,0
1486664799.834,46.387,34.668,32.715,43.457,29.297,0
1486664799.837,38.574,33.203,30.273,47.852,119.141,0
1486664799.841,37.598,28.320,33.691,46.387,144.043,0
1486664799.845,44.434,29.785,35.156,43.945,-3.906,0
1486664799.849,49.805,31.738,38.086,54.688,-31.250,0
1486664799.853,42.480,32.227,44.434,62.500,9.766,0
1486664799.857,29.785,28.320,46.387,73.730,94.238,0
1486664799.861,29.785,24.414,44.434,76.660,123.535,0
1486664799.865,34.180,26.367,41.992,67.383,-20.996,0
1486664799.869,36.621,26.367,39.062,63.965,-43.945,0
1486664799.873,28.320,27.832,39.062,68.359,-5.371,0
1486664799.876,20.020,31.250,40.527,77.148,49.805,0
1486664799.880,17.090,26.367,40.527,69.824,99.609,0
1486664799.884,20.508,20.020,39.551,58.105,9.766,0
1486664799.888,35.645,21.484,41.992,62.988,-12.695,0
1486664799.892,35.645,23.926,46.387,65.430,15.625,0
1486664799.896,26.855,28.320,47.852,69.824,78.125,0
1486664799.900,26.855,28.809,46.387,66.895,164.551,0
1486664799.904,38.574,26.367,40.527,53.223,73.730,0
1486664799.908,51.270,25.879,37.109,56.152,-8.301,0
1486664799.912,47.363,26.367,39.551,67.383,14.160,0
1486664799.916,42.480,29.785,41.992,72.754,68.848,0
1486664799.919,34.668,32.227,46.875,63.965,162.109,0
1486664799.923,28.809,30.273,44.922,49.316,65.918,0
1486664799.927,32.715,29.297,33.203,43.457,-12.695,0
1486664799.931,29.297,27.832,37.598,52.246,55.176,0
1486664799.935,15.625,27.344,45.410,57.129,121.582,0
1486664799.939,15.625,27.832,38.574,58.105,209.961,0
1486664799.943,17.578,25.879,31.738,46.875,117.188,0
1486664799.947,22.461,22.949,31.738,41.016,12.207,0
1486664799.951,34.180,25.879,34.668,51.758,66.406,0
1486664799.955,34.180,30.762,36.133,63.477,126.465,0
1486664799.958,33.691,31.250,39.062,72.266,161.621,0
1486664799.962,37.598,30.273,39.062,62.012,130.859,0
1486664799.966,52.734,29.297,38.574,59.082,38.086,0
1486664799.970,53.223,26.855,41.504,67.383,10.254,0
1486664799.974,40.039,26.367,42.480,68.848,34.668,0
1486664799.978,40.039,27.832,43.457,77.637,104.980,0
1486664799.982,43.945,27.344,42.480,69.824,112.305,0
1486664799.986,53.223,31.738,38.574,55.176,20.508,0
1486664799.990,61.035,31.738,38.574,55.664,34.180,0
1486664799.994,45.898,31.738,41.016,58.594,86.914,0
1486664799.998,29.297,34.668,37.109,63.477,183.105,0
1486664800.001,30.762,32.715,34.180,57.617,170.410,0
1486664800.005,34.668,27.832,37.598,47.363,25.879,0
1486664800.009,37.598,28.320,39.551,52.734,4.883,0
1486664800.013,36.621,26.367,38.574,64.453,22.949,0
1486664800.017,30.273,25.391,40.039,71.777,112.793,0
1486664800.021,29.785,24.902,40.527,65.918,166.992,0
1486664800.025,42.969,23.926,42.480,56.641,41.992,0
1486664800.029,50.293,25.391,41.016,60.547,1.953,0
1486664800.033,40.039,25.879,39.551,69.336,26.855,0
1486664800.037,29.785,24.902,45.898,73.730,108.887,0
1486664800.041,32.227,23.438,44.434,72.266,156.738,0
1486664800.044,44.922,27.832,40.527,62.988,64.941,0
1486664800.048,44.922,35.645,40.039,48.340,7.812,0
1486664800.052,35.156,35.645,32.227,41.992,18.066,0
1486664800.056,30.273,33.203,33.691,50.781,92.773,0
1486664800.060,25.879,32.715,36.621,48.828,159.668,0
1486664800.064,31.738,29.785,29.297,36.133,62.988,0
1486664800.068,41.504,29.785,28.320,36.621,3.418,0
1486664800.072,43.945,30.762,33.691,45.410,36.133,0
1486664800.076,45.410,34.668,35.645,65.918,88.379,0
1486664800.080,39.062,36.133,33.203,69.336,161.621,0
1486664800.083,38.086,31.738,30.273,51.270,88.379,0
1486664800.087,53.711,35.645,33.691,50.781,30.762,0
1486664800.091,54.199,37.598,37.598,55.664,42.480,0
1486664800.095,35.645,33.203,31.738,57.617,92.285,0
1486664800.099,28.809,36.133,33.691,64.453,175.781,0
1486664800.103,39.062,33.203,37.598,57.129,82.520,0
1486664800.107,45.410,30.273,34.668,48.828,-14.648,0
1486664800.111,45.410,32.227,34.668,53.223,1.465,0
1486664800.115,38.574,34.668,41.016,65.430,37.109,0
1486664800.119,32.715,36.621,39.551,70.801,135.254,0
1486664800.123,40.039,37.109,37.109,57.129,86.914,0
1486664800.126,50.781,38.086,35.156,47.852,-41.504,0
1486664800.130,51.758,36.621,32.227,54.688,-32.227,0
1486664800.134,46.387,36.133,36.621,64.453,16.113,0
1486664800.138,41.016,35.156,41.016,72.754,114.746,0
1486664800.142,46.387,34.668,42.969,65.918,88.379,0
1486664800.146,58.594,33.203,39.551,60.059,-25.391,0
1486664800.150,58.105,30.762,38.574,62.988,-10.742,0
1486664800.154,49.805,27.832,43.945,69.336,40.527,0
1486664800.158,41.016,29.785,44.922,76.660,102.539,0
1486664800.162,33.691,34.668,40.527,65.918,96.680,0
1486664800.166,37.598,28.809,38.086,52.734,-4.395,0
1486664800.169,46.387,24.414,36.133,56.641,-19.043,0
1486664800.173,39.551,26.367,37.109,61.523,25.879,0
1486664800.177,25.879,28.320,41.504,68.848,148.438,0
1486664800.181,31.738,29.785,42.969,64.453,158.691,0
1486664800.185,44.922,28.809,41.016,52.246,11.230,0
1486664800.189,53.711,29.297,38.086,56.641,-21.973,0
1486664800.193,55.176,30.762,40.039,63.965,21.973,0
1486664800.197,45.898,29.785,36.621,68.848,96.191,0
1486664800.201,42.480,27.832,30.273,65.918,125.977,0
1486664800.205,54.199,26.367,34.668,54.688,15.137,0
1486664800.208,62.500,29.297,35.156,58.105,-9.277,0
1486664800.212,45.898,33.203,34.180,55.664,50.293,0
1486664800.216,27.344,33.691,33.691,51.758,110.352,0
1486664800.220,32.715,33.691,30.762,58.594,130.371,0
1486664800.224,44.922,31.738,37.109,58.594,7.324,0
1486664800.228,62.012,34.180,44.922,59.570,-52.246,0
1486664800.232,57.617,35.156,40.527,64.453,-5.859,0
1486664800.236,37.109,32.715,33.691,66.895,46.387,0
1486664800.240,36.621,31.738,33.691,63.477,103.027,0
1486664800.244,47.363,28.809,34.668,53.223,60.059,0
1486664800.248,51.758,29.297,33.203,48.828,8.301,0
1486664800.251,52.246,33.203,33.691,56.152,4.883,0
1486664800.255,52.734,37.109,40.039,69.824,4.883,0
1486664800.259,46.875,39.551,40.527,66.895,98.145,0
1486664800.263,48.340,38.086,35.156,51.270,56.152,0
1486664800.267,60.547,34.180,32.715,47.852,-40.039,0
1486664800.271,63.965,32.227,30.273,54.688,2.930,0
1486664800.275,56.641,35.156,35.645,60.059,49.805,0
1486664800.279,51.758,35.645,39.551,60.547,129.883,0
1486664800.283,56.641,35.645,33.691,50.293,56.641,0
1486664800.287,59.082,32.227,29.297,41.016,-33.691,0
1486664800.290,50.781,30.762,34.180,47.363,29.297,0
1486664800.294,30.273,35.156,40.527,55.664,42.480,0
1486664800.298,13.184,32.715,43.945,57.129,104.004,0
1486664800.302,11.719,26.855,33.691,49.316,102.539,0
1486664800.306,18.555,25.391,26.855,39.062,-3.418,0
1486664800.310,32.227,27.832,30.762,44.922,-3.418,0
1486664800.314,31.250,32.227,33.691,59.570,55.664,0
1486664800.318,29.785,31.738,38.574,69.336,152.344,0
1486664800.322,40.527,32.715,39.062,64.941,102.539,0
1486664800.326,50.781,32.227,38.574,57.129,-15.625,0
1486664800.330,60.059,33.691,41.504,67.383,-8.789,0
1486664800.333,55.176,36.133,42.480,76.172,41.016,0
1486664800.337,44.922,37.109,34.668,73.730,129.395,0
1486664800.341,46.875,35.156,32.715,64.453,127.441,0
1486664800.345,57.617,30.273,35.645,61.523,4.395,0
1486664800.349,68.359,34.180,34.180,66.895,-51.270,0
1486664800.353,59.570,30.762,36.133,74.219,-6.836,0
1486664800.357,41.016,22.461,38.574,79.102,99.121,0
1486664800.361,33.691,26.367,35.645,73.730,145.996,0
1486664800.365,42.480,27.344,42.480,62.500,36.621,0
1486664800.369,45.410,26.367,44.434,57.129,0.488,0
1486664800.373,30.273,27.344,32.227,54.199,31.738,0
1486664800.376,18.066,26.855,29.297,58.594,93.750,0
1486664800.380,18.066,26.855,36.621,63.477,132.324,0
1486664800.384,27.344,24.902,35.645,55.664,34.668,0
1486664800.388,40.039,24.414,33.691,50.781,-5.371,0
1486664800.392,41.016,33.203,41.016,56.641,10.254,0
1486664800.396,30.762,33.203,37.109,63.477,72.754,0
1486664800.400,23.926,24.414,29.297,58.105,134.766,0
1486664800.404,31.250,23.926,31.250,48.340,34.180,0
1486664800.408,49.316,26.367,34.668,53.711,-27.832,0
1486664800.412,46.387,27.832,36.621,56.152,-6.348,0
1486664800.415,25.879,26.855,34.668,62.500,39.551,0
1486664800.419,23.438,26.855,34.180,61.523,111.816,0
1486664800.423,34.668,26.367,38.086,50.781,40.527,0
1486664800.427,48.340,29.785,41.504,56.152,-2.930,0
1486664800.431,48.340,34.180,41.504,60.547,15.625,1
1486664800.435,37.598,34.180,39.551,63.477,38.086,0
1486664800.439,31.738,34.668,38.086,67.383,143.066,0
1486664800.443,39.062,35.645,36.133,57.617,70.801,0
1486664800.447,51.270,30.762,38.574,52.246,-28.809,0
1486664800.451,49.805,29.297,39.551,61.523,8.789,0
1486664800.455,39.062,32.715,38.574,68.848,55.176,0
1486664800.458,33.203,31.738,39.062,73.730,150.879,0
1486664800.462,36.621,30.273,36.133,61.523,129.883,0
1486664800.466,48.828,27.344,36.621,54.199,42.969,0
1486664800.470,53.711,28.809,42.480,66.406,5.859,0
1486664800.474,44.922,33.203,42.480,74.219,24.902,0
1486664800.478,43.945,33.691,39.062,79.590,107.422,0
1486664800.482,49.805,37.598,39.062,72.266,56.641,0
1486664800.486,53.711,36.133,39.062,62.988,-21.973,0
1486664800.490,63.477,29.297,37.598,66.895,-4.395,0
1486664800.494,55.176,28.809,40.527,73.730,3.418,0
1486664800.498,39.062,30.273,41.504,75.195,120.605,0
1486664800.501,42.969,32.715,35.645,64.941,145.996,0
1486664800.505,51.270,30.762,33.203,51.758,0.488,0
1486664800.509,59.082,29.785,37.109,56.641,21.484,0
1486664800.513,52.734,35.156,40.527,66.406,72.266,0
1486664800.517,43.457,34.668,45.898,71.777,145.020,0
1486664800.521,43.457,29.297,42.480,68.359,125.000,0
1486664800.525,49.805,27.832,36.133,57.617,-1.953,0
1486664800.529,61.035,30.273,39.551,60.059,-40.527,0
1486664800.533,51.758,28.809,41.992,66.895,-37.598,0
1486664800.537,36.621,29.785,40.039,64.453,77.637,0
1486664800.540,33.691,33.691,37.109,55.664,124.023,0
1486664800.544,39.551,28.809,37.109,47.852,4.395,0
1486664800.548,41.504,24.902,39.062,49.805,-20.020,0
1486664800.552,39.062,26.367,37.109,63.477,13.672,0
1486664800.556,25.879,25.391,37.598,70.801,103.516,0
1486664800.560,18.555,26.855,43.457,65.918,132.324,0
1486664800.564,33.691,28.809,41.992,55.176,41.016,0
1486664800.568,44.922,30.273,32.715,52.246,18.555,0
1486664800.572,42.480,29.297,36.621,61.035,28.320,0
1486664800.576,28.809,31.738,42.480,64.453,80.566,0
1486664800.580,27.344,33.203,41.504,63.477,152.832,0
1486664800.583,41.016,31.738,41.992,54.688,70.801,0
1486664800.587,56.641,34.180,41.992,56.641,-9.277,0
1486664800.591,55.176,34.668,39.551,63.477,25.879,0
1486664800.595,35.156,29.785,41.504,63.965,115.723,0
1486664800.599,25.391,29.785,41.016,63.477,192.871,0
1486664800.603,33.691,32.227,31.738,41.992,105.957,0
1486664800.607,47.852,32.227,32.715,40.527,29.297,0
1486664800.611,52.734,32.227,36.133,54.199,45.410,0
1486664800.615,45.898,36.621,34.668,63.477,89.355,0
1486664800.619,34.180,37.109,36.133,68.848,157.715,0
1486664800.622,40.527,34.180,41.016,61.523,98.633,0
1486664800.626,50.781,30.273,38.086,56.641,3.418,0
1486664800.630,45.898,25.391,33.691,62.012,-2.441,0
1486664800.634,36.621,27.832,44.434,68.848,55.176,0
1486664800.638,26.367,31.250,45.410,73.242,148.438,0
1486664800.642,36.621,30.762,42.480,73.242,110.840,0
1486664800.646,41.992,28.809,43.945,60.059,11.719,0
1486664800.650,35.156,31.738,40.527,54.199,-2.930,0
1486664800.654,25.391,29.785,39.062,61.035,34.180,0
1486664800.658,16.602,23.438,44.434,70.801,143.555,0
1486664800.662,17.578,26.367,46.875,62.988,130.859,0
1486664800.665,29.297,24.414,37.598,45.410,15.625,0
1486664800.669,39.062,20.996,34.668,44.434,-4.395,0
1486664800.673,30.762,25.879,38.086,48.828,15.625,0
1486664800.677,26.855,31.738,43.457,59.082,91.797,0
1486664800.681,22.461,29.297,43.945,52.734,120.605,0
1486664800.685,26.367,21.484,31.738,35.645,21.973,0
1486664800.689,37.598,20.996,28.320,38.574,-36.133,0
1486664800.693,30.273,27.344,31.250,46.387,-33.691,0
1486664800.697,22.461,30.273,35.645,56.152,75.684,0
1486664800.701,21.973,28.809,40.039,54.199,140.625,0
1486664800.705,34.668,29.297,36.621,43.945,24.902,0
1486664800.708,48.828,31.250,32.227,44.922,-13.672,0
1486664800.712,45.410,32.227,34.180,49.805,6.836,0
1486664800.716,34.668,29.785,35.156,58.594,104.004,0
1486664800.720,28.320,30.273,35.645,58.105,150.391,0
1486664800.724,36.621,29.297,37.598,46.387,26.367,0
1486664800.728,50.293,27.832,36.133,52.246,19.043,0
1486664800.732,46.875,28.320,36.621,58.105,42.480,0
1486664800.736,36.133,31.738,40.039,66.895,50.781,0
1486664800.740,35.156,32.227,39.062,75.195,109.375,0
1486664800.744,41.504,26.367,40.039,62.012,54.688,0
1486664800.747,57.617,24.414,43.945,65.918,-11.230,0
1486664800.751,55.176,26.367,39.062,74.219,24.902,0
1486664800.755,40.039,26.367,41.016,77.637,90.332,0
1486664800.759,35.156,27.344,43.945,79.102,162.598,0
1486664800.763,34.180,24.414,39.551,54.688,85.449,0
1486664800.767,40.039,20.508,37.109,41.992,20.996,0
1486664800.771,41.992,23.926,38.574,51.270,64.453,0
1486664800.775,28.809,26.855,41.016,50.293,105.469,0
1486664800.779,20.996,27.344,42.969,47.363,150.879,0
1486664800.783,32.715,29.297,39.551,44.434,80.566,0
1486664800.787,47.852,26.855,34.180,41.992,-23.926,0
1486664800.790,49.316,28.320,37.598,53.711,7.812,0
1486664800.794,38.574,30.762,40.527,62.988,78.613,0
1486664800.798,31.738,26.855,39.551,66.406,165.039,0
1486664800.802,35.156,25.879,41.016,60.547,95.215,0
1486664800.806,48.340,26.855,40.039,59.082,4.395,0
1486664800.810,54.688,31.250,36.621,64.941,27.832,0
1486664800.814,45.898,32.227,41.016,70.801,49.316,0
1486664800.818,35.645,31.250,42.480,74.707,150.391,0
1486664800.822,35.645,31.250,35.645,62.500,135.254,0
1486664800.826,49.805,32.715,36.621,57.129,-3.418,0
1486664800.830,55.176,34.180,40.527,62.012,-15.625,0
1486664800.833,42.480,33.691,38.574,62.012,52.734,0
1486664800.837,33.691,33.203,37.598,67.383,131.836,0
1486664800.841,38.086,33.203,41.016,64.453,133.789,0
1486664800.845,50.781,29.785,41.992,53.711,-7.812,0
1486664800.849,54.199,26.367,34.668,53.223,-49.316,0
1486664800.853,43.457,26.855,32.227,60.059,22.949,0
1486664800.857,33.203,32.227,39.062,67.871,95.703,0
1486664800.861,30.273,32.715,40.039,62.500,159.668,0
1486664800.865,31.738,26.855,39.062,42.480,41.992,0
1486664800.869,39.551,23.438,41.016,42.480,-41.504,0
1486664800.872,33.691,28.809,42.969,53.711,-2.930,0
1486664800.876,21.973,29.785,41.992,61.035,94.238,0
1486664800.880,22.461,25.391,40.039,59.570,127.441,0
1486664800.884,28.809,27.344,35.156,48.340,11.230,0
1486664800.888,38.086,24.902,36.133,47.852,-61.035,0
1486664800.892,37.598,20.996,41.992,59.570,-63.477,0
1486664800.896,23.438,27.832,38.574,67.871,55.664,0
1486664800.900,21.484,33.203,37.109,64.453,159.668,0
1486664800.904,38.086,30.762,40.527,57.129,6.836,0
1486664800.908,49.805,29.297,41.016,57.617,-47.852,0
1486664800.912,49.316,28.809,41.016,63.965,12.207,0
1486664800.915,36.621,31.250,41.016,70.312,29.297,0
1486664800.919,22.949,27.344,35.156,62.988,101.562,0
1486664800.923,28.320,25.879,32.227,50.781,6.348,0
1486664800.927,45.898,27.832,35.156,54.688,-71.777,0
1486664800.931,43.457,26.855,36.133,58.594,-22.949,0
1486664800.935,29.785,26.855,39.551,63.965,59.082,0
1486664800.939,24.902,26.855,38.086,68.848,155.762,0
1486664800.943,32.227,30.762,36.621,52.734,73.242,0
1486664800.947,43.945,30.273,38.086,47.852,2.441,0
1486664800.951,47.363,28.809,38.086,59.082,40.527,0
1486664800.954,32.227,30.762,37.598,64.941,71.777,0
1486664800.958,21.484,27.832,35.645,65.430,162.109,0
1486664800.962,24.902,26.855,32.715,54.199,118.652,0
1486664800.966,41.016,24.414,37.109,51.270,20.996,0
1486664800.970,52.246,26.367,39.551,59.570,14.648,0
1486664800.974,43.457,36.133,38.574,68.848,31.250,0
1486664800.978,34.668,32.227,39.062,77.148,140.137,0
1486664800.982,36.621,21.973,36.621,67.383,131.348,0
1486664800.986,45.898,21.484,32.227,59.082,22.461,0
1486664800.990,49.316,19.043,36.621,65.430,-11.230,0
1486664800.994,39.551,19.043,41.016,66.895,40.527,0
1486664800.997,25.879,24.414,38.574,70.312,137.207,0
1486664801.001,27.832,25.391,33.691,63.965,90.332,0
1486664801.005,42.480,22.461,32.715,51.270,-41.992,0
1486664801.009,51.758,26.367,35.645,56.641,-55.664,0
1486664801.013,48.340,30.273,37.109,69.336,-21.484,0
1486664801.017,37.109,29.785,33.203,73.242,84.961,0
1486664801.021,35.156,30.273,26.367,62.500,121.094,0
1486664801.025,45.898,28.809,28.809,48.340,-23.438,0
1486664801.029,53.711,26.855,35.156,55.664,-58.594,0
1486664801.033,48.340,30.273,40.527,63.477,-30.762,0
1486664801.037,33.691,34.180,47.363,70.312,56.641,0
1486664801.040,24.902,32.227,45.898,64.941,136.230,2
1486664801.044,32.715,23.438,36.133,47.852,14.648,0
1486664801.048,41.504,20.996,35.156,55.176,-20.508,0
1486664801.052,39.062,24.414,39.551,62.988,47.363,0
1486664801.056,29.297,27.832,39.551,66.406,82.031,0
1486664801.060,26.367,28.320,39.551,66.895,130.371,0
1486664801.064,33.691,26.367,38.574,50.781,50.293,0
1486664801.068,43.945,25.879,40.039,49.805,-20.508,0
1486664801.072,45.410,29.297,41.016,60.547,3.418,0
1486664801.076,36.621,33.691,40.039,71.289,90.332,0
1486664801.079,35.645,33.691,39.551,73.242,166.016,0
1486664801.083,49.805,30.273,35.156,58.105,49.316,0
1486664801.087,60.547,26.367,31.738,54.688,-11.230,0
1486664801.091,56.152,26.855,35.645,61.035,-19.531,0
1486664801.095,42.969,28.809,41.016,67.383,22.461,0
1486664801.099,32.227,28.320,45.898,70.312,120.117,0
1486664801.103,33.691,24.414,48.340,56.641,17.578,0
1486664801.107,45.410,20.996,43.945,55.664,-62.500,0
1486664801.111,45.410,24.414,38.086,65.430,-24.902,0
1486664801.115,31.738,28.320,36.133,68.359,62.500,0
1486664801.119,24.414,26.855,38.086,72.266,132.812,0
1486664801.122,32.227,28.320,41.016,62.500,33.691,0
1486664801.126,47.363,26.367,41.504,63.477,-21.973,0
1486664801.130,54.199,28.320,40.039,74.219,0.488,0
1486664801.134,41.504,31.738,40.527,70.312,18.066,0
1486664801.138,24.414,27.344,45.898,67.383,117.676,0
1486664801.142,27.344,24.414,42.969,61.035,93.750,0
1486664801.146,40.039,25.391,34.180,48.828,-17.090,0
1486664801.150,45.898,24.902,34.180,46.875,-6.348,0
1486664801.154,41.504,25.879,34.668,55.176,27.832,0
1486664801.158,33.203,27.832,36.621,62.012,113.281,0
1486664801.162,38.086,28.320,37.598,49.316,97.656,0
1486664801.165,55.664,30.762,32.715,37.598,-6.348,0
1486664801.169,63.965,30.273,30.762,49.316,18.555,0
1486664801.173,48.340,29.297,35.645,56.641,33.203,0
1486664801.177,33.691,32.715,38.574,65.430,90.332,0
1486664801.181,33.203,31.738,36.621,69.336,106.445,0
1486664801.185,44.434,26.367,35.156,58.105,3.418,0
1486664801.189,47.852,22.949,31.738,56.641,11.230,0
1486664801.193,34.668,22.949,34.180,60.059,46.875,0
1486664801.197,23.926,27.344,39.062,65.918,107.422,0
1486664801.201,18.555,26.855,37.598,57.617,130.859,0
1486664801.204,27.344,23.926,37.109,41.016,19.043,0
1486664801.208,39.062,28.320,33.203,44.434,-38.574,0
1486664801.212,31.738,28.320,32.227,49.805,13.672,0
1486664801.216,25.391,33.203,37.598,60.547,115.234,0
1486664801.220,21.973,33.691,37.598,52.734,135.742,0
1486664801.224,32.227,25.391,36.133,40.039,6.836,0
1486664801.228,48.828,23.438,35.645,52.734,-60.547,0
1486664801.232,43.457,22.461,37.109,60.059,-6.836,0
1486664801.236,37.598,26.367,41.016,67.871,69.824,0
1486664801.240,31.738,26.855,41.504,71.777,128.418,0
1486664801.244,39.551,21.973,39.551,62.988,41.992,0
1486664801.247,51.270,21.484,41.992,62.012,-41.992,0
1486664801.251,44.922,22.949,39.062,62.500,-35.156,0
1486664801.255,29.297,25.879,36.621,65.918,40.527,0
1486664801.259,16.113,27.832,40.527,64.941,141.602,0
1486664801.263,20.996,26.855,39.062,45.898,54.688,0
1486664801.267,35.156,26.855,38.086,40.527,-50.293,0
1486664801.271,39.551,27.344,39.062,48.828,-22.461,0
1486664801.275,29.785,29.785,39.551,54.199,47.852,0
1486664801.279,17.090,30.762,42.480,51.758,131.836,0
1486664801.283,25.391,30.273,43.457,49.316,76.660,0
1486664801.286,46.387,28.809,38.574,50.781,-23.926,0
1486664801.290,43.945,26.855,34.180,45.898,25.391,0
1486664801.294,34.668,28.809,39.551,54.199,54.199,0
1486664801.298,28.809,30.273,44.434,63.965,120.117,0
1486664801.302,30.273,28.320,39.551,50.293,128.418,0
1486664801.306,46.875,25.391,36.133,45.410,15.137,0
1486664801.310,53.223,27.832,39.062,53.223,-13.672,0
1486664801.314,40.527,27.344,38.574,57.617,36.133,0
1486664801.318,26.367,26.855,37.598,64.453,124.023,0
1486664801.322,29.297,28.320,39.551,60.547,119.141,0
1486664801.326,39.062,26.367,38.574,52.734,-6.836,0
1486664801.329,45.410,25.391,37.598,58.594,-18.555,0
1486664801.333,39.062,31.738,39.062,67.871,-8.301,0
1486664801.337,30.762,39.062,43.945,79.102,46.875,0
1486664801.341,28.320,28.320,42.969,73.242,92.773,0
1486664801.345,37.598,19.531,36.621,54.688,-20.020,0
1486664801.349,45.410,20.508,38.086,54.199,-52.246,0
1486664801.353,41.016,22.461,44.434,70.801,-2.930,0
1486664801.357,30.762,23.438,45.898,79.590,89.355,0
1486664801.361,31.738,23.926,41.504,71.777,83.008,0
1486664801.365,47.852,24.414,38.086,59.570,-26.367,0
1486664801.369,49.316,22.461,36.133,53.223,-31.738,0
1486664801.372,38.086,24.902,38.086,56.641,2.930,0
1486664801.376,32.227,28.809,41.504,59.082,61.523,0
1486664801.380,23.438,27.344,39.062,52.734,116.211,0
1486664801.384,33.203,23.438,35.156,40.527,34.180,0
1486664801.388,50.293,25.879,34.180,41.992,-28.809,0
1486664801.392,40.039,29.785,34.668,46.387,15.137,0
1486664801.396,25.391,28.809,34.180,53.711,114.746,0
1486664801.400,25.879,29.297,40.527,57.617,132.812,0
1486664801.404,27.832,26.855,39.551,41.016,13.184,0
1486664801.408,34.668,20.020,34.668,40.527,-27.344,0
1486664801.411,37.598,23.438,40.527,59.082,-4.395,0
1486664801.415,24.902,27.832,44.922,71.777,46.875,0
1486664801.419,19.043,23.926,43.457,71.289,118.164,0
1486664801.423,33.203,24.414,40.527,60.547,43.457,0
1486664801.427,58.105,28.320,39.062,64.941,-50.781,0
1486664801.431,63.965,27.344,39.062,70.801,-10.254,0
1486664801.435,49.805,25.879,36.133,76.172,60.547,0
1486664801.439,41.992,29.297,34.668,70.801,132.324,0
1486664801.443,52.246,28.320,37.598,54.199,37.598,0
1486664801.447,67.871,28.809,41.016,54.199,-38.574,0
1486664801.451,62.500,31.250,36.621,54.688,-15.137,0
1486664801.454,45.898,26.367,35.156,59.570,27.344,0
1486664801.458,37.109,23.438,43.945,67.383,96.191,0
1486664801.462,33.203,25.391,40.527,52.734,60.059,0
1486664801.466,47.363,24.902,34.180,48.340,-45.410,0
1486664801.470,48.828,23.438,37.109,55.176,-62.988,0
1486664801.474,28.809,25.879,41.992,59.570,8.301,0
1486664801.478,16.113,27.832,43.457,73.730,85.449,0
1486664801.482,21.484,24.902,39.551,66.406,48.340,0
1486664801.486,34.668,23.926,40.039,53.223,-54.688,0
1486664801.490,35.645,23.926,38.086,58.594,-51.270,0
1486664801.494,32.227,27.344,37.598,68.848,8.301,0
1486664801.497,24.902,30.762,39.062,72.266,118.164,0
1486664801.501,30.273,28.320,35.645,65.918,108.398,0
1486664801.505,52.734,26.367,39.551,62.988,-22.949,0
1486664801.509,63.965,27.344,46.875,62.012,-27.832,0
1486664801.513,55.664,30.273,42.480,68.848,16.602,0
1486664801.517,43.945,31.250,40.527,71.289,60.059,0
1486664801.521,35.156,29.297,37.109,55.664,100.098,0
1486664801.525,45.898,29.297,32.715,47.852,18.555,0
1486664801.529,58.105,29.297,37.109,50.293,-61.035,0
1486664801.533,46.387,29.785,42.969,58.105,-26.855,0
1486664801.536,26.855,28.320,43.457,58.594,77.637,0
1486664801.540,21.973,27.832,41.016,52.246,94.727,0
1486664801.544,27.832,26.367,37.598,42.969,-31.738,0
1486664801.548,30.762,23.926,41.016,44.922,-25.879,0
1486664801.552,35.156,22.461,41.504,53.711,61.523,0
1486664801.556,23.926,24.414,40.039,65.918,128.906,0
1486664801.560,12.207,23.926,43.945,69.336,151.367,0
1486664801.564,23.926,23.438,41.504,56.152,44.922,0
1486664801.568,32.715,24.414,38.574,54.199,-14.648,0
1486664801.572,30.762,23.438,37.598,62.500,31.738,0
1486664801.576,22.461,29.297,39.551,64.941,66.406,0
1486664801.579,18.066,27.344,41.504,61.035,83.008,0
1486664801.583,32.715,20.508,40.527,57.617,13.184,0
1486664801.587,52.734,22.949,37.109,56.152,-29.785,0
1486664801.591,46.875,26.855,33.203,54.688,13.672,0
1486664801.595,38.086,31.250,36.621,65.918,79.102,0
1486664801.599,35.645,33.203,36.621,66.895,125.000,0
1486664801.603,41.504,29.785,37.109,50.781,58.594,0
1486664801.607,51.758,27.344,38.086,45.898,-23.926,0
1486664801.611,49.805,27.832,38.086,51.270,-20.508,0
1486664801.615,41.992,29.785,41.016,64.453,47.363,0
1486664801.618,30.762,27.344,41.016,66.406,142.090,0
1486664801.622,30.273,22.949,40.527,56.641,91.309,0
1486664801.626,45.410,23.438,41.992,59.570,-28.320,0
1486664801.630,46.875,28.809,40.527,67.383,-6.836,0
1486664801.634,24.902,28.809,38.574,69.824,57.129,0
1486664801.638,15.625,23.926,40.039,71.289,129.395,0
1486664801.642,25.391,23.438,41.016,62.012,90.820,0
1486664801.646,37.598,23.926,41.504,56.152,-18.555,0
1486664801.650,41.992,25.391,38.574,59.570,4.395,0
1486664801.654,37.109,27.832,40.039,67.383,53.223,0
1486664801.658,33.203,29.297,47.363,73.242,124.023,0
1486664801.661,34.180,25.391,42.480,60.059,90.820,0
1486664801.665,48.828,22.461,32.715,51.758,-32.227,0
1486664801.669,58.594,24.414,34.180,60.059,-57.129,0
1486664801.673,51.270,23.438,40.039,66.895,-13.184,0
1486664801.677,36.133,22.461,43.457,72.754,113.281,0
1486664801.681,32.715,21.973,40.527,61.523,146.973,0
1486664801.685,46.387,24.902,37.109,46.875,25.391,0
1486664801.689,53.711,21.973,37.598,55.176,2.441,0
1486664801.693,45.898,21.973,40.527,66.406,18.066,0
1486664801.697,27.344,26.855,37.109,70.801,90.332,0
1486664801.701,20.508,23.926,36.621,67.871,126.953,0
1486664801.704,35.645,24.414,37.109,59.570,19.531,0
1486664801.708,47.852,26.367,36.133,68.848,7.812,0
1486664801.712,42.969,23.438,38.574,75.684,2.930,0
1486664801.716,33.691,28.320,43.945,79.590,87.402,0
1486664801.720,37.598,33.203,44.922,83.496,155.762,0
1486664801.724,47.363,26.367,39.551,64.453,20.996,0
1486664801.728,54.199,22.461,36.621,56.152,-8.301,0
1486664801.732,50.293,24.414,35.645,62.500,42.969,0
1486664801.736,34.668,23.438,39.062,67.871,98.633,2
1486664801.740,32.227,24.902,45.410,66.895,152.832,0
1486664801.743,45.898,27.832,40.527,51.758,52.734,0
1486664801.747,52.734,27.832,33.203,41.504,-19.043,0
1486664801.751,48.340,26.855,35.156,49.805,14.160,0
1486664801.755,30.762,31.250,39.062,56.152,87.402,0
1486664801.759,19.531,30.762,37.598,52.734,160.156,0
1486664801.763,24.902,23.438,34.180,40.039,67.383,0
1486664801.767,37.598,21.484,37.598,39.062,-1.953,0
1486664801.771,37.109,24.414,43.457,52.246,39.551,0
1486664801.775,21.484,25.391,43.945,55.664,78.613,0
1486664801.779,15.625,18.555,40.039,59.082,149.414,0
1486664801.783,23.926,17.090,34.180,47.852,68.359,0
1486664801.786,41.016,22.949,36.133,45.898,-51.270,0
1486664801.790,43.945,23.438,39.062,60.059,-19.531,0
1486664801.794,29.785,24.902,37.598,64.941,11.230,0
1486664801.798,21.973,26.367,36.133,67.383,101.074,0
1486664801.802,29.785,22.461,33.691,55.176,121.582,0
1486664801.806,44.434,22.949,35.156,47.852,-2.930,0
1486664801.810,51.270,25.391,36.621,56.641,-47.363,0
1486664801.814,46.875,26.367,38.086,67.383,8.301,0
1486664801.818,39.062,29.785,38.574,67.871,131.348,0
1486664801.822,48.340,32.715,42.969,58.594,110.840,0
1486664801.826,58.105,29.785,36.621,55.176,-35.156,0
1486664801.829,58.105,26.855,27.344,55.664,-57.129,0
1486664801.833,48.828,29.297,30.762,62.988,-26.855,0
1486664801.837,37.598,33.691,33.203,72.266,43.945,0
1486664801.841,34.668,33.203,31.738,60.059,63.965,0
1486664801.845,39.551,28.320,32.715,51.270,-42.480,0
1486664801.849,43.457,23.438,39.551,60.059,-80.078,0
1486664801.853,30.762,23.438,41.504,69.824,-35.156,0
1486664801.857,18.066,24.414,41.504,80.078,71.289,0
1486664801.861,18.066,24.414,40.527,71.777,96.191,0
1486664801.865,33.203,24.414,39.062,59.570,-42.480,0
1486664801.868,50.293,25.391,40.039,67.871,-80.078,0
1486664801.872,42.969,21.484,38.086,73.242,-12.207,0
1486664801.876,32.227,21.484,38.574,80.566,109.375,0
1486664801.880,38.086,23.438,40.527,75.195,153.320,0
1486664801.884,50.781,23.926,36.621,60.547,15.625,0
1486664801.888,59.570,25.879,30.273,62.988,-24.414,0
1486664801.892,52.734,28.320,34.668,66.895,0.488,0
1486664801.896,37.109,33.203,39.062,70.801,47.852,0
1486664801.900,31.738,29.785,33.691,63.477,116.699,0
1486664801.904,40.527,26.855,32.227,48.828,39.551,0
1486664801.908,49.316,29.785,36.621,47.852,-14.160,0
1486664801.911,45.898,27.344,34.668,52.246,15.625,0
1486664801.915,33.691,29.297,33.203,62.500,91.797,0
1486664801.919,26.855,29.785,33.203,58.594,157.715,0
1486664801.923,40.039,25.391,34.668,47.363,42.480,0
1486664801.927,59.082,25.391,35.645,56.152,-31.250,0
1486664801.931,55.176,25.879,35.645,62.500,14.160,0
1486664801.935,38.574,25.391,41.016,67.383,71.289,0
1486664801.939,32.715,26.855,40.039,70.801,120.117,0
1486664801.943,41.504,27.344,35.645,52.734,37.109,0
1486664801.947,59.082,25.391,36.133,48.828,1.953,0
1486664801.951,65.918,30.762,36.133,60.059,9.277,0
1486664801.954,56.641,32.227,39.062,69.824,19.531,0
1486664801.958,50.293,24.902,41.504,78.125,133.789,0
1486664801.962,50.781,22.949,41.016,64.941,91.309,0
1486664801.966,55.664,24.902,39.551,62.012,4.883,0
1486664801.970,58.105,24.902,40.527,76.172,30.762,0
1486664801.974,50.293,30.762,42.480,77.637,35.156,0
1486664801.978,35.156,32.227,36.621,73.730,94.238,0
1486664801.982,31.738,26.367,36.133,62.500,91.309,0
1486664801.986,41.504,21.973,39.062,53.711,1.465,0
1486664801.990,37.598,20.020,34.180,53.711,19.531,0
1486664801.993,28.320,23.438,41.016,58.594,63.477,0
1486664801.997,21.484,27.344,45.898,62.500,146.484,0
1486664802.001,25.391,24.902,40.527,49.316,135.742,0
1486664802.005,36.621,20.508,40.527,38.086,44.434,0
1486664802.009,40.527,23.438,38.086,41.016,24.414,0
1486664802.013,37.109,24.414,39.551,48.340,35.645,0
1486664802.017,33.203,26.367,40.527,57.129,111.816,0
1486664802.021,31.738,24.902,35.156,58.105,119.141,0
1486664802.025,41.016,20.020,38.086,54.688,2.930,0
1486664802.029,54.688,22.461,38.086,61.523,-16.113,0
1486664802.033,50.293,25.879,37.598,75.195,8.301,0
1486664802.036,41.016,27.832,40.039,86.426,67.871,0
1486664802.040,37.598,33.203,39.062,82.031,128.418,0
1486664802.044,41.992,30.762,38.574,69.824,14.160,0
1486664802.048,50.293,22.461,38.574,70.312,-26.855,0
1486664802.052,42.969,22.461,42.480,77.148,-4.395,0
1486664802.056,25.391,24.902,44.922,86.914,96.191,0
1486664802.060,23.438,25.391,46.875,81.543,161.133,0
1486664802.064,35.645,26.855,42.480,65.430,51.270,0
1486664802.068,45.410,26.367,37.598,64.941,-7.324,0
1486664802.072,46.387,28.320,42.969,74.219,20.996,0
1486664802.075,31.250,26.855,42.969,74.219,89.355,0
1486664802.079,25.391,26.367,40.527,66.895,143.066,0
1486664802.083,42.480,29.297,38.574,56.152,55.176,0
1486664802.087,54.199,29.785,35.156,52.734,-15.625,0
1486664802.091,52.734,31.738,42.480,59.570,22.461,0
1486664802.095,41.504,31.738,41.992,62.988,92.285,0
1486664802.099,33.691,27.344,39.062,63.477,157.715,0
1486664802.103,35.645,24.414,36.621,46.387,50.293,0
1486664802.107,46.875,22.949,33.691,33.691,-53.711,0
1486664802.111,47.852,25.391,36.133,38.574,4.883,0
1486664802.115,36.133,28.320,36.133,47.852,72.754,0
1486664802.118,25.391,28.809,33.203,48.340,131.348,0
1486664802.122,28.320,32.227,30.273,37.598,94.238,0
1486664802.126,44.434,28.809,27.832,40.039,1.953,0
1486664802.130,51.270,28.320,25.391,53.223,-24.902,0
1486664802.134,43.457,35.156,26.855,65.430,13.184,0
1486664802.138,30.762,31.250,27.832,76.660,104.980,0
1486664802.142,35.156,27.832,27.832,66.895,86.426,0
1486664802.146,55.664,32.715,29.297,60.059,-20.508,0
1486664802.150,60.547,32.715,34.180,69.336,-23.926,0
1486664802.154,47.852,28.809,40.527,82.031,38.086,0
1486664802.158,38.086,26.855,43.945,88.867,132.324,0
1486664802.161,43.945,26.855,47.852,79.590,82.520,0
1486664802.165,51.758,23.438,47.363,68.848,-37.109,0
1486664802.169,54.688,17.090,43.457,70.801,0.488,0
1486664802.173,43.457,18.066,47.363,76.660,28.320,0
1486664802.177,26.855,21.973,50.293,76.172,115.723,0
1486664802.181,28.809,22.461,41.992,67.383,140.137,0
1486664802.185,40.527,20.508,37.109,50.781,-7.812,0
1486664802.189,53.223,21.484,36.133,42.480,-29.297,0
1486664802.193,46.387,26.367,36.133,51.270,10.254,0
1486664802.197,30.762,27.832,35.156,61.035,91.309,0
1486664802.200,32.227,25.879,36.133,59.570,143.066,0
1486664802.204,40.527,21.484,35.645,42.969,35.645,0
1486664802.208,53.223,23.438,30.273,43.457,-19.043,0
1486664802.212,51.270,31.250,37.109,59.082,20.508,0
1486664802.216,35.156,30.762,42.480,64.453,81.055,0
1486664802.220,28.320,21.973,39.551,56.152,97.168,0
1486664802.224,37.109,19.531,39.551,40.039,31.250,0
1486664802.228,53.223,22.949,35.156,45.410,-1.953,0
1486664802.232,45.898,24.902,34.180,52.246,-5.859,0
1486664802.236,33.691,26.855,38.574,59.570,42.480,0
1486664802.240,34.668,27.832,41.016,66.895,114.258,0
1486664802.243,43.945,26.855,39.062,53.223,1.953,0
1486664802.247,58.594,26.855,33.691,51.758,-60.059,0
1486664802.251,56.641,29.785,39.062,59.570,-6.836,0
1486664802.255,40.039,34.668,43.945,72.266,76.172,0
1486664802.259,33.203,29.785,35.156,73.242,137.695,0
1486664802.263,39.062,21.484,28.320,55.176,29.297,0
1486664802.267,55.176,20.996,29.785,59.570,-61.035,0
1486664802.271,52.246,21.973,33.691,65.430,-25.391,0
1486664802.275,43.457,26.855,41.016,71.777,23.926,0
1486664802.279,36.621,25.391,39.062,78.125,112.305,0
1486664802.283,33.203,21.973,32.715,59.082,64.453,0
1486664802.286,46.875,23.438,38.086,54.688,-31.250,0
1486664802.290,50.781,22.949,39.551,60.547,-7.812,0
1486664802.294,36.133,23.926,42.480,70.312,29.297,0
1486664802.298,23.438,25.391,45.898,81.055,104.004,0
1486664802.302,26.367,22.949,41.016,64.941,68.359,0
1486664802.306,42.480,19.043,44.434,59.082,-8.789,0
1486664802.310,49.316,21.973,44.922,67.383,-9.766,0
1486664802.314,35.645,25.391,43.457,68.848,7.812,0
1486664802.318,28.809,25.879,45.898,71.289,100.098,1
1486664802.322,31.738,28.320,38.574,61.523,108.887,0
1486664802.325,43.457,25.879,37.598,51.270,34.180,0
1486664802.329,48.340,23.438,38.086,52.734,47.363,0
1486664802.333,39.551,22.461,38.574,60.059,54.199,0
1486664802.337,29.785,21.973,44.434,68.359,106.445,0
1486664802.341,30.273,25.879,41.504,60.059,138.672,0
1486664802.345,44.434,24.902,40.039,48.340,10.254,0
1486664802.349,53.223,24.414,46.875,48.340,-22.949,0
1486664802.353,40.527,28.320,45.898,54.199,53.223,0
1486664802.357,24.902,28.320,40.039,58.594,113.281,0
1486664802.361,31.738,26.367,36.621,57.129,109.375,0
1486664802.365,43.457,27.344,35.156,51.758,0.977,0
1486664802.368,48.340,27.832,34.668,52.246,21.484,0
1486664802.372,43.457,25.879,37.598,59.570,28.809,0
1486664802.376,24.902,26.367,42.969,73.730,108.887,0
1486664802.380,25.391,28.320,44.434,72.754,128.418,0
1486664802.384,37.109,23.926,41.992,52.734,-7.812,0
1486664802.388,49.316,21.484,45.410,59.082,-26.855,0
1486664802.392,50.293,21.484,43.457,73.242,-21.484,0
1486664802.396,35.156,22.461,36.621,80.078,91.309,0
1486664802.400,36.133,24.902,39.062,77.637,175.781,0
1486664802.404,46.387,25.879,39.551,64.941,37.598,0
1486664802.407,54.688,24.414,38.574,57.617,-12.695,0
1486664802.411,49.316,23.438,42.969,59.082,32.715,0
1486664802.415,35.156,24.902,47.852,71.777,100.098,0
1486664802.419,30.273,24.902,48.340,69.336,171.387,0
1486664802.423,35.156,23.438,43.457,49.316,78.613,0
1486664802.427,41.504,22.949,38.086,43.945,16.113,0
1486664802.431,38.086,25.391,35.645,48.340,45.410,0
1486664802.435,23.438,28.809,38.574,57.617,92.285,0
1486664802.439,19.531,30.273,41.992,62.988,154.297,0
1486664802.443,29.785,31.738,40.039,47.852,65.918,0
1486664802.447,41.504,32.227,35.645,43.945,-23.926,0
1486664802.450,43.457,31.250,40.039,58.105,-9.766,0
1486664802.454,35.156,32.227,42.480,64.453,44.434,0
1486664802.458,31.250,31.738,30.273,65.918,134.277,0
1486664802.462,41.504,27.832,30.273,59.082,85.449,0
1486664802.466,55.664,26.367,35.645,54.688,-9.766,0
1486664802.470,57.129,25.879,34.668,64.453,19.531,0
1486664802.474,43.945,27.344,39.551,75.195,75.195,0
1486664802.478,33.203,26.367,43.457,80.078,148.438,0
1486664802.482,33.203,25.391,38.574,66.895,89.844,0
1486664802.486,41.016,20.996,33.691,53.711,-45.898,0
1486664802.490,43.945,20.508,40.039,62.500,-46.875,0
1486664802.493,33.203,25.391,48.340,69.824,-7.812,0
1486664802.497,21.973,22.461,41.992,66.895,91.797,0
1486664802.501,21.484,20.020,36.133,53.711,84.473,0
1486664802.505,33.691,19.043,42.969,46.387,-46.875,0
1486664802.509,41.992,22.949,41.992,48.340,-34.668,0
1486664802.513,31.738,26.855,39.551,54.688,8.301,0
1486664802.517,18.555,25.391,44.922,69.336,124.023,0
1486664802.521,20.996,26.367,41.992,63.477,141.602,0
1486664802.525,33.203,23.438,35.645,47.852,-13.672,0
1486664802.529,43.945,26.855,36.621,54.199,-41.992,0
1486664802.532,38.086,33.203,41.504,61.523,-23.438,0
1486664802.536,24.902,28.320,34.180,66.895,65.918,0
1486664802.540,23.438,21.973,30.762,57.617,114.258,0
1486664802.544,36.621,21.484,29.785,39.062,-6.836,0
1486664802.548,55.176,23.438,25.879,43.457,-55.176,0
1486664802.552,50.293,23.926,32.227,52.734,-20.020,0
1486664802.556,35.156,25.391,38.574,64.453,49.805,0
1486664802.560,31.738,25.391,34.180,62.012,145.020,0
1486664802.564,40.039,22.461,35.156,44.922,85.938,0
1486664802.568,52.734,21.973,36.133,47.852,11.230,0
1486664802.572,50.781,23.438,36.621,61.035,18.066,0
1486664802.575,32.715,24.414,41.016,73.730,81.543,0
1486664802.579,26.367,22.949,40.039,75.195,158.691,0
1486664802.583,35.156,25.391,35.156,64.941,60.547,0
1486664802.587,47.852,25.879,33.203,64.453,-6.348,0
1486664802.591,52.734,28.809,33.203,69.824,32.227,0
1486664802.595,43.457,33.203,34.668,79.590,46.387,0
1486664802.599,32.227,30.762,34.180,82.031,105.469,0
1486664802.603,37.598,25.879,36.621,69.824,69.824,0
1486664802.607,56.641,25.879,40.039,69.336,-30.762,0
1486664802.611,54.688,29.785,38.086,73.242,6.348,0
1486664802.615,38.086,30.762,39.062,80.566,70.312,0
1486664802.618,28.320,27.832,41.016,84.961,128.906,0
1486664802.622,36.133,24.902,42.969,67.871,65.430,0
1486664802.626,50.293,22.461,39.551,56.152,-35.645,0
1486664802.630,50.781,21.484,35.156,66.895,-37.109,0
1486664802.634,40.039,25.391,40.039,73.730,10.254,0
1486664802.638,33.691,31.250,42.969,70.312,111.816,0
1486664802.642,37.598,27.832,38.086,59.082,92.285,0
1486664802.646,44.922,24.414,36.133,49.316,-20.020,0
1486664802.650,42.480,29.297,38.574,55.664,6.836,0
1486664802.654,31.250,31.250,43.457,65.918,46.387,0
1486664802.657,25.879,32.227,44.922,69.824,132.324,0
1486664802.661,30.762,30.762,36.621,61.035,111.328,0
1486664802.665,51.270,25.879,32.715,56.152,-12.207,0
1486664802.669,62.988,24.414,37.109,64.453,-32.227,0
1486664802.673,54.688,25.879,38.086,71.289,9.766,0
1486664802.677,45.410,27.344,36.133,75.684,82.031,0
1486664802.681,43.945,27.344,36.133,70.312,83.008,0
1486664802.685,55.664,28.320,41.016,55.176,-11.719,0
1486664802.689,60.059,27.832,37.598,55.664,-32.715,0
1486664802.693,53.711,25.391,35.156,69.824,13.184,0
1486664802.697,35.156,27.344,38.574,70.801,102.539,0
1486664802.700,24.414,26.855,38.574,60.059,155.273,0
1486664802.704,37.109,20.508,41.504,55.176,21.973,0
1486664802.708,47.852,22.949,43.457,57.617,-29.785,0
1486664802.712,30.273,23.438,41.016,50.293,29.785,0
1486664802.716,12.207,21.484,40.527,53.711,98.633,0
1486664802.720,21.484,24.902,47.363,60.059,99.121,0
1486664802.724,40.039,24.902,42.480,45.898,4.883,0
1486664802.728,57.129,25.391,34.180,46.875,-32.227,0
1486664802.732,62.012,26.367,34.180,62.500,-20.508,0
1486664802.736,51.270,27.344,41.504,71.289,85.449,0
1486664802.739,40.039,26.367,46.387,67.383,124.023,0
1486664802.743,51.758,24.902,40.039,59.570,6.348,0
1486664802.747,68.359,26.855,39.551,65.918,-52.246,0
1486664802.751,58.594,28.809,45.410,73.242,5.859,0
1486664802.755,38.574,25.879,42.480,77.148,109.375,0
1486664802.759,31.250,26.367,39.062,78.125,164.551,0
1486664802.763,44.434,33.691,37.109,64.941,63.477,0
1486664802.767,56.641,30.273,39.062,58.105,-55.176,0
1486664802.771,53.711,23.926,42.480,63.477,15.137,0
1486664802.775,36.621,30.762,39.551,66.895,64.941,0
1486664802.779,23.438,30.762,40.527,64.453,94.727,0
1486664802.782,34.668,27.832,43.457,56.152,44.922,0
1486664802.786,46.387,28.809,38.086,54.688,-26.367,0
1486664802.790,38.086,27.344,29.785,54.199,28.320,0
1486664802.794,31.250,26.367,33.203,64.941,83.984,0
1486664802.798,16.602,25.879,33.691,63.965,126.465,0
1486664802.802,18.555,25.879,35.156,45.410,110.840,0
1486664802.806,43.457,26.367,38.574,45.898,35.156,0
1486664802.810,44.434,27.832,36.621,49.316,-20.020,0
1486664802.814,28.809,26.367,35.156,55.664,13.184,0
1486664802.818,23.438,27.344,36.133,63.477,137.207,0
1486664802.822,31.738,25.391,34.180,52.246,117.188,0
1486664802.825,51.758,25.879,37.109,49.316,11.719,0
1486664802.829,56.152,32.227,38.574,55.664,-8.301,0
1486664802.833,42.480,24.414,40.039,63.477,0.488,0
1486664802.837,30.762,19.043,45.410,71.289,94.238,0
1486664802.841,31.738,23.926,39.062,60.059,134.766,0
1486664802.845,47.852,21.484,36.133,48.340,20.996,0
1486664802.849,58.105,22.949,42.480,57.129,-12.695,0
1486664802.853,44.922,27.344,41.504,62.012,7.324,0
1486664802.857,29.785,27.832,35.645,67.383,89.844,0
1486664802.861,30.762,24.902,36.133,62.988,125.000,0
1486664802.864,45.410,22.949,36.621,50.781,-12.207,0
1486664802.868,51.758,24.902,36.133,50.781,-37.109,0
1486664802.872,36.621,25.879,40.039,59.082,-8.789,0
1486664802.876,28.809,29.297,42.480,72.266,59.082,0
1486664802.880,26.855,27.832,41.016,69.824,125.488,0
1486664802.884,35.156,20.020,39.551,58.594,18.555,0
1486664802.888,43.457,20.020,41.016,59.082,-47.852,0
1486664802.892,40.527,25.879,43.457,67.871,-2.441,0
1486664802.896,26.367,25.391,46.387,76.660,91.797,0
1486664802.900,18.066,22.949,44.434,71.777,129.883,0
1486664802.904,33.203,25.391,41.992,58.594,19.043,0
1486664802.907,46.875,26.367,41.992,59.570,-38.086,0
1486664802.911,39.551,25.391,44.922,67.871,-8.789,0
1486664802.915,22.949,29.785,41.016,70.801,74.707,0
1486664802.919,18.555,27.832,38.086,67.383,132.324,0
1486664802.923,32.715,22.949,39.551,56.641,4.395,0
1486664802.927,49.316,25.391,35.645,54.688,-62.500,0
1486664802.931,49.805,28.320,29.785,58.594,0.488,0
1486664802.935,36.133,26.855,32.715,61.035,53.223,0
1486664802.939,30.273,24.414,38.086,64.941,102.051,0
1486664802.943,38.086,24.902,34.668,49.805,16.113,0
1486664802.947,52.734,24.414,34.668,48.828,-44.434,0
1486664802.950,60.547,25.391,39.551,65.430,-42.480,0
1486664802.954,45.410,29.297,39.551,69.336,-3.418,0
1486664802.958,29.297,29.785,36.133,62.988,100.586,0
1486664802.962,37.109,28.320,31.250,49.316,62.500,0
1486664802.966,55.664,26.367,32.715,48.340,-20.996,0
1486664802.970,54.688,22.949,39.551,55.664,-14.648,0
1486664802.974,41.016,27.344,45.410,64.941,-8.301,0
1486664802.978,35.645,30.273,44.922,72.266,77.637,2
1486664802.982,41.504,26.367,37.598,62.012,67.871,0
1486664802.986,52.734,20.020,34.180,51.270,-59.570,0
1486664802.989,51.270,18.555,35.156,55.664,-58.594,0
1486664802.993,39.062,20.996,36.621,67.383,1.465,0
1486664802.997,27.344,20.020,35.156,73.730,102.539,0
1486664803.001,29.297,20.508,32.227,60.547,98.145,0
1486664803.005,47.363,20.996,41.016,54.199,-35.645,0
1486664803.009,52.734,20.996,41.504,57.617,-33.203,0
1486664803.013,40.039,23.926,31.738,61.523,19.043,0
1486664803.017,29.297,26.367,33.203,73.242,112.793,0
1486664803.021,27.344,26.855,34.668,57.617,158.691,0
1486664803.025,41.992,28.320,32.715,46.875,37.109,0
1486664803.029,60.059,32.227,36.621,60.547,-25.879,0
1486664803.032,49.316,31.738,39.062,59.082,2.441,0
1486664803.036,25.879,27.344,38.086,56.641,116.699,0
1486664803.040,28.809,27.832,36.621,56.152,134.277,0
1486664803.044,41.992,26.855,31.738,44.434,3.418,0
1486664803.048,51.758,26.855,30.273,42.480,-27.832,0
1486664803.052,46.875,26.367,33.203,52.734,15.137,0
1486664803.056,26.855,25.391,38.574,57.617,82.031,0
1486664803.060,22.461,26.367,40.527,58.594,102.051,0
1486664803.064,38.086,23.926,39.551,56.641,-9.277,0
1486664803.068,49.316,23.438,40.527,58.594,-55.176,0
1486664803.071,41.504,22.949,39.062,68.359,-20.020,0
1486664803.075,24.902,22.949,38.086,74.707,71.777,0
1486664803.079,18.066,26.855,37.598,68.848,145.020,0
1486664803.083,25.391,24.902,37.109,56.152,25.391,0
1486664803.087,37.109,16.602,37.109,52.246,-42.480,0
1486664803.091,35.645,17.578,37.598,58.105,0.000,0
1486664803.095,23.438,24.414,42.480,71.289,84.473,0
1486664803.099,21.484,24.414,41.992,74.707,182.129,0
1486664803.103,33.691,19.531,40.527,63.965,83.008,0
1486664803.107,45.898,20.508,41.992,58.594,-29.785,0
1486664803.111,47.852,25.391,40.527,59.082,-15.625,0
1486664803.114,31.250,24.902,41.016,66.895,30.273,0
1486664803.118,17.578,25.391,36.621,67.871,123.535,0
1486664803.122,26.855,24.902,38.086,49.805,40.039,0
1486664803.126,40.527,25.879,37.598,42.480,-44.434,0
1486664803.130,43.945,24.902,31.250,51.758,-6.348,0
1486664803.134,30.273,23.438,37.109,61.035,35.156,0
1486664803.138,26.855,24.414,44.922,70.801,136.230,0
1486664803.142,38.086,23.926,37.598,63.477,84.473,0
1486664803.146,49.805,24.414,30.273,55.664,-21.484,0
1486664803.150,55.664,26.855,35.156,65.918,-0.488,0
1486664803.154,46.875,26.855,41.992,74.707,32.227,0
1486664803.157,30.762,24.414,40.527,75.195,107.422,0
1486664803.161,30.273,20.996,35.156,66.406,104.980,0
1486664803.165,46.875,26.367,36.621,62.012,7.324,0
1486664803.169,52.246,28.809,40.039,65.918,14.648,0
1486664803.173,37.109,22.461,37.598,69.824,43.945,0
1486664803.177,21.484,20.020,37.598,75.195,144.043,0
1486664803.181,20.996,23.438,38.574,67.383,155.273,0
1486664803.185,38.574,24.414,37.109,58.105,7.812,0
1486664803.189,51.758,24.414,41.016,62.500,2.441,0
1486664803.193,44.434,25.391,43.457,66.406,54.199,0
1486664803.196,32.715,27.344,39.551,66.895,132.812,0
1486664803.200,30.762,27.344,40.527,62.012,146.973,0
1486664803.204,41.016,22.949,43.945,58.105,5.859,0
1486664803.208,57.617,25.391,40.039,56.152,-11.719,0
1486664803.212,50.293,30.762,33.203,57.129,76.660,0
1486664803.216,35.156,28.809,36.133,66.406,141.113,0
1486664803.220,32.227,26.367,34.668,61.035,134.277,0
1486664803.224,42.480,26.855,31.738,48.340,20.020,0
1486664803.228,57.617,26.367,35.645,55.176,0.977,0
1486664803.232,52.734,27.832,38.574,63.477,32.227,0
1486664803.236,32.715,29.785,38.574,68.848,79.590,0
1486664803.239,32.715,27.832,41.504,76.660,114.746,0
1486664803.243,46.387,25.391,39.062,63.965,49.805,0
1486664803.247,58.594,26.855,33.691,59.570,-14.160,0
1486664803.251,61.523,30.273,37.598,75.195,-31.738,0
1486664803.255,41.504,31.738,41.992,73.242,49.805,0
1486664803.259,27.344,25.879,43.457,66.895,109.863,0
1486664803.263,38.086,20.996,41.504,64.453,12.695,0
1486664803.267,52.734,25.391,38.574,60.547,-35.645,0
1486664803.271,51.758,28.809,37.598,65.430,11.719,0
1486664803.275,33.203,29.785,36.133,70.801,45.898,0
1486664803.279,21.973,30.273,34.180,67.383,121.582,0
1486664803.282,34.180,27.832,33.691,56.641,41.504,0
1486664803.286,43.457,26.855,38.574,51.270,-47.852,0
1486664803.290,39.551,27.344,39.551,54.688,-0.488,0
1486664803.294,34.668,26.855,42.969,65.430,33.691,0
1486664803.298,26.855,30.273,44.434,69.824,131.348,0
1486664803.302,29.297,24.902,36.621,55.176,87.402,0
1486664803.306,43.457,20.020,37.109,48.828,-34.180,0
1486664803.310,42.480,21.484,33.691,49.805,-35.156,0
1486664803.314,31.250,20.996,34.668,52.246,20.996,0
1486664803.318,22.461,23.926,42.480,61.523,114.258,0
1486664803.321,28.320,22.461,39.551,57.617,108.887,0
1486664803.325,51.270,21.484,37.109,55.176,0.488,0
1486664803.329,56.641,25.391,38.574,65.430,-26.367,0
1486664803.333,51.758,27.832,46.387,76.172,9.766,0
1486664803.337,45.410,30.273,45.410,77.637,87.402,0
1486664803.341,42.480,29.297,36.133,76.172,76.660,0
1486664803.345,60.547,26.367,33.203,74.707,-51.270,0
1486664803.349,68.359,28.320,34.668,70.801,-40.039,0
1486664803.353,52.246,25.391,41.016,71.777,7.812,0
1486664803.357,36.621,24.902,38.086,76.660,87.891,0
1486664803.361,34.180,25.391,38.086,68.848,91.309,0
1486664803.364,47.363,19.531,41.016,58.105,-45.410,0
1486664803.368,59.082,22.461,33.691,61.523,-25.391,0
1486664803.372,45.898,28.320,30.762,61.523,16.602,0
1486664803.376,29.297,30.762,36.133,68.359,65.430,0
1486664803.380,22.949,28.809,36.133,63.477,122.070,0
1486664803.384,34.180,24.414,36.133,48.828,4.395,0
1486664803.388,49.805,25.391,38.574,52.246,-26.855,0
1486664803.392,41.016,26.367,39.062,58.105,47.363,0
1486664803.396,31.738,28.809,48.340,66.406,86.426,0
1486664803.400,30.762,28.809,52.246,66.406,129.395,0
1486664803.403,41.992,22.949,39.551,53.711,76.172,0
1486664803.407,56.152,21.484,33.691,51.758,-13.184,0
1486664803.411,50.781,23.926,37.598,62.988,-28.809,0
1486664803.415,36.133,24.902,40.039,69.336,91.797,0
1486664803.419,26.367,24.902,36.621,67.383,158.691,0
1486664803.423,42.480,25.879,35.645,59.570,23.926,0
1486664803.427,58.105,28.320,34.668,54.199,-52.246,0
1486664803.431,55.176,28.320,32.227,55.664,0.000,0
1486664803.435,43.945,29.297,40.527,64.941,27.344,0
1486664803.439,30.273,28.809,41.992,64.453,96.680,0
1486664803.443,34.668,23.926,33.691,51.758,57.129,0
1486664803.446,48.340,25.879,34.668,50.293,-53.223,0
1486664803.450,41.504,27.344,37.109,50.781,-19.531,0
1486664803.454,29.297,24.902,37.109,60.547,62.012,0
1486664803.458,21.484,24.414,36.621,67.871,96.191,0
1486664803.462,26.367,23.438,33.203,50.781,38.086,0
1486664803.466,49.316,21.973,34.668,47.852,-35.156,0
1486664803.470,56.152,22.949,44.922,59.082,-30.273,0
1486664803.474,40.039,26.855,44.434,67.383,33.691,0
1486664803.478,29.297,26.855,37.109,71.289,156.250,0
1486664803.482,34.180,27.344,40.527,58.105,101.074,0
1486664803.486,47.363,25.391,41.016,49.805,-48.828,0
1486664803.489,54.199,26.367,38.086,59.082,-49.316,0
1486664803.493,44.434,33.691,41.504,68.848,4.395,0
1486664803.497,32.715,33.203,43.945,70.801,95.215,0
1486664803.501,37.109,25.391,42.969,67.383,104.980,0
1486664803.505,48.340,23.438,41.504,62.500,12.695,0
1486664803.509,52.734,23.438,41.016,64.453,-4.395,0
1486664803.513,45.898,23.926,44.434,77.148,-6.348,0
1486664803.517,31.250,28.809,43.457,84.473,76.172,0
1486664803.521,27.344,30.273,35.645,71.289,110.840,0
1486664803.525,44.434,25.391,32.227,59.570,29.785,0
1486664803.528,50.781,24.902,34.668,58.594,2.441,0
1486664803.532,36.621,25.879,40.039,62.500,48.828,0
1486664803.536,24.414,30.273,39.551,63.965,150.879,0
1486664803.540,20.508,31.250,39.551,54.199,157.715,0
1486664803.544,34.180,25.879,36.133,43.457,47.852,0
1486664803.548,51.758,29.297,34.180,47.363,5.859,0
1486664803.552,46.875,32.715,41.992,57.129,13.184,0
1486664803.556,29.785,29.297,35.645,64.453,91.797,0
1486664803.560,26.855,26.855,27.832,61.035,151.367,0
1486664803.564,38.574,23.926,32.227,48.828,27.832,0
1486664803.568,51.270,26.367,36.621,50.781,-33.203,0
1486664803.571,49.316,26.855,39.062,63.965,-2.930,0
1486664803.575,30.273,25.879,38.086,74.707,41.016,0
1486664803.579,21.484,26.367,35.156,66.895,145.508,0
1486664803.583,38.086,25.391,34.668,55.664,77.637,0
1486664803.587,54.199,26.367,36.133,61.035,-36.133,0
1486664803.591,47.363,27.832,36.133,67.871,-6.836,0
1486664803.595,33.203,27.344,37.109,75.684,59.570,0
1486664803.599,26.855,24.414,36.133,78.613,138.184,0
1486664803.603,30.762,23.926,34.668,62.500,49.805,0
1486664803.607,43.457,26.855,28.320,49.316,-44.434,0
1486664803.611,46.875,28.320,29.297,58.594,19.043,0
1486664803.614,37.598,29.785,37.109,67.871,91.309,0
1486664803.618,29.297,28.809,39.551,63.477,142.578,0
1486664803.622,37.598,23.926,36.133,48.340,50.293,0
1486664803.626,58.594,24.902,33.691,38.574,-31.250,0
1486664803.630,67.383,25.391,31.250,44.922,-0.488,0
1486664803.634,59.082,31.738,38.574,60.059,64.941,0
1486664803.638,45.898,35.156,42.480,65.918,141.602,0
1486664803.642,45.410,25.879,34.668,54.688,77.148,0
1486664803.646,54.688,21.973,36.133,49.805,-28.809,0
1486664803.650,51.270,20.996,41.992,54.688,-19.531,0
1486664803.653,35.645,22.461,43.945,68.359,-4.395,0
1486664803.657,20.996,29.297,39.062,75.684,80.078,0
1486664803.661,28.809,27.832,36.621,67.383,67.383,0
1486664803.665,45.898,26.367,38.574,59.082,-33.203,0
1486664803.669,46.387,27.832,38.574,59.570,-12.695,1
1486664803.673,35.645,26.855,38.574,70.801,14.648,0
1486664803.677,25.879,31.250,42.480,78.125,103.027,0
1486664803.681,25.879,30.273,35.645,69.336,128.906,0
1486664803.685,36.133,24.902,31.738,57.129,15.137,0
1486664803.689,46.387,23.926,38.574,58.594,-34.668,0
1486664803.693,42.480,26.855,41.992,67.383,-9.277,0
1486664803.696,26.367,30.273,35.645,70.312,110.352,0
1486664803.700,20.508,26.855,31.738,58.594,144.531,0
1486664803.704,32.227,24.902,29.297,42.480,-7.812,0
1486664803.708,42.480,26.855,32.715,44.922,-33.691,0
1486664803.712,34.180,28.809,40.039,53.711,46.387,0
1486664803.716,21.973,28.320,44.434,63.477,77.148,0
1486664803.720,23.926,27.344,41.504,61.035,92.285,0
1486664803.724,38.086,25.391,41.504,52.246,12.207,0
1486664803.728,51.270,28.320,42.969,62.988,-33.203,0
1486664803.732,45.410,27.832,41.992,67.383,-16.602,0
1486664803.735,29.297,23.926,40.039,67.383,69.824,0
1486664803.739,32.227,23.926,35.156,71.289,129.395,0
1486664803.743,39.551,23.438,35.156,55.176,-19.531,0
1486664803.747,47.852,22.949,38.086,54.688,-60.059,0
1486664803.751,48.340,24.902,39.551,67.871,-5.371,0
1486664803.755,30.762,22.949,41.016,74.707,61.035,0
1486664803.759,24.414,22.949,44.922,71.777,145.020,0
1486664803.763,35.645,23.926,43.457,56.641,66.895,0
1486664803.767,50.781,21.973,36.133,54.199,-4.395,0
1486664803.771,53.711,24.414,35.645,61.523,-10.742,0
1486664803.775,33.691,28.809,41.992,65.430,47.852,0
1486664803.778,14.648,26.855,36.621,61.035,171.387,0
1486664803.782,24.902,21.973,32.715,45.410,114.258,0
1486664803.786,41.016,19.043,33.691,40.039,20.020,0
1486664803.790,40.039,20.996,37.109,49.805,35.645,0
1486664803.794,27.832,26.855,40.527,55.664,79.102,0
1486664803.798,22.461,24.414,38.574,66.406,161.133,0
1486664803.802,32.227,20.020,36.621,65.430,121.582,0
1486664803.806,52.734,21.973,36.621,61.035,-6.836,0
1486664803.810,62.988,25.879,36.621,71.777,-15.137,0
1486664803.814,49.805,26.855,41.016,84.473,38.574,0
1486664803.818,34.668,24.902,41.016,83.008,133.789,0
1486664803.821,39.062,21.484,36.621,70.801,109.375,0
1486664803.825,60.547,20.508,39.062,67.383,-26.367,0
1486664803.829,66.406,24.902,42.480,69.824,-22.949,0
1486664803.833,51.270,29.297,46.875,72.266,44.434,0
1486664803.837,36.621,23.438,42.480,79.590,140.625,0
1486664803.841,37.109,20.508,36.133,66.895,129.395,0
1486664803.845,53.711,24.902,35.156,53.711,26.367,0
1486664803.849,59.570,28.320,30.273,60.059,8.301,0
1486664803.853,50.293,28.809,32.715,69.824,47.852,0
1486664803.857,38.574,29.785,38.574,73.242,104.980,0
1486664803.860,40.039,33.203,36.621,66.406,105.957,0
1486664803.864,56.641,26.367,33.691,56.152,7.324,0
1486664803.868,62.988,26.855,35.645,57.617,-17.578,0
1486664803.872,47.852,27.344,38.086,67.871,30.273,0
1486664803.876,35.156,24.902,36.133,74.707,96.680,0
1486664803.880,31.250,22.949,36.133,68.359,102.051,0
1486664803.884,39.551,21.484,39.062,54.688,-6.348,0
1486664803.888,51.758,23.438,37.109,58.105,-30.273,0
1486664803.892,49.316,23.438,41.504,63.477,2.441,0
1486664803.896,36.133,26.855,45.410,75.684,100.586,0
1486664803.900,25.879,28.320,39.551,77.148,129.395,0
1486664803.903,39.551,25.879,38.574,58.594,1.465,0
1486664803.907,60.059,27.832,38.086,58.105,-46.875,0
1486664803.911,55.176,25.391,35.645,59.570,-12.207,0
1486664803.915,43.457,27.344,39.551,70.312,56.641,0
1486664803.919,42.969,31.738,43.945,79.102,112.793,0
1486664803.923,46.875,26.367,44.434,58.105,43.945,0
1486664803.927,60.059,24.902,39.062,50.781,-18.555,0
1486664803.931,58.594,28.320,35.645,62.012,14.648,0
1486664803.935,35.156,29.297,41.504,70.801,66.895,0
1486664803.939,25.391,29.785,43.457,72.266,103.027,0
1486664803.943,38.574,30.762,41.504,62.988,66.406,0
1486664803.946,59.082,32.227,42.969,65.430,0.977,0
1486664803.950,55.664,34.180,42.969,65.430,-2.930,0
1486664803.954,36.133,28.320,38.086,68.359,55.664,0
1486664803.958,24.902,27.344,38.086,74.707,140.625,0
1486664803.962,28.320,26.367,36.621,55.664,95.703,0
1486664803.966,46.387,24.902,34.180,50.293,-14.160,0
1486664803.970,57.129,27.832,39.062,67.871,-22.461,0
1486664803.974,36.133,28.809,41.992,76.172,16.602,0
1486664803.978,22.461,27.832,40.039,80.566,121.582,0
1486664803.982,31.250,26.367,41.016,66.406,77.637,0
1486664803.985,43.457,24.902,40.039,57.617,-18.555,0
1486664803.989,46.387,23.438,35.645,62.500,30.762,0
1486664803.993,31.738,24.902,37.598,64.941,36.621,0
1486664803.997,21.484,26.855,42.969,70.801,96.191,0
1486664804.001,21.973,22.949,39.551,59.570,101.074,0
1486664804.005,31.738,17.090,38.086,45.410,-19.531,0
1486664804.009,40.527,16.602,36.133,51.758,-39.062,0
1486664804.013,26.855,20.508,37.109,58.594,22.461,0
1486664804.017,16.113,24.414,41.016,64.941,119.629,0
1486664804.021,25.391,25.879,34.668,62.012,133.301,0
1486664804.025,44.434,25.391,30.762,47.852,22.461,0
1486664804.028,57.129,23.438,36.133,54.199,-26.855,0
1486664804.032,45.898,28.809,37.109,67.383,-32.227,0
1486664804.036,30.762,30.762,39.062,73.730,53.711,0
1486664804.040,36.621,27.832,43.945,71.777,117.188,0
1486664804.044,47.852,32.715,41.992,54.199,16.113,0
1486664804.048,54.199,30.273,38.574,54.199,-27.832,0
1486664804.052,46.387,25.879,35.156,67.383,19.043,0
1486664804.056,29.297,24.902,36.621,67.871,77.148,0
1486664804.060,21.973,20.996,39.062,56.152,128.418,0
1486664804.064,30.273,20.020,36.133,45.898,26.855,0
1486664804.068,42.969,20.996,33.691,51.758,-24.902,0
1486664804.071,37.598,25.879,39.062,62.012,30.273,0
1486664804.075,20.996,27.344,43.457,70.801,86.914,0
1486664804.079,22.949,26.367,40.527,74.707,132.812,0
1486664804.083,38.086,26.855,43.457,65.430,25.879,0
1486664804.087,50.781,22.461,43.945,65.430,-36.621,0
1486664804.091,54.688,25.391,36.621,73.242,-37.109,0
1486664804.095,39.551,31.250,37.598,78.125,23.926,0
1486664804.099,29.785,29.297,37.109,74.707,154.785,0
1486664804.103,39.062,28.320,37.109,63.477,69.336,0
1486664804.107,52.246,23.926,38.086,55.664,-44.922,0
1486664804.110,55.664,23.926,40.527,61.523,-12.207,0
1486664804.114,43.945,28.809,42.480,70.312,46.875,0
1486664804.118,31.738,26.855,37.598,69.824,125.000,0
1486664804.122,38.086,23.438,32.715,58.594,61.523,0
1486664804.126,57.617,26.855,33.203,56.152,-29.785,0
1486664804.130,56.152,30.762,36.133,62.988,-16.602,0
1486664804.134,40.039,30.762,39.062,61.523,35.156,0
1486664804.138,27.344,30.273,40.039,55.664,147.461,0
1486664804.142,29.785,25.879,36.621,46.387,114.746,0
1486664804.146,52.734,31.250,30.762,42.969,-10.254,0
1486664804.150,56.641,31.738,30.762,48.340,13.184,0
1486664804.153,35.156,24.414,32.715,55.176,82.520,0
1486664804.157,17.578,24.414,33.691,61.035,175.293,0
1486664804.161,19.531,24.902,33.203,53.223,138.672,0
1486664804.165,35.645,23.926,31.738,43.945,11.719,0
1486664804.169,42.969,23.438,38.574,48.340,40.039,0
1486664804.173,33.691,27.344,41.504,56.641,86.426,0
1486664804.177,20.508,27.832,33.691,57.617,125.000,0
1486664804.181,21.973,25.391,31.250,49.316,132.324,0
1486664804.185,37.598,21.484,34.668,43.457,38.086,0
1486664804.189,47.852,21.484,35.645,49.805,8.301,0
1486664804.192,43.457,28.320,39.062,62.012,52.246,0
1486664804.196,26.367,29.785,43.945,70.312,112.793,0
1486664804.200,23.926,23.926,43.457,67.871,123.047,0
1486664804.204,42.969,20.020,41.504,61.523,-1.465,0
1486664804.208,52.734,23.438,37.109,55.664,-57.129,0
1486664804.212,42.480,27.832,32.715,59.082,-21.484,0
1486664804.216,27.832,29.785,36.621,69.824,93.750,0
1486664804.220,20.996,25.391,41.016,66.406,116.211,0
1486664804.224,31.738,24.414,41.016,51.270,-17.578,0
1486664804.228,50.781,30.762,41.504,55.664,-15.625,0
1486664804.232,50.781,34.668,43.457,64.941,14.160,0
1486664804.235,27.832,31.738,41.016,63.965,62.012,0
1486664804.239,21.973,25.391,38.574,58.594,139.648,0
1486664804.243,43.945,27.832,36.621,54.688,23.438,0
1486664804.247,57.617,27.344,33.691,55.664,-73.730,0
1486664804.251,52.246,23.926,36.621,61.523,-15.137,1
1486664804.255,37.598,28.320,40.039,64.941,54.688,0
1486664804.259,31.250,30.273,38.574,65.430,101.074,0
1486664804.263,48.828,29.785,40.527,59.570,4.883,0
1486664804.267,61.523,32.227,41.992,57.617,-70.801,0
1486664804.271,52.246,32.715,36.621,59.570,-25.879,0
1486664804.275,41.992,29.785,37.598,68.359,53.711,0
1486664804.278,33.691,29.297,41.016,63.477,141.113,0
1486664804.282,34.180,25.879,35.645,46.875,57.617,0
1486664804.286,46.875,24.902,36.621,45.410,-6.348,0
1486664804.290,44.922,24.902,39.062,47.852,15.137,0
1486664804.294,29.297,28.809,42.969,58.105,40.527,0
1486664804.298,18.066,30.273,45.898,59.570,130.371,0
1486664804.302,20.020,23.438,39.551,46.387,69.336,0
1486664804.306,35.645,19.531,35.156,44.434,-39.551,0
1486664804.310,40.527,20.508,35.156,49.805,-11.719,0
1486664804.314,29.785,23.926,39.551,65.430,59.570,0
1486664804.317,17.578,23.438,43.945,76.172,145.508,0
1486664804.321,19.531,20.020,41.992,60.059,118.164,0
1486664804.325,42.480,19.531,39.551,53.711,-0.488,0
1486664804.329,51.758,24.414,37.109,60.547,-1.953,0
1486664804.333,38.574,26.367,36.621,62.500,38.086,0
1486664804.337,26.855,23.438,41.016,66.406,113.770,0
1486664804.341,30.273,25.391,37.109,57.129,99.121,0
1486664804.345,47.852,25.391,33.691,49.316,-23.926,0
1486664804.349,50.781,20.996,35.156,51.758,-9.766,0
1486664804.353,38.574,22.949,39.062,58.594,35.156,0
1486664804.357,24.414,25.391,44.434,66.895,108.887,0
1486664804.360,27.344,27.832,45.410,58.105,97.656,0
1486664804.364,40.039,26.855,36.621,44.434,-0.488,0
1486664804.368,38.574,18.066,26.855,39.062,-0.488,0
1486664804.372,30.762,22.461,29.297,48.828,2.930,0
1486664804.376,17.090,24.902,37.109,58.105,57.617,0
1486664804.380,12.207,19.531,32.227,46.875,104.980,0
1486664804.384,27.832,21.484,28.809,37.109,26.855,0
1486664804.388,38.086,21.484,35.156,42.480,1.465,0
1486664804.392,33.691,22.949,33.691,50.781,15.625,0
1486664804.396,22.949,26.367,33.203,62.012,90.820,0
1486664804.400,20.508,29.297,35.645,58.105,128.906,0
1486664804.403,35.156,29.785,37.598,45.898,4.883,0
1486664804.407,50.293,32.227,38.086,53.711,-45.898,0
1486664804.411,48.340,30.762,34.668,62.500,-19.531,0
1486664804.415,30.762,26.855,33.691,65.918,43.457,0
1486664804.419,25.391,28.809,35.156,63.477,94.238,0
1486664804.423,41.504,28.320,37.598,56.641,28.809,0
1486664804.427,59.570,26.855,43.945,60.547,-23.438,0
1486664804.431,56.641,30.273,46.875,65.918,-38.086,0
1486664804.435,42.480,30.273,42.969,74.219,16.113,0
1486664804.439,32.227,30.762,39.062,75.195,131.836,0
1486664804.442,35.156,28.320,40.527,55.664,38.574,0
1486664804.446,55.176,23.438,38.086,57.617,-34.668,0
1486664804.450,60.547,30.762,36.133,66.895,8.301,0
1486664804.454,41.016,35.645,36.133,69.336,46.875,0
1486664804.458,23.926,27.344,38.574,65.430,148.926,0
1486664804.462,34.668,28.320,40.039,51.758,109.375,0
1486664804.466,54.199,30.762,40.527,44.922,5.859,0
1486664804.470,54.688,29.785,40.527,51.270,-0.488,0
1486664804.474,37.109,30.762,35.645,54.688,56.152,0
1486664804.478,20.996,31.738,31.250,52.734,181.641,0
1486664804.482,29.297,30.762,36.621,48.828,125.977,0
1486664804.485,49.316,29.297,43.457,48.828,-28.320,0
1486664804.489,49.805,36.133,41.504,52.734,-10.254,0
1486664804.493,36.133,35.645,38.086,62.500,51.758,0
1486664804.497,25.391,27.832,36.133,69.336,130.859,0
1486664804.501,27.832,27.832,35.156,63.477,132.324,0
1486664804.505,43.457,26.855,39.062,58.594,46.387,0
1486664804.509,51.270,26.855,42.969,57.617,26.855,0
1486664804.513,43.457,30.762,50.293,66.406,44.434,0
1486664804.517,29.785,30.762,50.293,73.242,114.258,0
1486664804.521,27.344,29.785,43.945,65.430,149.902,0
1486664804.524,41.992,31.738,43.945,53.711,41.016,0
1486664804.528,49.316,32.227,38.574,57.129,-9.277,0
1486664804.532,32.715,26.855,35.645,63.477,19.531,0
1486664804.536,16.602,27.832,38.086,69.336,106.445,0
1486664804.540,20.996,28.809,41.016,63.477,145.508,0
1486664804.544,36.133,24.902,36.621,45.898,20.996,0
1486664804.548,44.434,25.879,36.621,44.922,-24.902,0
1486664804.552,37.109,26.367,44.434,50.293,19.531,0
1486664804.556,19.043,26.367,39.551,54.688,98.145,0
1486664804.560,15.625,23.438,34.668,54.688,140.137,0
1486664804.564,36.133,22.461,40.039,48.828,84.473,0
1486664804.567,46.387,21.973,43.457,47.852,19.531,0
1486664804.571,42.480,21.973,45.898,56.641,46.387,0
1486664804.575,30.273,25.391,41.992,57.617,111.328,0
1486664804.579,27.344,28.809,39.551,51.270,150.879,0
1486664804.583,44.434,27.832,40.039,43.945,103.516,0
1486664804.587,62.012,23.926,33.203,40.527,45.898,0
1486664804.591,60.547,25.879,33.203,51.758,31.738,0
1486664804.595,41.016,28.320,34.668,64.453,90.820,0
1486664804.599,35.645,29.297,37.109,75.684,155.273,0
1486664804.603,38.086,27.344,38.086,66.406,65.430,0
1486664804.607,46.875,23.438,37.109,57.617,4.883,0
1486664804.610,45.898,23.926,43.945,63.965,-1.953,0
1486664804.614,26.367,28.809,46.387,71.777,31.250,0
1486664804.618,18.555,29.297,37.109,73.242,125.000,0
1486664804.622,31.250,24.414,31.250,62.012,47.852,0
1486664804.626,47.363,27.344,34.668,59.082,-31.250,0
1486664804.630,46.875,26.855,37.109,64.453,17.578,0
1486664804.634,34.668,25.879,44.434,74.707,58.594,0
1486664804.638,19.531,26.367,48.828,74.219,128.906,0
1486664804.642,20.508,23.438,39.551,55.664,83.008,0
1486664804.646,36.133,23.926,33.203,47.363,-16.113,0
1486664804.649,38.574,22.949,34.668,53.223,-18.066,0
1486664804.653,24.414,20.996,38.086,60.059,33.203,0
1486664804.657,13.672,20.996,41.016,62.988,113.770,0
1486664804.661,23.438,20.020,44.434,60.059,122.559,0
1486664804.665,44.434,20.508,46.387,57.129,-14.648,0
1486664804.669,52.246,21.484,46.387,62.500,-35.645,0
1486664804.673,46.875,27.344,39.551,69.336,18.066,0
1486664804.677,25.879,30.762,28.809,65.430,103.027,0
1486664804.681,18.066,21.484,25.879,54.688,124.023,0
1486664804.685,32.227,17.090,26.367,43.945,22.461,0
1486664804.689,40.039,22.461,28.809,42.480,-5.371,0
1486664804.692,30.762,25.391,39.062,50.781,10.254,0
1486664804.696,18.555,27.832,39.062,62.500,78.125,0
1486664804.700,24.414,31.738,36.133,56.641,124.512,0
1486664804.704,41.016,31.250,32.715,46.875,30.762,0
1486664804.708,54.688,31.250,30.273,54.199,-23.926,0
1486664804.712,48.828,31.250,34.668,61.035,-13.672,0
1486664804.716,36.133,36.133,35.156,71.777,89.355,0
1486664804.720,33.203,39.551,32.227,65.430,128.418,0
1486664804.724,45.898,30.762,33.691,47.363,1.465,0
1486664804.728,57.129,28.809,39.551,51.758,-28.809,0
1486664804.732,42.480,33.203,32.227,57.129,24.414,0
1486664804.735,27.832,34.180,30.273,66.895,72.754,0
1486664804.739,25.879,30.762,35.645,65.430,128.418,0
1486664804.743,41.016,29.297,36.621,55.176,71.289,0
1486664804.747,59.082,30.273,36.621,59.570,-9.277,0
1486664804.751,58.594,33.203,42.480,68.359,-9.766,0
1486664804.755,43.945,37.598,53.223,81.543,55.176,0
1486664804.759,35.156,34.180,47.852,78.613,125.977,0
1486664804.763,43.945,27.344,32.227,59.082,46.387,0
1486664804.767,53.711,25.391,30.273,54.199,-4.883,0
1486664804.771,52.246,26.367,39.551,61.035,2.930,0
1486664804.774,38.574,24.902,44.922,76.660,33.203,0
1486664804.778,30.273,23.438,42.969,83.496,109.375,0
1486664804.782,37.109,24.902,36.621,60.547,44.434,0
1486664804.786,53.711,27.832,40.039,46.875,-27.832,0
1486664804.790,53.711,28.320,41.016,55.176,-7.812,0
1486664804.794,35.645,31.250,33.203,65.918,52.734,0
1486664804.798,27.832,29.297,30.273,63.477,143.066,0
1486664804.802,39.551,22.461,25.879,51.270,73.242,0
1486664804.806,58.105,23.926,28.320,49.316,-33.691,0
1486664804.810,63.965,29.297,35.156,54.199,-54.688,0
1486664804.814,47.852,33.203,38.086,64.941,-20.020,0
1486664804.817,28.320,33.203,40.527,71.289,83.008,0
1486664804.821,28.320,32.715,34.180,52.246,61.523,0
1486664804.825,42.969,28.320,26.367,39.062,-25.879,0
1486664804.829,55.176,29.785,33.203,54.688,-17.578,0
1486664804.833,41.992,34.668,38.086,65.430,7.324,0
1486664804.837,24.414,30.762,42.480,69.336,112.793,0
1486664804.841,32.227,27.832,44.434,63.477,106.445,0
1486664804.845,54.688,30.273,39.551,61.035,-10.254,0
1486664804.849,64.941,29.785,42.969,68.848,-30.762,0
1486664804.853,56.152,32.227,46.387,75.195,6.348,0
1486664804.856,42.480,36.621,42.969,78.125,79.590,0
1486664804.860,44.922,32.715,39.062,71.777,89.844,0
1486664804.864,60.059,30.273,34.668,65.430,-20.508,0
1486664804.868,66.406,30.273,36.621,64.453,-54.199,0
1486664804.872,60.059,34.180,46.387,71.777,10.742,0
1486664804.876,42.969,36.133,43.945,82.520,80.566,0
1486664804.880,41.504,30.762,37.598,82.520,118.164,0
1486664804.884,55.176,28.809,36.133,69.824,45.898,0
1486664804.888,64.941,29.785,36.133,67.871,-7.812,0
1486664804.892,58.105,28.809,40.527,73.242,1.465,0
1486664804.896,41.992,29.785,40.039,74.707,76.172,0
1486664804.899,36.133,32.227,38.574,69.824,152.344,0
1486664804.903,49.805,31.250,44.922,56.152,62.500,0
1486664804.907,62.500,30.762,43.945,52.734,-9.277,0
1486664804.911,50.781,33.203,37.109,56.641,40.039,0
1486664804.915,27.344,31.738,33.203,58.105,103.027,0
1486664804.919,17.578,25.391,38.086,56.152,151.855,0
1486664804.923,31.250,20.996,37.109,44.922,48.828,0
1486664804.927,43.945,21.484,30.762,47.852,-33.691,0
1486664804.931,38.086,23.926,39.062,59.082,-0.977,0
1486664804.935,22.949,26.855,44.434,62.012,57.617,2
1486664804.939,15.625,27.832,40.039,62.500,104.980,0
1486664804.942,25.879,26.367,39.062,48.828,7.812,0
1486664804.946,45.410,27.832,41.992,49.316,-66.406,0
1486664804.950,47.852,29.297,34.180,62.988,-24.414,0
1486664804.954,29.785,26.367,28.320,63.965,2.930,0
1486664804.958,18.555,26.367,35.645,66.406,95.703,0
1486664804.962,31.738,26.855,41.992,58.105,62.012,0
1486664804.966,45.410,24.902,34.180,52.734,-9.766,0
1486664804.970,45.898,25.391,35.156,58.594,12.695,0
1486664804.974,33.691,28.320,42.969,60.547,28.809,0
1486664804.978,20.020,30.762,40.039,60.059,122.070,0
1486664804.981,27.344,28.809,32.227,49.316,109.863,0
1486664804.985,43.457,25.879,31.738,45.410,-24.414,0
1486664804.989,51.270,27.832,40.039,56.641,-26.367,0
1486664804.993,45.898,33.203,39.062,68.848,27.344,0
1486664804.997,30.762,36.133,33.691,72.266,86.426,0
1486664805.001,31.738,27.832,34.180,57.129,70.312,0
1486664805.005,47.363,22.949,37.598,47.363,-37.598,0
1486664805.009,51.758,28.320,43.945,49.805,-46.875,0
1486664805.013,39.551,29.297,42.969,56.152,8.301,0
1486664805.017,32.715,28.320,41.504,68.848,101.562,0
1486664805.021,31.250,25.879,39.551,56.641,114.258,0
1486664805.024,45.410,28.320,35.645,42.480,3.906,0
1486664805.028,57.129,32.715,38.574,53.223,-22.461,0
1486664805.032,43.457,34.668,42.969,60.059,46.875,0
1486664805.036,28.320,34.180,43.457,66.895,104.492,0
1486664805.040,26.855,26.367,42.480,63.965,107.422,0
1486664805.044,43.945,22.949,46.875,54.199,9.766,0
1486664805.048,53.711,23.926,39.551,56.152,-8.789,0
1486664805.052,39.062,25.879,29.785,57.129,10.742,0
1486664805.056,26.367,31.738,39.062,66.406,83.496,0
1486664805.060,19.531,33.203,38.574,62.012,144.043,0
1486664805.064,28.320,26.367,29.785,42.969,16.602,0
1486664805.067,43.945,22.949,36.621,48.828,-50.781,0
1486664805.071,38.086,25.879,37.109,55.664,-2.930,0
1486664805.075,28.320,30.273,40.039,62.012,79.590,0
1486664805.079,30.273,29.297,44.922,62.012,138.184,0
1486664805.083,39.551,24.414,36.133,44.922,30.762,0
1486664805.087,57.129,23.438,30.762,44.922,-25.879,0
1486664805.091,51.270,26.367,31.738,48.828,-8.301,0
1486664805.095,34.180,29.785,35.156,54.199,60.547,0
1486664805.099,30.273,34.180,40.527,61.035,126.953,0
1486664805.103,39.551,33.203,46.875,49.316,-5.371,0
1486664805.106,56.152,25.879,43.945,46.387,-41.504,0
1486664805.110,53.711,28.809,35.156,54.688,27.344,0
1486664805.114,36.133,32.227,37.598,66.895,74.707,0
1486664805.118,29.297,28.809,40.039,71.289,156.250,0
1486664805.122,38.086,27.832,39.062,58.594,75.195,0
1486664805.126,48.828,30.762,43.945,54.688,5.859,0
1486664805.130,49.805,26.855,46.875,60.547,5.371,0
1486664805.134,26.367,23.438,38.086,58.594,52.734,0
1486664805.138,2.930,24.902,37.598,58.105,161.621,0
1486664805.142,13.184,26.367,42.969,53.711,81.055,0
1486664805.146,30.273,25.879,38.574,41.992,-21.484,0
1486664805.149,36.621,27.832,36.133,45.898,11.719,0
1486664805.153,29.297,31.250,39.551,57.617,20.020,0
1486664805.157,19.531,34.180,49.316,63.477,69.336,0
1486664805.161,32.227,32.715,45.898,55.664,77.148,0
1486664805.165,50.781,27.832,31.738,45.898,11.719,0
1486664805.169,54.199,27.344,35.645,54.199,17.090,0
1486664805.173,45.410,28.320,39.551,63.477,25.391,0
1486664805.177,34.668,34.180,42.969,71.777,129.883,0
1486664805.181,31.738,31.250,41.504,60.059,143.555,0
1486664805.185,46.875,27.832,30.762,48.828,5.371,0
1486664805.188,57.129,30.762,33.203,58.594,1.465,0
1486664805.192,40.527,30.273,41.992,62.988,3.906,0
1486664805.196,23.926,28.809,41.504,67.383,95.703,0
1486664805.200,23.438,28.320,37.109,56.152,141.113,0
1486664805.204,39.551,29.785,35.645,45.410,-18.555,0
1486664805.208,46.387,31.738,36.621,47.363,-65.918,0
1486664805.212,33.203,29.297,39.062,60.059,28.809,0
1486664805.216,21.973,26.855,41.992,66.406,104.004,0
1486664805.220,17.578,25.879,42.480,51.270,112.305,0
1486664805.224,32.227,27.344,36.133,51.270,-7.324,0
1486664805.228,47.363,26.855,32.715,55.664,-52.246,0
1486664805.231,34.180,24.902,32.227,53.711,-2.441,0
1486664805.235,14.648,25.391,34.668,57.129,84.473,0
1486664805.239,13.184,25.391,40.039,57.617,151.367,0
1486664805.243,25.879,21.484,37.109,45.898,50.781,0
1486664805.247,37.598,21.484,36.133,46.387,3.906,0
1486664805.251,36.133,25.391,41.992,59.082,39.551,0
1486664805.255,21.484,26.367,44.434,67.871,105.957,0
1486664805.259,13.184,23.438,46.387,69.336,143.555,0
1486664805.263,28.320,20.996,42.480,58.594,11.719,0
1486664805.267,47.363,20.996,37.598,54.199,-78.125,0
1486664805.271,48.340,24.414,45.898,66.406,-24.414,0
1486664805.274,31.738,28.320,47.363,69.336,58.594,0
1486664805.278,22.461,26.855,42.969,58.594,140.625,0
1486664805.282,35.156,27.344,44.434,49.316,54.688,0
1486664805.286,49.316,25.391,40.527,44.922,-53.711,0
1486664805.290,48.340,24.902,34.180,49.805,-34.180,0
1486664805.294,38.086,29.297,39.062,60.059,18.555,0
1486664805.298,31.250,28.809,45.898,64.453,83.496,0
1486664805.302,34.180,25.391,40.039,51.270,53.223,0
1486664805.306,47.363,27.832,31.738,43.457,-23.926,0
1486664805.310,50.293,26.855,32.227,47.363,-22.461,0
1486664805.313,38.086,26.367,29.785,56.152,40.039,0
1486664805.317,29.785,28.809,30.762,59.082,121.582,0
1486664805.321,38.086,26.855,32.227,57.129,75.195,0
1486664805.325,61.035,25.879,33.203,62.988,-15.137,0
1486664805.329,65.918,27.344,37.598,70.312,0.488,0
1486664805.333,52.246,30.762,48.828,78.125,60.547,0
1486664805.337,37.109,29.785,50.293,86.914,144.531,0
1486664805.341,30.762,26.367,39.062,72.266,123.535,0
1486664805.345,43.945,23.926,38.086,61.035,9.766,0
1486664805.349,54.688,20.508,39.551,69.336,2.441,0
1486664805.353,34.668,21.973,40.039,68.848,62.012,0
1486664805.356,15.625,21.973,43.945,71.289,141.602,0
1486664805.360,18.066,21.973,44.922,63.965,149.902,0
1486664805.364,24.414,22.949,41.992,44.922,46.387,0
1486664805.368,35.156,20.020,40.039,49.316,0.977,0
1486664805.372,29.297,20.996,41.992,57.617,19.043,0
1486664805.376,8.789,24.414,44.922,59.082,132.324,0
1486664805.380,11.230,24.902,41.992,56.641,142.090,0
1486664805.384,30.762,23.926,40.527,48.340,15.625,0
1486664805.388,44.434,23.438,41.016,53.711,10.254,0
1486664805.392,40.039,25.391,39.551,61.035,29.297,0
1486664805.396,28.320,27.832,41.992,65.430,100.098,0
1486664805.399,29.297,30.273,44.434,62.012,155.762,0
1486664805.403,41.016,26.855,37.109,45.410,34.180,0
1486664805.407,54.199,26.367,33.203,44.922,-22.949,0
1486664805.411,54.199,27.344,38.574,53.223,21.484,0
1486664805.415,37.109,29.785,46.387,53.711,86.914,0
1486664805.419,29.785,33.691,44.922,50.293,163.574,0
1486664805.423,42.969,33.203,32.715,38.574,50.781,0
1486664805.427,52.734,29.785,28.320,37.598,-23.438,0
1486664805.431,41.992,27.832,35.645,50.293,25.391,0
1486664805.435,24.902,31.250,43.457,66.895,122.559,0
1486664805.438,17.578,32.715,47.363,74.219,187.988,0
1486664805.442,23.926,27.832,41.016,56.641,86.914,0
1486664805.446,39.062,23.926,27.832,50.781,8.789,0
1486664805.450,45.898,26.855,32.227,65.430,12.207,0
1486664805.454,30.273,28.809,40.039,72.754,65.430,0
1486664805.458,20.020,32.715,40.527,69.824,145.020,0
1486664805.462,32.715,33.691,40.039,56.152,78.125,0
1486664805.466,52.246,30.273,39.551,51.758,-19.043,0
1486664805.470,58.105,31.250,33.691,62.988,-21.973,0
1486664805.474,46.387,34.180,38.086,68.848,49.805,0
1486664805.478,32.715,35.156,39.551,69.824,133.789,0
1486664805.481,42.480,33.203,29.785,59.570,85.449,0
1486664805.485,61.523,34.668,31.250,53.711,-6.348,0
1486664805.489,63.965,38.574,34.668,61.035,-16.113,0
1486664805.493,43.945,31.250,33.691,62.012,36.621,0
1486664805.497,30.273,32.227,34.668,66.895,98.633,0
1486664805.501,35.156,35.156,35.156,60.059,65.430,0
1486664805.505,48.828,31.250,32.227,50.781,-30.273,0
1486664805.509,58.105,33.691,30.762,58.105,-24.414,0
1486664805.513,47.363,35.156,35.156,64.453,1.953,0
1486664805.517,32.715,30.273,37.109,66.406,100.098,0
1486664805.520,34.180,26.367,32.227,58.594,126.465,0
1486664805.524,56.641,27.832,30.762,51.270,8.789,0
1486664805.528,69.336,30.273,30.273,53.711,-30.762,0
1486664805.532,56.152,25.391,32.715,59.082,2.930,0
1486664805.536,46.875,21.973,39.551,73.730,121.582,0
1486664805.540,53.711,26.367,36.621,72.266,136.230,0
1486664805.544,64.941,25.391,32.715,57.129,-1.465,0
1486664805.548,65.918,21.973,31.250,59.570,-6.348,0
1486664805.552,50.781,23.926,32.227,64.941,39.062,0
1486664805.556,31.738,27.832,38.086,66.406,44.434,0
1486664805.560,21.973,26.855,39.551,61.523,76.172,0
1486664805.563,37.109,24.414,43.457,55.664,17.090,0
1486664805.567,55.664,28.809,42.969,62.500,-10.254,0
1486664805.571,47.363,33.203,42.969,63.477,16.602,0
1486664805.575,31.738,30.273,43.457,74.219,92.773,0
1486664805.579,29.785,29.297,36.133,72.754,145.020,0
1486664805.583,40.527,32.715,32.715,56.152,39.551,0
1486664805.587,56.152,30.762,32.715,63.477,-18.555,1
1486664805.591,53.223,29.297,41.992,73.242,-20.996,0
1486664805.595,33.203,30.762,45.898,78.613,24.414,0
1486664805.599,30.273,29.785,39.551,79.590,83.008,0
1486664805.603,37.109,31.250,44.434,66.406,3.418,0
1486664805.606,46.387,27.832,45.898,62.012,-38.086,0
1486664805.610,50.293,27.832,42.480,70.312,-17.578,0
1486664805.614,29.297,30.273,39.062,71.777,24.902,0
1486664805.618,14.160,24.414,36.621,68.359,117.188,0
1486664805.622,22.949,26.367,36.133,55.664,74.219,0
1486664805.626,41.016,27.344,35.156,48.828,-25.391,0
1486664805.630,49.805,28.320,37.598,58.594,12.695,0
1486664805.634,35.156,34.180,40.039,66.406,64.453,0
1486664805.638,29.297,36.133,40.527,72.754,122.559,0
1486664805.642,44.922,34.668,38.086,64.941,97.168,0
1486664805.645,54.199,25.879,35.645,50.781,-11.230,0
1486664805.649,54.199,25.879,36.621,56.152,-7.324,0
1486664805.653,39.062,29.785,35.156,69.824,45.410,0
1486664805.657,20.508,29.785,37.109,73.730,134.277,0
1486664805.661,26.367,29.297,40.039,63.965,111.328,0
1486664805.665,48.828,32.227,41.504,59.082,22.949,0
1486664805.669,58.594,37.109,37.598,65.918,7.812,0
1486664805.673,50.293,33.691,34.668,69.336,29.785,0
1486664805.677,39.551,36.133,41.016,76.172,112.305,0
1486664805.681,42.480,37.109,41.504,68.359,103.516,0
1486664805.685,54.688,31.738,31.250,53.711,7.324,0
1486664805.688,61.523,32.227,28.809,57.617,-11.719,0
1486664805.692,53.711,37.109,37.598,66.895,12.207,0
1486664805.696,34.180,35.645,43.457,74.219,107.422,0
1486664805.700,23.926,28.320,38.086,65.918,89.844,0
1486664805.704,36.621,29.297,39.551,54.688,-27.832,0
1486664805.708,43.457,28.809,46.387,55.664,16.602,0
1486664805.712,29.785,27.344,47.363,60.059,43.457,0
1486664805.716,9.766,29.297,41.992,67.383,107.422,0
1486664805.720,12.695,28.320,43.457,65.430,124.512,0
1486664805.724,36.621,29.297,50.781,60.547,11.719,0
1486664805.728,49.805,25.391,39.551,62.012,27.832,0
1486664805.731,45.898,23.926,34.668,65.430,45.898,0
1486664805.735,27.832,26.855,44.434,73.242,79.102,0
1486664805.739,18.555,25.879,47.363,64.941,150.391,0
1486664805.743,41.016,27.832,46.387,59.082,70.312,0
1486664805.747,56.152,27.832,41.992,59.570,-0.488,0
1486664805.751,49.316,24.902,39.551,65.430,16.113,0
1486664805.755,34.668,29.785,43.945,80.078,78.613,0
1486664805.759,27.344,27.344,41.504,74.219,133.789,0
1486664805.763,43.457,26.855,33.203,60.059,32.715,0
1486664805.767,57.129,28.320,31.250,61.035,-0.488,0
1486664805.770,46.875,23.438,36.621,62.988,35.156,0
1486664805.774,29.297,22.461,44.922,69.336,65.918,0
1486664805.778,20.996,25.879,47.363,68.848,140.625,0
1486664805.782,29.785,27.832,43.945,47.852,65.430,0
1486664805.786,45.410,23.926,35.645,41.504,-7.812,0
1486664805.790,40.527,23.926,31.250,47.363,65.430,0
1486664805.794,24.414,30.762,31.738,50.293,98.633,0
1486664805.798,20.508,34.180,34.668,52.246,139.160,0
1486664805.802,34.668,33.691,32.227,45.410,103.516,0
1486664805.806,49.316,34.668,28.320,42.480,6.348,0
1486664805.810,51.758,30.762,37.598,47.852,8.789,0
1486664805.813,38.086,28.320,42.969,57.617,72.266,0
1486664805.817,23.926,32.715,34.668,66.895,153.320,0
1486664805.821,34.180,29.785,31.250,57.129,120.117,0
1486664805.825,54.688,25.391,35.645,50.781,10.742,0
1486664805.829,58.105,32.227,43.945,62.988,2.930,0
1486664805.833,46.387,35.156,46.875,76.172,40.039,0
1486664805.837,36.133,33.203,44.922,80.078,131.348,0
1486664805.841,36.621,30.273,41.504,62.988,129.395,0
1486664805.845,45.898,24.902,38.574,50.781,22.461,0
1486664805.849,55.176,25.391,42.480,59.082,-11.230,0
1486664805.852,46.387,29.297,41.016,65.430,2.441,0
1486664805.856,24.414,26.855,38.574,68.848,94.238,0
1486664805.860,25.879,28.320,37.109,61.523,102.539,0
1486664805.864,41.992,30.273,38.086,51.758,-18.066,0
1486664805.868,53.711,27.832,44.434,60.547,-19.531,0
1486664805.872,46.875,34.668,46.387,69.824,32.227,0
1486664805.876,24.414,32.715,41.504,66.406,72.754,0
1486664805.880,19.531,25.391,37.109,56.641,112.305,0
1486664805.884,40.039,23.438,33.203,48.828,10.254,0
1486664805.888,50.293,24.414,35.156,53.223,-43.945,0
1486664805.892,34.668,23.926,39.062,55.176,-20.020,0
1486664805.895,17.090,23.926,39.551,57.129,75.684,0
1486664805.899,16.113,28.320,44.434,55.176,143.555,0
1486664805.903,30.273,27.832,50.293,45.410,53.711,0
1486664805.907,39.062,22.949,41.016,46.875,-5.371,0
1486664805.911,29.785,20.508,31.250,50.293,-5.859,0
1486664805.915,25.391,28.809,33.691,63.965,85.449,0
1486664805.919,25.879,34.180,42.480,64.941,172.852,0
1486664805.923,36.621,34.668,40.527,45.898,36.621,0
1486664805.927,51.270,31.250,32.715,43.457,-38.086,0
1486664805.931,43.457,30.762,40.039,52.734,-0.488,0
1486664805.935,27.832,32.715,41.504,62.500,49.316,0
1486664805.938,20.508,31.250,34.180,60.547,119.141,0
1486664805.942,32.227,26.367,35.156,50.781,48.828,0
1486664805.946,49.316,24.414,36.133,50.293,-26.367,0
1486664805.950,51.758,27.832,36.133,60.547,-10.742,0
1486664805.954,43.945,28.809,45.898,76.172,40.527,0
1486664805.958,29.297,29.297,49.805,75.684,128.418,0
1486664805.962,33.691,26.855,42.480,55.176,91.309,0
1486664805.966,54.688,27.832,42.969,54.688,-5.859,0
1486664805.970,50.781,31.738,38.086,62.500,11.719,0
1486664805.974,36.621,31.738,36.621,70.312,65.918,0
1486664805.977,21.973,26.855,37.598,67.871,135.254,0
1486664805.981,21.973,25.879,35.645,51.758,98.145,0
1486664805.985,47.852,27.344,41.992,55.176,3.906,0
1486664805.989,54.688,30.762,46.387,61.523,2.930,0
1486664805.993,41.992,33.203,41.992,65.918,30.762,0
1486664805.997,33.691,30.273,42.480,76.660,120.605,0
1486664806.001,36.621,30.273,43.457,69.824,80.566,0
1486664806.005,56.152,33.203,38.086,63.965,-40.039,0
1486664806.009,56.152,31.250,33.691,64.453,-21.484,0
1486664806.013,46.875,32.715,38.086,71.289,-7.324,0
1486664806.017,41.504,38.086,48.340,74.707,51.758,0
1486664806.020,42.969,37.109,42.969,64.453,73.242,0
1486664806.024,56.641,31.250,28.809,55.176,5.859,0
1486664806.028,62.012,28.320,32.227,56.641,-13.184,0
1486664806.032,54.688,34.180,37.598,66.406,-5.371,0
1486664806.036,39.551,36.133,36.621,70.312,90.332,0
1486664806.040,33.691,29.785,38.086,58.105,127.930,0
1486664806.044,44.434,28.320,34.180,44.434,14.648,0
1486664806.048,58.105,27.344,35.156,53.223,4.883,0
1486664806.052,48.340,23.926,39.551,59.570,41.992,0
1486664806.056,26.855,24.414,39.062,61.523,107.910,0
1486664806.060,30.762,22.949,34.668,57.129,130.371,0
1486664806.063,49.316,24.902,35.156,51.758,26.367,0
1486664806.067,59.082,26.855,39.062,59.082,-23.926,0
1486664806.071,54.199,27.344,48.340,65.918,19.531,0
1486664806.075,36.133,28.809,47.363,72.754,111.816,0
1486664806.079,29.297,28.809,34.180,65.918,136.719,0
1486664806.083,44.922,29.297,32.715,51.758,25.391,0
1486664806.087,54.688,26.855,33.691,51.270,-18.555,0
1486664806.091,52.246,26.367,40.527,61.523,0.488,0
1486664806.095,39.551,31.738,45.898,73.730,70.801,0
1486664806.099,30.762,30.762,46.875,71.289,129.395,1
1486664806.102,40.527,27.344,41.992,53.223,20.508,0
1486664806.106,55.176,27.344,41.016,50.293,-32.715,0
1486664806.110,53.223,29.297,45.410,58.105,22.949,0
1486664806.114,44.434,34.180,37.598,70.801,70.801,0
1486664806.118,29.297,31.250,31.738,69.336,134.766,0
1486664806.122,34.180,24.414,36.133,50.781,70.801,0
1486664806.126,57.617,26.367,37.109,54.688,-10.742,0
1486664806.130,55.176,29.297,41.992,62.012,18.555,0
1486664806.134,40.039,29.297,51.758,69.336,44.434,0
1486664806.138,29.297,28.320,42.969,71.777,114.258,0
1486664806.142,36.133,25.879,30.273,54.688,26.855,0
1486664806.145,51.758,27.832,31.250,50.293,-83.496,0
1486664806.149,53.223,31.738,31.250,57.617,-38.086,0
1486664806.153,42.480,34.180,35.645,66.406,11.230,0
1486664806.157,28.809,36.621,39.062,72.754,112.793,0
1486664806.161,28.320,29.785,37.109,57.617,97.168,0
1486664806.165,45.898,24.414,35.156,48.340,-15.137,0
1486664806.169,55.176,26.855,31.738,56.641,-7.812,0
1486664806.173,38.574,27.832,36.621,63.477,35.645,0
1486664806.177,20.020,30.762,42.480,74.219,118.164,0
1486664806.181,28.809,32.715,37.598,67.871,98.633,0
1486664806.184,51.270,31.250,38.574,59.082,21.484,0
1486664806.188,60.547,27.344,36.621,61.523,19.531,0
1486664806.192,46.875,29.297,38.086,67.383,11.719,0
1486664806.196,30.273,33.691,49.805,75.195,93.262,0
1486664806.200,34.180,32.227,45.898,66.406,113.281,0
1486664806.204,51.758,27.832,34.180,50.781,3.906,0
1486664806.208,60.059,27.344,38.574,53.223,0.488,0
1486664806.212,44.922,32.227,40.039,55.664,12.207,0
1486664806.216,28.320,36.621,38.086,58.105,93.262,0
1486664806.220,28.809,31.738,36.621,52.734,134.766,0
1486664806.224,40.527,31.738,33.691,40.039,33.203,0
1486664806.227,51.270,30.273,36.621,44.434,19.043,0
1486664806.231,45.898,24.414,41.504,56.152,14.160,0
1486664806.235,30.273,26.855,42.480,67.871,88.867,0
1486664806.239,28.320,27.832,40.527,66.895,144.531,0
1486664806.243,43.945,23.926,36.621,53.711,25.391,0
1486664806.247,57.617,29.785,31.250,55.664,-19.531,0
1486664806.251,49.805,31.738,33.691,63.965,32.715,0
1486664806.255,29.785,25.879,41.016,69.824,75.684,0
1486664806.259,27.832,29.785,47.852,68.359,112.305,0
1486664806.263,37.109,29.297,41.992,52.246,12.695,0
1486664806.267,46.387,22.949,34.668,51.758,-17.090,0
1486664806.270,46.875,23.438,40.039,60.059,-1.465,0
1486664806.274,28.809,26.855,39.551,72.266,46.875,0
1486664806.278,12.207,24.902,38.574,64.453,134.277,0
1486664806.282,29.297,27.344,43.457,44.922,20.508,0
1486664806.286,46.875,28.320,37.109,48.828,-42.969,0
1486664806.290,40.527,21.484,37.109,52.246,6.348,0
1486664806.294,29.297,22.949,41.992,60.059,79.102,0
1486664806.298,21.973,27.344,40.039,62.500,115.234,0
1486664806.302,30.273,22.461,38.086,50.293,45.898,0
1486664806.306,45.410,21.484,36.133,46.875,-18.066,0
1486664806.309,50.293,29.297,40.527,52.734,-13.184,0
1486664806.313,36.621,31.738,45.410,61.035,65.430,0
1486664806.317,22.461,28.809,43.457,66.406,136.719,0
1486664806.321,28.809,25.879,36.133,51.758,72.754,0
1486664806.325,45.410,24.902,30.273,41.016,6.348,0
1486664806.329,49.805,25.879,34.668,50.293,-3.906,0
1486664806.333,37.109,27.344,44.434,58.105,17.578,0
1486664806.337,28.809,28.809,44.434,61.035,157.715,0
1486664806.341,39.551,29.785,38.086,50.293,145.996,0
1486664806.345,58.594,29.785,36.133,42.969,-13.184,0
1486664806.349,66.406,31.250,37.598,52.246,-23.926,0
1486664806.352,51.758,30.762,41.016,58.105,-2.930,0
1486664806.356,30.762,27.832,39.062,63.477,116.211,0
1486664806.360,30.762,28.320,34.668,59.082,145.508,0
1486664806.364,40.527,29.297,38.574,53.223,-6.348,0
1486664806.368,47.363,27.832,34.668,59.082,-38.574,0
1486664806.372,43.945,28.320,35.645,67.871,1.953,0
1486664806.376,25.879,30.762,47.852,75.684,108.887,0
1486664806.380,27.832,30.762,46.387,72.266,117.676,0
1486664806.384,47.363,26.855,34.180,62.500,-33.203,0
1486664806.388,53.711,22.949,33.203,62.500,-26.855,0
1486664806.392,41.504,22.949,40.527,62.988,38.574,0
1486664806.395,25.879,29.297,43.457,65.918,70.801,0
1486664806.399,26.367,32.715,45.898,62.012,99.609,0
1486664806.403,37.598,28.320,42.480,51.758,9.277,0
1486664806.407,45.898,26.367,35.156,50.781,-53.223,0
1486664806.411,41.016,28.809,39.062,57.617,-14.160,0
1486664806.415,27.832,34.180,47.363,68.848,71.777,0
1486664806.419,20.508,30.273,39.062,61.523,132.812,0
1486664806.423,38.086,22.461,33.691,47.852,51.270,0
1486664806.427,54.688,23.926,41.016,52.246,18.555,0
1486664806.431,45.898,24.902,38.086,58.105,76.172,0
1486664806.434,34.668,29.785,35.156,67.383,103.027,0
1486664806.438,22.949,31.738,37.109,62.012,149.902,0
1486664806.442,34.668,27.832,41.016,53.711,93.262,0
1486664806.446,58.594,28.320,45.410,62.012,-8.301,0
1486664806.450,54.688,31.738,45.410,68.359,-16.113,0
1486664806.454,41.992,35.156,41.016,81.543,80.566,0
1486664806.458,29.297,33.691,39.551,77.637,160.156,0
1486664806.462,30.762,26.367,39.062,61.035,58.105,0
1486664806.466,49.316,23.438,40.039,65.430,-11.230,0
1486664806.470,49.805,23.438,46.875,74.707,16.113,0
1486664806.474,34.180,24.902,50.293,78.125,52.734,0
1486664806.477,24.414,27.832,45.898,75.684,114.746,0
1486664806.481,27.344,30.762,45.410,60.059,56.152,0
1486664806.485,46.387,32.227,40.039,53.223,-30.762,0
1486664806.489,53.711,27.832,35.156,60.059,-24.414,0
1486664806.493,34.668,31.250,34.668,64.453,25.391,0
1486664806.497,24.902,32.715,36.133,66.895,138.184,0
1486664806.501,33.203,28.809,40.039,61.035,137.207,0
1486664806.505,51.758,28.809,36.133,56.641,14.648,0
1486664806.509,62.500,29.785,39.551,63.477,12.207,0
1486664806.513,45.410,29.297,42.969,70.312,68.359,0
1486664806.517,31.250,27.832,42.969,79.102,158.203,0
1486664806.520,35.156,27.832,37.109,67.871,160.645,0
1486664806.524,46.875,25.391,33.203,53.223,31.250,0
1486664806.528,53.711,26.367,40.039,60.547,4.883,0
1486664806.532,41.016,30.273,48.828,68.359,48.828,0
1486664806.536,20.508,25.879,47.363,69.336,104.004,0
1486664806.540,18.555,25.879,42.480,58.594,76.660,0
1486664806.544,38.086,29.785,40.527,45.410,-8.301,0
1486664806.548,53.711,29.297,37.109,55.176,-43.457,0
1486664806.552,46.875,28.809,33.691,65.430,-2.930,0
1486664806.556,32.227,31.250,32.715,72.266,110.840,0
1486664806.559,32.227,31.250,39.062,71.777,133.301,0
1486664806.563,48.340,31.738,41.504,55.664,-14.160,0
1486664806.567,65.918,30.273,39.551,60.547,-78.125,0
1486664806.571,57.129,28.809,43.457,68.848,13.672,0
1486664806.575,35.156,31.738,43.457,69.824,97.168,0
1486664806.579,35.645,31.738,38.086,68.359,130.859,0
1486664806.583,47.852,28.320,34.180,55.176,42.480,0
1486664806.587,64.941,30.273,29.297,57.129,16.113,0
1486664806.591,59.082,31.738,30.762,62.988,23.438,0
1486664806.595,33.691,27.344,36.621,62.012,56.641,0
1486664806.599,32.227,27.832,43.945,65.430,165.527,0
1486664806.602,40.039,27.344,37.598,49.805,65.430,0
1486664806.606,54.199,27.832,29.297,42.969,-22.461,0
1486664806.610,53.223,30.273,35.645,54.688,3.418,0
1486664806.614,32.715,29.297,38.086,61.523,43.457,0
1486664806.618,26.367,34.668,37.109,66.406,136.719,0
1486664806.622,37.109,31.250,38.574,55.664,64.941,0
1486664806.626,49.316,23.438,37.109,47.852,-34.180,0
1486664806.630,52.246,24.902,35.156,55.664,-7.812,0
1486664806.634,40.527,26.855,39.551,68.848,53.223,1
1486664806.638,31.738,27.344,46.875,76.660,144.043,0
1486664806.641,37.598,26.367,43.457,62.500,87.891,0
1486664806.645,54.199,25.391,46.875,51.758,-29.785,0
1486664806.649,54.688,26.367,46.875,52.246,1.465,0
1486664806.653,42.480,31.250,40.527,64.453,77.637,0
1486664806.657,25.879,32.715,36.621,68.359,151.367,0
1486664806.661,22.461,28.809,30.762,47.363,63.477,0
1486664806.665,44.922,23.926,31.250,43.945,-19.043,0
1486664806.669,48.828,26.855,38.086,54.199,29.785,0
1486664806.673,31.250,30.762,42.480,59.082,62.500,0
1486664806.677,20.020,31.250,40.039,68.359,124.023,0
1486664806.681,20.508,31.738,37.598,58.594,130.859,0
1486664806.684,37.598,28.320,33.691,46.875,16.602,0
1486664806.688,41.992,22.461,33.203,54.199,-16.113,0
1486664806.692,29.785,23.926,41.016,62.988,47.363,0
1486664806.696,19.043,25.879,48.828,69.824,154.785,0
1486664806.700,20.020,23.438,44.434,62.500,158.691,0
1486664806.704,40.039,25.879,39.551,49.316,57.617,0
1486664806.708,51.758,26.367,42.969,57.129,35.156,0
1486664806.712,38.086,25.879,43.945,61.523,42.480,0
1486664806.716,20.020,27.832,39.551,59.570,67.383,0
1486664806.720,18.555,27.344,38.574,53.711,51.758,0
1486664806.724,34.180,28.320,41.016,41.016,-49.316,0
1486664806.727,42.969,30.762,39.062,45.410,-52.734,0
1486664806.731,32.715,28.320,43.457,55.664,-5.371,0
1486664806.735,21.973,28.809,43.457,62.988,56.641,0
1486664806.739,24.902,29.785,40.527,60.547,92.285,0
1486664806.743,37.598,26.367,40.527,49.316,3.906,0
1486664806.747,53.711,23.926,40.039,57.129,-30.762,0
1486664806.751,53.711,27.344,49.316,73.242,-5.371,0
1486664806.755,32.715,29.297,43.457,78.613,86.914,0
1486664806.759,25.879,25.879,34.180,72.754,127.441,0
1486664806.763,42.480,24.902,37.598,59.082,-1.953,0
1486664806.766,60.059,29.785,36.133,58.594,-45.898,0
1486664806.770,58.105,30.762,39.062,63.965,8.301,0
1486664806.774,41.016,26.367,43.945,73.730,65.918,0
1486664806.778,29.785,25.391,44.922,78.613,138.184,0
1486664806.782,34.180,23.926,40.527,61.035,30.762,0
1486664806.786,51.270,23.926,40.527,55.176,-62.012,0
1486664806.790,54.199,24.902,39.551,61.035,19.531,0
1486664806.794,29.785,25.391,34.668,59.570,60.547,0
1486664806.798,19.043,26.367,37.109,61.523,98.145,0
1486664806.802,33.691,24.902,36.621,47.852,23.438,0
1486664806.806,46.875,25.879,37.598,42.480,-46.875,0
1486664806.809,51.758,28.320,38.086,54.688,11.230,0
1486664806.813,36.621,31.738,35.645,60.547,60.059,0
1486664806.817,23.438,34.180,37.109,64.941,146.484,0
1486664806.821,26.855,28.320,31.738,47.852,95.703,0
1486664806.825,43.457,25.391,35.645,47.363,6.836,0
1486664806.829,51.758,26.855,42.480,62.012,33.203,0
1486664806.833,33.203,24.902,37.598,66.406,35.645,0
1486664806.837,20.020,26.367,37.109,75.684,126.953,0
1486664806.841,29.297,26.855,41.992,66.895,132.812,0
1486664806.845,49.805,28.809,37.109,56.152,6.836,0
1486664806.849,56.641,31.738,33.203,63.477,19.043,0
1486664806.852,43.945,33.691,44.434,71.289,78.613,0
1486664806.856,25.391,31.738,45.898,69.824,103.027,0
1486664806.860,25.879,26.855,41.504,61.523,112.305,0
1486664806.864,49.316,26.855,42.480,56.152,67.871,0
1486664806.868,59.082,28.809,37.109,55.176,41.504,0
1486664806.872,47.852,28.320,38.574,62.012,34.180,0
1486664806.876,34.180,29.297,41.992,70.312,126.465,0
1486664806.880,32.227,28.320,40.039,59.082,155.273,0
1486664806.884,51.270,24.902,36.133,49.805,0.000,0
1486664806.888,62.988,30.273,36.133,56.641,-12.695,0
1486664806.891,43.945,31.250,38.574,58.105,54.688,0
1486664806.895,22.461,27.344,43.945,64.941,125.488,0
1486664806.899,20.508,29.785,47.363,63.477,128.906,0
1486664806.903,29.785,23.926,34.668,48.340,4.883,0
1486664806.907,40.039,23.438,30.762,49.316,-14.160,0
1486664806.911,39.551,30.273,39.062,63.477,9.277,0
1486664806.915,24.902,27.344,40.039,70.801,73.242,0
1486664806.919,20.020,31.250,37.598,66.895,130.371,0
1486664806.923,38.086,32.227,37.598,58.105,25.391,0
1486664806.927,51.270,24.902,33.691,51.758,-0.977,0
1486664806.931,44.922,26.855,38.086,56.152,33.691,0
1486664806.934,29.785,29.297,36.133,62.012,40.039,0
1486664806.938,19.531,29.785,27.832,54.199,72.266,0
1486664806.942,31.738,29.297,26.855,40.039,2.441,0
1486664806.946,51.758,29.297,25.879,41.016,-53.711,0
1486664806.950,54.199,30.273,31.250,52.246,-12.207,0
1486664806.954,41.016,30.762,40.039,62.988,49.805,0
1486664806.958,33.203,29.297,37.598,67.871,105.469,0
1486664806.962,45.410,28.809,34.180,63.477,62.500,0
1486664806.966,62.988,27.344,33.203,59.570,-24.902,0
1486664806.970,61.035,25.879,28.320,68.359,-29.785,0
1486664806.973,41.992,32.715,31.250,74.707,49.805,0
1486664806.977,34.668,33.203,38.574,79.590,132.812,0
1486664806.981,44.922,24.902,37.598,71.289,82.031,0
1486664806.985,59.082,28.809,36.621,63.965,-13.672,0
1486664806.989,62.500,31.738,41.016,70.801,2.441,0
1486664806.993,51.270,26.855,43.945,80.566,50.293,0
1486664806.997,36.133,30.273,46.875,80.566,139.648,0
1486664807.001,37.109,28.320,42.480,67.383,97.168,0
1486664807.005,53.223,23.438,31.250,61.035,-8.301,0
1486664807.009,57.129,26.367,33.691,65.430,13.184,0
1486664807.013,42.969,26.367,42.969,74.707,40.527,0
1486664807.016,28.809,27.344,44.434,71.777,121.094,0
1486664807.020,26.855,30.273,39.551,49.805,106.445,0
1486664807.024,38.574,26.367,37.598,35.156,-20.508,0
1486664807.028,46.387,20.996,38.574,38.086,-23.438,0
1486664807.032,31.738,19.043,36.621,49.805,16.602,0
1486664807.036,17.578,21.484,40.039,59.082,125.488,0
1486664807.040,14.648,22.949,39.062,51.758,132.324,0
1486664807.044,31.250,19.531,32.227,43.945,1.953,0
1486664807.048,46.387,23.926,33.203,51.270,-8.301,0
1486664807.052,37.598,31.250,39.062,60.059,31.738,0
1486664807.056,25.879,22.461,41.504,66.895,68.848,0
1486664807.059,25.391,20.996,38.574,60.547,74.219,0
1486664807.063,36.621,26.855,41.016,46.875,17.090,0
1486664807.067,49.805,23.438,35.156,52.246,25.391,0
1486664807.071,40.039,23.926,36.133,57.129,44.922,0
1486664807.075,21.484,28.809,40.039,61.523,116.211,0
1486664807.079,18.066,28.320,31.738,58.105,176.758,0
1486664807.083,29.785,24.414,33.691,45.410,40.039,0
1486664807.087,48.340,27.832,42.969,49.316,-2.441,0
1486664807.091,44.922,27.344,43.945,52.734,8.789,0
1486664807.095,26.367,25.391,43.457,54.199,66.406,0
1486664807.098,17.090,26.855,40.039,48.828,136.719,0
1486664807.102,25.879,24.414,31.738,34.180,41.504,0
1486664807.106,46.875,25.879,30.273,34.668,1.953,0
1486664807.110,43.457,30.762,31.250,42.480,50.293,0
1486664807.114,25.879,29.297,39.551,55.664,71.777,0
1486664807.118,21.973,26.367,41.016,57.617,129.883,0
1486664807.122,33.203,25.879,35.645,42.969,54.688,0
1486664807.126,52.734,25.391,42.480,47.852,-28.320,0
1486664807.130,52.246,31.250,37.598,62.012,-8.301,0
1486664807.134,30.273,30.273,31.738,70.801,45.898,0
1486664807.138,16.113,21.484,38.574,69.824,129.395,0
1486664807.141,24.902,20.020,38.574,58.594,74.219,0
1486664807.145,39.551,21.484,35.156,54.688,-11.719,0
1486664807.149,39.062,27.832,39.551,55.664,-5.371,0
1486664807.153,27.832,29.785,49.316,62.500,33.203,0
1486664807.157,13.672,25.879,44.434,68.848,127.441,0
1486664807.161,17.090,26.367,38.574,48.828,74.707,0
1486664807.165,43.945,30.762,44.434,46.875,-41.016,0
1486664807.169,49.316,28.809,39.062,58.105,-10.742,0
1486664807.173,33.203,22.461,32.715,61.035,13.672,1
1486664807.177,25.391,27.832,38.086,65.918,94.727,0
1486664807.181,30.273,30.273,40.527,58.105,94.727,0
1486664807.184,46.875,25.879,40.039,48.340,-67.383,0
1486664807.188,52.246,24.902,40.039,47.363,-65.430,0
1486664807.192,42.480,28.320,40.039,58.594,7.324,0
1486664807.196,28.809,29.297,38.086,64.453,80.078,0
1486664807.200,31.738,28.809,36.621,61.523,97.656,0
1486664807.204,55.176,28.809,42.969,66.895,-37.109,0
1486664807.208,62.012,27.832,40.527,72.266,-43.945,0
1486664807.212,48.340,27.832,35.156,74.707,32.715,0
1486664807.216,36.621,31.250,41.504,78.125,109.375,0
1486664807.220,41.504,27.344,42.480,67.871,138.672,0
1486664807.223,57.129,21.973,39.551,48.828,49.805,0
1486664807.227,64.941,22.461,32.715,52.246,20.020,0
1486664807.231,61.035,26.367,35.645,68.359,33.203,0
1486664807.235,42.480,30.273,43.457,66.406,77.637,0
1486664807.239,26.367,28.320,35.156,53.223,91.309,0
1486664807.243,34.668,26.855,30.273,51.758,11.230,0
1486664807.247,43.457,23.438,32.227,59.570,0.977,0
1486664807.251,31.738,24.902,33.691,61.035,37.598,0
1486664807.255,18.066,30.273,35.156,65.918,110.352,0
1486664807.259,13.672,25.879,36.621,62.988,149.902,0
1486664807.263,29.785,24.414,33.203,47.363,11.719,0
1486664807.266,44.922,25.391,28.320,47.363,-42.969,0
1486664807.270,42.480,25.391,40.527,60.059,-11.230,0
1486664807.274,26.367,26.855,44.922,66.406,1.465,0
1486664807.278,17.090,26.855,35.645,62.012,92.285,0
1486664807.282,34.668,25.879,38.574,53.223,18.066,0
1486664807.286,55.664,25.391,43.945,57.617,-86.914,0
1486664807.290,52.246,26.855,41.016,66.895,-34.180,0
1486664807.294,35.645,30.273,41.016,73.242,37.598,0
1486664807.298,29.297,35.645,43.945,73.730,102.539,0
1486664807.302,36.133,34.180,36.133,61.035,51.270,0
1486664807.305,51.758,25.879,32.715,55.664,-22.949,0
1486664807.309,50.781,22.461,39.551,68.848,-11.230,0
1486664807.313,39.551,26.855,43.457,82.520,67.871,0
1486664807.317,31.738,27.344,44.434,81.543,153.809,0
1486664807.321,35.645,25.879,41.016,66.406,110.352,0
1486664807.325,54.688,23.438,42.969,60.059,32.715,0
1486664807.329,61.035,22.949,41.016,65.918,36.621,0
1486664807.333,40.527,30.273,41.504,70.312,70.312,0
1486664807.337,27.344,33.691,46.387,73.730,130.859,0
1486664807.341,37.598,28.809,41.016,59.082,85.938,0
1486664807.345,50.293,24.414,35.645,50.293,-36.133,0
1486664807.348,60.059,24.902,41.992,63.477,-43.945,0
1486664807.352,50.293,26.367,47.363,69.824,7.324,0
1486664807.356,29.785,27.344,42.969,71.289,114.746,0
1486664807.360,34.180,29.297,38.086,62.012,115.234,0
1486664807.364,52.246,29.785,36.621,50.781,19.043,0
1486664807.368,54.688,25.391,37.109,59.082,14.648,0
1486664807.372,39.062,25.879,40.527,64.453,67.383,0
1486664807.376,23.438,25.391,48.828,67.383,131.836,0
1486664807.380,21.973,23.438,45.898,59.570,125.000,0
1486664807.384,39.551,24.414,43.945,53.223,38.574,0
1486664807.388,48.828,20.508,48.828,59.570,24.902,0
1486664807.391,34.668,21.484,42.480,58.594,50.781,0
1486664807.395,16.113,26.855,36.133,60.547,110.352,0
1486664807.399,16.602,27.832,38.086,55.176,156.250,0
1486664807.403,39.062,27.832,36.133,47.852,58.594,0
1486664807.407,53.711,31.250,36.133,50.293,7.812,0
1486664807.411,47.852,28.320,35.645,58.105,43.945,0
1486664807.415,34.180,30.273,38.086,70.801,118.652,0
1486664807.419,30.762,30.273,39.551,68.359,123.535,0
1486664807.423,51.758,23.926,35.156,56.641,10.742,0
1486664807.427,60.547,22.949,34.668,56.152,-7.324,0
1486664807.430,52.734,28.809,38.086,65.430,11.719,0
1486664807.434,40.039,30.273,42.480,76.172,93.750,0
1486664807.438,32.227,28.320,42.969,72.754,153.320,0
1486664807.442,43.945,26.855,34.668,59.082,22.949,0
1486664807.446,62.500,28.320,40.039,62.500,-21.973,0
1486664807.450,52.734,28.320,42.969,62.500,7.812,0
1486664807.454,24.902,22.949,32.715,61.035,64.941,0
1486664807.458,19.531,19.043,34.668,63.965,139.648,0
1486664807.462,31.250,22.949,38.574,52.734,83.008,0
1486664807.466,44.434,24.902,39.062,47.852,35.156,0
1486664807.470,41.992,25.879,34.180,48.828,31.738,0
1486664807.473,23.438,27.832,36.621,56.152,84.961,0
1486664807.477,12.207,26.855,41.504,57.617,179.199,0
1486664807.481,26.367,26.367,41.992,45.898,117.188,0
1486664807.485,43.945,26.367,36.133,42.480,39.551,0
1486664807.489,47.852,28.809,37.598,50.781,19.043,0
1486664807.493,35.645,32.227,40.527,59.570,40.527,0
1486664807.497,23.438,28.320,40.527,62.500,115.234,0
1486664807.501,31.250,23.438,44.434,56.641,74.707,0
1486664807.505,49.316,24.414,35.156,49.316,11.719,0
1486664807.509,53.711,24.414,30.762,53.711,27.344,0
1486664807.513,40.527,23.926,35.645,63.477,78.125,0
1486664807.516,27.344,27.832,41.504,65.430,148.926,0
1486664807.520,28.809,26.367,45.410,57.617,125.488,0
1486664807.524,48.828,23.926,38.574,55.664,-6.836,0
1486664807.528,58.105,25.879,30.273,59.570,-14.160,0
1486664807.532,48.340,25.879,32.227,71.289,47.363,0
1486664807.536,30.273,22.949,34.180,72.266,129.395,0
1486664807.540,29.297,25.391,36.621,63.965,121.094,0
1486664807.544,51.270,28.320,43.457,65.430,6.348,0
1486664807.548,59.570,28.809,37.598,65.430,-31.738,0
1486664807.552,44.434,26.855,37.598,65.918,5.371,0
1486664807.555,31.250,26.367,49.805,74.219,91.797,0
1486664807.559,23.926,26.855,45.410,64.941,76.660,0
1486664807.563,32.715,22.949,35.156,50.781,0.977,0
1486664807.567,46.387,20.508,34.180,51.758,-15.625,0
1486664807.571,37.109,26.367,39.062,56.641,17.090,0
1486664807.575,23.926,29.297,42.480,65.430,86.426,0
1486664807.579,23.438,24.902,36.621,62.500,114.746,0
1486664807.583,41.992,30.273,38.086,53.711,7.324,0
1486664807.587,59.570,38.574,45.898,60.059,-9.277,0
1486664807.591,50.781,33.203,39.551,66.895,43.945,0
1486664807.595,29.785,27.832,32.715,68.848,83.008,0
1486664807.598,25.879,28.809,35.156,66.406,126.465,0
1486664807.602,40.527,29.785,32.715,53.711,56.152,0
1486664807.606,56.152,29.785,35.156,49.316,-19.531,0
1486664807.610,51.758,30.273,36.133,60.059,-1.465,0
1486664807.614,33.691,31.250,32.715,65.918,66.895,0
1486664807.618,20.996,27.344,32.715,53.223,120.117,0
1486664807.622,34.180,25.879,36.621,41.992,27.832,0
1486664807.626,55.176,25.879,37.598,52.246,-44.922,0
1486664807.630,54.199,25.391,41.016,64.941,-22.461,0
1486664807.634,36.621,29.297,43.457,69.824,35.156,0
1486664807.637,23.926,24.414,38.574,69.824,112.305,0
1486664807.641,35.645,20.996,36.621,59.570,36.621,0
1486664807.645,52.246,23.926,36.621,50.781,-28.809,0
1486664807.649,50.781,24.902,41.504,57.617,8.789,0
1486664807.653,37.598,30.273,40.527,65.918,38.574,0
1486664807.657,23.926,31.250,36.621,65.430,95.703,0
1486664807.661,26.367,25.879,41.992,56.152,58.105,0
1486664807.665,49.316,23.438,44.434,52.734,-14.160,0
1486664807.669,53.711,28.320,41.504,57.617,-17.090,0
1486664807.673,39.551,30.762,34.180,63.477,-7.324,0
1486664807.677,27.832,26.855,34.668,69.336,125.000,0
1486664807.680,30.273,20.996,42.480,57.617,99.609,1
1486664807.684,50.781,22.461,39.551,49.805,-27.832,0
1486664807.688,56.641,27.832,35.645,52.734,18.066,0
1486664807.692,40.527,28.320,34.668,54.199,45.410,0
1486664807.696,24.902,28.809,37.109,58.594,91.309,0
1486664807.700,24.902,27.832,36.621,49.316,106.445,0
1486664807.704,46.387,23.438,32.715,42.969,14.648,0
1486664807.708,53.711,23.438,34.180,51.758,-12.207,0
1486664807.712,37.598,25.879,35.156,55.176,17.090,0
1486664807.716,22.949,29.297,41.992,67.383,85.938,0
1486664807.720,19.043,30.273,39.551,64.453,115.234,0
1486664807.723,36.133,24.902,31.250,50.293,7.812,0
1486664807.727,49.805,21.484,31.738,53.711,-20.996,0
1486664807.731,39.551,24.414,38.574,60.059,29.785,0
1486664807.735,23.926,24.902,41.504,68.848,98.633,0
1486664807.739,17.090,21.973,39.062,66.406,116.211,0
1486664807.743,31.250,23.438,36.133,50.293,-5.859,0
1486664807.747,50.293,27.344,41.504,47.852,-34.668,0
1486664807.751,44.434,28.809,42.480,53.711,-5.859,0
1486664807.755,28.320,31.250,38.086,62.988,46.387,0
1486664807.759,22.461,31.738,41.504,60.547,90.332,0
1486664807.762,26.367,26.367,37.109,40.527,22.461,0
1486664807.766,42.969,21.973,32.715,45.410,21.973,0
1486664807.770,42.969,23.926,33.691,59.082,41.992,0
1486664807.774,28.809,25.879,39.062,70.801,101.562,0
1486664807.778,27.832,25.391,41.016,73.242,162.598,0
1486664807.782,41.016,26.855,36.621,61.035,57.129,0
1486664807.786,56.641,25.879,42.480,60.059,-35.156,0
1486664807.790,51.270,21.973,43.945,64.453,11.719,0
1486664807.794,33.691,23.438,41.504,68.848,56.641,0
1486664807.798,28.809,28.320,43.457,70.801,122.559,0
1486664807.802,33.203,25.391,39.551,49.805,79.102,0
1486664807.805,55.664,23.926,42.969,47.363,-17.578,0
1486664807.809,61.035,30.273,41.016,58.594,-17.578,0
1486664807.813,37.109,28.320,35.645,61.035,47.363,0
1486664807.817,27.344,19.531,39.551,66.895,148.438,0
1486664807.821,36.133,18.066,39.551,53.223,92.285,0
1486664807.825,48.828,19.531,39.062,45.898,-10.742,0
1486664807.829,50.781,21.484,48.828,55.664,-19.531,0
1486664807.833,32.715,20.996,46.387,63.477,19.043,0
1486664807.837,16.113,20.020,41.016,68.359,93.750,0
1486664807.841,24.414,19.531,40.039,58.105,82.520,0
1486664807.845,46.387,20.020,39.062,56.641,-20.020,0
1486664807.848,54.199,25.391,43.945,66.895,-40.527,0
1486664807.852,38.574,26.855,39.551,69.336,23.926,0
1486664807.856,26.367,26.367,40.527,74.219,92.285,0
1486664807.860,31.250,27.832,43.945,62.500,80.078,0
1486664807.864,49.316,24.414,39.062,45.898,-20.020,0
1486664807.868,60.059,21.973,30.762,55.176,-24.414,0
1486664807.872,45.410,25.391,30.273,66.895,11.230,0
1486664807.876,25.391,29.297,36.133,61.035,92.285,0
1486664807.880,24.902,28.320,38.574,46.875,85.449,0
1486664807.884,41.504,25.391,37.598,37.598,-25.879,0
1486664807.887,50.781,24.902,32.227,41.504,-43.945,0
1486664807.891,40.039,27.832,31.738,46.387,-34.668,0
1486664807.895,24.902,34.180,41.504,57.129,44.922,0
1486664807.899,21.973,32.227,41.992,56.641,67.383,0
1486664807.903,39.062,24.902,35.156,44.922,-37.109,0
1486664807.907,49.805,24.414,34.180,47.363,-63.965,0
1486664807.911,42.969,28.809,36.133,62.012,-12.207,0
1486664807.915,29.785,31.250,36.621,71.289,92.773,0
1486664807.919,23.926,25.391,35.156,60.547,118.164,0
1486664807.923,38.086,26.367,37.109,47.363,-12.207,0
1486664807.927,48.828,29.785,36.133,46.875,-46.875,0
1486664807.930,40.527,26.855,37.109,52.246,3.906,0
1486664807.934,26.367,27.344,43.457,61.035,80.566,0
1486664807.938,15.625,26.367,38.086,53.711,125.977,0
1486664807.942,25.879,21.973,32.227,40.527,37.598,0
1486664807.946,46.387,20.020,36.133,47.852,-19.043,0
1486664807.950,45.898,20.508,37.598,55.664,-11.230,0
1486664807.954,32.715,24.902,40.527,68.848,57.617,0
1486664807.958,31.250,29.785,44.922,76.660,137.207,0
1486664807.962,43.457,29.297,40.039,60.059,71.289,0
1486664807.966,57.617,22.461,43.945,60.547,31.738,0
1486664807.969,54.199,21.973,45.898,64.941,35.156,0
1486664807.973,28.809,22.949,34.180,58.594,51.270,0
1486664807.977,20.020,22.461,33.691,58.594,157.715,0
1486664807.981,27.832,23.926,35.156,48.828,88.867,0
1486664807.985,43.945,20.996,33.691,44.922,-29.785,0
1486664807.989,54.199,20.996,38.574,51.270,-13.672,0
