timestamps,TP9,AF7,AF8,TP10,Right AUX,Marker
1486224191.065,119.629,23.438,23.926,80.078,77.148,0
1486224191.069,54.199,27.344,28.320,73.730,96.680,0
1486224191.073,-31.738,27.832,34.180,59.082,73.730,0
1486224191.077,-14.160,33.691,37.109,58.594,39.062,0
1486224191.080,91.797,33.203,29.785,65.430,-17.578,0
1486224191.084,120.117,26.855,31.250,77.637,46.875,0
1486224191.088,62.012,21.973,46.387,72.754,137.207,0
1486224191.092,-31.250,24.414,42.480,59.082,132.324,0
1486224191.096,-30.762,31.738,31.250,57.617,51.758,0
1486224191.100,75.684,24.902,24.902,65.430,-19.531,0
1486224191.104,120.605,23.438,29.785,80.078,42.480,0
1486224191.108,75.195,26.855,33.203,73.730,81.543,0
1486224191.112,-17.578,27.832,31.250,64.453,71.777,0
1486224191.116,-24.902,30.273,36.621,58.105,40.527,0
1486224191.119,78.125,30.762,29.297,65.430,-7.324,0
1486224191.123,132.812,32.715,32.227,94.727,51.758,0
1486224191.127,89.844,29.297,48.340,88.867,96.191,0
1486224191.131,-11.230,22.461,52.734,67.871,81.543,0
1486224191.135,-35.156,30.273,38.086,65.918,45.410,0
1486224191.139,66.895,30.762,26.367,66.406,-41.016,0
1486224191.143,137.207,34.668,31.738,82.520,16.113,0
1486224191.147,91.309,24.902,33.691,80.078,74.219,0
1486224191.151,-0.977,25.879,34.180,63.477,98.145,0
1486224191.155,-39.551,38.574,44.922,53.711,60.059,0
1486224191.159,39.551,25.879,29.785,43.945,-41.016,0
1486224191.162,119.141,31.250,30.273,64.941,-13.672,0
1486224191.166,94.727,35.645,51.758,71.289,91.309,0
1486224191.170,2.441,24.902,47.852,57.129,101.074,0
1486224191.174,-54.688,27.344,39.551,49.805,37.109,0
1486224191.178,22.949,26.367,33.203,49.316,-24.414,0
1486224191.182,112.793,23.926,27.344,70.801,5.859,0
1486224191.186,104.980,24.902,38.086,83.984,68.359,0
1486224191.190,12.695,31.738,39.551,64.453,41.992,0
1486224191.194,-62.500,34.180,33.691,54.688,48.340,0
1486224191.198,4.395,25.879,39.062,55.664,-21.484,0
1486224191.202,101.562,26.367,40.527,67.871,-48.340,0
1486224191.205,96.680,28.320,38.574,79.102,36.133,0
1486224191.209,23.438,33.203,45.410,71.289,68.848,0
1486224191.213,-51.270,24.414,40.527,57.617,83.984,0
1486224191.217,-7.324,19.043,29.297,49.316,8.301,0
1486224191.221,97.656,20.996,36.133,66.406,-28.809,0
1486224191.225,104.492,20.508,29.297,85.449,41.992,0
1486224191.229,37.109,29.785,23.438,76.660,65.918,0
1486224191.233,-36.621,33.203,40.039,57.129,62.988,0
1486224191.237,-22.949,21.973,47.363,50.293,15.137,0
1486224191.241,81.055,24.902,35.156,60.059,-39.551,0
1486224191.244,108.398,30.273,38.086,72.754,45.898,0
1486224191.248,35.645,26.855,39.551,62.988,95.703,0
1486224191.252,-57.129,28.809,28.320,49.316,47.852,0
1486224191.256,-38.086,21.484,25.879,53.223,1.953,0
1486224191.260,83.008,26.855,32.227,76.172,-31.738,0
1486224191.264,125.000,34.668,40.039,94.727,41.504,0
1486224191.268,61.035,20.508,32.227,83.984,64.941,0
1486224191.272,-29.297,22.949,29.785,69.336,30.273,0
1486224191.276,-24.414,27.832,39.062,75.195,0.977,0
1486224191.280,77.637,28.809,41.504,78.613,-37.109,0
1486224191.284,125.488,33.691,46.387,86.914,28.809,0
1486224191.287,80.078,23.438,50.781,87.402,69.824,0
1486224191.291,-20.996,19.043,41.504,63.965,67.383,0
1486224191.295,-36.133,27.832,38.086,55.176,39.551,0
1486224191.299,72.266,28.809,37.109,73.730,-34.180,0
1486224191.303,122.070,24.414,28.320,85.938,14.648,0
1486224191.307,79.590,22.949,29.297,76.660,85.938,0
1486224191.311,-2.441,31.738,36.133,66.895,92.773,0
1486224191.315,-38.574,34.668,36.133,60.547,85.449,0
1486224191.319,50.781,21.484,34.180,62.500,0.000,0
1486224191.323,120.117,27.832,31.738,83.008,39.551,0
1486224191.326,91.309,37.598,35.645,85.449,86.426,0
1486224191.330,3.418,32.715,53.223,77.148,75.684,0
1486224191.334,-47.363,27.344,48.828,64.941,82.520,0
1486224191.338,36.133,29.297,26.367,58.594,11.230,0
1486224191.342,128.418,29.785,20.508,80.078,42.480,0
1486224191.346,107.422,28.809,30.762,73.730,119.629,0
1486224191.350,5.859,29.785,30.273,52.734,99.121,0
1486224191.354,-60.059,20.996,30.273,46.875,71.289,0
1486224191.358,18.555,25.879,36.133,53.711,0.977,0
1486224191.362,109.863,31.738,32.715,72.754,2.441,0
1486224191.366,100.586,26.855,25.391,78.125,110.352,0
1486224191.369,23.926,28.809,30.762,70.312,137.207,0
1486224191.373,-41.504,33.203,49.316,64.941,58.594,0
1486224191.377,14.648,31.738,49.316,62.988,10.254,0
1486224191.381,111.816,25.879,31.250,74.707,28.809,0
1486224191.385,114.258,25.879,30.273,86.426,88.379,0
1486224191.389,44.922,33.203,37.598,81.055,76.172,0
1486224191.393,-16.602,45.898,51.758,80.078,41.992,0
1486224191.397,9.277,38.574,45.410,69.824,10.254,0
1486224191.401,103.027,18.555,25.391,73.730,-1.465,0
1486224191.405,122.559,19.043,27.832,90.332,70.312,0
1486224191.409,59.082,26.367,25.879,72.754,114.746,0
1486224191.412,-18.555,27.832,38.086,60.547,78.125,0
1486224191.416,5.859,33.203,51.270,61.523,24.414,0
1486224191.420,98.145,30.762,34.180,70.801,-5.859,0
1486224191.424,118.164,21.484,36.621,89.355,65.430,0
1486224191.428,59.570,31.250,48.340,85.938,97.168,0
1486224191.432,-31.250,35.156,38.574,71.289,66.406,0
1486224191.436,-17.090,25.391,33.691,63.965,-14.648,0
1486224191.440,91.309,24.902,32.227,80.078,-36.621,0
1486224191.444,129.395,28.320,40.527,97.656,62.012,0
1486224191.448,63.965,23.438,37.109,79.102,88.379,0
1486224191.451,-33.203,22.461,24.414,57.129,92.773,1
1486224191.455,-37.598,30.273,32.715,52.246,43.945,0
1486224191.459,60.059,24.414,34.180,63.477,-61.035,0
1486224191.463,115.234,28.320,33.691,80.078,18.066,0
1486224191.467,66.895,30.762,45.410,78.613,104.492,0
1486224191.471,-37.109,19.531,43.945,62.500,89.844,0
1486224191.475,-56.152,28.809,30.762,54.688,27.344,0
1486224191.479,45.410,21.973,22.949,55.176,-28.320,0
1486224191.483,111.816,19.531,40.527,81.055,20.996,0
1486224191.487,83.008,26.855,45.898,83.984,80.078,0
1486224191.491,-3.906,24.414,46.875,65.918,69.336,0
1486224191.494,-35.645,22.949,40.527,57.617,44.922,0
1486224191.498,55.176,22.949,28.320,60.059,2.930,0
1486224191.502,128.906,29.297,38.574,87.402,6.836,0
1486224191.506,105.957,32.715,43.457,96.680,49.805,0
1486224191.510,12.695,22.461,44.922,71.289,62.500,0
1486224191.514,-42.480,24.902,46.387,62.012,49.316,0
1486224191.518,36.133,27.344,44.434,62.012,-8.301,0
1486224191.522,119.141,20.996,44.922,70.312,12.695,0
1486224191.526,100.586,26.367,40.527,83.984,89.844,0
1486224191.530,10.254,29.297,46.875,68.848,115.234,0
1486224191.534,-58.105,24.902,49.316,50.293,72.266,0
1486224191.537,-0.977,22.949,30.273,44.434,-22.949,0
1486224191.541,101.074,27.344,36.133,67.871,25.879,0
1486224191.545,99.609,27.832,38.086,77.637,122.070,0
1486224191.549,10.254,22.949,35.645,55.664,98.633,0
1486224191.553,-62.012,23.438,45.898,45.410,70.312,0
1486224191.557,-11.230,22.461,32.715,48.340,11.230,0
1486224191.561,88.867,22.949,33.203,68.359,-35.156,0
1486224191.565,97.656,20.996,45.410,82.031,56.152,0
1486224191.569,28.320,17.090,37.109,70.312,124.512,0
1486224191.573,-42.969,24.414,42.480,63.477,113.281,0
1486224191.576,-4.395,31.250,45.410,68.848,25.879,0
1486224191.580,97.656,31.250,43.457,73.242,-8.789,0
1486224191.584,121.582,27.344,48.340,83.496,67.871,0
1486224191.588,57.617,31.250,46.387,82.520,105.469,0
1486224191.592,-45.410,32.715,31.738,62.012,107.910,0
1486224191.596,-32.715,24.902,30.273,51.270,25.879,0
1486224191.600,80.566,20.996,44.922,73.242,-28.809,0
1486224191.604,107.422,20.020,39.551,84.961,34.668,0
1486224191.608,50.781,27.344,33.203,66.895,93.750,0
1486224191.612,-35.645,32.227,41.504,52.734,71.777,0
1486224191.616,-32.227,28.320,33.203,53.711,7.812,0
1486224191.619,81.543,35.156,29.785,66.895,-18.066,0
1486224191.623,122.559,39.551,45.410,79.102,61.035,0
1486224191.627,74.707,36.133,38.574,68.848,85.449,0
1486224191.631,-17.578,36.621,24.414,52.246,82.520,0
1486224191.635,-38.574,28.320,30.273,46.875,64.453,0
1486224191.639,66.895,21.973,37.598,57.129,16.113,0
1486224191.643,119.141,26.855,34.180,76.660,80.078,0
1486224191.647,86.426,40.527,43.945,81.543,133.301,0
1486224191.651,-5.859,35.645,46.875,74.707,81.055,0
1486224191.655,-50.781,25.879,35.645,58.594,32.715,0
1486224191.658,53.711,32.227,29.297,62.988,-16.602,0
1486224191.662,132.324,34.668,36.621,80.566,30.762,0
1486224191.666,94.238,31.738,35.156,85.938,108.398,0
1486224191.670,-2.441,23.438,28.809,71.777,94.238,0
1486224191.674,-49.316,18.066,40.039,54.688,91.797,0
1486224191.678,41.992,24.414,37.109,65.430,18.066,0
1486224191.682,126.465,23.438,31.738,82.031,14.648,0
1486224191.686,96.680,15.625,35.156,80.078,97.168,0
1486224191.690,12.207,21.973,49.316,68.848,113.281,0
1486224191.694,-38.574,28.320,52.246,57.617,88.379,0
1486224191.698,34.180,27.832,35.645,56.641,1.465,0
1486224191.701,126.465,37.109,29.297,79.102,-13.184,0
1486224191.705,116.211,40.527,38.086,91.797,89.355,0
1486224191.709,21.484,28.320,33.691,71.289,82.520,0
1486224191.713,-54.199,23.438,29.297,47.852,51.270,0
1486224191.717,1.465,17.578,35.645,47.363,32.715,0
1486224191.721,106.445,18.066,32.227,67.871,30.273,0
1486224191.725,118.652,23.438,33.691,81.055,83.008,0
1486224191.729,41.992,29.297,37.109,72.754,83.984,0
1486224191.733,-34.180,35.156,38.574,59.082,76.172,0
1486224191.737,4.395,32.715,32.715,57.617,18.066,0
1486224191.741,104.004,34.180,37.109,71.777,-13.184,0
1486224191.744,116.211,30.762,41.504,80.078,83.984,0
1486224191.748,38.574,23.438,41.016,70.801,110.352,0
1486224191.752,-44.922,26.367,38.086,62.012,69.824,0
1486224191.756,-13.672,30.273,26.855,54.199,34.180,0
1486224191.760,80.566,23.926,34.668,62.012,-45.898,0
1486224191.764,106.934,22.949,45.410,78.125,11.719,0
1486224191.768,54.199,36.621,41.504,76.172,91.797,0
1486224191.772,-39.062,31.738,36.133,58.105,93.750,0
1486224191.776,-35.645,29.297,23.926,41.016,33.691,0
1486224191.780,76.660,34.180,21.973,60.059,13.184,0
1486224191.783,124.023,26.855,35.156,89.355,88.379,0
1486224191.787,66.406,22.461,35.156,75.684,117.188,0
1486224191.791,-29.785,22.949,36.621,55.664,114.258,0
1486224191.795,-30.762,29.785,50.781,60.059,52.734,0
1486224191.799,71.289,30.273,58.105,66.895,-11.719,0
1486224191.803,113.770,26.855,42.480,77.637,51.270,0
1486224191.807,68.359,31.738,30.273,75.684,87.402,0
1486224191.811,-29.297,22.461,28.809,51.758,80.078,0
1486224191.815,-38.086,31.250,39.062,53.711,44.922,0
1486224191.819,65.430,35.156,40.039,72.754,-41.992,0
1486224191.823,115.234,25.391,27.832,81.055,26.855,0
1486224191.826,82.031,27.832,37.109,81.055,123.047,0
1486224191.830,-10.742,28.320,44.922,62.988,95.215,0
1486224191.834,-53.223,24.902,32.715,50.781,62.988,0
1486224191.838,48.828,31.738,36.133,58.594,-4.395,0
1486224191.842,124.023,32.227,46.875,71.777,2.930,0
1486224191.846,84.961,22.461,38.086,79.102,63.965,0
1486224191.850,2.441,30.762,36.133,67.383,74.219,0
1486224191.854,-48.340,36.621,40.527,51.758,49.316,0
1486224191.858,24.902,25.391,30.762,54.199,-12.207,0
1486224191.862,111.328,20.020,27.832,74.219,38.574,0
1486224191.866,96.680,32.715,46.387,88.867,100.586,0
1486224191.869,2.441,30.762,40.039,69.336,62.500,0
1486224191.873,-50.781,29.785,37.598,60.547,40.039,0
1486224191.877,23.926,33.691,47.852,67.871,26.855,0
1486224191.881,112.305,26.367,35.645,71.289,21.973,0
1486224191.885,105.469,24.414,31.250,75.195,64.453,0
1486224191.889,18.555,26.367,35.156,64.453,76.660,0
1486224191.893,-54.688,26.855,33.203,54.199,54.199,0
1486224191.897,4.395,32.227,35.645,54.688,-8.301,0
1486224191.901,106.934,34.668,41.992,73.730,-23.438,0
1486224191.905,110.352,33.203,41.992,87.402,58.594,0
1486224191.908,27.344,30.273,45.898,73.242,97.656,0
1486224191.912,-53.711,25.879,48.828,54.199,95.703,0
1486224191.916,-12.695,23.438,37.109,47.363,67.383,0
1486224191.920,97.168,30.273,31.738,65.430,12.207,0
1486224191.924,116.211,32.715,37.598,83.984,55.176,0
1486224191.928,49.316,26.855,32.227,68.359,115.723,0
1486224191.932,-31.250,28.809,28.809,56.152,96.191,0
1486224191.936,-15.137,36.621,34.180,58.594,5.371,0
1486224191.940,92.773,34.668,41.992,65.918,-36.133,0
1486224191.944,127.930,24.902,33.691,78.613,48.828,0
1486224191.948,63.965,28.320,32.227,72.266,71.777,0
1486224191.951,-23.926,34.668,52.734,66.406,57.129,0
1486224191.955,-21.973,24.414,49.805,62.988,39.551,0
1486224191.959,83.984,23.438,32.227,67.383,-4.883,0
1486224191.963,126.953,22.949,28.320,78.125,76.172,0
1486224191.967,63.965,15.625,29.785,72.266,122.559,0
1486224191.971,-32.227,24.902,36.133,56.641,94.238,0
1486224191.975,-49.805,32.715,42.480,57.617,40.039,0
1486224191.979,52.734,27.344,32.227,65.918,-41.504,0
1486224191.983,111.816,22.461,43.457,79.590,37.109,0
1486224191.987,68.359,33.691,58.105,79.102,106.934,0
1486224191.990,-26.855,33.691,41.992,63.965,84.473,0
1486224191.994,-58.105,25.391,35.645,52.246,44.434,0
1486224191.998,46.875,24.902,30.762,51.758,-22.461,0
1486224192.002,112.305,18.555,27.344,63.477,30.762,0
1486224192.006,77.637,25.879,43.945,62.012,104.492,0
1486224192.010,-10.742,37.109,40.039,50.781,119.141,0
1486224192.014,-59.570,30.273,31.738,47.363,79.102,0
1486224192.018,28.320,19.043,44.922,50.781,-8.789,0
1486224192.022,117.676,28.320,42.969,75.684,26.367,0
1486224192.026,90.332,38.086,36.133,83.008,99.609,0
1486224192.030,-1.953,32.715,40.039,69.824,96.680,0
1486224192.033,-51.270,33.203,36.133,61.035,58.105,0
1486224192.037,17.090,30.273,31.738,51.758,-55.176,0
1486224192.041,104.492,18.555,37.598,69.336,-32.227,1
1486224192.045,99.121,24.414,43.945,79.102,103.027,0
1486224192.049,23.926,31.250,39.551,64.453,97.168,0
1486224192.053,-47.363,32.227,41.016,54.199,65.430,0
1486224192.057,12.695,32.227,40.527,49.805,9.277,0
1486224192.061,118.164,32.227,26.855,70.801,-19.043,0
1486224192.065,107.422,30.273,25.391,80.566,43.945,0
1486224192.069,30.762,26.855,32.715,66.895,82.520,0
1486224192.073,-41.016,32.227,43.945,56.641,91.797,0
1486224192.076,-6.348,24.902,42.480,51.270,-7.324,0
1486224192.080,89.355,22.949,39.551,64.941,-64.941,0
1486224192.084,103.516,24.902,36.133,78.125,41.504,0
1486224192.088,50.781,25.879,37.109,77.148,76.660,0
1486224192.092,-31.738,33.203,50.293,69.336,74.219,0
1486224192.096,-9.277,35.156,35.156,61.035,22.461,0
1486224192.100,94.238,31.738,26.367,79.102,4.883,0
1486224192.104,117.188,26.855,35.156,97.656,98.633,0
1486224192.108,66.895,31.250,49.805,85.938,146.484,0
1486224192.112,-33.691,26.367,55.176,62.500,137.207,0
1486224192.115,-24.414,24.414,43.945,49.805,57.617,0
1486224192.119,87.402,32.715,36.133,61.523,-2.441,0
1486224192.123,118.652,29.297,35.645,83.496,60.547,0
1486224192.127,60.059,25.391,41.992,76.172,115.234,0
1486224192.131,-30.273,27.344,40.039,59.082,119.141,0
1486224192.135,-31.250,27.832,29.785,54.688,65.918,0
1486224192.139,74.707,28.809,30.762,60.547,6.836,0
1486224192.143,122.559,27.344,35.645,78.125,84.473,0
1486224192.147,84.473,36.621,42.969,88.379,119.141,0
1486224192.151,0.977,37.598,47.852,76.172,100.098,0
1486224192.155,-29.785,24.902,36.621,61.035,52.734,0
1486224192.158,71.777,35.645,40.527,75.684,-35.645,0
1486224192.162,133.789,22.949,43.945,92.285,24.414,0
1486224192.166,88.379,12.207,33.203,88.867,101.074,0
1486224192.170,-7.324,25.391,35.156,73.730,111.328,0
1486224192.174,-38.086,26.855,33.203,63.965,80.078,0
1486224192.178,46.387,26.855,31.250,64.453,18.066,0
1486224192.182,115.723,32.227,34.668,87.402,60.059,0
1486224192.186,92.285,33.203,41.016,95.215,95.215,0
1486224192.190,2.930,27.344,41.504,65.918,92.285,0
1486224192.194,-50.781,26.367,34.180,50.781,110.352,0
1486224192.198,30.273,24.414,30.273,50.293,-1.465,0
1486224192.201,120.117,28.320,32.715,70.801,-11.719,0
1486224192.205,91.797,22.949,33.203,75.195,54.199,0
1486224192.209,2.441,23.926,40.039,66.406,46.875,0
1486224192.213,-48.828,39.551,38.574,55.176,62.500,0
1486224192.217,10.254,29.297,26.367,42.480,9.766,0
1486224192.221,102.051,24.902,37.109,67.383,-12.207,0
1486224192.225,96.191,28.320,31.250,72.754,63.965,0
1486224192.229,19.531,25.879,20.996,59.082,78.125,0
1486224192.233,-50.293,21.484,38.086,54.199,18.066,0
1486224192.237,-4.395,22.949,32.715,44.922,-34.668,0
1486224192.240,97.168,28.320,26.367,62.012,-46.875,0
1486224192.244,103.516,24.902,42.969,84.473,46.387,0
1486224192.248,28.809,37.598,37.109,67.383,88.379,0
1486224192.252,-45.410,41.016,27.832,46.875,82.520,0
1486224192.256,-5.859,22.949,37.109,50.781,40.527,0
1486224192.260,89.355,18.555,36.133,61.035,-4.883,0
1486224192.264,111.328,25.879,33.691,79.590,73.242,0
1486224192.268,51.270,34.180,37.109,80.078,121.094,0
1486224192.272,-34.180,31.250,32.227,57.617,80.566,0
1486224192.276,-11.719,26.855,27.344,55.664,5.859,0
1486224192.280,83.008,25.391,22.949,71.289,-33.203,0
1486224192.283,122.070,30.273,28.320,86.426,28.320,0
1486224192.287,58.105,32.715,37.109,75.195,74.219,0
1486224192.291,-32.715,37.109,39.551,62.988,74.219,0
1486224192.295,-22.949,34.668,37.598,62.500,40.527,0
1486224192.299,76.172,20.996,38.574,63.965,-0.977,0
1486224192.303,120.117,22.461,35.156,79.590,79.102,0
1486224192.307,60.547,29.785,22.949,72.754,109.863,0
1486224192.311,-35.156,29.785,25.879,59.082,61.523,0
1486224192.315,-41.016,33.691,25.879,53.711,4.883,0
1486224192.319,72.266,27.832,25.391,50.781,-64.453,0
1486224192.322,125.977,21.484,38.574,75.684,-5.859,0
1486224192.326,72.266,30.273,45.410,81.543,64.453,0
1486224192.330,-21.973,37.109,42.480,63.965,66.895,0
1486224192.334,-43.457,31.738,41.016,55.176,39.551,0
1486224192.338,57.617,26.367,40.039,58.105,-16.602,0
1486224192.342,113.281,31.250,29.297,71.289,6.348,0
1486224192.346,82.031,32.715,21.484,69.824,37.109,0
1486224192.350,-5.371,30.273,28.809,52.734,73.730,0
1486224192.354,-55.664,29.297,36.621,48.340,71.289,0
1486224192.358,41.016,25.879,30.762,56.641,-28.320,0
1486224192.362,116.211,29.785,34.180,72.754,-7.812,0
1486224192.365,92.773,42.480,41.016,78.613,70.312,0
1486224192.369,1.953,30.762,41.504,67.871,80.566,0
1486224192.373,-62.500,27.344,37.598,56.152,28.320,0
1486224192.377,22.949,35.645,42.480,54.199,-37.109,0
1486224192.381,113.281,24.414,39.551,68.359,-15.625,0
1486224192.385,99.609,23.926,22.949,76.172,32.227,0
1486224192.389,19.043,33.203,29.785,67.871,61.035,0
1486224192.393,-55.176,31.738,38.086,49.805,30.762,0
1486224192.397,12.695,29.297,39.062,53.223,-24.902,0
1486224192.401,114.258,30.273,51.758,74.707,-21.973,0
1486224192.405,102.539,19.531,53.711,75.195,67.383,0
1486224192.408,20.020,26.367,39.551,64.453,107.910,0
1486224192.412,-50.293,35.645,39.062,55.176,98.145,0
1486224192.416,-1.465,29.785,45.898,51.270,34.180,0
1486224192.420,96.191,29.785,35.645,68.359,20.996,0
1486224192.424,102.539,20.508,25.391,70.801,102.539,0
1486224192.428,37.598,26.367,28.320,59.570,114.746,0
1486224192.432,-44.922,35.156,34.668,52.246,95.703,0
1486224192.436,-21.484,24.414,44.434,48.340,43.457,0
1486224192.440,90.332,23.438,40.039,64.453,21.484,0
1486224192.444,109.863,23.438,25.879,72.754,80.566,0
1486224192.447,49.316,36.133,54.688,72.266,109.375,0
1486224192.451,-32.715,39.551,56.641,62.988,101.074,0
1486224192.455,-28.320,31.738,28.809,43.945,49.316,0
1486224192.459,78.125,27.832,29.785,58.105,-6.348,0
1486224192.463,116.211,25.391,33.691,76.660,69.336,0
1486224192.467,52.246,24.414,31.738,67.383,125.488,0
1486224192.471,-39.551,24.902,29.297,54.199,105.957,0
1486224192.475,-35.156,29.785,38.086,47.363,31.250,0
1486224192.479,62.500,22.461,43.457,52.246,-37.109,0
1486224192.483,120.117,23.926,37.598,82.031,55.664,0
1486224192.487,68.359,26.855,36.133,77.637,90.820,0
1486224192.490,-32.715,29.785,41.992,53.711,50.293,0
1486224192.494,-40.039,28.809,39.551,47.852,18.066,0
1486224192.498,54.688,24.902,28.320,53.711,-32.227,0
1486224192.502,118.652,31.738,33.203,74.219,52.734,0
1486224192.506,75.684,23.926,36.621,67.383,111.816,0
1486224192.510,-28.320,23.438,30.273,45.410,82.520,0
1486224192.514,-60.059,26.367,38.086,43.457,63.965,0
1486224192.518,41.016,20.508,39.062,58.105,-26.855,0
1486224192.522,118.652,26.855,39.551,78.125,-15.625,0
1486224192.526,103.516,39.551,47.363,85.938,48.828,0
1486224192.530,6.348,34.180,40.527,69.824,31.250,0
1486224192.533,-63.965,26.367,31.250,50.293,19.531,0
1486224192.537,23.926,25.879,32.715,51.758,-39.551,0
1486224192.541,112.793,24.902,41.016,78.613,-3.418,0
1486224192.545,87.891,23.438,44.434,81.543,101.074,0
1486224192.549,5.859,29.297,38.574,65.918,99.121,0
1486224192.553,-52.734,27.832,31.738,55.176,75.195,0
1486224192.557,14.160,26.367,35.156,53.223,-5.859,0
1486224192.561,112.305,34.668,44.434,79.590,-32.715,0
1486224192.565,107.422,34.180,40.527,93.750,70.312,0
1486224192.569,27.832,29.785,36.621,78.613,96.191,0
1486224192.572,-39.062,29.297,39.062,68.359,82.520,0
1486224192.576,13.672,30.273,44.922,66.406,30.273,0
1486224192.580,112.305,32.227,41.992,85.449,0.000,0
1486224192.584,114.258,27.832,32.227,86.426,62.500,0
1486224192.588,40.527,35.156,43.945,78.125,107.910,0
1486224192.592,-41.016,32.715,56.152,72.266,123.047,0
1486224192.596,-16.602,25.391,37.109,51.758,58.105,0
1486224192.600,90.332,29.297,31.738,62.500,13.184,0
1486224192.604,110.352,23.438,44.434,80.078,69.336,0
1486224192.608,31.738,23.438,41.992,62.012,96.680,0
1486224192.612,-51.270,28.809,34.668,45.410,99.609,0
1486224192.615,-27.344,30.273,33.691,47.363,30.273,0
1486224192.619,77.148,31.250,33.203,59.570,-20.996,0
1486224192.623,115.234,27.832,44.434,78.125,50.293,0
1486224192.627,49.316,32.227,44.434,67.383,89.844,0
1486224192.631,-47.852,27.344,37.598,46.875,87.891,0
1486224192.635,-32.715,29.297,44.922,51.270,44.922,0
1486224192.639,80.078,37.109,45.410,63.477,-22.461,0
1486224192.643,116.699,30.273,40.527,65.918,39.062,0
1486224192.647,47.852,25.391,30.762,58.105,95.215,0
1486224192.651,-39.551,28.809,31.738,48.828,94.238,0
1486224192.654,-35.645,22.461,34.180,46.875,11.719,0
1486224192.658,66.895,22.461,30.273,60.547,-62.988,0
1486224192.662,118.164,29.297,39.062,78.613,1.953,0
1486224192.666,76.660,32.715,49.805,75.684,63.477,0
1486224192.670,-16.113,39.062,56.152,60.547,75.684,0
1486224192.674,-38.086,29.297,32.715,47.852,31.738,0
1486224192.678,61.523,21.973,25.391,53.223,-14.648,0
1486224192.682,121.582,31.738,40.039,71.289,32.715,0
1486224192.686,88.867,29.297,36.621,73.242,82.520,0
1486224192.690,4.395,28.320,39.551,65.430,72.754,0
1486224192.694,-37.109,25.879,32.715,48.828,36.621,0
1486224192.697,47.852,21.484,24.902,41.504,-82.031,1
1486224192.701,125.000,21.484,34.668,60.547,-30.273,0
1486224192.705,103.027,28.809,43.945,73.730,97.168,0
1486224192.709,10.742,31.250,49.316,56.641,97.168,0
1486224192.713,-47.363,19.043,44.922,41.504,56.152,0
1486224192.717,23.438,20.508,37.109,53.223,-20.020,0
1486224192.721,111.328,24.414,34.668,75.195,14.160,0
1486224192.725,94.727,23.438,31.738,81.055,73.730,0
1486224192.729,7.324,26.855,28.809,68.848,62.988,0
1486224192.733,-51.270,29.297,22.949,55.176,75.195,0
1486224192.737,13.672,25.391,34.668,54.688,2.930,0
1486224192.740,109.375,23.438,44.922,73.730,-18.066,0
1486224192.744,113.281,30.762,45.410,83.496,55.176,0
1486224192.748,40.527,35.156,51.270,69.824,64.941,0
1486224192.752,-38.086,25.391,48.340,55.664,49.805,0
1486224192.756,5.859,21.484,37.109,53.711,-5.371,0
1486224192.760,103.516,23.438,31.250,61.035,-25.879,0
1486224192.764,106.445,17.090,19.043,71.777,41.992,0
1486224192.768,35.156,25.879,25.879,62.012,70.312,0
1486224192.772,-44.434,33.691,38.086,50.781,68.359,0
1486224192.776,-7.324,24.902,29.785,52.734,9.766,0
1486224192.779,96.680,25.879,39.551,65.430,-43.457,0
1486224192.783,111.328,26.367,40.039,81.055,63.965,0
1486224192.787,37.598,25.879,40.527,69.336,102.539,0
1486224192.791,-49.805,23.438,45.410,52.734,78.613,0
1486224192.795,-28.809,27.344,34.668,51.758,39.062,0
1486224192.799,79.590,31.738,35.156,62.988,17.578,0
1486224192.803,116.211,20.508,37.598,73.730,78.125,0
1486224192.807,60.547,26.855,36.133,73.730,103.516,0
1486224192.811,-33.691,26.855,33.691,57.129,84.473,0
1486224192.815,-33.691,21.484,34.180,42.969,43.457,0
1486224192.819,76.660,23.926,34.180,62.500,0.977,0
1486224192.822,127.930,26.367,38.574,77.637,50.781,0
1486224192.826,77.637,31.738,41.504,68.359,94.727,0
1486224192.830,-17.578,27.344,41.016,56.152,77.637,0
1486224192.834,-40.527,23.926,34.180,46.875,50.293,0
1486224192.838,59.570,31.738,25.879,51.270,-51.270,0
1486224192.842,122.070,33.203,41.504,78.613,-24.902,0
1486224192.846,69.336,18.555,40.527,69.336,65.430,0
1486224192.850,-25.879,18.555,32.227,53.711,67.383,0
1486224192.854,-51.758,24.902,38.574,53.223,14.648,0
1486224192.858,46.387,27.832,36.133,59.082,-41.016,0
1486224192.862,125.488,27.344,33.203,81.543,41.504,0
1486224192.865,92.773,29.785,41.016,82.031,113.281,0
1486224192.869,1.953,39.062,60.059,75.684,74.707,0
1486224192.873,-48.340,35.156,52.246,64.941,34.668,0
1486224192.877,41.992,23.926,31.250,58.594,-53.711,0
1486224192.881,124.023,16.113,32.227,69.336,-32.715,0
1486224192.885,94.238,20.508,36.621,77.637,104.492,0
1486224192.889,16.602,29.785,35.156,70.801,100.586,0
1486224192.893,-40.039,27.832,32.715,54.688,49.805,0
1486224192.897,35.156,28.809,30.273,62.988,-5.371,0
1486224192.901,123.047,28.320,37.109,81.055,17.090,0
1486224192.904,113.281,37.109,50.293,87.402,83.984,0
1486224192.908,28.809,41.016,38.086,76.172,70.312,0
1486224192.912,-45.898,25.879,20.508,62.012,61.523,0
1486224192.916,10.254,22.461,26.855,54.199,20.508,0
1486224192.920,116.211,28.320,35.645,66.895,8.301,0
1486224192.924,122.559,30.273,38.574,83.496,70.312,0
1486224192.928,40.039,32.715,40.527,70.801,86.426,0
1486224192.932,-31.250,33.691,34.668,56.641,65.430,0
1486224192.936,9.766,26.367,20.508,53.223,-37.109,0
1486224192.940,100.586,25.391,25.391,64.941,-65.918,0
1486224192.944,116.699,32.715,37.109,83.984,37.109,0
1486224192.947,51.270,33.691,44.434,75.684,61.035,0
1486224192.951,-39.062,27.344,39.062,57.617,51.758,0
1486224192.955,-18.555,27.832,29.297,60.547,-0.488,0
1486224192.959,87.891,25.391,38.574,76.172,-45.410,0
1486224192.963,113.281,20.996,45.410,92.285,54.199,0
1486224192.967,46.875,19.531,36.621,83.984,91.309,0
1486224192.971,-36.621,20.020,41.992,68.359,67.871,0
1486224192.975,-20.996,21.484,48.340,63.965,28.320,0
1486224192.979,78.613,20.996,27.344,68.359,-37.109,0
1486224192.983,123.535,35.156,32.715,84.473,15.137,0
1486224192.986,76.172,40.039,46.387,81.543,46.387,0
1486224192.990,-26.855,26.367,38.574,57.617,76.660,0
1486224192.994,-32.227,25.879,39.062,52.734,62.500,0
1486224192.998,79.590,25.391,35.645,71.289,-19.531,0
1486224193.002,118.164,23.438,33.203,82.520,19.043,0
1486224193.006,62.500,23.926,34.180,80.078,89.844,0
1486224193.010,-25.879,21.973,29.785,68.848,124.512,0
1486224193.014,-45.898,24.902,37.598,58.594,78.125,0
1486224193.018,51.270,22.461,37.598,56.641,-7.324,0
1486224193.022,116.211,27.344,42.969,76.172,58.594,0
1486224193.026,80.078,32.715,49.316,73.242,128.418,0
1486224193.029,-16.602,32.227,35.645,42.969,91.797,0
1486224193.033,-47.852,29.785,25.391,39.551,32.227,0
1486224193.037,44.922,21.973,24.902,42.480,-20.508,0
1486224193.041,114.258,17.578,25.391,54.199,-0.977,0
1486224193.045,81.543,21.484,31.738,59.570,74.219,0
1486224193.049,-5.371,31.738,34.180,50.781,82.031,0
1486224193.053,-47.363,31.250,43.457,51.270,49.316,0
1486224193.057,25.391,23.438,38.574,48.828,-7.812,0
1486224193.061,118.652,33.691,35.156,75.684,-4.883,0
1486224193.065,104.492,40.527,48.340,91.797,91.797,0
1486224193.069,-2.441,18.066,39.551,65.918,111.816,0
1486224193.072,-59.570,16.602,31.738,55.664,54.688,0
1486224193.076,14.648,26.367,23.926,61.035,-26.367,0
1486224193.080,108.398,24.414,37.109,79.590,-29.785,0
1486224193.084,106.934,25.879,47.852,86.426,32.715,0
1486224193.088,20.020,31.250,38.086,66.895,70.801,0
1486224193.092,-45.898,23.926,38.086,55.664,52.734,0
1486224193.096,4.395,11.719,38.574,45.898,-16.113,0
1486224193.100,96.191,21.484,29.785,69.824,-10.254,0
1486224193.104,120.117,43.945,37.109,95.703,53.711,0
1486224193.108,39.062,36.621,38.086,67.871,65.918,0
1486224193.111,-47.852,20.508,33.203,49.805,56.152,0
1486224193.115,-12.695,20.996,35.156,49.805,-3.906,0
1486224193.119,89.355,25.391,29.785,63.965,-5.859,0
1486224193.123,114.746,26.855,45.898,81.543,92.285,0
1486224193.127,42.480,20.996,50.781,69.824,83.496,0
1486224193.131,-50.781,19.043,33.691,48.828,55.176,0
1486224193.135,-30.273,21.484,35.645,45.410,17.578,0
1486224193.139,81.543,29.785,34.180,62.988,-21.484,0
1486224193.143,108.398,27.344,36.133,78.613,47.363,0
1486224193.147,42.969,22.461,34.668,69.824,80.078,0
1486224193.151,-49.316,25.879,35.645,49.316,53.223,0
1486224193.154,-45.898,25.391,41.016,46.875,11.719,0
1486224193.158,64.941,27.832,40.527,60.547,-61.523,0
1486224193.162,119.629,27.832,42.969,81.055,22.461,0
1486224193.166,68.848,23.438,36.133,65.430,84.473,0
1486224193.170,-28.320,22.949,39.062,43.457,19.043,0
1486224193.174,-36.621,28.320,34.668,46.387,10.254,0
1486224193.178,69.824,32.227,39.551,62.988,15.137,0
1486224193.182,122.070,26.855,41.992,74.707,19.043,0
1486224193.186,70.801,24.414,32.227,68.848,62.988,0
1486224193.190,-14.160,28.809,40.039,64.453,78.125,0
1486224193.194,-37.109,32.227,47.363,56.152,62.988,0
1486224193.197,48.828,31.738,46.387,57.617,-21.484,0
1486224193.201,116.211,36.621,48.340,74.219,-0.977,0
1486224193.205,79.590,25.879,39.551,65.430,92.773,0
1486224193.209,-14.160,20.508,20.996,47.852,59.570,0
1486224193.213,-48.340,28.809,24.414,45.898,49.316,0
1486224193.217,50.781,35.645,41.992,54.688,9.766,0
1486224193.221,117.676,31.738,36.133,72.754,18.066,0
1486224193.225,85.938,25.879,29.297,72.754,102.051,0
1486224193.229,7.324,33.203,39.062,58.594,125.488,0
1486224193.233,-48.340,31.738,47.363,54.688,77.148,0
1486224193.236,29.785,28.320,47.363,61.523,-10.254,0
1486224193.240,113.770,26.367,26.855,71.777,21.484,0
1486224193.244,95.215,24.902,21.973,72.266,91.309,0
1486224193.248,14.648,27.344,25.879,61.523,53.223,0
1486224193.252,-48.340,34.668,29.297,52.246,35.645,0
1486224193.256,14.648,34.668,35.645,49.316,-7.812,0
1486224193.260,112.305,32.227,40.527,62.500,-12.695,0
1486224193.264,114.258,35.156,41.016,77.637,33.203,0
1486224193.268,30.762,23.438,45.898,64.941,44.434,0
1486224193.272,-46.875,19.043,44.434,47.363,58.105,2
1486224193.276,4.395,29.297,30.273,48.828,-7.812,0
1486224193.279,105.469,27.344,30.762,63.477,-41.016,0
1486224193.283,113.770,21.484,30.273,73.242,49.316,0
1486224193.287,39.551,29.785,30.273,66.406,86.426,0
1486224193.291,-43.945,30.273,31.738,57.129,78.613,0
1486224193.295,-11.719,24.902,27.832,54.199,37.598,0
1486224193.299,98.145,25.391,36.621,71.289,-7.812,0
1486224193.303,122.070,30.762,52.734,90.332,42.480,0
1486224193.307,57.129,35.156,49.316,81.055,80.078,0
1486224193.311,-30.273,31.250,42.480,61.523,90.332,0
1486224193.315,-14.648,27.344,47.852,58.594,50.781,0
1486224193.318,85.449,24.902,42.969,71.289,8.301,0
1486224193.322,110.352,20.996,29.297,82.031,61.035,0
1486224193.326,61.035,27.832,39.062,74.707,99.121,0
1486224193.330,-29.785,31.250,43.945,58.594,110.840,0
1486224193.334,-30.762,24.902,41.016,60.059,85.449,0
1486224193.338,71.289,24.902,40.039,68.848,0.488,0
1486224193.342,115.234,24.902,37.598,79.102,16.602,0
1486224193.346,70.312,24.902,41.504,75.195,73.242,0
1486224193.350,-23.926,32.715,48.828,55.664,86.426,0
1486224193.354,-50.781,34.180,45.410,46.875,46.875,0
1486224193.358,46.875,24.902,47.363,52.246,-18.555,0
1486224193.361,105.469,21.484,36.621,65.430,11.719,0
1486224193.365,64.941,21.973,29.785,71.777,67.383,0
1486224193.369,-18.555,28.809,37.598,62.988,61.035,0
1486224193.373,-50.781,28.809,31.250,49.316,25.879,0
1486224193.377,41.504,25.879,28.320,53.223,-0.977,0
1486224193.381,111.328,25.879,32.715,75.195,28.320,0
1486224193.385,82.520,27.344,37.109,76.660,111.816,0
1486224193.389,-0.488,28.809,43.945,62.012,100.098,0
1486224193.393,-54.688,30.762,41.504,54.688,31.738,0
1486224193.397,27.344,22.949,34.668,60.059,-21.484,0
1486224193.401,128.418,24.414,55.176,93.750,-24.414,0
1486224193.404,106.445,27.344,53.223,94.727,29.785,0
1486224193.408,7.812,28.320,26.855,71.289,63.477,0
1486224193.412,-46.875,30.273,30.762,68.848,92.773,0
1486224193.416,23.438,22.461,36.133,62.012,41.016,0
1486224193.420,113.770,24.414,26.367,74.707,41.016,0
1486224193.424,104.004,29.785,23.438,85.449,119.141,0
1486224193.428,29.785,37.598,31.738,64.941,128.418,0
1486224193.432,-35.645,32.715,37.109,47.363,112.793,0
1486224193.436,16.113,22.949,44.922,51.270,34.180,0
1486224193.440,121.582,22.461,43.945,68.848,20.996,0
1486224193.443,131.836,28.320,44.434,79.102,93.262,0
1486224193.447,58.105,33.691,41.992,74.219,98.145,0
1486224193.451,-30.273,26.367,27.832,58.594,123.047,0
1486224193.455,-1.465,29.297,29.785,56.152,76.660,0
1486224193.459,107.910,33.203,38.574,81.055,25.879,0
1486224193.463,122.070,21.484,31.738,88.867,124.512,0
1486224193.467,48.828,28.809,39.062,79.590,154.297,0
1486224193.471,-41.504,30.273,50.781,65.430,113.281,0
1486224193.475,-19.043,24.414,55.664,61.035,71.777,0
1486224193.479,90.820,26.367,45.410,77.637,13.672,0
1486224193.483,122.070,34.180,37.598,89.844,62.988,0
1486224193.486,58.594,29.297,35.645,77.148,85.449,0
1486224193.490,-24.902,26.367,32.715,60.059,67.871,0
1486224193.494,-15.137,33.203,39.551,58.594,28.320,0
1486224193.498,83.496,21.973,37.109,67.383,-29.785,0
1486224193.502,123.047,20.020,37.598,83.008,42.480,0
1486224193.506,72.754,30.273,38.086,79.590,92.773,0
1486224193.510,-20.508,21.973,34.668,58.594,106.934,0
1486224193.514,-33.691,21.484,45.898,50.293,68.359,0
1486224193.518,68.848,26.855,48.340,62.012,1.465,0
1486224193.522,126.953,25.879,41.016,81.055,60.547,0
1486224193.526,76.172,27.832,36.621,64.453,143.555,0
1486224193.529,-24.902,29.785,31.250,46.875,129.883,0
1486224193.533,-36.621,36.621,43.457,51.758,49.316,0
1486224193.537,64.941,35.645,34.668,57.129,-23.926,0
1486224193.541,125.977,27.344,24.414,61.035,25.879,0
1486224193.545,88.379,32.715,27.832,64.453,94.238,0
1486224193.549,-5.859,34.668,33.203,57.129,65.918,0
1486224193.553,-44.922,28.809,41.016,44.434,12.695,0
1486224193.557,45.410,28.320,32.715,43.945,-37.109,0
1486224193.561,121.582,24.414,38.086,63.477,14.648,0
1486224193.565,101.074,30.762,50.293,84.961,83.008,0
1486224193.568,11.230,29.297,47.363,64.941,102.051,0
1486224193.572,-41.504,25.391,37.109,50.293,118.652,0
1486224193.576,39.551,28.809,34.180,56.641,0.000,0
1486224193.580,123.047,27.832,32.227,72.754,-1.953,0
1486224193.584,107.422,31.250,31.250,83.984,107.422,0
1486224193.588,27.344,35.156,44.922,74.219,104.492,0
1486224193.592,-38.086,30.762,56.152,58.105,84.961,0
1486224193.596,13.672,25.391,44.434,49.805,11.230,0
1486224193.600,105.957,26.855,29.785,67.383,-16.113,0
1486224193.604,107.910,28.809,34.668,84.961,66.406,0
1486224193.608,31.738,24.414,39.551,68.359,102.051,0
1486224193.611,-48.340,26.855,32.715,45.410,77.637,0
1486224193.615,-5.371,29.297,29.785,50.293,3.906,0
1486224193.619,94.727,17.578,25.879,65.918,-17.090,0
1486224193.623,106.934,24.414,30.273,70.801,58.594,0
1486224193.627,45.898,33.691,33.203,63.965,76.172,0
1486224193.631,-36.133,29.297,31.738,52.246,99.121,0
1486224193.635,-6.836,30.762,42.480,51.758,50.293,0
1486224193.639,104.980,28.809,48.340,72.754,-20.996,0
1486224193.643,122.559,26.367,45.898,86.426,60.547,0
1486224193.647,56.152,28.320,38.574,74.219,88.867,0
1486224193.650,-31.250,25.879,38.086,64.941,68.848,0
1486224193.654,-13.672,33.691,46.875,74.219,15.137,0
1486224193.658,97.656,33.691,40.527,82.520,-27.344,0
1486224193.662,126.953,30.762,31.738,84.473,72.266,0
1486224193.666,59.570,28.320,38.574,72.266,107.910,0
1486224193.670,-31.738,22.461,43.945,59.082,66.895,0
1486224193.674,-25.879,24.902,45.410,53.223,54.688,0
1486224193.678,79.590,24.902,42.969,62.012,6.836,0
1486224193.682,120.605,25.879,36.621,78.125,49.805,0
1486224193.686,69.824,26.367,42.480,73.242,122.070,0
1486224193.690,-24.414,23.438,49.316,58.594,98.145,0
1486224193.693,-34.180,27.344,40.039,53.223,57.617,0
1486224193.697,54.688,26.367,32.227,58.105,-13.184,0
1486224193.701,114.746,22.949,39.551,84.961,45.898,0
1486224193.705,80.566,24.414,47.852,83.496,112.305,0
1486224193.709,-23.926,24.902,42.480,62.500,99.121,0
1486224193.713,-48.340,28.320,39.062,54.199,67.871,0
1486224193.717,46.387,28.320,33.691,58.594,-15.137,0
1486224193.721,118.164,25.391,44.434,77.637,19.043,0
1486224193.725,84.961,23.926,42.969,78.613,118.652,0
1486224193.729,-12.695,23.438,35.156,62.012,122.070,0
1486224193.733,-58.594,29.785,34.668,38.574,81.055,0
1486224193.736,29.297,30.273,24.902,35.156,-0.488,0
1486224193.740,116.699,28.809,26.367,58.594,27.344,0
1486224193.744,96.191,31.738,34.180,65.430,101.562,0
1486224193.748,13.184,37.598,25.879,57.617,92.285,0
1486224193.752,-49.316,30.273,29.297,45.410,87.891,0
1486224193.756,17.090,27.344,38.574,50.293,14.648,0
1486224193.760,110.352,35.156,38.574,71.777,-23.438,0
1486224193.764,99.121,26.367,44.434,76.660,63.477,0
1486224193.768,8.789,20.508,41.504,63.477,90.332,0
1486224193.772,-57.617,25.391,42.480,50.293,40.527,0
1486224193.775,3.418,21.973,40.039,52.246,5.859,0
1486224193.779,98.145,21.484,38.574,67.871,-12.695,0
1486224193.783,103.027,26.367,40.039,81.055,50.293,0
1486224193.787,26.367,24.902,29.785,67.871,100.586,0
1486224193.791,-55.176,25.391,38.086,54.688,64.941,0
1486224193.795,-14.648,26.367,44.434,53.223,3.418,0
1486224193.799,89.355,26.367,37.109,64.453,-5.371,0
1486224193.803,110.352,30.762,40.527,82.520,56.152,0
1486224193.807,40.527,30.762,42.480,76.172,72.754,0
1486224193.811,-45.898,33.203,38.086,60.547,73.242,0
1486224193.815,-17.090,28.320,36.621,58.105,21.973,0
1486224193.818,96.191,23.926,35.645,72.754,-29.297,0
1486224193.822,125.977,33.691,42.969,94.238,32.227,0
1486224193.826,53.223,24.902,39.551,80.078,72.754,0
1486224193.830,-35.645,18.066,31.250,55.176,50.781,0
1486224193.834,-21.484,26.855,35.645,49.316,22.461,0
1486224193.838,89.844,26.855,41.504,63.965,-28.809,0
1486224193.842,135.742,30.273,40.527,88.379,24.902,0
1486224193.846,80.566,38.086,40.039,81.543,47.363,0
1486224193.850,-18.066,34.668,45.410,61.523,48.828,0
1486224193.854,-33.691,24.414,38.086,51.270,34.180,0
1486224193.858,77.148,25.391,33.691,61.523,-53.223,0
1486224193.861,125.977,23.926,34.180,80.078,-8.301,0
1486224193.865,69.824,28.809,39.062,69.824,96.680,0
1486224193.869,-27.344,26.855,42.480,54.199,59.570,0
1486224193.873,-50.781,17.578,36.621,45.410,3.418,0
1486224193.877,50.293,21.973,42.969,53.711,-35.645,0
1486224193.881,115.234,22.461,38.574,79.590,20.996,0
1486224193.885,79.590,24.902,42.480,83.008,90.332,0
1486224193.889,-13.184,27.832,47.363,66.895,85.449,0
1486224193.893,-53.223,21.973,36.133,57.129,27.832,0
1486224193.897,43.945,18.555,43.945,65.918,-46.387,0
1486224193.900,124.512,22.949,46.387,83.008,41.504,0
1486224193.904,93.750,22.949,41.992,87.891,105.957,1
1486224193.908,4.883,23.438,38.086,72.754,76.172,0
1486224193.912,-41.504,29.297,31.250,63.965,62.988,0
1486224193.916,41.992,35.156,36.621,70.801,-20.020,0
1486224193.920,131.348,39.062,32.715,85.938,2.441,0
1486224193.924,121.582,36.621,36.133,89.844,67.871,0
1486224193.928,24.902,34.180,26.855,70.312,78.613,0
1486224193.932,-34.668,38.086,19.531,60.059,74.707,0
1486224193.936,29.297,27.344,43.945,59.570,8.301,0
1486224193.940,114.746,22.949,44.434,69.824,-31.250,0
1486224193.943,116.699,32.715,30.273,78.125,31.250,0
1486224193.947,29.785,26.855,38.574,61.523,96.191,0
1486224193.951,-49.316,22.461,45.410,48.828,61.523,0
1486224193.955,-5.371,21.973,28.809,48.828,-6.348,0
1486224193.959,98.633,26.367,30.273,72.266,-14.160,0
1486224193.963,104.004,26.367,45.898,84.961,50.293,0
1486224193.967,26.855,29.785,41.504,76.172,67.871,0
1486224193.971,-48.340,32.715,45.898,64.453,73.242,0
1486224193.975,-17.578,16.113,44.434,57.617,11.719,0
1486224193.979,94.727,17.578,29.297,75.195,-37.109,0
1486224193.982,122.070,27.344,41.992,99.609,83.008,0
1486224193.986,48.828,19.043,47.852,85.449,81.055,0
1486224193.990,-28.320,22.461,37.109,69.336,23.926,0
1486224193.994,-18.066,23.438,30.762,63.965,9.766,0
1486224193.998,86.914,21.484,44.434,74.219,-52.246,0
1486224194.002,142.090,27.344,51.270,92.773,7.812,0
1486224194.006,75.195,33.691,41.992,73.242,51.270,0
1486224194.010,-26.367,36.621,46.875,56.641,45.898,0
1486224194.014,-18.555,33.691,30.762,43.945,21.484,0
1486224194.018,89.844,28.320,20.508,49.316,-27.344,0
1486224194.022,134.277,30.762,31.250,77.637,43.945,0
1486224194.025,70.801,34.668,35.645,68.848,109.375,0
1486224194.029,-32.715,33.203,18.555,41.504,76.660,0
1486224194.033,-43.457,31.738,24.902,30.762,9.766,0
1486224194.037,63.965,31.250,36.133,40.527,-17.578,0
1486224194.041,115.234,30.273,35.156,62.988,60.059,0
1486224194.045,79.102,31.738,42.480,67.383,65.918,0
1486224194.049,-5.371,36.133,35.156,56.152,54.688,0
1486224194.053,-31.250,31.250,27.344,53.223,40.039,0
1486224194.057,70.312,31.250,40.039,68.848,-80.566,0
1486224194.061,144.531,33.203,36.621,94.238,-42.480,0
1486224194.065,113.281,29.297,26.367,93.750,104.492,0
1486224194.068,19.043,36.621,43.945,79.102,113.770,0
1486224194.072,-36.133,30.762,48.340,70.801,51.758,0
1486224194.076,49.805,22.949,37.109,67.383,13.672,0
1486224194.080,131.348,30.273,44.922,86.914,40.527,0
1486224194.084,107.422,31.738,52.246,95.703,83.984,0
1486224194.088,13.672,31.738,44.922,74.219,96.191,0
1486224194.092,-50.781,26.855,49.316,63.477,74.707,0
1486224194.096,24.902,27.344,49.316,65.430,-6.836,0
1486224194.100,110.352,22.461,41.504,70.801,-30.273,0
1486224194.104,93.750,20.020,31.250,81.543,34.668,0
1486224194.107,16.113,26.855,40.039,66.406,60.059,0
1486224194.111,-54.199,25.391,52.246,48.340,59.082,0
1486224194.115,-0.977,25.391,42.480,46.387,6.348,0
1486224194.119,100.586,28.320,35.156,60.059,2.930,0
1486224194.123,95.703,31.738,34.668,72.266,62.500,0
1486224194.127,21.973,33.691,48.340,65.918,51.758,0
1486224194.131,-55.664,33.203,41.504,50.293,61.035,0
1486224194.135,-10.742,28.320,26.367,42.969,45.410,0
1486224194.139,95.215,18.555,31.738,61.523,-25.879,0
1486224194.143,111.328,23.926,38.574,82.031,55.664,0
1486224194.147,42.480,27.344,29.785,71.777,91.309,0
1486224194.150,-37.598,25.391,28.809,57.129,60.059,0
1486224194.154,2.441,29.785,38.086,58.594,-0.977,0
1486224194.158,114.258,29.297,33.691,76.660,-27.832,0
1486224194.162,145.996,32.227,37.598,96.191,69.336,0
1486224194.166,79.102,32.227,42.480,86.426,67.871,0
1486224194.170,-14.160,30.762,39.062,72.266,67.871,0
1486224194.174,2.441,28.320,39.551,67.383,53.711,0
1486224194.178,103.516,19.531,39.062,76.660,-5.859,0
1486224194.182,127.441,13.184,33.691,91.309,56.152,0
1486224194.186,76.660,23.926,38.574,88.379,84.961,0
1486224194.190,-20.996,22.461,47.363,73.730,45.898,0
1486224194.193,-28.320,16.602,34.668,67.383,14.648,0
1486224194.197,81.055,15.625,31.250,73.242,-43.457,0
1486224194.201,122.070,24.414,45.898,89.355,23.438,0
1486224194.205,72.266,26.855,51.758,86.914,56.152,0
1486224194.209,-24.414,22.461,50.781,65.918,60.547,0
1486224194.213,-48.340,25.879,41.016,49.316,88.867,0
1486224194.217,49.805,22.461,39.062,55.664,-10.742,0
1486224194.221,112.305,20.996,42.480,76.660,43.945,0
1486224194.225,68.359,33.203,44.434,75.684,117.676,0
1486224194.229,-29.297,33.203,45.410,52.734,77.148,0
1486224194.232,-68.848,22.949,33.691,33.203,62.012,0
1486224194.236,32.715,28.809,25.391,45.410,-4.883,0
1486224194.240,122.559,31.738,33.203,68.848,-4.883,0
1486224194.244,88.867,34.180,44.434,73.242,112.305,0
1486224194.248,-4.395,42.969,45.410,63.965,127.441,0
1486224194.252,-62.988,30.273,39.062,43.457,92.773,0
1486224194.256,20.020,18.066,41.016,45.898,18.555,0
1486224194.260,114.258,25.879,31.250,79.102,14.160,0
1486224194.264,97.168,29.297,35.156,83.984,98.145,0
1486224194.268,13.672,28.809,52.734,71.289,82.520,0
1486224194.272,-47.852,30.273,45.410,58.105,55.176,0
1486224194.275,18.066,34.180,38.086,55.664,23.926,0
1486224194.279,113.281,29.297,43.457,69.336,0.977,0
1486224194.283,110.352,22.949,47.363,81.055,31.250,0
1486224194.287,23.438,28.809,43.457,69.336,71.289,0
1486224194.291,-51.758,25.879,40.039,52.246,78.613,0
1486224194.295,0.000,14.648,39.551,56.641,14.160,0
1486224194.299,104.492,17.578,39.551,75.684,14.160,0
1486224194.303,116.699,21.973,40.527,84.961,82.520,0
1486224194.307,37.109,25.391,47.852,71.289,84.961,0
1486224194.311,-46.387,22.461,40.527,54.688,52.734,0
1486224194.314,-3.906,26.855,31.738,53.223,-27.344,0
1486224194.318,103.516,33.691,41.016,75.195,-42.969,0
1486224194.322,115.723,24.414,41.992,86.426,71.777,0
1486224194.326,58.105,31.250,41.992,80.078,84.473,0
1486224194.330,-30.273,35.156,43.457,66.406,57.129,0
1486224194.334,-33.203,25.879,40.039,49.316,26.367,0
1486224194.338,76.172,23.438,43.945,65.430,-56.641,0
1486224194.342,115.234,25.391,45.410,77.148,31.738,0
1486224194.346,54.199,33.203,44.434,63.965,117.188,0
1486224194.350,-32.227,33.203,39.062,49.316,74.707,0
1486224194.354,-25.391,28.320,30.273,43.945,41.504,0
1486224194.357,86.426,27.344,26.367,64.453,7.324,0
1486224194.361,127.441,28.320,30.762,80.078,40.527,0
1486224194.365,64.453,28.320,26.855,67.383,87.402,0
1486224194.369,-24.902,39.062,36.621,56.152,92.285,0
1486224194.373,-29.297,41.016,50.293,55.664,20.508,0
1486224194.377,69.824,26.855,45.410,63.477,-41.992,0
1486224194.381,122.070,35.156,41.016,79.590,32.227,0
1486224194.385,80.078,31.250,41.992,77.637,106.445,0
1486224194.389,-10.254,28.809,50.293,68.848,106.445,0
1486224194.393,-41.992,28.809,38.574,55.664,76.660,0
1486224194.397,55.664,19.531,21.973,58.105,1.465,0
1486224194.400,120.605,23.926,37.598,81.055,17.090,0
1486224194.404,78.125,21.973,43.945,82.031,110.352,0
1486224194.408,-11.719,20.996,45.410,72.754,119.141,0
1486224194.412,-45.410,27.832,49.805,64.941,63.477,0
1486224194.416,44.434,22.461,41.016,65.430,-5.859,0
1486224194.420,120.117,20.020,44.922,85.449,10.742,0
1486224194.424,95.215,35.645,48.828,86.426,85.938,0
1486224194.428,0.488,27.832,40.527,69.336,85.449,0
1486224194.432,-54.199,17.090,35.645,58.105,48.340,0
1486224194.436,19.043,28.320,32.227,59.082,-20.508,0
1486224194.439,110.352,23.438,41.016,83.008,17.578,0
1486224194.443,94.727,16.602,41.992,84.473,107.422,0
1486224194.447,8.789,25.391,44.434,65.430,83.984,0
1486224194.451,-51.270,24.414,46.875,52.246,64.453,0
1486224194.455,11.719,30.762,36.133,52.734,-28.320,0
1486224194.459,115.234,34.180,33.203,77.637,-37.109,0
1486224194.463,106.445,32.227,23.926,77.148,36.621,0
1486224194.467,16.602,34.668,34.180,58.105,78.125,0
1486224194.471,-60.547,33.203,40.039,54.199,83.984,1
1486224194.475,-11.719,23.926,36.133,53.711,-6.836,0
1486224194.479,96.191,22.461,48.340,65.918,-44.434,0
1486224194.482,109.863,30.273,42.480,76.660,60.547,0
1486224194.486,34.180,30.762,39.062,74.219,70.312,0
1486224194.490,-49.805,25.391,46.387,59.082,13.184,0
1486224194.494,-20.996,32.715,36.133,48.828,-16.602,0
1486224194.498,85.938,36.621,37.598,71.777,-46.387,0
1486224194.502,109.375,28.809,43.457,83.496,31.250,0
1486224194.506,40.039,28.320,29.297,63.965,48.828,0
1486224194.510,-54.688,21.484,31.250,45.410,37.109,0
1486224194.514,-31.250,18.066,43.457,45.898,19.043,0
1486224194.518,79.590,27.344,47.363,57.617,-55.664,0
1486224194.522,100.098,29.297,42.969,65.918,-0.488,0
1486224194.525,43.945,22.949,43.945,57.129,55.176,0
1486224194.529,-45.898,30.273,41.992,39.551,55.664,0
1486224194.533,-49.805,28.320,33.203,39.551,20.508,0
1486224194.537,65.918,21.484,35.156,58.594,-45.410,0
1486224194.541,121.582,26.855,49.805,75.195,9.277,0
1486224194.545,65.918,22.949,40.527,60.547,61.523,0
1486224194.549,-32.227,18.555,27.832,46.875,83.496,0
1486224194.553,-46.387,25.879,39.062,50.293,47.363,0
1486224194.557,60.059,28.320,42.969,61.035,-61.523,0
1486224194.561,121.094,29.297,41.504,76.660,8.301,0
1486224194.564,73.730,31.738,38.086,75.195,99.609,0
1486224194.568,-22.461,30.273,35.156,59.570,61.523,0
1486224194.572,-49.805,28.809,46.875,52.246,41.504,0
1486224194.576,46.387,22.949,39.551,57.617,22.949,0
1486224194.580,114.746,30.273,24.902,72.266,26.367,0
1486224194.584,79.590,33.203,34.180,81.055,66.895,0
1486224194.588,-16.602,28.320,39.551,62.012,81.055,0
1486224194.592,-53.711,31.250,44.434,51.270,63.477,0
1486224194.596,31.738,30.273,38.574,52.734,12.207,0
1486224194.600,110.840,33.203,36.133,63.965,30.762,0
1486224194.604,100.098,33.691,41.016,75.195,100.098,0
1486224194.607,13.672,32.715,37.109,65.918,67.383,0
1486224194.611,-52.734,35.156,33.203,53.711,46.875,0
1486224194.615,18.555,34.180,32.715,54.199,-26.367,0
1486224194.619,112.793,31.738,31.250,67.383,-48.828,0
1486224194.623,102.539,28.320,31.250,76.660,68.848,0
1486224194.627,21.973,27.344,38.574,69.824,70.801,0
1486224194.631,-48.828,27.344,36.621,53.223,15.625,0
1486224194.635,13.672,29.297,38.086,59.570,-22.461,0
1486224194.639,112.793,26.855,41.992,78.613,-19.043,0
1486224194.643,106.934,25.879,36.621,77.148,31.738,0
1486224194.646,36.133,33.691,32.715,65.918,45.898,0
1486224194.650,-48.340,26.855,38.086,52.734,51.758,0
1486224194.654,-12.695,23.438,36.621,46.387,-5.859,0
1486224194.658,98.633,28.809,31.738,63.477,-46.875,0
1486224194.662,118.652,27.344,35.156,76.172,50.293,0
1486224194.666,56.641,31.738,42.480,72.266,107.910,0
1486224194.670,-34.180,32.227,41.504,53.711,41.992,0
1486224194.674,-19.043,26.855,32.715,45.898,-6.348,0
1486224194.678,93.262,23.438,42.969,69.336,12.695,0
1486224194.682,133.789,30.762,58.594,85.449,77.148,0
1486224194.686,57.617,28.809,40.527,67.383,109.375,0
1486224194.689,-37.109,33.203,26.367,52.246,89.844,0
1486224194.693,-17.578,36.621,41.016,52.246,44.922,0
1486224194.697,102.539,33.203,39.551,70.801,-11.230,0
1486224194.701,145.996,34.668,35.645,92.773,20.508,0
1486224194.705,78.125,29.297,42.969,89.844,74.707,0
1486224194.709,-22.949,29.785,42.480,70.801,79.102,0
1486224194.713,-25.879,26.855,35.156,53.223,44.922,0
1486224194.717,88.379,27.832,33.691,64.941,-21.484,0
1486224194.721,131.348,29.297,36.133,87.402,59.082,0
1486224194.725,85.938,35.645,34.180,80.078,114.258,0
1486224194.729,-8.789,30.762,31.738,61.035,105.469,0
1486224194.732,-31.738,28.809,37.598,56.641,79.590,0
1486224194.736,61.523,29.297,45.898,58.105,-4.395,0
1486224194.740,125.000,25.879,47.852,81.543,29.785,0
1486224194.744,86.426,30.762,41.016,80.566,98.633,0
1486224194.748,-8.789,27.344,32.715,56.152,89.355,0
1486224194.752,-55.176,20.508,35.156,43.457,57.617,0
1486224194.756,36.621,23.926,36.133,52.734,-7.812,0
1486224194.760,123.047,26.855,34.668,72.754,-7.324,0
1486224194.764,89.844,31.738,34.180,72.754,77.148,0
1486224194.768,0.488,36.621,30.273,60.059,88.379,0
1486224194.771,-52.734,29.785,33.203,48.340,65.918,0
1486224194.775,28.809,19.531,42.969,56.152,13.184,0
1486224194.779,124.512,26.855,45.898,84.961,57.129,0
1486224194.783,103.516,29.785,45.410,82.520,137.207,0
1486224194.787,12.695,23.438,36.133,62.988,119.141,0
1486224194.791,-48.828,28.809,39.062,56.152,101.562,0
1486224194.795,11.230,31.250,49.316,58.105,24.414,0
1486224194.799,103.027,27.344,37.598,74.219,-15.137,0
1486224194.803,100.098,27.832,38.086,75.684,75.684,0
1486224194.807,25.879,34.180,43.945,67.383,96.191,0
1486224194.811,-43.945,43.457,37.109,69.336,92.773,0
1486224194.814,0.000,31.738,34.180,58.594,46.875,0
1486224194.818,110.352,17.090,42.969,66.895,-6.348,0
1486224194.822,123.047,23.926,55.176,83.496,75.195,0
1486224194.826,40.527,33.203,52.246,67.871,116.699,0
1486224194.830,-41.504,30.273,36.133,53.711,63.477,0
1486224194.834,-10.742,24.414,37.109,51.758,21.484,0
1486224194.838,88.867,21.484,37.598,58.594,-1.465,0
1486224194.842,115.723,27.344,22.949,70.801,77.637,0
1486224194.846,52.246,33.691,32.715,65.430,145.020,0
1486224194.850,-40.039,24.414,44.434,51.758,105.469,0
1486224194.854,-24.414,23.438,33.691,46.875,36.133,0
1486224194.857,85.938,30.273,41.992,68.359,-3.906,0
1486224194.861,118.652,26.367,44.434,89.355,61.035,0
1486224194.865,52.734,24.902,33.203,79.590,115.723,0
1486224194.869,-41.504,26.367,30.762,56.641,67.383,0
1486224194.873,-37.109,30.762,40.039,49.805,13.672,0
1486224194.877,70.312,33.203,41.992,59.082,-12.695,0
1486224194.881,116.211,24.902,35.645,67.383,37.109,0
1486224194.885,69.336,22.949,41.504,62.500,92.285,0
1486224194.889,-26.855,28.320,38.574,50.293,67.871,0
1486224194.893,-34.668,37.598,27.344,43.457,41.992,0
1486224194.896,77.148,36.133,26.367,50.781,-41.016,0
1486224194.900,135.254,26.367,31.250,69.336,25.879,0
1486224194.904,91.309,31.738,32.227,69.336,104.980,0
1486224194.908,-7.324,41.504,44.922,63.477,90.820,0
1486224194.912,-39.062,34.668,51.270,62.012,72.266,0
1486224194.916,47.852,27.344,33.203,59.082,-13.184,0
1486224194.920,116.699,29.297,29.785,78.125,24.902,0
1486224194.924,84.961,24.902,32.227,77.148,93.262,0
1486224194.928,-9.277,26.855,33.203,61.035,64.453,0
1486224194.932,-57.617,26.855,39.062,53.711,57.129,0
1486224194.936,33.691,26.855,33.203,60.059,-6.836,0
1486224194.939,124.023,34.668,24.414,85.938,-14.160,0
1486224194.943,96.191,30.273,36.133,83.008,106.934,0
1486224194.947,2.441,33.691,50.293,64.453,121.094,0
1486224194.951,-49.805,33.691,50.293,59.082,62.012,0
1486224194.955,26.367,23.438,41.992,62.500,-32.715,0
1486224194.959,111.816,26.367,31.250,76.660,-48.828,0
1486224194.963,102.051,36.133,34.668,84.473,37.598,0
1486224194.967,16.113,32.715,38.574,64.941,50.293,0
1486224194.971,-53.711,29.785,34.668,50.293,39.062,0
1486224194.975,7.812,28.809,34.668,51.758,-0.488,0
1486224194.978,107.422,30.273,30.762,67.871,0.000,0
1486224194.982,109.375,33.691,24.902,74.707,107.910,0
1486224194.986,30.762,32.227,36.133,60.059,128.906,0
1486224194.990,-48.828,30.273,48.340,60.059,99.121,0
1486224194.994,4.395,31.250,45.898,65.430,24.902,0
1486224194.998,106.934,32.715,41.016,68.359,-23.438,0
1486224195.002,108.887,24.902,33.203,77.148,63.965,0
1486224195.006,46.875,26.855,33.203,69.336,96.191,0
1486224195.010,-35.645,31.250,31.738,47.363,89.844,0
1486224195.014,-9.766,20.996,38.086,45.410,58.105,0
1486224195.018,103.516,28.320,44.434,68.848,18.066,0
1486224195.021,127.930,39.062,40.039,87.402,52.734,0
1486224195.025,56.152,28.809,36.621,75.195,71.777,0
1486224195.029,-36.621,21.484,45.410,63.965,56.152,1
1486224195.033,-27.832,19.531,49.316,59.082,12.207,0
1486224195.037,83.008,26.367,36.133,76.660,-77.148,0
1486224195.041,123.535,27.832,24.902,94.238,12.207,0
1486224195.045,62.988,25.391,28.320,76.660,98.633,0
1486224195.049,-29.297,31.250,36.133,62.988,86.426,0
1486224195.053,-22.949,35.645,41.504,59.082,27.832,0
1486224195.057,79.590,28.809,45.410,71.289,-57.129,0
1486224195.061,124.023,32.227,44.434,89.844,46.875,0
1486224195.064,73.730,35.645,34.180,82.520,78.613,0
1486224195.068,-18.555,30.762,35.645,71.777,31.250,0
1486224195.072,-31.738,33.691,43.945,64.453,6.836,0
1486224195.076,60.547,27.832,46.387,60.547,-57.617,0
1486224195.080,120.117,24.902,39.062,73.730,-6.348,0
1486224195.084,89.355,25.879,32.227,72.266,58.105,0
1486224195.088,-7.324,30.273,38.574,54.688,61.035,0
1486224195.092,-42.969,36.133,42.480,47.363,42.969,0
1486224195.096,49.805,33.691,40.039,55.176,-31.738,0
1486224195.100,116.699,38.086,34.180,73.242,-21.973,0
1486224195.103,91.797,37.109,22.461,72.266,40.039,0
1486224195.107,2.930,24.414,32.715,58.594,67.871,0
1486224195.111,-46.387,23.926,40.527,49.805,18.066,0
1486224195.115,44.434,27.344,35.645,59.570,-39.551,0
1486224195.119,127.930,25.391,37.109,78.125,-13.672,0
1486224195.123,108.398,28.809,41.016,82.031,45.410,0
1486224195.127,23.438,32.715,43.945,71.777,90.332,0
1486224195.131,-41.504,32.715,37.598,57.617,65.918,0
1486224195.135,24.902,26.855,39.062,57.129,-27.344,0
1486224195.139,117.676,27.832,32.227,79.590,-25.391,0
1486224195.143,108.887,30.762,30.273,91.309,77.637,0
1486224195.146,23.926,28.809,40.039,78.125,71.777,0
1486224195.150,-56.641,20.508,38.574,52.246,32.715,0
1486224195.154,-6.348,19.531,38.086,43.945,-11.230,0
1486224195.158,96.191,31.250,40.527,65.430,-20.508,0
1486224195.162,102.051,29.297,38.086,78.125,72.754,0
1486224195.166,22.461,28.320,37.109,67.383,119.141,0
1486224195.170,-59.082,28.320,38.574,46.875,92.285,0
1486224195.174,-14.160,32.227,33.691,43.945,39.062,0
1486224195.178,95.703,31.738,28.320,61.523,5.859,0
1486224195.182,114.258,27.344,32.715,71.777,72.754,0
1486224195.186,49.316,30.273,36.133,61.035,100.098,0
1486224195.189,-35.156,27.344,37.109,47.363,75.684,0
1486224195.193,-14.160,25.879,26.367,44.434,37.598,0
1486224195.197,94.727,35.645,29.297,61.035,-13.672,0
1486224195.201,122.070,32.227,48.828,84.961,42.480,0
1486224195.205,54.199,27.832,47.363,71.777,87.402,0
1486224195.209,-38.574,27.832,33.203,51.270,71.289,0
1486224195.213,-34.668,26.855,28.809,46.875,35.645,0
1486224195.217,74.707,30.762,38.086,70.801,-17.578,0
1486224195.221,126.953,29.785,43.457,92.285,41.992,0
1486224195.225,72.266,29.785,44.922,75.684,64.453,0
1486224195.228,-23.926,34.668,47.852,68.359,44.434,0
1486224195.232,-28.320,33.203,41.992,65.430,33.203,0
1486224195.236,76.660,24.902,38.574,67.383,-25.879,0
1486224195.240,128.418,25.391,43.945,82.520,20.996,0
1486224195.244,84.961,37.109,46.387,79.102,58.105,0
1486224195.248,-5.371,40.527,34.180,64.941,80.566,0
1486224195.252,-38.086,30.762,30.273,47.363,84.961,0
1486224195.256,55.176,30.762,38.086,59.082,-12.207,0
1486224195.260,120.605,28.809,42.969,81.543,-6.836,0
1486224195.264,93.750,33.203,44.434,75.195,66.406,0
1486224195.268,1.953,39.551,43.945,60.059,75.684,0
1486224195.271,-50.293,34.180,37.598,48.340,29.785,0
1486224195.275,42.969,32.715,38.574,58.105,-54.688,0
1486224195.279,124.512,31.738,36.621,73.730,-16.602,0
1486224195.283,93.262,24.414,36.621,67.383,69.336,0
1486224195.287,9.277,30.762,31.250,52.246,76.172,0
1486224195.291,-41.504,37.109,31.250,45.898,52.246,0
1486224195.295,34.180,32.227,39.551,49.805,-3.418,0
1486224195.299,116.699,35.645,34.180,73.242,-1.465,0
1486224195.303,115.234,43.457,43.457,89.355,81.055,0
1486224195.307,35.156,37.598,50.293,73.242,83.496,0
1486224195.310,-54.688,31.250,47.363,54.199,52.246,0
1486224195.314,19.531,33.691,49.316,60.059,1.465,0
1486224195.318,115.234,27.344,39.062,71.777,-10.254,0
1486224195.322,113.281,28.809,33.691,73.242,76.172,0
1486224195.326,35.156,32.227,33.691,64.453,69.824,0
1486224195.330,-47.363,28.320,38.574,60.547,47.852,0
1486224195.334,7.324,32.227,34.180,53.711,-0.488,0
1486224195.338,115.723,33.691,40.039,74.219,-21.973,0
1486224195.342,123.535,35.156,51.758,88.867,91.309,0
1486224195.346,37.109,25.391,39.062,62.988,100.586,0
1486224195.350,-38.574,21.973,33.691,50.293,73.242,0
1486224195.353,-6.836,24.902,42.969,46.387,76.660,0
1486224195.357,91.309,26.855,57.617,62.012,-9.277,0
1486224195.361,114.258,31.250,46.387,79.102,36.621,0
1486224195.365,44.434,28.809,24.902,60.547,92.285,0
1486224195.369,-41.992,33.203,32.227,41.504,71.289,0
1486224195.373,-20.996,33.691,43.945,44.922,47.852,0
1486224195.377,83.496,25.879,26.855,58.105,15.625,0
1486224195.381,109.375,23.926,21.484,64.941,55.664,0
1486224195.385,53.223,25.391,34.668,59.570,88.379,0
1486224195.389,-42.480,18.066,37.109,44.434,109.375,0
1486224195.393,-46.875,18.066,36.133,41.016,85.938,0
1486224195.396,64.453,27.344,33.691,51.758,-2.441,0
1486224195.400,126.465,38.086,42.969,71.289,52.734,0
1486224195.404,71.289,29.297,44.922,66.895,120.117,0
1486224195.408,-29.297,32.715,27.832,54.199,59.570,0
1486224195.412,-46.387,38.086,35.645,45.410,40.527,0
1486224195.416,52.246,23.438,37.109,53.223,20.996,0
1486224195.420,108.887,23.926,36.133,72.266,53.223,0
1486224195.424,69.824,28.320,39.551,65.918,104.492,0
1486224195.428,-24.414,23.438,34.668,54.688,97.168,0
1486224195.432,-53.711,24.414,36.133,52.246,64.453,0
1486224195.435,47.852,28.809,39.551,56.641,-6.348,0
1486224195.439,120.605,33.691,55.176,78.125,35.645,0
1486224195.443,92.773,33.691,49.316,80.566,100.098,0
1486224195.447,4.883,35.645,29.297,61.035,94.727,0
1486224195.451,-44.922,32.715,26.855,46.875,51.270,0
1486224195.455,37.598,30.762,28.320,50.781,-34.180,0
1486224195.459,125.000,38.086,41.992,77.637,-55.176,0
1486224195.463,102.539,26.855,47.852,79.590,63.477,0
1486224195.467,14.648,25.391,35.156,64.453,131.836,0
1486224195.471,-46.875,33.691,32.227,52.734,73.242,0
1486224195.475,15.625,33.203,39.551,55.664,-6.348,0
1486224195.478,122.070,27.832,45.898,75.195,6.348,0
1486224195.482,112.305,30.762,41.992,76.660,89.355,0
1486224195.486,18.066,39.551,39.062,61.035,71.777,0
1486224195.490,-49.316,28.809,30.762,41.992,45.898,0
1486224195.494,3.418,22.949,23.438,46.875,32.715,0
1486224195.498,110.840,29.785,27.832,67.871,-7.812,0
1486224195.502,119.629,35.645,31.738,66.895,65.430,0
1486224195.506,42.480,39.062,42.480,62.012,119.141,0
1486224195.510,-36.621,32.715,45.410,57.617,87.402,0
1486224195.514,3.906,28.809,42.969,66.406,38.086,0
1486224195.518,110.352,25.391,35.645,79.590,-23.438,0
1486224195.521,119.629,21.973,40.527,85.938,34.668,0
1486224195.525,49.316,29.785,41.016,75.684,120.605,0
1486224195.529,-33.203,31.738,24.902,53.223,124.512,0
1486224195.533,-11.719,26.855,25.879,46.875,20.508,0
1486224195.537,91.797,28.320,28.809,60.059,-34.668,0
1486224195.541,120.117,24.902,38.574,81.543,43.457,0
1486224195.545,66.406,30.762,35.645,74.219,102.051,0
1486224195.549,-26.367,33.203,33.691,46.875,88.379,0
1486224195.553,-28.809,20.996,43.945,44.434,15.625,0
1486224195.557,74.219,25.391,45.898,63.477,-49.316,0
1486224195.560,116.211,33.203,41.992,71.777,9.277,0
1486224195.564,65.918,27.344,37.109,69.824,54.199,0
1486224195.568,-29.297,22.461,30.273,53.711,33.203,0
1486224195.572,-38.574,26.367,24.414,43.945,19.531,0
1486224195.576,71.289,28.320,30.762,57.129,-44.434,0
1486224195.580,124.512,26.855,37.598,77.148,-9.766,0
1486224195.584,73.730,26.367,39.551,72.754,72.266,0
1486224195.588,-20.996,34.180,41.992,52.734,70.801,0
1486224195.592,-38.086,38.574,44.922,53.223,54.199,0
1486224195.596,71.777,30.762,48.828,65.430,-20.996,0
1486224195.600,134.277,24.414,38.086,72.754,-1.953,0
1486224195.603,93.262,22.949,32.227,68.359,84.473,0
1486224195.607,3.418,25.391,44.922,61.523,98.145,0
1486224195.611,-27.832,28.320,47.363,55.176,77.148,0
1486224195.615,53.711,32.227,31.738,50.781,9.766,0
1486224195.619,114.746,24.414,26.855,64.941,27.832,0
1486224195.623,85.938,18.555,37.109,70.312,83.984,0
1486224195.627,-3.906,22.949,38.086,61.523,83.008,0
1486224195.631,-54.688,29.297,36.133,52.734,57.129,0
1486224195.635,23.438,30.273,42.969,57.129,-11.230,0
1486224195.639,110.352,21.973,46.875,73.242,-20.508,0
1486224195.642,90.332,20.508,29.297,71.777,27.344,0
1486224195.646,4.883,23.926,28.809,62.500,57.617,0
1486224195.650,-51.758,29.297,52.246,60.547,28.809,1
1486224195.654,8.789,20.996,56.152,59.570,-39.062,0
1486224195.658,104.004,27.344,40.527,74.219,-21.973,0
1486224195.662,94.238,36.621,31.250,79.590,60.059,0
1486224195.666,12.207,28.809,37.109,62.500,69.336,0
1486224195.670,-53.223,33.691,38.574,58.594,61.035,0
1486224195.674,-9.277,28.809,26.855,53.223,2.930,0
1486224195.678,94.727,26.367,33.203,64.941,-40.527,0
1486224195.682,105.469,24.414,39.062,73.730,26.367,0
1486224195.685,35.645,25.879,36.621,62.500,83.496,0
1486224195.689,-39.551,33.203,42.480,55.664,91.309,0
1486224195.693,-10.254,30.273,38.574,51.758,11.230,0
1486224195.697,94.727,30.762,36.133,69.336,-43.945,0
1486224195.701,116.699,30.762,40.527,81.055,60.059,0
1486224195.705,46.875,25.879,34.180,69.336,94.238,0
1486224195.709,-46.387,29.785,38.574,52.734,92.285,0
1486224195.713,-27.344,36.621,35.645,43.945,62.988,0
1486224195.717,84.961,30.273,32.227,57.617,-7.324,0
1486224195.721,116.699,23.926,34.668,69.336,51.758,0
1486224195.725,58.594,27.344,45.898,66.895,117.188,0
1486224195.728,-39.551,29.785,37.109,50.781,118.164,0
1486224195.732,-47.852,23.926,21.484,41.016,75.195,0
1486224195.736,62.012,21.973,29.785,57.129,-11.230,0
1486224195.740,115.234,32.227,39.062,71.289,39.062,0
1486224195.744,68.359,38.086,44.922,74.219,102.051,0
1486224195.748,-30.762,30.273,37.109,60.547,105.957,0
1486224195.752,-50.293,21.484,32.715,50.781,63.965,0
1486224195.756,55.664,25.879,30.273,59.570,-3.418,0
1486224195.760,114.258,25.391,34.668,80.078,55.176,0
1486224195.764,73.242,31.738,37.109,77.148,125.488,0
1486224195.767,-17.578,29.297,37.598,62.988,122.559,0
1486224195.771,-46.875,24.902,38.086,61.035,84.961,0
1486224195.775,56.152,35.645,53.223,68.848,21.484,0
1486224195.779,129.395,31.250,49.316,79.590,26.855,0
1486224195.783,83.008,27.832,33.203,69.336,100.586,0
1486224195.787,-16.602,25.391,35.645,54.688,82.031,0
1486224195.791,-59.570,24.414,37.109,43.945,39.062,0
1486224195.795,36.133,26.855,41.504,48.828,-47.363,0
1486224195.799,123.535,29.297,33.203,69.824,-43.945,0
1486224195.803,96.191,36.133,32.227,71.289,37.598,0
1486224195.807,13.672,34.180,46.875,59.082,44.922,0
1486224195.810,-46.387,24.902,37.598,52.734,53.711,0
1486224195.814,26.367,39.551,42.969,63.477,-49.316,0
1486224195.818,118.164,35.645,56.152,82.031,-65.918,0
1486224195.822,107.422,22.949,45.898,86.426,78.613,0
1486224195.826,24.414,27.344,41.504,74.219,64.941,0
1486224195.830,-53.223,24.414,35.645,60.547,36.621,0
1486224195.834,12.695,32.227,28.320,58.105,-18.066,0
1486224195.838,117.676,33.691,29.785,79.102,-46.875,0
1486224195.842,104.492,23.926,42.969,86.914,73.730,0
1486224195.846,29.785,30.762,44.922,71.289,73.730,0
1486224195.850,-40.039,33.691,25.879,57.617,57.617,0
1486224195.853,-3.906,29.297,24.414,50.781,0.977,0
1486224195.857,93.750,28.809,40.527,64.941,-16.113,0
1486224195.861,119.629,30.273,51.270,85.938,97.656,0
1486224195.865,52.246,35.645,47.363,80.078,90.820,0
1486224195.869,-43.945,37.109,34.180,53.223,88.379,0
1486224195.873,-15.625,27.344,42.480,49.316,61.035,0
1486224195.877,90.820,17.578,46.387,68.848,0.488,0
1486224195.881,114.746,26.367,40.039,82.520,48.828,0
1486224195.885,51.758,27.344,44.434,71.777,85.449,0
1486224195.889,-27.344,32.227,38.086,63.477,62.012,0
1486224195.892,-18.555,35.156,31.250,57.129,23.926,0
1486224195.896,81.055,26.367,39.062,60.547,3.418,0
1486224195.900,119.629,26.367,40.527,84.961,88.379,0
1486224195.904,68.848,32.227,36.621,83.496,107.422,0
1486224195.908,-19.043,35.645,47.852,69.336,79.590,0
1486224195.912,-33.691,36.133,47.363,60.547,54.688,0
1486224195.916,60.059,34.180,34.180,70.801,-20.020,0
1486224195.920,122.559,25.879,45.898,88.379,11.230,0
1486224195.924,79.102,33.203,43.457,82.520,72.266,0
1486224195.928,-17.090,37.109,33.203,62.500,74.707,0
1486224195.932,-28.809,26.367,37.598,56.152,46.387,0
1486224195.935,63.965,23.438,23.926,61.523,1.953,0
1486224195.939,126.953,27.832,32.715,75.684,31.738,0
1486224195.943,96.191,26.367,45.410,79.590,72.754,0
1486224195.947,-5.371,27.832,33.691,62.988,78.613,0
1486224195.951,-39.062,33.691,38.574,52.246,82.031,0
1486224195.955,59.082,37.598,51.270,62.988,21.973,0
1486224195.959,124.512,32.227,50.781,87.891,30.273,0
1486224195.963,86.914,26.855,34.668,81.543,137.207,0
1486224195.967,-6.348,27.344,29.297,53.711,109.863,0
1486224195.971,-55.664,23.926,34.668,49.316,49.805,0
1486224195.974,22.949,25.391,24.414,50.293,-15.137,0
1486224195.978,114.258,26.367,29.785,61.035,-46.875,0
1486224195.982,97.168,26.367,42.480,66.895,59.082,0
1486224195.986,4.883,27.344,38.574,59.570,89.355,0
1486224195.990,-56.641,24.414,37.109,55.664,61.035,0
1486224195.994,12.207,31.250,44.434,57.129,-6.348,0
1486224195.998,105.469,35.645,47.852,63.965,-12.695,0
1486224196.002,103.516,33.203,42.969,75.684,29.297,0
1486224196.006,22.461,30.762,35.645,65.918,42.480,0
1486224196.010,-48.828,26.367,22.949,45.410,72.754,0
1486224196.014,-1.953,25.879,27.344,47.852,-4.883,0
1486224196.017,99.609,25.879,30.762,65.918,-76.660,0
1486224196.021,113.281,32.715,25.391,77.637,14.648,0
1486224196.025,39.551,38.574,34.180,68.359,44.434,0
1486224196.029,-37.109,32.715,35.645,54.199,14.160,0
1486224196.033,0.488,28.809,38.574,57.129,-36.133,0
1486224196.037,112.793,38.086,48.828,85.938,-76.660,0
1486224196.041,126.953,27.832,41.992,93.262,25.391,0
1486224196.045,51.758,20.508,35.645,67.871,25.391,0
1486224196.049,-33.691,28.320,36.133,52.734,11.230,0
1486224196.053,-18.555,26.367,24.414,46.875,17.090,0
1486224196.057,85.938,24.902,24.902,60.547,-29.297,0
1486224196.060,120.117,29.297,36.621,78.125,49.805,0
1486224196.064,63.965,34.668,41.504,74.219,112.793,0
1486224196.068,-35.645,25.879,35.156,54.199,81.055,0
1486224196.072,-30.273,30.273,41.504,49.805,19.531,0
1486224196.076,78.613,38.574,47.852,62.012,-55.176,0
1486224196.080,121.094,23.926,41.504,73.242,-6.348,0
1486224196.084,62.500,20.996,34.180,68.848,75.195,0
1486224196.088,-38.086,23.438,25.391,54.199,82.031,0
1486224196.092,-45.410,20.996,25.391,44.434,54.199,0
1486224196.096,57.129,25.879,31.738,53.223,23.926,0
1486224196.099,120.117,27.344,41.992,68.848,63.477,0
1486224196.103,78.613,21.973,37.109,64.453,96.680,0
1486224196.107,-24.902,22.949,31.738,58.105,73.730,0
1486224196.111,-49.805,30.273,44.434,58.594,39.551,0
1486224196.115,50.781,31.738,46.387,63.965,-14.648,0
1486224196.119,119.629,26.367,32.227,74.707,39.551,0
1486224196.123,79.590,20.508,24.902,72.266,138.672,0
1486224196.127,-7.812,25.879,31.738,54.688,140.137,0
1486224196.131,-39.551,37.598,39.062,48.340,97.168,0
1486224196.135,39.551,29.297,26.855,48.340,-13.672,0
1486224196.139,114.746,21.973,27.344,67.383,5.371,0
1486224196.142,101.074,25.879,36.133,76.172,91.309,0
1486224196.146,10.254,27.832,42.969,61.523,90.820,0
1486224196.150,-45.898,32.715,53.223,50.781,64.453,0
1486224196.154,32.227,30.273,42.480,54.688,12.695,0
1486224196.158,125.488,31.738,35.156,81.543,-23.438,0
1486224196.162,106.934,32.715,34.668,84.961,26.855,0
1486224196.166,14.648,25.391,40.527,61.035,67.383,0
1486224196.170,-46.387,29.297,38.086,51.270,29.297,0
1486224196.174,14.160,29.297,21.484,57.129,-38.574,0
1486224196.178,109.375,21.484,33.203,74.707,-19.531,0
1486224196.182,110.352,26.367,49.805,89.355,65.918,0
1486224196.185,38.086,31.250,42.969,75.684,86.426,0
1486224196.189,-33.203,30.273,33.691,56.152,81.543,1
1486224196.193,6.348,32.715,28.320,58.594,-1.465,0
1486224196.197,104.004,30.762,32.227,72.266,-38.574,0
1486224196.201,111.816,20.996,29.785,69.336,54.688,0
1486224196.205,41.504,22.461,40.527,65.918,71.289,0
1486224196.209,-49.805,26.367,34.668,49.805,50.293,0
1486224196.213,-19.531,28.809,23.438,43.945,32.715,0
1486224196.217,98.145,28.809,36.133,58.594,-25.391,0
1486224196.221,124.512,29.785,34.668,74.219,35.645,0
1486224196.224,46.875,26.855,27.344,66.406,100.098,0
1486224196.228,-48.828,26.855,29.785,44.434,104.004,0
1486224196.232,-29.785,29.785,22.949,45.898,57.617,0
1486224196.236,87.891,26.367,28.809,67.383,11.719,0
1486224196.240,124.512,23.926,39.551,80.078,49.316,0
1486224196.244,54.688,26.367,43.457,68.848,49.805,0
1486224196.248,-35.645,33.203,44.922,57.129,67.383,0
1486224196.252,-34.180,34.180,44.922,58.105,62.500,0
1486224196.256,74.219,30.273,47.363,63.965,-47.363,0
1486224196.260,117.188,26.367,33.203,75.195,-17.090,0
1486224196.264,59.570,19.531,30.273,71.289,73.730,0
1486224196.267,-30.273,24.414,37.598,57.617,49.316,0
1486224196.271,-37.598,27.344,42.969,55.176,12.695,0
1486224196.275,71.777,28.809,48.340,67.383,-44.922,0
1486224196.279,125.488,34.180,47.363,77.637,17.090,0
1486224196.283,83.008,39.062,44.922,68.359,85.938,0
1486224196.287,-3.906,34.668,44.922,58.105,73.730,0
1486224196.291,-40.039,26.855,32.715,48.340,81.543,0
1486224196.295,52.246,21.973,24.414,45.410,21.484,0
1486224196.299,127.441,24.414,36.133,73.242,20.508,0
1486224196.303,97.168,25.391,42.969,83.496,102.539,0
1486224196.306,0.488,20.020,40.527,63.477,86.426,0
1486224196.310,-48.340,27.344,38.574,50.293,56.152,0
1486224196.314,41.016,38.574,29.785,52.734,0.488,0
1486224196.318,125.977,33.203,40.039,74.219,25.391,0
1486224196.322,104.492,34.668,59.082,83.496,96.680,0
1486224196.326,15.137,36.133,47.363,67.871,77.637,0
1486224196.330,-53.711,29.785,29.785,56.152,53.711,0
1486224196.334,1.953,25.391,34.668,50.293,-7.324,0
1486224196.338,105.957,28.809,37.109,70.801,-32.227,0
1486224196.342,103.516,28.320,35.156,77.637,41.992,0
1486224196.346,17.090,26.855,43.457,56.641,63.477,0
1486224196.349,-55.664,31.250,39.062,48.828,45.410,0
1486224196.353,-5.859,27.344,38.086,49.805,3.418,0
1486224196.357,104.492,23.438,41.504,65.430,-10.254,0
1486224196.361,112.793,29.297,35.156,80.566,63.477,0
1486224196.365,26.367,30.762,45.898,71.289,78.613,0
1486224196.369,-46.387,31.250,44.434,58.594,57.129,0
1486224196.373,0.000,29.297,30.273,55.664,10.254,0
1486224196.377,101.074,19.043,37.109,71.289,-21.973,0
1486224196.381,124.023,23.926,41.992,92.285,55.176,0
1486224196.385,51.270,30.762,32.715,69.824,105.957,0
1486224196.389,-34.180,33.203,40.039,56.152,57.129,0
1486224196.392,-18.066,30.273,40.039,59.082,50.781,0
1486224196.396,83.984,24.902,31.250,72.266,20.996,0
1486224196.400,124.023,31.738,40.039,89.355,9.277,0
1486224196.404,59.082,32.715,39.062,68.359,54.199,0
1486224196.408,-38.574,21.973,34.180,49.316,84.961,0
1486224196.412,-36.133,19.531,40.527,46.875,21.484,0
1486224196.416,75.195,27.344,44.434,64.941,-52.734,0
1486224196.420,124.023,30.762,34.668,85.449,36.133,0
1486224196.424,65.918,28.320,37.109,67.383,93.262,0
1486224196.428,-29.297,28.809,30.273,51.758,94.238,0
1486224196.431,-31.738,24.414,30.273,54.688,62.012,0
1486224196.435,77.148,29.785,39.062,57.617,2.441,0
1486224196.439,130.371,30.762,39.062,78.613,33.203,0
1486224196.443,85.449,25.879,40.527,83.008,69.824,0
1486224196.447,-23.926,26.367,29.785,55.664,57.617,0
1486224196.451,-43.945,26.855,39.551,44.434,41.992,0
1486224196.455,64.453,37.109,50.293,57.129,-9.277,0
1486224196.459,116.211,31.250,36.621,79.590,89.844,0
1486224196.463,83.008,18.555,37.109,74.219,148.438,0
1486224196.467,-10.254,26.367,35.645,60.547,69.824,0
1486224196.471,-54.688,24.414,30.273,47.852,45.898,0
1486224196.474,41.992,27.344,39.062,50.781,12.695,0
1486224196.478,124.023,36.133,37.598,74.219,26.367,0
1486224196.482,105.957,33.203,39.551,89.355,106.445,0
1486224196.486,15.137,29.297,40.039,74.219,126.953,0
1486224196.490,-42.480,27.832,42.480,54.688,107.422,0
1486224196.494,37.598,22.949,40.527,58.105,18.555,0
1486224196.498,126.953,25.391,31.250,81.543,-7.324,0
1486224196.502,114.258,31.250,36.621,84.473,84.473,0
1486224196.506,18.066,29.297,34.180,67.871,102.539,0
1486224196.510,-52.246,30.273,30.273,60.547,74.219,0
1486224196.514,13.672,31.250,38.086,58.105,20.508,0
1486224196.517,113.770,32.715,47.852,75.684,22.949,0
1486224196.521,117.188,28.320,56.641,83.984,67.383,0
1486224196.525,27.832,24.902,43.945,67.871,66.895,0
1486224196.529,-46.875,29.785,37.598,57.129,49.805,0
1486224196.533,-1.953,17.090,39.062,51.758,26.855,0
1486224196.537,98.633,20.996,30.762,67.871,-14.648,0
1486224196.541,109.375,35.645,23.926,80.078,70.801,0
1486224196.545,38.574,31.250,34.668,69.824,119.141,0
1486224196.549,-41.992,33.691,45.898,60.059,102.539,0
1486224196.553,-13.184,27.832,51.758,53.711,39.062,0
1486224196.556,94.238,21.484,52.734,62.988,6.836,0
1486224196.560,117.676,26.855,46.387,74.707,92.285,0
1486224196.564,48.828,29.297,38.086,66.895,98.633,0
1486224196.568,-43.945,29.785,34.668,51.758,72.266,0
1486224196.572,-24.414,27.832,39.551,47.363,25.391,0
1486224196.576,87.891,33.691,35.156,62.012,-40.039,0
1486224196.580,121.094,33.203,24.414,75.195,1.953,0
1486224196.584,59.570,32.715,23.438,67.871,87.891,0
1486224196.588,-35.645,32.715,30.762,52.734,83.496,0
1486224196.592,-32.715,22.461,38.086,50.293,20.508,0
1486224196.596,65.918,19.531,43.457,55.664,-11.230,0
1486224196.599,104.980,25.879,40.039,64.453,94.238,0
1486224196.603,53.711,27.832,38.086,61.035,119.141,0
1486224196.607,-29.297,28.809,45.410,53.223,64.941,0
1486224196.611,-50.293,20.020,39.551,45.410,39.062,0
1486224196.615,60.547,25.879,28.320,53.711,-3.906,0
1486224196.619,126.953,36.621,42.480,80.078,33.691,0
1486224196.623,77.148,33.203,44.922,76.172,72.266,0
1486224196.627,-11.719,31.738,43.457,60.547,74.219,0
1486224196.631,-45.898,24.414,43.457,47.363,61.035,0
1486224196.635,51.758,25.879,30.273,52.734,-20.020,0
1486224196.638,125.488,36.133,28.809,70.801,15.137,0
1486224196.642,87.402,29.297,36.621,70.312,116.699,0
1486224196.646,-5.371,25.879,41.992,55.176,115.723,0
1486224196.650,-51.270,35.645,38.574,45.410,74.219,0
1486224196.654,28.320,32.715,26.367,57.129,-20.996,0
1486224196.658,114.258,26.367,38.574,74.707,-14.160,0
1486224196.662,98.145,25.391,58.105,71.777,57.617,0
1486224196.666,1.465,26.855,41.504,62.012,62.988,0
1486224196.670,-60.547,30.762,28.809,50.781,58.105,0
1486224196.674,15.137,24.902,26.367,46.875,21.973,0
1486224196.678,113.770,31.250,30.273,71.777,-44.434,0
1486224196.681,112.305,42.969,41.016,80.078,5.371,0
1486224196.685,23.926,35.156,36.621,58.105,76.172,0
1486224196.689,-57.129,32.227,32.227,42.480,56.152,0
1486224196.693,-1.465,23.438,30.762,40.527,0.488,0
1486224196.697,98.145,19.043,42.480,67.383,-3.906,0
1486224196.701,98.633,25.391,43.457,76.660,55.176,0
1486224196.705,23.926,26.367,36.133,55.664,85.449,0
1486224196.709,-52.246,32.715,36.621,47.852,96.680,0
1486224196.713,-7.324,28.809,33.203,47.852,76.660,0
1486224196.717,98.633,29.785,39.062,63.477,-0.488,0
1486224196.721,115.234,37.109,43.945,72.754,44.434,0
1486224196.724,47.852,31.738,37.598,65.918,114.258,0
1486224196.728,-44.434,20.508,33.203,57.617,100.586,0
1486224196.732,-20.996,17.090,36.621,50.293,55.176,0
1486224196.736,90.332,26.855,27.832,63.965,0.000,0
1486224196.740,116.699,27.344,19.531,72.266,82.031,0
1486224196.744,63.965,23.926,44.434,63.965,90.332,0
1486224196.748,-15.625,28.809,54.199,54.688,47.852,1
1486224196.752,-16.602,33.691,40.039,53.223,13.184,0
1486224196.756,83.008,33.203,50.293,63.477,-64.453,0
1486224196.760,122.559,31.250,40.039,74.707,5.859,0
1486224196.763,63.965,29.297,32.227,72.266,78.125,0
1486224196.767,-29.785,21.973,39.551,57.129,65.430,0
1486224196.771,-31.738,21.973,33.691,47.852,40.039,0
1486224196.775,71.289,24.902,22.461,48.828,-50.781,0
1486224196.779,123.535,31.738,29.297,71.289,-5.859,0
1486224196.783,82.520,30.762,42.969,73.242,84.473,0
1486224196.787,-13.672,43.457,50.781,55.664,54.199,0
1486224196.791,-46.387,39.062,52.734,49.316,9.277,0
1486224196.795,55.664,20.996,43.945,59.570,-40.527,0
1486224196.799,118.164,29.297,34.180,75.684,15.625,0
1486224196.803,71.289,31.250,35.156,67.383,86.426,0
1486224196.806,-16.113,32.227,45.410,61.035,84.961,0
1486224196.810,-57.129,25.391,35.156,46.875,63.965,0
1486224196.814,30.273,25.879,25.879,39.062,-19.531,0
1486224196.818,122.559,33.203,40.527,70.801,-17.090,0
1486224196.822,81.055,22.461,45.410,65.430,53.223,0
1486224196.826,-15.137,28.320,47.852,42.969,84.961,0
1486224196.830,-50.293,37.598,42.969,41.016,83.984,0
1486224196.834,24.902,36.133,32.227,41.016,4.395,0
1486224196.838,111.328,28.809,33.203,65.430,13.184,0
1486224196.842,95.215,21.973,30.273,70.312,113.770,0
1486224196.846,12.695,25.391,38.574,53.223,135.254,0
1486224196.849,-55.176,28.320,39.062,41.992,100.586,0
1486224196.853,9.766,25.391,29.785,42.480,25.391,0
1486224196.857,108.398,20.996,33.691,60.059,4.395,0
1486224196.861,101.562,34.668,47.363,76.172,62.500,0
1486224196.865,30.762,39.551,56.641,69.336,82.520,0
1486224196.869,-52.246,29.785,41.504,50.293,73.242,0
1486224196.873,-6.348,34.180,35.156,56.641,-13.184,0
1486224196.877,104.004,35.645,41.992,76.172,-62.500,0
1486224196.881,104.004,24.414,40.527,73.730,39.062,0
1486224196.885,30.762,26.367,38.086,57.129,76.172,0
1486224196.888,-43.945,31.738,36.621,48.828,48.340,0
1486224196.892,-15.137,25.391,33.203,44.434,-18.555,0
1486224196.896,95.703,25.879,34.180,55.664,-32.227,0
1486224196.900,125.000,33.203,37.109,76.172,20.020,0
1486224196.904,53.223,35.645,48.340,68.359,80.566,0
1486224196.908,-36.621,25.391,41.504,59.570,60.547,0
1486224196.912,-20.508,25.879,25.879,63.965,7.324,0
1486224196.916,89.844,33.203,42.480,73.730,-37.109,0
1486224196.920,119.141,23.438,39.062,87.402,7.812,0
1486224196.924,53.223,20.996,30.273,76.660,70.801,0
1486224196.928,-32.715,26.855,40.039,65.918,64.941,0
1486224196.931,-32.227,27.344,52.246,63.965,27.832,0
1486224196.935,66.895,20.996,44.434,63.477,-9.277,0
1486224196.939,122.070,17.090,30.273,83.496,62.012,0
1486224196.943,76.172,24.414,24.414,80.566,93.262,0
1486224196.947,-23.438,31.250,33.691,60.059,74.707,0
1486224196.951,-29.297,35.156,44.434,57.129,49.316,0
1486224196.955,69.824,27.344,30.273,55.176,-18.555,0
1486224196.959,118.164,24.902,32.715,67.383,0.488,0
1486224196.963,83.984,35.156,41.016,72.754,88.867,0
1486224196.967,-9.766,33.691,45.898,60.547,88.867,0
1486224196.970,-49.316,29.785,50.781,54.688,54.688,0
1486224196.974,42.969,25.391,41.504,54.688,-0.488,0
1486224196.978,108.887,18.066,31.250,68.848,21.973,0
1486224196.982,81.055,29.297,31.738,74.707,89.844,0
1486224196.986,4.883,42.480,37.109,64.941,83.496,0
1486224196.990,-38.574,35.645,36.621,59.082,78.125,0
1486224196.994,38.574,25.879,39.551,57.129,22.949,0
1486224196.998,125.488,24.902,40.039,73.242,-2.441,0
1486224197.002,109.375,36.133,45.410,82.520,62.988,0
1486224197.006,25.391,33.691,45.410,69.824,101.562,0
1486224197.010,-27.832,30.273,38.086,62.988,79.102,0
1486224197.013,48.340,35.156,41.504,70.312,11.719,0
1486224197.017,135.742,33.691,33.203,83.008,24.414,0
1486224197.021,132.324,38.086,33.691,85.449,73.242,0
1486224197.025,45.898,41.016,41.016,74.219,68.359,0
1486224197.029,-36.621,33.691,44.434,58.105,72.754,0
1486224197.033,5.859,25.879,36.621,51.758,28.320,0
1486224197.037,95.215,24.902,23.926,67.871,1.953,0
1486224197.041,101.074,26.367,34.668,84.961,75.195,0
1486224197.045,22.949,26.855,48.828,68.848,95.703,0
1486224197.049,-48.828,29.297,45.410,52.246,69.336,0
1486224197.053,-2.930,29.297,31.250,47.363,6.348,0
1486224197.056,99.121,24.414,36.621,62.012,21.484,0
1486224197.060,119.629,31.738,43.457,82.031,120.117,0
1486224197.064,42.480,35.645,55.176,75.684,120.605,0
1486224197.068,-43.945,30.762,43.945,55.176,94.727,0
1486224197.072,-14.648,22.461,25.391,43.945,45.898,0
1486224197.076,94.727,26.367,36.621,67.383,3.418,0
1486224197.080,119.141,24.902,42.480,82.031,70.312,0
1486224197.084,51.270,34.180,40.527,67.871,107.422,0
1486224197.088,-36.133,37.109,43.945,52.734,78.613,0
1486224197.092,-30.762,20.996,36.621,50.293,79.590,0
1486224197.095,76.660,23.438,33.203,61.523,34.180,0
1486224197.099,121.582,26.367,37.598,83.496,40.527,0
1486224197.103,58.105,30.762,49.805,79.102,77.637,0
1486224197.107,-38.574,33.203,49.316,56.641,71.289,0
1486224197.111,-40.527,24.902,34.668,48.340,56.641,0
1486224197.115,66.406,27.832,28.320,56.152,-34.180,0
1486224197.119,116.699,25.879,32.715,71.777,-7.324,0
1486224197.123,68.848,24.414,41.992,73.730,91.797,0
1486224197.127,-23.438,29.297,48.828,61.523,90.820,0
1486224197.131,-35.645,23.926,55.176,51.758,63.477,0
1486224197.135,68.848,34.668,51.270,63.965,-9.277,0
1486224197.138,126.465,37.598,41.016,81.055,-3.418,0
1486224197.142,86.426,26.855,39.062,79.102,85.449,0
1486224197.146,-12.695,33.203,37.109,57.129,124.512,0
1486224197.150,-51.758,29.297,35.645,36.621,73.730,0
1486224197.154,51.270,25.391,40.527,57.617,-17.578,0
1486224197.158,123.535,27.344,33.691,79.102,0.488,0
1486224197.162,85.938,24.902,27.832,63.477,56.641,0
1486224197.166,-2.930,27.832,35.645,51.758,58.594,0
1486224197.170,-51.270,31.738,38.086,42.480,62.988,0
1486224197.174,30.273,29.297,39.551,51.758,-6.836,0
1486224197.178,119.629,28.809,57.129,78.613,6.836,0
1486224197.181,99.609,34.180,49.805,74.219,90.332,0
1486224197.185,7.324,34.668,27.832,54.199,77.148,0
1486224197.189,-48.340,30.762,34.180,48.828,49.805,0
1486224197.193,10.254,22.949,40.039,52.734,-1.953,0
1486224197.197,100.098,29.297,36.621,70.801,-1.953,0
1486224197.201,97.168,33.691,31.250,76.172,56.641,0
1486224197.205,8.301,21.484,29.297,62.988,65.430,0
1486224197.209,-61.035,20.996,37.109,44.434,50.293,0
1486224197.213,0.977,23.926,39.551,42.480,-20.996,0
1486224197.217,109.863,28.320,40.039,66.406,-13.672,0
1486224197.220,122.070,34.180,38.086,77.637,80.078,0
1486224197.224,46.387,32.715,33.203,61.523,68.359,0
1486224197.228,-36.133,32.227,33.203,47.363,41.992,0
1486224197.232,3.906,38.086,32.227,51.758,-1.953,0
1486224197.236,105.469,42.969,37.598,65.918,-28.320,0
1486224197.240,109.375,27.344,35.645,69.336,54.199,0
1486224197.244,39.062,17.578,30.762,64.941,85.449,0
1486224197.248,-36.133,30.273,38.574,56.641,65.918,0
1486224197.252,-20.508,24.902,40.527,53.711,20.020,0
1486224197.256,81.543,19.531,29.785,67.871,-24.414,0
1486224197.260,123.535,32.227,34.668,83.008,60.547,0
1486224197.263,62.012,37.109,43.457,76.660,99.121,0
1486224197.267,-38.086,29.785,38.086,60.547,68.359,0
1486224197.271,-36.621,25.879,42.969,52.246,22.949,0
1486224197.275,70.801,20.508,42.480,58.594,-14.160,0
1486224197.279,112.305,22.461,36.133,65.430,17.578,0
1486224197.283,57.617,25.391,39.551,62.500,74.219,0
1486224197.287,-34.668,29.785,32.227,54.199,81.055,1
1486224197.291,-47.852,26.855,39.551,45.898,57.129,0
1486224197.295,62.012,21.484,41.016,53.223,-13.184,0
1486224197.299,128.906,35.645,41.016,76.172,32.227,0
1486224197.302,78.125,36.133,42.480,69.336,96.680,0
1486224197.306,-20.020,33.203,33.691,52.246,58.105,0
1486224197.310,-45.898,29.297,36.133,45.898,20.020,0
1486224197.314,45.898,18.066,40.527,43.457,-26.367,0
1486224197.318,119.141,24.902,37.109,71.777,17.578,0
1486224197.322,91.797,33.691,40.527,75.684,82.031,0
1486224197.326,-6.348,28.809,36.133,50.781,64.941,0
1486224197.330,-47.363,29.297,33.691,44.434,43.945,0
1486224197.334,42.969,26.367,32.715,50.293,-42.969,0
1486224197.338,119.629,33.691,29.297,72.754,-53.223,0
1486224197.342,103.516,43.457,41.992,82.520,66.895,0
1486224197.345,5.859,28.809,42.969,61.035,103.027,0
1486224197.349,-49.316,23.926,40.039,52.734,42.969,0
1486224197.353,40.039,34.668,38.574,63.477,11.230,0
1486224197.357,116.699,32.227,34.180,77.637,23.926,0
1486224197.361,103.027,26.367,41.016,81.543,58.105,0
1486224197.365,40.039,35.645,42.480,75.195,61.035,0
1486224197.369,-30.762,39.062,29.297,57.129,45.898,0
1486224197.373,14.648,32.227,25.391,50.293,2.441,0
1486224197.377,107.422,34.180,36.133,67.383,-24.902,0
1486224197.381,111.816,37.598,46.387,75.195,38.086,0
1486224197.385,29.297,32.227,58.594,63.965,104.492,0
1486224197.388,-51.270,26.855,46.875,48.828,92.285,0
1486224197.392,-3.418,30.273,32.715,46.387,20.508,0
1486224197.396,92.773,25.391,40.039,50.293,0.000,0
1486224197.400,102.051,20.020,32.227,52.246,70.801,0
1486224197.404,29.785,24.902,33.691,43.945,70.312,0
1486224197.408,-48.340,29.785,37.598,39.062,41.016,0
1486224197.412,-21.484,33.203,27.344,34.180,-4.395,0
1486224197.416,81.543,29.297,34.668,46.875,-72.266,0
1486224197.420,111.328,28.809,41.504,61.523,-12.207,0
1486224197.424,49.316,29.785,44.922,53.223,61.523,0
1486224197.427,-40.039,20.996,57.129,46.875,32.715,0
1486224197.431,-24.414,19.043,53.711,47.363,19.531,0
1486224197.435,82.031,19.531,40.527,62.988,-4.883,0
1486224197.439,119.141,25.879,33.203,79.102,33.203,0
1486224197.443,62.012,29.785,37.598,72.266,91.797,0
1486224197.447,-29.785,24.902,29.297,52.734,66.895,0
1486224197.451,-36.621,26.855,19.043,46.875,11.230,0
1486224197.455,62.500,21.484,31.738,56.152,-59.082,0
1486224197.459,117.188,25.391,39.062,74.707,-11.230,0
1486224197.463,71.777,31.250,41.504,72.266,55.664,0
1486224197.467,-15.137,31.250,44.922,58.105,32.715,0
1486224197.470,-28.809,24.902,38.086,43.457,8.301,0
1486224197.474,67.871,23.438,35.645,51.758,-33.691,0
1486224197.478,122.070,27.832,36.133,74.707,21.484,0
1486224197.482,76.172,29.785,30.273,68.848,109.863,0
1486224197.486,-9.277,34.180,26.367,51.758,79.102,0
1486224197.490,-40.527,24.414,27.344,36.621,32.715,0
1486224197.494,66.406,28.809,41.504,50.293,-39.062,0
1486224197.498,141.602,37.109,44.922,75.195,-28.320,0
1486224197.502,88.867,27.832,31.250,66.406,65.430,0
1486224197.506,-17.578,26.367,38.086,43.457,60.059,0
1486224197.510,-62.988,29.297,36.621,36.133,41.992,0
1486224197.513,34.668,28.320,33.203,42.480,7.812,0
1486224197.517,125.977,32.715,36.621,62.500,-11.719,0
1486224197.521,104.492,29.785,39.062,66.895,41.504,0
1486224197.525,16.113,37.109,44.922,60.059,83.984,0
1486224197.529,-46.875,34.668,38.086,55.176,63.477,0
1486224197.533,33.691,24.414,44.434,54.199,-10.254,0
1486224197.537,126.953,32.227,46.387,66.895,-36.621,0
1486224197.541,106.445,32.715,30.273,63.477,33.203,0
1486224197.545,19.043,27.344,34.668,50.293,43.945,0
1486224197.549,-53.223,27.832,40.527,42.480,22.461,0
1486224197.552,4.395,32.715,38.574,44.922,-7.324,0
1486224197.556,98.145,19.043,37.598,60.547,-10.742,0
1486224197.560,97.656,20.020,32.227,70.801,67.871,0
1486224197.564,27.344,28.320,39.551,67.871,76.172,0
1486224197.568,-37.598,25.879,55.176,59.082,36.133,0
1486224197.572,1.953,25.391,50.293,59.570,-22.461,0
1486224197.576,103.516,20.508,38.086,76.172,-66.406,0
1486224197.580,125.488,27.344,34.668,86.914,30.762,0
1486224197.584,46.387,35.156,34.668,76.172,89.844,0
1486224197.588,-34.180,36.133,40.527,53.223,68.848,0
1486224197.592,-9.766,34.668,41.016,45.898,23.926,0
1486224197.595,93.750,28.809,31.250,61.035,-31.738,0
1486224197.599,125.000,30.273,34.180,75.684,31.250,0
1486224197.603,68.848,36.621,46.387,67.871,63.477,0
1486224197.607,-14.648,36.133,47.852,62.988,61.035,0
1486224197.611,-14.160,32.227,44.922,58.105,24.414,0
1486224197.615,86.426,30.762,37.109,62.012,-30.762,0
1486224197.619,126.953,21.484,32.715,73.730,30.273,0
1486224197.623,67.871,24.414,34.668,63.965,76.172,0
1486224197.627,-23.438,34.668,32.715,60.547,56.152,0
1486224197.631,-27.832,33.203,35.156,58.105,38.086,0
1486224197.634,63.477,29.785,36.621,60.059,-25.879,0
1486224197.638,116.211,26.367,38.086,76.172,-1.465,0
1486224197.642,77.148,32.227,46.387,83.496,84.961,0
1486224197.646,-21.484,34.180,51.270,61.523,91.797,0
1486224197.650,-53.711,24.414,35.645,37.598,41.016,0
1486224197.654,52.734,28.320,30.762,49.316,-26.855,0
1486224197.658,114.258,33.691,34.668,67.383,-9.766,0
1486224197.662,75.684,20.020,32.227,69.824,56.152,0
1486224197.666,-12.207,24.902,39.551,60.547,65.430,0
1486224197.670,-54.199,33.203,38.086,45.410,41.992,0
1486224197.674,36.133,31.738,25.391,51.758,9.766,0
1486224197.677,128.418,39.551,32.227,82.031,29.297,0
1486224197.681,97.656,32.715,43.945,80.566,56.152,0
1486224197.685,1.465,29.297,42.480,58.594,62.988,0
1486224197.689,-50.781,39.062,31.250,37.598,65.918,0
1486224197.693,22.949,32.715,29.297,43.945,5.371,0
1486224197.697,122.559,24.414,35.156,70.312,16.113,0
1486224197.701,99.609,28.809,47.363,67.871,73.730,0
1486224197.705,7.812,37.598,45.410,64.453,100.586,0
1486224197.709,-51.758,32.227,39.551,51.758,54.688,0
1486224197.713,9.766,19.043,42.480,44.922,-17.578,0
1486224197.717,112.305,24.414,29.297,63.477,24.414,0
1486224197.720,116.211,27.832,34.180,69.824,80.566,0
1486224197.724,33.203,29.785,43.945,62.988,64.941,0
1486224197.728,-45.410,29.297,42.969,55.664,78.125,0
1486224197.732,8.789,28.809,39.062,50.293,22.461,0
1486224197.736,102.051,25.879,32.227,63.965,-18.555,0
1486224197.740,109.863,26.367,31.250,75.684,53.711,0
1486224197.744,35.156,35.645,42.480,67.871,108.887,0
1486224197.748,-52.734,38.574,46.387,51.758,126.465,0
1486224197.752,-34.668,22.461,33.691,38.086,82.520,0
1486224197.756,68.359,21.484,35.156,62.012,32.715,0
1486224197.759,104.980,28.809,54.688,81.543,101.074,0
1486224197.763,40.039,24.414,51.270,65.918,130.371,0
1486224197.767,-53.223,24.414,29.297,44.434,99.121,0
1486224197.771,-29.785,35.156,32.227,36.133,68.359,0
1486224197.775,84.961,37.598,35.645,45.410,15.137,0
1486224197.779,119.141,29.785,29.785,62.500,45.410,0
1486224197.783,55.176,37.109,35.156,60.059,116.699,0
1486224197.787,-34.668,43.457,49.316,49.316,89.844,0
1486224197.791,-29.297,40.527,50.781,46.875,1.953,0
1486224197.795,79.102,32.715,43.457,55.176,-31.250,0
1486224197.799,121.094,26.367,37.109,68.359,39.551,0
1486224197.802,64.453,27.832,29.785,62.988,101.074,0
1486224197.806,-31.250,32.227,34.180,51.758,104.492,0
1486224197.810,-43.945,36.133,38.086,49.316,56.152,0
1486224197.814,59.082,30.762,40.527,58.594,-16.113,0
1486224197.818,120.605,31.738,40.527,72.754,14.648,0
1486224197.822,85.449,34.180,47.363,72.754,93.750,0
1486224197.826,-11.230,32.227,48.340,61.523,84.961,0
1486224197.830,-46.875,31.738,48.828,58.594,46.387,0
1486224197.834,51.758,26.855,43.945,56.152,-14.160,0
1486224197.838,121.094,29.785,31.250,66.895,-10.742,0
1486224197.842,83.496,22.949,23.438,64.453,77.148,0
1486224197.845,-17.578,23.438,31.738,48.340,104.004,0
1486224197.849,-50.293,39.062,44.922,46.387,37.109,0
1486224197.853,47.363,36.621,39.062,56.152,-42.480,0
1486224197.857,124.023,29.297,36.621,72.754,8.301,0
1486224197.861,94.727,27.344,41.992,66.895,82.031,0
1486224197.865,8.789,31.738,48.828,54.688,21.484,0
1486224197.869,-42.480,32.227,39.551,44.434,25.391,0
1486224197.873,35.156,31.738,37.598,50.781,58.594,0
1486224197.877,111.816,27.344,36.621,66.895,44.434,0
1486224197.881,90.332,19.043,20.996,65.918,113.281,0
1486224197.884,17.578,27.344,21.973,57.129,142.578,0
1486224197.888,-42.480,34.180,42.969,52.734,104.004,0
1486224197.892,16.602,27.344,43.457,53.223,12.207,0
1486224197.896,113.770,21.973,30.273,61.523,-25.391,0
1486224197.900,108.398,26.855,29.297,67.383,84.473,0
1486224197.904,33.203,25.879,31.250,56.641,147.949,0
1486224197.908,-49.316,26.367,31.250,38.574,105.469,0
1486224197.912,-1.953,29.785,34.668,44.434,31.738,0
1486224197.916,106.445,33.203,40.039,62.988,26.855,0
1486224197.920,114.746,24.902,35.645,64.453,123.535,0
1486224197.924,48.340,23.438,38.086,62.012,113.281,0
1486224197.927,-28.809,31.250,42.969,54.688,36.621,0
1486224197.931,-11.230,25.879,36.133,41.992,13.672,0
1486224197.935,88.867,24.902,42.480,61.523,-1.953,1
1486224197.939,125.488,24.414,46.387,81.055,45.410,0
1486224197.943,48.340,24.902,28.320,68.848,79.590,0
1486224197.947,-47.852,23.438,36.621,62.988,76.172,0
1486224197.951,-33.691,17.090,42.969,48.828,22.461,0
1486224197.955,71.289,20.020,33.203,54.688,-56.641,0
1486224197.959,110.840,29.297,31.250,74.707,-10.742,0
1486224197.963,57.129,40.039,37.598,64.941,50.293,0
1486224197.966,-31.250,37.598,41.504,52.246,38.086,0
1486224197.970,-40.039,21.484,36.133,45.410,7.812,0
1486224197.974,70.801,31.738,23.926,49.316,-22.949,0
1486224197.978,124.023,36.133,29.297,63.477,20.996,0
1486224197.982,73.242,26.855,38.574,55.176,75.684,0
1486224197.986,-25.879,26.367,33.691,43.457,54.199,0
1486224197.990,-47.852,23.926,37.598,36.133,20.020,0
1486224197.994,59.082,26.367,38.086,41.016,-34.180,0
1486224197.998,128.418,31.250,40.039,67.871,-3.906,0
1486224198.002,84.473,29.297,43.457,75.195,56.152,0
1486224198.006,-13.672,30.273,41.504,60.059,63.477,0
1486224198.009,-49.316,27.832,42.480,47.363,62.988,0
1486224198.013,52.246,30.273,43.945,65.430,-31.250,0
1486224198.017,125.977,30.273,33.691,75.684,-6.836,0
1486224198.021,84.961,24.414,27.344,63.477,119.141,0
1486224198.025,-4.883,36.133,48.340,60.059,76.172,0
1486224198.029,-54.199,31.738,46.387,49.316,45.898,0
1486224198.033,22.949,24.414,34.668,49.316,7.812,0
1486224198.037,111.328,29.297,48.340,77.637,5.371,0
1486224198.041,87.891,25.879,42.480,73.730,116.699,0
1486224198.045,0.977,29.297,41.992,53.223,119.141,0
1486224198.049,-52.246,29.785,46.387,48.828,46.387,0
1486224198.052,7.812,26.855,34.180,44.922,31.250,0
1486224198.056,100.586,28.320,36.133,71.777,13.184,0
1486224198.060,100.586,33.691,38.086,83.008,60.547,0
1486224198.064,14.160,28.320,34.668,51.270,119.141,0
1486224198.068,-52.246,24.902,40.039,41.016,90.820,0
1486224198.072,8.789,34.668,56.152,52.246,23.926,0
1486224198.076,105.469,33.691,50.293,67.871,-20.996,0
1486224198.080,109.863,26.855,34.668,74.707,38.574,0
1486224198.084,33.691,20.508,38.086,66.895,77.148,0
1486224198.088,-40.527,24.902,38.574,63.965,50.781,0
1486224198.091,-5.859,23.926,26.367,56.641,-17.578,0
1486224198.095,99.609,31.250,26.855,65.918,-43.945,0
1486224198.099,110.352,28.809,47.852,75.195,36.133,0
1486224198.103,33.691,20.508,53.223,62.500,63.965,0
1486224198.107,-30.762,40.527,51.758,60.059,47.363,0
1486224198.111,-15.137,28.809,41.504,54.199,18.066,0
1486224198.115,78.125,9.277,39.551,58.594,7.812,0
1486224198.119,123.047,20.020,41.504,74.219,91.309,0
1486224198.123,62.500,24.902,27.344,58.105,96.680,0
1486224198.127,-29.297,30.273,40.039,51.270,51.270,0
1486224198.131,-28.320,32.715,44.434,49.805,7.812,0
1486224198.134,72.754,31.250,31.250,51.270,-42.480,0
1486224198.138,121.094,28.809,47.363,74.707,38.574,0
1486224198.142,68.848,29.297,56.152,66.406,83.008,0
1486224198.146,-28.320,41.016,39.551,49.316,69.824,0
1486224198.150,-44.434,33.203,35.156,41.504,64.941,0
1486224198.154,58.594,16.602,38.574,48.828,-14.160,0
1486224198.158,122.070,19.043,39.062,71.777,22.949,0
1486224198.162,82.520,25.391,44.434,75.684,107.422,0
1486224198.166,-18.555,29.785,40.039,56.152,71.289,0
1486224198.170,-41.992,30.273,34.180,42.480,40.527,0
1486224198.174,56.641,32.227,38.574,53.223,15.625,0
1486224198.177,125.977,36.621,46.875,75.195,25.879,0
1486224198.181,90.820,31.738,49.316,65.918,119.141,0
1486224198.185,-8.789,24.902,43.945,48.340,118.164,0
1486224198.189,-44.922,28.809,37.109,50.293,79.590,0
1486224198.193,45.410,31.250,37.598,61.523,13.672,0
1486224198.197,124.023,28.320,41.504,87.402,41.992,0
1486224198.201,94.727,27.832,36.621,84.961,109.375,0
1486224198.205,0.000,26.367,31.250,67.871,58.594,0
1486224198.209,-37.109,31.250,35.156,60.059,24.414,0
1486224198.213,31.738,27.344,40.039,51.270,-16.113,0
1486224198.216,122.070,27.344,38.086,73.242,0.977,0
1486224198.220,117.188,35.156,48.340,86.914,92.285,0
1486224198.224,18.555,33.691,42.480,63.965,84.961,0
1486224198.228,-42.969,33.691,41.504,54.199,22.949,0
1486224198.232,15.625,34.180,49.316,61.523,-3.418,0
1486224198.236,103.516,23.438,38.574,74.707,-17.578,0
1486224198.240,110.840,20.020,23.926,69.824,53.711,0
1486224198.244,33.203,27.832,34.180,62.988,104.492,0
1486224198.248,-56.641,24.414,38.574,52.246,59.082,0
1486224198.252,-5.371,21.484,41.992,44.922,11.230,0
1486224198.256,105.957,28.320,53.223,70.801,-3.906,0
1486224198.259,111.816,33.691,39.062,84.473,71.777,0
1486224198.263,31.250,27.832,34.668,67.871,108.398,0
1486224198.267,-46.387,21.973,36.133,53.223,66.895,0
1486224198.271,-16.113,28.320,33.691,51.270,11.719,0
1486224198.275,87.402,28.809,42.969,70.801,-29.297,0
1486224198.279,108.398,23.438,45.410,73.730,19.043,0
1486224198.283,40.527,23.926,39.551,57.129,100.586,0
1486224198.287,-34.180,36.133,55.176,57.617,96.680,0
1486224198.291,-19.531,37.598,62.500,50.781,28.809,0
1486224198.295,80.566,28.320,43.945,55.664,-22.949,0
1486224198.298,121.094,26.367,33.691,76.172,64.941,0
1486224198.302,61.035,29.297,32.715,68.848,148.438,0
1486224198.306,-32.227,31.250,36.133,54.199,94.727,0
1486224198.310,-32.715,24.902,40.039,45.410,30.762,0
1486224198.314,71.289,23.926,38.086,54.199,-22.461,0
1486224198.318,118.652,24.414,39.062,69.336,19.531,0
1486224198.322,79.102,28.320,53.223,69.824,90.820,0
1486224198.326,-9.766,32.227,51.758,69.336,83.984,0
1486224198.330,-31.250,31.738,46.387,59.570,55.176,0
1486224198.334,72.266,31.738,42.480,62.012,-4.395,0
1486224198.338,130.371,34.668,38.086,77.637,40.527,0
1486224198.341,85.938,34.180,35.156,69.824,126.953,0
1486224198.345,-5.371,29.785,45.410,57.617,83.008,0
1486224198.349,-46.387,26.855,45.898,47.363,18.555,0
1486224198.353,35.645,19.531,33.691,46.875,-8.301,0
1486224198.357,123.047,27.832,41.504,73.730,20.508,0
1486224198.361,99.609,38.574,49.316,78.125,54.688,0
1486224198.365,-10.742,24.902,45.898,47.852,71.777,0
1486224198.369,-64.453,19.531,41.016,34.668,52.734,0
1486224198.373,16.602,28.320,32.227,44.434,-9.766,0
1486224198.377,114.258,31.250,47.852,64.453,-10.742,0
1486224198.381,94.727,32.715,52.734,67.871,90.332,0
1486224198.384,0.000,32.715,35.645,50.781,100.098,0
1486224198.388,-60.547,27.832,33.691,38.574,59.570,0
1486224198.392,7.324,25.879,31.250,42.969,21.484,0
1486224198.396,111.816,28.809,32.715,61.035,10.254,0
1486224198.400,106.934,29.785,31.738,65.430,80.078,0
1486224198.404,15.137,22.949,31.738,51.270,102.051,0
1486224198.408,-49.805,26.367,32.227,40.039,58.105,0
1486224198.412,11.719,34.668,38.574,51.270,24.414,0
1486224198.416,108.887,25.879,41.016,68.359,30.762,0
1486224198.420,118.652,29.297,32.227,75.684,77.148,0
1486224198.423,42.969,36.621,41.504,65.430,76.172,0
1486224198.427,-37.598,28.809,53.711,51.270,32.227,0
1486224198.431,-1.953,23.438,44.434,54.199,-4.883,0
1486224198.435,97.168,33.203,22.461,66.406,12.695,0
1486224198.439,122.559,38.086,30.273,74.219,63.477,0
1486224198.443,51.758,34.180,42.480,74.219,80.566,0
1486224198.447,-29.297,33.203,31.250,61.035,64.453,0
1486224198.451,-8.301,22.461,36.621,51.270,38.574,0
1486224198.455,98.633,20.508,44.434,56.152,45.898,0
1486224198.459,126.953,30.762,44.434,77.148,78.613,0
1486224198.463,56.641,33.203,47.852,67.871,86.914,0
1486224198.466,-40.527,24.902,36.133,39.551,82.520,0
1486224198.470,-41.016,23.438,28.320,39.551,30.273,0
1486224198.474,75.684,30.273,47.363,59.570,-3.906,0
1486224198.478,117.188,27.344,47.363,74.219,56.641,0
1486224198.482,44.434,25.879,25.879,55.664,107.910,0
1486224198.486,-44.922,24.414,35.645,35.156,75.195,0
1486224198.490,-44.434,20.996,37.598,35.156,53.223,0
1486224198.494,61.035,26.367,34.180,54.688,33.691,0
1486224198.498,111.328,23.438,42.480,72.754,70.312,0
1486224198.502,74.707,30.762,40.039,76.660,133.789,0
1486224198.506,-11.719,37.109,36.621,65.430,72.754,0
1486224198.509,-42.969,24.414,36.133,47.852,21.973,0
1486224198.513,54.688,25.391,39.062,55.664,-33.691,0
1486224198.517,124.512,32.715,36.621,78.613,17.578,0
1486224198.521,94.238,35.645,36.621,82.520,107.910,0
1486224198.525,-7.812,31.250,42.969,62.500,101.562,0
1486224198.529,-49.805,28.320,38.086,49.805,61.035,0
1486224198.533,48.828,32.227,37.109,58.105,15.137,0
1486224198.537,119.141,33.203,31.738,69.336,40.039,0
1486224198.541,92.285,38.086,29.785,72.754,93.262,0
1486224198.545,6.348,30.762,38.086,59.570,123.047,0
1486224198.548,-47.852,24.902,36.621,45.898,84.961,0
1486224198.552,45.410,32.715,41.016,55.176,1.953,0
1486224198.556,125.488,23.926,41.016,74.707,-16.602,0
1486224198.560,104.492,23.438,49.805,95.703,63.965,0
1486224198.564,21.973,28.320,49.805,82.031,102.539,0
1486224198.568,-44.434,33.691,36.133,56.641,94.727,0
1486224198.572,22.461,31.250,32.227,61.035,31.738,0
1486224198.576,114.746,24.902,23.926,75.684,0.000,0
1486224198.580,110.352,32.227,30.273,84.961,83.984,0
1486224198.584,34.668,33.691,49.316,76.172,103.516,0
1486224198.588,-42.969,25.391,46.875,54.688,56.152,0
1486224198.591,2.930,21.484,37.598,45.898,-28.809,0
1486224198.595,110.352,28.320,39.551,68.848,-37.109,0
1486224198.599,117.676,31.738,36.133,75.195,27.344,0
1486224198.603,39.551,26.367,37.598,63.965,83.496,0
1486224198.607,-38.086,29.785,45.898,51.270,80.078,0
1486224198.611,-2.930,31.738,31.738,52.246,-4.883,1
1486224198.615,101.074,25.879,28.320,69.824,-22.949,0
1486224198.619,122.559,28.320,41.992,80.078,57.129,0
1486224198.623,54.199,34.180,44.434,75.684,90.332,0
1486224198.627,-37.109,27.832,30.762,54.199,66.406,0
1486224198.630,-20.996,26.855,25.391,42.969,19.531,0
1486224198.634,89.844,34.668,36.133,63.965,0.977,0
1486224198.638,116.211,29.785,37.109,73.730,45.898,0
1486224198.642,49.805,27.832,28.809,54.688,96.680,0
1486224198.646,-38.086,32.715,21.484,43.945,85.938,0
1486224198.650,-28.809,29.297,27.344,45.898,53.223,0
1486224198.654,76.660,31.738,40.039,58.105,4.883,0
1486224198.658,119.141,30.762,37.598,77.637,29.297,0
1486224198.662,65.430,20.996,26.855,73.242,85.449,0
1486224198.666,-29.297,39.551,40.527,61.035,53.711,0
1486224198.670,-29.297,40.039,53.711,52.734,10.742,0
1486224198.673,73.730,24.414,45.410,52.734,-22.949,0
1486224198.677,118.652,27.832,26.367,72.266,27.344,0
1486224198.681,85.449,27.832,25.391,76.660,68.359,0
1486224198.685,-13.672,31.250,38.574,56.152,71.777,0
1486224198.689,-50.781,29.785,42.969,45.410,51.270,0
1486224198.693,53.711,23.926,34.668,52.734,-14.160,0
1486224198.697,120.117,26.367,30.273,72.266,12.695,0
1486224198.701,84.473,26.367,34.668,72.754,89.355,0
1486224198.705,-6.348,31.250,40.039,57.129,85.938,0
1486224198.709,-50.293,37.109,53.711,50.781,16.113,0
1486224198.713,41.992,24.414,53.711,63.477,-68.359,0
1486224198.716,120.117,19.531,33.691,77.148,-44.922,0
1486224198.720,91.797,19.531,29.297,69.336,40.527,0
1486224198.724,9.277,22.461,38.574,60.547,80.078,0
1486224198.728,-49.805,30.273,34.180,56.641,70.312,0
1486224198.732,13.672,21.973,31.250,54.199,-14.648,0
1486224198.736,105.469,25.879,39.062,77.637,-37.109,0
1486224198.740,97.168,31.738,46.387,81.055,20.508,0
1486224198.744,12.695,29.785,40.039,56.152,58.105,0
1486224198.748,-48.340,38.086,38.574,49.805,54.688,0
1486224198.752,17.578,36.621,40.527,51.270,-2.930,0
1486224198.755,104.492,25.879,38.574,62.500,-12.695,0
1486224198.759,105.469,26.367,43.457,75.195,55.664,0
1486224198.763,32.227,23.438,40.527,64.453,101.562,0
1486224198.767,-42.969,20.020,45.898,51.270,88.379,0
1486224198.771,-5.859,22.461,38.574,47.363,-12.207,0
1486224198.775,99.121,27.344,30.273,66.406,-30.762,0
1486224198.779,125.000,29.297,33.691,80.566,44.434,0
1486224198.783,46.387,23.438,35.645,66.895,51.270,0
1486224198.787,-42.969,29.297,33.203,60.547,16.113,0
1486224198.791,-17.090,30.273,40.039,57.617,-9.766,0
1486224198.795,97.168,24.902,51.270,71.289,-44.434,0
1486224198.798,119.629,21.484,37.109,84.473,28.320,0
1486224198.802,46.875,22.461,30.273,73.730,88.867,0
1486224198.806,-37.598,33.203,51.270,63.965,53.711,0
1486224198.810,-28.809,23.926,54.688,55.664,11.719,0
1486224198.814,74.219,18.555,35.645,65.430,-44.434,0
1486224198.818,117.676,27.344,32.227,79.590,15.625,0
1486224198.822,62.988,30.273,31.738,67.871,102.539,0
1486224198.826,-33.691,26.855,35.645,49.316,76.172,0
1486224198.830,-37.598,27.832,44.922,48.828,22.461,0
1486224198.834,71.289,29.297,38.574,58.105,-24.414,0
1486224198.838,122.559,25.391,38.086,71.777,5.859,0
1486224198.841,80.078,28.809,46.875,81.543,62.012,0
1486224198.845,-14.160,29.297,43.457,63.965,36.621,0
1486224198.849,-35.156,27.344,36.621,43.457,-37.598,0
1486224198.853,76.660,31.250,43.945,59.570,-65.430,0
1486224198.857,126.465,33.203,28.320,76.660,28.320,0
1486224198.861,81.055,31.250,38.086,68.848,79.102,0
1486224198.865,-3.906,24.414,49.316,56.152,70.801,0
1486224198.869,-49.316,24.902,33.691,50.293,87.402,0
1486224198.873,41.992,23.438,36.133,56.641,26.855,0
1486224198.877,136.719,23.926,42.480,72.754,20.996,0
1486224198.880,95.703,31.250,44.922,74.707,93.750,0
1486224198.884,-13.184,26.855,39.062,56.152,117.188,0
1486224198.888,-54.199,23.438,35.156,41.504,66.406,0
1486224198.892,33.691,27.344,31.250,43.945,-21.973,0
1486224198.896,114.258,27.344,28.809,62.500,0.000,0
1486224198.900,93.750,26.855,34.668,69.824,80.078,0
1486224198.904,17.090,35.156,46.387,53.711,78.613,0
1486224198.908,-45.898,36.621,55.176,42.480,56.152,0
1486224198.912,19.531,22.461,53.223,49.316,5.371,0
1486224198.916,107.910,16.602,34.668,62.500,-19.043,0
1486224198.920,94.727,18.066,30.762,62.012,54.199,0
1486224198.923,19.531,27.344,35.156,57.617,85.449,0
1486224198.927,-53.223,24.414,30.273,43.945,58.594,0
1486224198.931,-3.418,22.949,29.785,41.016,-1.465,0
1486224198.935,104.980,26.855,33.691,61.035,-47.852,0
1486224198.939,110.840,28.809,44.434,62.500,60.547,0
1486224198.943,33.691,34.180,44.922,56.641,89.355,0
1486224198.947,-41.504,34.180,37.109,48.340,71.777,0
1486224198.951,-15.625,30.273,40.039,34.668,31.738,0
1486224198.955,83.496,27.832,28.320,53.223,-20.996,0
1486224198.959,115.723,31.250,28.320,69.824,64.941,0
1486224198.962,41.992,26.855,39.062,51.270,110.352,0
1486224198.966,-48.828,26.367,45.898,38.086,48.340,0
1486224198.970,-28.320,22.461,43.945,39.551,-2.930,0
1486224198.974,75.195,20.996,38.086,50.781,-24.414,0
1486224198.978,118.652,23.926,37.109,63.965,10.254,0
1486224198.982,56.152,34.180,45.898,57.129,90.332,0
1486224198.986,-38.574,36.621,39.062,43.457,113.770,0
1486224198.990,-34.180,29.785,30.762,39.551,65.430,0
1486224198.994,71.289,26.367,37.109,50.293,-1.465,0
1486224198.998,118.652,20.996,37.109,65.430,27.832,0
1486224199.002,61.523,21.973,38.574,58.594,77.148,0
1486224199.005,-28.320,22.461,44.434,46.387,95.703,0
1486224199.009,-31.738,30.273,46.875,46.387,57.129,0
1486224199.013,64.941,26.855,40.039,50.293,-24.414,0
1486224199.017,119.629,29.297,41.992,64.453,1.953,0
1486224199.021,82.520,45.898,48.340,64.941,68.359,0
1486224199.025,-15.137,30.273,41.016,46.387,96.191,0
1486224199.029,-53.223,16.602,31.738,33.203,57.129,0
1486224199.033,44.434,18.555,34.180,39.551,-20.508,0
1486224199.037,112.305,21.484,33.691,58.594,24.902,0
1486224199.041,87.402,27.832,36.133,65.918,83.008,0
1486224199.045,4.883,29.785,38.574,53.223,66.895,0
1486224199.048,-43.945,34.668,48.340,38.574,59.082,0
1486224199.052,39.551,28.809,46.875,44.434,-1.953,0
1486224199.056,125.488,25.391,28.809,68.359,4.395,0
1486224199.060,92.285,37.598,27.832,61.523,49.316,0
1486224199.064,3.906,36.133,34.180,41.016,83.008,0
1486224199.068,-43.945,24.902,48.340,38.086,63.477,0
1486224199.072,25.391,17.090,37.598,45.898,-24.414,0
1486224199.076,117.676,20.996,28.809,70.801,-33.203,0
1486224199.080,102.539,31.738,40.527,70.801,86.426,0
1486224199.084,11.719,30.762,36.621,54.199,141.602,0
1486224199.087,-49.316,28.320,31.738,43.457,108.887,0
1486224199.091,20.996,32.227,31.250,44.922,25.391,0
1486224199.095,109.863,30.762,39.062,67.383,-28.809,0
1486224199.099,100.098,27.344,50.781,77.637,48.340,0
1486224199.103,28.809,25.391,43.945,62.500,96.680,0
1486224199.107,-41.504,29.785,41.992,46.875,52.246,0
1486224199.111,0.488,37.109,51.270,52.734,-7.812,0
1486224199.115,95.703,20.996,38.086,68.848,-17.578,0
1486224199.119,111.816,15.625,28.320,76.660,60.547,0
1486224199.123,42.480,26.855,31.250,63.965,82.520,0
1486224199.127,-45.410,26.367,34.668,50.781,56.641,0
1486224199.130,-14.160,30.273,41.992,45.410,15.625,0
1486224199.134,94.238,33.691,43.945,59.570,-30.762,0
1486224199.138,117.188,29.785,38.574,74.219,34.180,0
1486224199.142,58.594,33.203,46.875,60.547,99.609,0
1486224199.146,-23.438,38.086,54.199,59.082,81.543,0
1486224199.150,-26.855,28.320,40.527,53.711,20.508,0
1486224199.154,73.730,21.484,30.762,48.340,-39.551,0
1486224199.158,116.211,22.949,29.785,65.918,20.020,0
1486224199.162,61.523,26.367,33.203,56.152,92.773,0
1486224199.166,-28.320,28.809,40.039,43.457,74.707,0
1486224199.170,-32.715,27.344,40.039,41.016,28.809,0
1486224199.173,85.938,35.156,42.480,54.199,0.488,0
1486224199.177,142.578,37.109,37.109,75.195,81.055,1
1486224199.181,87.891,28.809,26.855,64.453,125.977,0
1486224199.185,-7.812,29.297,40.039,57.129,118.164,0
1486224199.189,-16.602,35.156,47.852,48.828,87.402,0
1486224199.193,74.707,30.273,36.621,49.316,-21.484,0
1486224199.197,114.746,26.367,34.668,66.895,-7.812,0
1486224199.201,73.730,26.855,39.551,63.477,97.168,0
1486224199.205,-16.602,24.414,33.691,51.758,107.422,0
1486224199.209,-53.223,21.973,37.109,39.551,52.246,0
1486224199.212,42.480,26.855,43.457,49.805,-16.602,0
1486224199.216,112.305,31.250,40.039,70.312,-0.488,0
1486224199.220,84.473,36.621,37.109,63.965,72.266,0
1486224199.224,-2.930,32.715,31.738,53.711,107.910,0
1486224199.228,-49.805,25.879,32.715,52.246,48.828,0
1486224199.232,35.645,30.762,38.086,55.664,-48.828,0
1486224199.236,116.699,29.785,40.039,73.730,-25.879,0
1486224199.240,96.191,33.691,47.363,77.637,39.062,0
1486224199.244,12.207,38.086,52.734,62.012,41.016,0
1486224199.248,-44.434,30.762,44.434,54.199,40.039,0
1486224199.252,21.484,30.762,36.133,51.758,-33.203,0
1486224199.255,108.398,33.691,35.156,67.383,-35.645,0
1486224199.259,104.980,31.250,32.715,70.801,58.105,0
1486224199.263,19.531,30.762,36.621,50.781,58.594,0
1486224199.267,-62.500,27.832,36.621,43.457,49.805,0
1486224199.271,-7.324,22.949,32.227,38.574,6.348,0
1486224199.275,96.191,35.645,38.574,59.570,-16.602,0
1486224199.279,104.004,33.691,40.527,73.730,53.223,0
1486224199.283,23.438,24.414,44.434,53.711,76.172,0
1486224199.287,-54.199,30.762,50.293,45.898,74.219,0
1486224199.291,-11.719,25.879,28.809,49.805,37.598,0
1486224199.294,87.891,25.391,18.066,60.059,-19.531,0
1486224199.298,112.793,26.367,29.785,72.266,43.457,0
1486224199.302,52.734,34.668,51.270,68.359,84.473,0
1486224199.306,-30.762,34.180,56.152,53.711,65.918,0
1486224199.310,-16.113,23.438,31.250,46.387,11.719,0
1486224199.314,89.355,27.832,23.926,58.105,-0.977,0
1486224199.318,113.770,19.043,34.668,71.289,86.426,0
1486224199.322,50.781,17.578,40.039,68.848,102.051,0
1486224199.326,-26.855,33.691,40.527,60.059,97.168,0
1486224199.330,-21.973,34.180,46.387,44.434,56.152,0
1486224199.334,77.148,37.109,44.434,50.293,-8.301,0
1486224199.337,119.141,36.621,37.109,70.312,40.039,0
1486224199.341,70.801,21.484,37.598,60.059,115.234,0
1486224199.345,-12.207,28.809,41.504,56.152,108.887,0
1486224199.349,-24.414,27.832,39.551,52.734,52.246,0
1486224199.353,66.895,27.344,38.086,55.176,-9.277,0
1486224199.357,125.000,35.156,32.715,77.637,38.574,0
1486224199.361,87.402,29.785,37.109,73.730,113.281,0
1486224199.365,-10.742,22.461,40.039,55.664,85.449,0
1486224199.369,-35.156,31.250,40.527,62.012,11.719,0
1486224199.373,66.406,34.180,57.129,71.777,-40.527,0
1486224199.377,129.883,24.902,49.805,79.590,47.852,0
1486224199.380,101.562,32.715,31.250,83.008,100.098,0
1486224199.384,2.930,36.133,36.133,70.312,83.496,0
1486224199.388,-49.316,27.344,37.109,54.688,32.227,0
1486224199.392,58.594,27.344,36.133,58.105,-29.297,0
1486224199.396,129.395,27.344,40.527,71.289,18.066,0
1486224199.400,92.285,23.438,40.527,71.289,50.293,0
1486224199.404,23.438,38.574,37.598,73.730,63.477,0
1486224199.408,-38.574,41.992,36.621,63.477,52.734,0
1486224199.412,24.414,23.926,39.551,55.664,-1.465,0
1486224199.416,120.117,19.043,36.133,74.219,3.906,0
1486224199.419,106.934,32.715,45.410,84.961,69.336,0
1486224199.423,19.043,34.180,49.316,79.102,63.477,0
1486224199.427,-41.504,31.250,39.062,64.453,51.270,0
1486224199.431,22.949,26.855,42.480,53.711,24.902,0
1486224199.435,114.746,25.391,33.203,68.359,-16.113,0
1486224199.439,114.258,31.738,27.832,84.473,12.695,0
1486224199.443,33.691,32.227,35.156,75.684,51.758,0
1486224199.447,-38.086,34.180,43.945,61.523,58.594,0
1486224199.451,2.441,35.645,50.781,56.152,21.484,0
1486224199.455,98.633,26.855,49.805,74.707,25.391,0
1486224199.459,117.188,23.438,35.156,77.637,76.660,0
1486224199.462,45.898,30.273,43.457,64.941,106.445,0
1486224199.466,-42.969,30.273,43.457,56.152,87.402,0
1486224199.470,-18.555,25.391,21.973,41.016,16.602,0
1486224199.474,92.773,21.973,24.414,51.270,-17.090,0
1486224199.478,116.699,23.926,40.527,67.871,68.359,0
1486224199.482,44.922,30.273,46.387,61.523,124.512,0
1486224199.486,-26.855,41.504,34.180,55.176,74.707,0
1486224199.490,-4.883,39.062,38.086,57.617,-32.227,0
1486224199.494,91.309,28.320,43.457,63.965,-41.016,0
1486224199.498,127.930,27.832,40.039,73.730,38.086,0
1486224199.502,64.453,32.227,33.691,68.848,99.121,0
1486224199.505,-30.762,35.645,28.809,57.129,100.098,0
1486224199.509,-28.809,29.785,30.762,44.922,32.715,0
1486224199.513,72.754,21.484,29.785,52.246,-1.465,0
1486224199.517,115.723,20.508,41.504,72.754,66.406,0
1486224199.521,63.965,29.785,42.480,63.965,124.023,0
1486224199.525,-24.902,37.598,33.691,51.758,90.332,0
1486224199.529,-39.551,29.297,42.969,45.898,39.551,0
1486224199.533,70.801,31.250,41.504,50.781,-6.836,0
1486224199.537,138.672,36.621,46.387,72.754,25.879,0
1486224199.541,81.055,33.691,44.434,68.848,81.543,0
1486224199.544,-16.602,35.645,29.785,50.293,74.707,0
1486224199.548,-40.527,32.715,34.180,40.527,49.805,0
1486224199.552,45.898,23.438,31.738,45.898,4.883,0
1486224199.556,117.188,33.691,32.715,68.848,1.465,0
1486224199.560,91.309,41.504,32.715,67.871,63.965,0
1486224199.564,-6.836,27.344,43.457,51.270,85.449,0
1486224199.568,-56.641,22.461,43.457,43.945,38.086,0
1486224199.572,35.156,29.785,33.203,49.805,-5.859,0
1486224199.576,117.188,25.391,49.316,68.848,0.488,0
1486224199.580,91.797,28.809,45.410,70.312,31.738,0
1486224199.584,7.324,35.156,39.062,57.617,71.289,0
1486224199.587,-50.781,25.391,44.434,50.781,72.266,0
1486224199.591,12.695,28.809,26.855,45.898,12.207,0
1486224199.595,111.816,37.598,38.086,69.336,-3.418,0
1486224199.599,104.004,27.832,54.199,85.449,82.520,0
1486224199.603,5.859,26.367,38.086,56.641,99.609,0
1486224199.607,-63.965,26.855,31.738,40.527,38.574,0
1486224199.611,0.977,26.367,29.297,41.504,-0.488,0
1486224199.615,111.328,24.414,37.109,61.035,-1.465,0
1486224199.619,115.234,26.855,52.246,77.148,47.363,0
1486224199.623,32.715,27.344,51.758,66.895,67.871,0
1486224199.626,-42.480,25.391,36.133,53.223,75.684,0
1486224199.630,3.906,31.738,27.832,54.199,33.203,0
1486224199.634,99.609,30.762,41.016,61.523,-25.391,0
1486224199.638,108.398,36.133,39.062,67.871,44.434,0
1486224199.642,35.645,30.762,28.320,61.035,81.055,0
1486224199.646,-43.945,23.438,44.434,45.410,39.062,0
1486224199.650,-17.090,26.855,51.270,46.875,23.438,0
1486224199.654,83.984,23.926,39.062,57.129,22.461,0
1486224199.658,117.676,22.949,41.016,66.406,47.852,0
1486224199.662,59.570,32.715,39.062,64.941,68.848,0
1486224199.666,-32.715,35.645,50.781,53.223,60.547,0
1486224199.669,-28.809,19.531,46.875,49.316,27.832,0
1486224199.673,77.148,20.508,32.715,57.129,8.789,0
1486224199.677,111.816,28.320,36.621,67.383,23.926,0
1486224199.681,56.641,24.902,38.574,67.871,58.105,0
1486224199.685,-30.273,26.855,44.434,57.617,97.656,0
1486224199.689,-40.527,25.879,40.527,47.852,54.688,0
1486224199.693,68.848,21.973,39.551,59.082,8.789,0
1486224199.697,126.465,22.949,42.480,75.684,59.570,0
1486224199.701,76.660,28.809,32.715,70.801,83.008,0
1486224199.705,-15.625,32.227,31.250,57.617,66.895,0
1486224199.709,-38.086,33.691,27.344,54.688,51.270,0
1486224199.712,66.406,23.926,41.504,59.082,2.930,1
1486224199.716,128.906,19.043,48.340,73.242,33.691,0
1486224199.720,78.125,34.668,34.668,64.453,56.641,0
1486224199.724,-16.602,30.273,41.992,51.270,64.453,0
1486224199.728,-52.246,20.996,47.852,51.270,94.727,0
1486224199.732,48.828,31.250,34.180,52.734,32.227,0
1486224199.736,119.629,19.531,37.109,70.312,16.113,0
1486224199.740,89.355,17.578,33.203,73.730,87.402,0
1486224199.744,12.695,36.621,32.227,61.035,89.355,0
1486224199.748,-40.039,31.250,38.574,51.270,41.992,0
1486224199.751,34.180,21.484,44.922,51.270,-19.531,0
1486224199.755,119.629,23.926,44.434,66.406,-11.719,0
1486224199.759,97.656,26.367,36.133,67.383,50.781,0
1486224199.763,8.301,30.762,50.293,60.547,106.445,0
1486224199.767,-58.105,35.645,49.805,52.734,109.375,0
1486224199.771,6.836,28.320,23.926,39.551,46.387,0
1486224199.775,107.910,19.043,29.297,53.223,8.301,0
1486224199.779,98.145,19.531,41.504,64.941,65.430,0
1486224199.783,7.324,19.531,38.086,48.828,109.375,0
1486224199.787,-68.359,21.973,35.645,41.016,89.355,0
1486224199.791,-10.742,25.391,28.320,38.574,44.434,0
1486224199.794,102.051,23.926,37.109,61.035,10.742,0
1486224199.798,108.398,19.531,41.992,70.312,42.969,0
1486224199.802,34.180,25.391,45.898,60.547,61.035,0
1486224199.806,-43.457,33.203,42.480,55.176,44.434,0
1486224199.810,-19.043,28.320,24.414,43.457,-40.527,0
1486224199.814,90.332,26.367,35.645,62.500,-41.992,0
1486224199.818,114.746,28.809,47.363,74.219,41.992,0
1486224199.822,45.898,29.297,42.480,57.617,47.852,0
1486224199.826,-40.039,31.250,41.016,46.387,61.523,0
1486224199.830,-22.949,28.320,31.250,43.945,26.367,0
1486224199.834,79.590,23.438,28.320,55.664,-31.250,0
1486224199.837,109.863,32.227,38.086,71.289,36.621,0
1486224199.841,63.965,34.180,39.062,65.918,83.008,0
1486224199.845,-27.344,33.691,44.922,57.617,69.824,0
1486224199.849,-30.762,31.250,42.969,48.340,22.949,0
1486224199.853,76.172,29.785,29.785,52.734,-20.996,0
1486224199.857,121.582,31.738,34.180,73.730,42.480,0
1486224199.861,66.895,24.902,37.598,66.406,92.773,0
1486224199.865,-32.227,22.949,40.527,48.340,105.469,0
1486224199.869,-40.039,23.438,41.504,46.387,52.734,0
1486224199.873,80.078,31.250,41.504,65.918,-38.574,0
1486224199.876,135.742,30.762,41.504,85.938,25.391,0
1486224199.880,79.102,33.691,42.969,78.125,101.074,0
1486224199.884,-16.113,28.809,39.062,57.617,70.801,0
1486224199.888,-43.457,22.949,32.715,39.551,54.199,0
1486224199.892,50.781,30.273,30.762,49.316,-20.020,0
1486224199.896,121.582,27.832,35.156,72.266,-2.930,0
1486224199.900,86.914,21.484,41.016,70.801,112.305,0
1486224199.904,-9.766,20.508,39.551,53.711,104.004,0
1486224199.908,-37.109,27.344,35.645,37.598,60.547,0
1486224199.912,59.082,32.715,29.785,41.504,4.883,0
1486224199.916,125.977,33.203,41.016,64.453,19.531,0
1486224199.919,94.727,31.250,44.434,75.684,104.980,0
1486224199.923,7.812,25.879,42.480,66.406,105.957,0
1486224199.927,-48.828,31.250,38.574,51.270,84.961,0
1486224199.931,25.879,39.062,26.855,55.664,29.785,0
1486224199.935,115.723,29.297,34.668,76.172,-0.488,0
1486224199.939,97.168,23.438,39.551,77.148,58.105,0
1486224199.943,26.367,24.414,50.293,72.266,88.867,0
1486224199.947,-44.922,26.855,54.199,57.129,67.871,0
1486224199.951,0.977,25.879,33.691,44.922,1.953,0
