timestamps,TP9,AF7,AF8,TP10,Right AUX,Marker
1486223271.561,39.551,27.344,30.762,51.758,-8.789,0
1486223271.565,-20.996,31.250,42.480,62.500,99.121,0
1486223271.568,-5.371,34.668,41.992,57.129,175.293,0
1486223271.572,67.383,31.250,31.738,44.434,14.160,0
1486223271.576,94.238,27.344,40.039,60.547,-35.156,0
1486223271.580,48.828,33.691,50.293,67.383,-2.441,0
1486223271.584,-18.555,30.762,38.574,70.312,81.055,0
1486223271.588,-15.137,18.555,32.715,67.383,195.312,0
1486223271.592,55.664,20.020,37.109,52.246,62.988,0
1486223271.596,93.750,26.855,32.715,58.594,-36.621,0
1486223271.600,60.059,21.484,35.645,62.988,20.996,0
1486223271.604,-13.184,19.043,30.762,71.289,83.984,0
1486223271.608,-11.230,38.574,33.691,79.590,184.082,0
1486223271.611,63.965,36.133,48.828,57.129,68.848,0
1486223271.615,93.262,18.066,37.598,52.734,-40.039,0
1486223271.619,67.383,22.461,39.551,66.895,10.254,0
1486223271.623,0.000,23.926,46.875,73.730,90.332,0
1486223271.627,-20.508,24.902,28.809,67.871,195.801,0
1486223271.631,48.340,23.438,29.785,46.875,93.750,0
1486223271.635,99.121,25.391,41.504,52.246,-1.465,0
1486223271.639,72.754,29.297,35.156,60.547,9.277,0
1486223271.643,7.324,32.227,32.715,64.941,38.086,0
1486223271.647,-20.508,39.062,36.621,75.195,154.785,0
1486223271.650,38.086,33.203,42.969,62.988,94.238,0
1486223271.654,98.145,22.949,42.480,61.035,-45.410,0
1486223271.658,86.426,24.414,41.992,65.918,-52.246,0
1486223271.662,13.184,22.949,41.016,71.289,-28.809,0
1486223271.666,-27.832,23.438,42.969,76.172,119.629,0
1486223271.670,27.832,24.414,48.340,56.152,116.699,0
1486223271.674,87.402,18.555,43.945,55.176,-48.340,0
1486223271.678,77.637,25.391,40.039,68.359,-40.039,0
1486223271.682,21.973,36.133,42.480,76.660,34.668,0
1486223271.686,-21.973,30.273,41.504,80.566,154.785,0
1486223271.690,14.160,21.484,33.203,62.012,114.746,0
1486223271.693,87.891,22.949,32.715,53.223,-41.992,0
1486223271.697,92.285,26.367,40.039,60.547,-69.336,0
1486223271.701,35.156,28.320,47.363,69.336,-31.738,0
1486223271.705,-9.277,32.715,49.316,79.102,96.191,0
1486223271.709,6.348,28.809,38.086,65.918,136.230,0
1486223271.713,72.754,26.855,40.039,51.758,22.949,0
1486223271.717,91.797,28.320,35.645,59.082,-41.992,0
1486223271.721,33.691,33.203,37.109,68.359,-20.508,0
1486223271.725,-27.344,37.109,39.551,65.918,110.352,0
1486223271.729,-8.789,31.738,26.855,51.758,160.156,0
1486223271.732,73.730,27.832,29.785,41.992,26.367,0
1486223271.736,97.656,24.902,38.086,49.316,-16.113,0
1486223271.740,45.898,22.461,52.246,62.988,15.137,0
1486223271.744,-23.438,23.926,51.758,71.289,103.516,0
1486223271.748,-20.508,24.902,39.551,58.594,180.176,0
1486223271.752,67.383,32.227,43.945,54.199,30.762,0
1486223271.756,98.145,29.297,31.250,62.012,-54.688,0
1486223271.760,49.316,28.320,18.555,60.059,-33.203,0
1486223271.764,-2.441,36.133,32.227,70.801,33.691,0
1486223271.768,-2.441,32.715,36.621,67.871,162.598,0
1486223271.772,60.059,31.250,31.738,51.758,82.520,0
1486223271.775,104.004,33.203,40.527,62.500,-11.719,0
1486223271.779,66.406,34.668,48.340,64.941,-18.555,0
1486223271.783,-6.348,25.391,43.457,66.406,29.297,0
1486223271.787,-17.578,22.949,49.805,72.266,159.180,0
1486223271.791,52.246,29.785,51.758,58.105,60.059,0
1486223271.795,108.398,28.809,26.367,55.664,-65.430,0
1486223271.799,77.637,28.809,23.438,62.988,-59.570,0
1486223271.803,8.301,38.574,32.227,70.801,2.441,0
1486223271.807,-13.672,35.645,31.738,80.566,144.531,0
1486223271.811,42.969,29.785,40.527,64.453,124.512,0
1486223271.815,98.633,31.738,38.086,61.523,-13.672,0
1486223271.818,76.660,24.414,35.156,71.289,-8.789,0
1486223271.822,4.883,24.414,36.621,63.965,49.316,0
1486223271.826,-20.508,38.086,53.223,77.637,160.156,0
1486223271.830,29.297,28.809,53.711,69.824,128.418,0
1486223271.834,75.684,15.625,20.508,43.945,-55.664,0
1486223271.838,74.219,25.391,23.926,56.152,-49.805,0
1486223271.842,11.230,28.320,36.621,67.383,24.902,0
1486223271.846,-35.645,25.879,34.668,77.148,126.953,0
1486223271.850,10.742,25.391,30.273,66.406,126.465,0
1486223271.854,85.449,30.273,33.691,60.547,35.645,0
1486223271.857,91.309,34.668,48.340,70.801,-9.766,0
1486223271.861,31.738,33.691,52.246,71.289,-20.996,0
1486223271.865,-26.855,37.109,56.641,76.660,97.168,0
1486223271.869,-2.930,26.855,43.457,59.082,151.367,0
1486223271.873,81.543,31.250,28.809,50.293,-1.953,0
1486223271.877,98.633,31.738,27.344,58.105,-62.500,0
1486223271.881,33.203,19.043,37.109,56.641,-14.648,0
1486223271.885,-26.367,23.926,41.016,70.312,108.887,0
1486223271.889,0.000,27.344,34.668,64.941,178.223,0
1486223271.893,83.008,24.414,39.551,53.223,7.812,0
1486223271.897,104.980,26.367,44.922,62.012,-75.684,0
1486223271.900,46.387,29.785,41.992,58.594,-32.227,0
1486223271.904,-3.418,35.645,46.387,72.266,93.262,0
1486223271.908,5.371,25.391,46.387,66.406,182.129,0
1486223271.912,67.383,14.648,29.785,40.039,80.078,0
1486223271.916,102.051,22.461,25.391,48.340,-15.625,0
1486223271.920,66.406,32.227,41.016,61.035,-40.039,0
1486223271.924,-1.465,32.227,42.480,66.406,64.941,0
1486223271.928,-3.906,29.785,38.574,65.430,167.969,0
1486223271.932,60.547,23.438,37.109,46.875,29.785,0
1486223271.936,91.309,22.949,22.461,52.734,-58.105,0
1486223271.940,63.477,31.738,39.062,69.336,-29.297,0
1486223271.943,-4.883,33.691,53.711,77.637,67.383,0
1486223271.947,-31.250,25.391,37.598,68.359,183.594,0
1486223271.951,40.039,17.090,38.086,52.246,107.910,0
1486223271.955,101.562,21.973,40.527,64.453,-22.461,0
1486223271.959,64.453,23.926,34.668,63.477,-40.039,0
1486223271.963,-13.184,28.809,36.621,64.453,14.160,0
1486223271.967,-20.996,37.598,45.898,76.172,133.789,0
1486223271.971,44.434,33.203,49.805,59.082,87.402,0
1486223271.975,94.238,30.273,43.945,55.176,-53.711,0
1486223271.979,82.031,30.273,30.273,63.477,-38.086,0
1486223271.982,18.555,32.227,43.945,76.172,21.973,0
1486223271.986,-26.855,29.297,55.176,76.660,166.016,0
1486223271.990,23.926,24.902,33.691,50.293,106.934,0
1486223271.994,95.215,25.879,25.391,46.875,-27.344,0
1486223271.998,87.891,31.738,35.645,54.199,25.879,0
1486223272.002,28.320,35.156,44.434,62.500,61.523,0
1486223272.006,-18.555,38.086,37.598,74.707,183.594,0
1486223272.010,20.996,36.621,31.738,62.012,173.828,0
1486223272.014,96.191,33.203,35.645,56.152,-14.160,0
1486223272.018,93.262,27.832,50.293,68.359,-38.086,0
1486223272.022,23.438,25.879,53.223,69.336,44.434,0
1486223272.025,-27.344,29.785,36.133,73.242,163.574,0
1486223272.029,12.207,31.250,32.715,62.988,165.527,0
1486223272.033,88.867,29.297,35.156,58.594,4.883,0
1486223272.037,100.586,27.344,38.086,70.801,-41.992,0
1486223272.041,42.969,29.785,44.434,77.148,-24.414,0
1486223272.045,-11.719,37.598,43.457,86.914,88.379,0
1486223272.049,8.789,36.621,40.039,78.125,149.902,0
1486223272.053,74.707,25.879,36.133,62.988,16.113,0
1486223272.057,99.121,26.367,40.527,65.430,-22.949,0
1486223272.061,46.875,30.273,42.969,63.965,-25.879,0
1486223272.064,-21.973,27.832,47.363,72.754,66.895,0
1486223272.068,-6.836,33.203,43.457,68.359,158.691,0
1486223272.072,71.289,29.297,25.879,53.223,45.410,0
1486223272.076,96.191,17.090,32.715,60.059,2.930,0
1486223272.080,43.457,20.996,36.133,61.035,3.418,0
1486223272.084,-17.090,26.367,34.180,69.824,67.871,0
1486223272.088,-2.441,28.320,38.086,72.754,159.668,0
1486223272.092,74.219,29.297,42.480,58.105,48.340,0
1486223272.096,105.469,29.297,43.457,60.547,12.207,0
1486223272.100,60.059,30.762,30.762,56.152,38.086,0
1486223272.104,-5.371,28.320,35.156,64.941,84.473,0
1486223272.107,-5.371,29.785,46.387,73.242,197.754,0
1486223272.111,66.895,32.227,40.039,52.734,90.820,2
1486223272.115,115.723,34.668,36.133,65.430,-4.395,0
1486223272.119,82.520,25.879,35.645,79.590,-17.578,0
1486223272.123,1.953,21.484,36.621,83.008,32.715,0
1486223272.127,-20.996,27.832,35.156,82.520,164.062,0
1486223272.131,51.758,35.156,35.645,66.895,60.059,0
1486223272.135,106.934,31.738,37.598,62.988,-69.824,0
1486223272.139,74.219,29.297,35.645,63.477,-75.195,0
1486223272.143,6.836,36.133,44.434,77.148,-1.465,0
1486223272.147,-19.531,32.227,47.363,79.590,165.527,0
1486223272.150,39.062,30.273,36.621,47.363,79.102,0
1486223272.154,100.098,34.180,33.203,45.898,-57.129,0
1486223272.158,76.172,29.297,32.227,51.270,-38.086,0
1486223272.162,0.488,24.902,33.203,51.758,2.441,0
1486223272.166,-38.086,24.902,47.363,60.059,130.371,0
1486223272.170,11.719,24.902,40.527,45.410,137.207,0
1486223272.174,84.473,29.785,25.879,46.387,11.230,0
1486223272.178,90.820,26.367,32.227,61.035,-41.992,0
1486223272.182,36.133,34.180,43.457,76.172,-29.297,0
1486223272.186,-13.672,31.738,46.875,85.938,94.238,0
1486223272.189,28.320,27.344,36.621,69.336,125.000,0
1486223272.193,101.562,26.855,39.551,76.172,7.324,0
1486223272.197,98.145,31.738,41.504,83.984,3.906,0
1486223272.201,29.297,28.809,34.180,74.219,-1.953,0
1486223272.205,-22.461,21.973,35.156,82.031,76.172,0
1486223272.209,10.742,31.250,35.156,67.871,155.273,0
1486223272.213,94.727,37.598,37.598,64.941,12.207,0
1486223272.217,101.074,31.738,41.016,72.266,-41.504,0
1486223272.221,33.203,27.344,36.133,59.570,-3.906,0
1486223272.225,-23.926,34.668,40.527,75.684,100.098,0
1486223272.229,-2.930,30.762,30.762,67.383,143.066,0
1486223272.232,77.148,29.297,43.457,49.805,16.602,0
1486223272.236,99.121,32.227,54.688,62.500,-21.484,0
1486223272.240,43.457,31.738,38.086,59.570,12.695,0
1486223272.244,-20.996,31.738,41.016,62.988,93.750,0
1486223272.248,-7.324,33.203,36.133,67.871,207.031,0
1486223272.252,68.359,28.809,30.273,53.711,71.777,0
1486223272.256,102.539,23.926,39.551,59.570,-20.996,0
1486223272.260,73.730,33.691,35.156,71.777,-4.883,0
1486223272.264,6.348,35.645,37.598,75.684,53.223,0
1486223272.268,-1.953,31.250,45.410,80.078,166.016,0
1486223272.272,71.289,24.902,38.574,54.688,35.645,0
1486223272.275,107.910,26.367,40.039,52.734,-59.570,0
1486223272.279,67.383,28.320,36.621,60.059,-24.414,0
1486223272.283,-2.441,28.320,37.109,61.035,49.805,0
1486223272.287,-20.508,34.668,40.039,67.871,151.367,0
1486223272.291,40.039,40.039,39.551,48.340,53.711,0
1486223272.295,97.656,27.344,29.297,44.922,-61.523,0
1486223272.299,79.102,28.320,27.832,59.082,-63.477,0
1486223272.303,8.301,37.598,46.387,77.637,-12.207,0
1486223272.307,-19.531,33.691,44.922,77.637,144.043,0
1486223272.311,34.180,27.344,32.227,38.574,97.656,0
1486223272.314,99.121,27.344,30.762,40.527,-23.926,0
1486223272.318,83.496,30.762,43.945,57.129,-9.766,0
1486223272.322,2.930,32.227,49.805,56.152,-0.488,0
1486223272.326,-32.227,28.809,35.645,63.477,111.328,0
1486223272.330,28.809,27.344,33.203,47.363,118.164,0
1486223272.334,88.379,31.250,33.203,48.340,-10.254,0
1486223272.338,80.566,35.645,39.062,68.359,-15.625,0
1486223272.342,21.973,32.227,39.062,74.707,24.902,0
1486223272.346,-34.180,16.113,35.645,78.613,135.742,0
1486223272.350,14.648,23.438,47.363,72.754,179.688,0
1486223272.354,97.168,36.621,57.129,67.383,-1.953,0
1486223272.357,95.215,29.785,44.922,66.406,-37.109,0
1486223272.361,35.645,27.832,39.062,73.730,31.738,0
1486223272.365,-12.695,35.645,49.316,84.961,124.512,0
1486223272.369,22.949,36.133,57.129,73.730,130.859,0
1486223272.373,95.703,30.762,48.828,56.641,-9.277,0
1486223272.377,100.586,27.832,30.273,60.547,-39.551,0
1486223272.381,46.875,24.902,28.809,62.500,-22.461,0
1486223272.385,-10.254,32.715,40.527,67.383,45.898,0
1486223272.389,0.000,33.691,39.062,64.453,128.418,0
1486223272.393,80.566,28.320,35.156,56.152,37.598,0
1486223272.396,110.352,32.715,43.945,61.523,-34.180,0
1486223272.400,51.270,32.715,38.574,57.129,-42.480,0
1486223272.404,-15.137,32.227,39.551,60.547,72.266,0
1486223272.408,1.465,38.574,37.598,54.688,163.086,0
1486223272.412,70.801,33.203,27.344,33.203,19.531,0
1486223272.416,94.238,28.809,32.227,42.480,-89.844,0
1486223272.420,46.387,30.762,25.879,48.828,-85.449,0
1486223272.424,-21.484,29.785,38.574,57.129,42.969,0
1486223272.428,-23.926,30.762,45.410,60.059,160.645,0
1486223272.432,44.922,33.203,39.062,43.945,45.410,0
1486223272.436,90.332,33.203,38.574,45.898,-60.547,0
1486223272.439,59.570,39.551,37.598,55.176,-64.941,0
1486223272.443,-2.930,46.387,53.223,69.824,2.441,0
1486223272.447,-12.695,34.180,41.504,72.266,148.438,0
1486223272.451,50.293,33.203,17.578,53.223,88.867,0
1486223272.455,95.703,33.203,32.227,49.805,-41.504,0
1486223272.459,66.406,27.832,37.109,50.781,-19.043,0
1486223272.463,0.000,29.297,34.668,66.406,61.523,0
1486223272.467,-18.066,30.762,40.039,70.312,165.039,0
1486223272.471,49.316,32.715,27.832,44.434,62.012,0
1486223272.475,104.492,33.691,31.738,47.363,-36.621,0
1486223272.479,73.730,35.156,44.922,58.105,-28.809,0
1486223272.482,7.324,36.621,50.781,64.941,-4.395,0
1486223272.486,-20.996,35.645,41.992,71.777,152.832,0
1486223272.490,31.250,31.738,31.738,59.082,139.160,0
1486223272.494,89.355,20.996,35.156,53.223,-43.457,0
1486223272.498,77.637,28.809,40.527,63.477,-43.945,0
1486223272.502,11.719,29.785,40.527,70.801,30.273,0
1486223272.506,-19.531,26.367,35.156,80.078,161.133,0
1486223272.510,36.621,27.344,41.016,65.430,136.719,0
1486223272.514,99.121,26.367,44.434,62.012,-22.461,0
1486223272.518,102.051,32.715,55.176,83.008,2.930,0
1486223272.521,36.133,28.809,50.781,76.172,60.059,0
1486223272.525,-26.855,24.414,28.809,65.918,127.930,0
1486223272.529,4.395,22.461,27.832,57.129,161.133,0
1486223272.533,73.730,22.461,26.855,47.363,24.902,0
1486223272.537,90.332,29.785,30.273,63.477,-35.645,0
1486223272.541,36.621,28.320,43.945,74.219,9.766,0
1486223272.545,-21.484,28.320,53.711,74.219,133.789,0
1486223272.549,4.395,34.668,47.363,69.336,159.668,0
1486223272.553,72.754,27.344,34.668,56.152,30.273,0
1486223272.557,78.125,14.648,26.855,54.688,11.719,0
1486223272.561,26.367,15.625,30.273,55.664,1.465,0
1486223272.564,-28.320,24.414,39.551,61.523,90.332,0
1486223272.568,-8.789,28.320,43.945,60.547,204.590,0
1486223272.572,75.195,28.809,45.410,51.270,39.062,0
1486223272.576,99.121,26.855,37.109,47.852,-37.598,0
1486223272.580,47.363,23.926,36.621,47.363,1.953,0
1486223272.584,-7.324,24.414,48.340,75.195,40.527,0
1486223272.588,-9.277,23.926,33.691,71.777,131.348,0
1486223272.592,58.594,26.367,23.926,47.852,66.406,0
1486223272.596,102.539,36.133,44.434,65.918,-7.324,0
1486223272.600,60.059,29.297,47.363,71.289,-29.785,0
1486223272.604,-11.719,19.043,47.363,73.730,20.508,0
1486223272.607,-23.438,23.438,43.457,66.406,119.141,0
1486223272.611,51.270,27.344,40.039,45.898,20.020,0
1486223272.615,110.840,32.227,42.969,64.941,-77.637,0
1486223272.619,73.242,29.785,39.551,63.477,-50.781,0
1486223272.623,4.395,25.391,42.969,62.012,26.367,0
1486223272.627,-7.812,25.391,45.898,73.242,134.277,0
1486223272.631,44.922,25.391,37.109,46.875,37.598,0
1486223272.635,96.191,24.414,21.973,47.363,-67.871,0
1486223272.639,77.148,22.461,32.227,65.918,-66.895,0
1486223272.643,2.441,30.762,52.734,70.801,-8.301,0
1486223272.646,-33.203,33.203,55.664,75.195,151.855,0
1486223272.650,31.738,28.320,50.293,54.199,89.355,0
1486223272.654,99.609,27.344,42.969,48.340,-57.129,0
1486223272.658,83.984,24.902,40.527,65.430,-40.527,0
1486223272.662,27.344,31.250,39.551,73.730,-10.742,0
1486223272.666,-9.277,36.133,42.480,77.637,132.812,0
1486223272.670,34.668,34.668,49.805,62.500,126.953,0
1486223272.674,88.379,26.367,35.156,47.363,-20.508,0
1486223272.678,77.637,29.297,29.297,52.734,-0.977,0
1486223272.682,19.531,30.273,37.598,57.129,34.180,0
1486223272.686,-29.297,30.762,32.227,63.477,134.766,1
1486223272.689,9.277,32.227,38.086,54.688,134.277,0
1486223272.693,88.867,32.227,33.691,46.875,4.883,0
1486223272.697,94.238,26.855,27.832,53.711,5.859,0
1486223272.701,26.367,31.250,40.527,60.547,12.695,0
1486223272.705,-16.602,37.598,46.387,78.613,109.863,0
1486223272.709,3.418,26.367,42.480,61.035,179.688,0
1486223272.713,64.453,23.926,31.250,38.574,20.020,0
1486223272.717,88.867,24.414,32.227,46.387,-31.250,0
1486223272.721,35.645,25.879,38.574,52.246,0.488,0
1486223272.725,-26.855,28.320,27.344,61.035,104.004,0
1486223272.728,-1.465,28.320,32.227,59.082,181.641,0
1486223272.732,73.242,30.762,35.645,50.293,16.113,0
1486223272.736,105.957,39.551,38.574,64.453,-58.105,0
1486223272.740,70.312,41.504,46.387,70.312,-3.906,0
1486223272.744,-4.883,38.086,42.480,73.242,105.469,0
1486223272.748,-2.930,34.668,37.109,69.336,154.297,0
1486223272.752,67.871,24.902,27.832,46.875,13.672,0
1486223272.756,101.074,29.785,33.691,52.246,-16.113,0
1486223272.760,64.941,31.250,44.434,60.059,13.672,0
1486223272.764,-9.766,24.414,29.297,68.848,76.660,0
1486223272.768,-18.066,28.809,25.391,67.871,196.289,0
1486223272.771,55.176,32.715,36.621,45.898,80.078,0
1486223272.775,91.309,26.855,35.156,47.363,-29.297,0
1486223272.779,64.941,31.738,44.922,62.012,-33.691,0
1486223272.783,1.953,34.180,50.781,70.801,47.363,0
1486223272.787,-12.207,30.762,47.363,78.125,196.289,0
1486223272.791,62.500,33.203,49.805,62.988,71.289,0
1486223272.795,114.746,31.250,33.203,62.988,-30.273,0
1486223272.799,84.473,30.273,23.926,76.660,-1.953,0
1486223272.803,10.254,27.344,40.039,84.961,53.711,0
1486223272.807,-17.090,25.391,47.852,89.355,171.387,0
1486223272.811,40.039,22.461,28.320,59.082,93.262,0
1486223272.814,109.375,29.297,30.273,60.547,-19.043,0
1486223272.818,96.191,35.645,50.781,73.242,-32.227,0
1486223272.822,20.996,28.809,43.945,75.195,-22.949,0
1486223272.826,-16.602,27.832,38.086,83.984,135.254,0
1486223272.830,33.203,31.738,51.758,58.594,98.633,0
1486223272.834,102.051,28.320,52.246,58.105,-50.293,0
1486223272.838,85.938,30.762,42.969,63.477,-40.527,0
1486223272.842,7.812,32.227,38.086,53.223,-1.465,0
1486223272.846,-38.086,24.902,28.809,58.594,146.973,0
1486223272.850,18.066,36.621,30.273,52.246,149.902,0
1486223272.853,95.215,39.062,41.016,50.781,-3.906,0
1486223272.857,84.961,23.926,42.480,56.152,-28.320,0
1486223272.861,25.391,31.738,51.758,62.012,-1.953,0
1486223272.865,-21.484,33.691,50.781,77.637,116.699,0
1486223272.869,12.207,26.367,33.203,68.359,141.113,0
1486223272.873,89.355,34.180,25.879,55.176,0.000,0
1486223272.877,101.074,33.203,35.156,60.547,-38.574,0
1486223272.881,43.457,26.367,39.062,56.641,-34.668,0
1486223272.885,-17.090,30.762,34.668,67.383,121.094,0
1486223272.889,4.883,34.668,47.363,68.359,194.824,0
1486223272.893,78.125,33.691,37.598,49.316,15.137,0
1486223272.896,99.609,27.344,24.902,52.734,-41.504,0
1486223272.900,53.223,25.879,38.086,62.012,-12.207,0
1486223272.904,-8.301,31.738,46.875,79.102,64.453,0
1486223272.908,-3.418,34.180,49.316,76.660,143.066,0
1486223272.912,77.637,35.156,47.363,58.105,7.324,0
1486223272.916,106.445,29.785,37.109,60.547,-59.570,0
1486223272.920,60.547,34.180,38.574,68.359,-24.414,0
1486223272.924,0.488,34.180,46.875,78.613,59.082,0
1486223272.928,-12.207,21.484,37.109,67.871,169.922,0
1486223272.932,59.082,26.367,29.785,53.711,64.453,0
1486223272.936,105.469,28.320,39.062,64.453,-37.598,0
1486223272.939,66.895,24.902,38.574,63.477,-33.691,0
1486223272.943,3.418,31.250,39.551,71.289,-0.488,0
1486223272.947,-10.742,32.715,39.551,68.848,97.168,0
1486223272.951,43.945,29.785,28.320,39.551,64.941,0
1486223272.955,91.797,25.391,29.297,48.340,-57.129,0
1486223272.959,71.777,33.203,48.828,65.918,-51.270,0
1486223272.963,-8.301,28.809,52.734,66.406,59.570,0
1486223272.967,-39.062,19.531,34.668,70.312,207.520,0
1486223272.971,39.062,26.367,33.203,57.129,120.605,0
1486223272.975,101.074,23.438,37.109,53.223,1.465,0
1486223272.978,78.613,27.832,34.180,63.965,-6.348,0
1486223272.982,12.207,35.156,26.367,65.918,39.551,0
1486223272.986,-16.602,30.762,26.367,74.219,189.453,0
1486223272.990,37.109,29.297,32.715,57.617,121.094,0
1486223272.994,99.609,34.668,50.293,57.129,-41.016,0
1486223272.998,79.590,29.785,49.316,61.523,-23.926,0
1486223273.002,5.859,26.367,29.785,53.223,9.277,0
1486223273.006,-27.344,29.785,36.133,68.848,145.020,0
1486223273.010,16.113,23.926,34.180,55.176,162.598,0
1486223273.014,80.566,29.785,33.203,45.898,-38.086,0
1486223273.018,86.914,31.738,44.922,58.594,-94.727,0
1486223273.021,23.926,27.832,30.762,57.617,-5.371,0
1486223273.025,-34.668,29.785,20.020,67.871,128.418,0
1486223273.029,5.371,21.973,34.180,64.453,118.164,0
1486223273.033,80.078,23.926,51.758,57.617,2.441,0
1486223273.037,83.984,29.785,52.246,58.105,-20.996,0
1486223273.041,27.344,29.785,34.668,47.852,-11.230,0
1486223273.045,-32.715,34.180,31.250,58.105,111.816,0
1486223273.049,-8.301,27.832,27.832,53.711,165.527,0
1486223273.053,74.707,26.367,28.320,37.109,32.227,0
1486223273.057,102.051,32.715,35.156,45.410,-35.645,0
1486223273.060,49.805,34.180,44.434,56.152,-30.273,0
1486223273.064,-11.719,29.297,40.039,67.871,101.074,0
1486223273.068,-4.395,23.926,28.320,65.430,174.316,0
1486223273.072,72.266,28.320,44.434,50.781,14.648,0
1486223273.076,100.586,31.250,50.781,60.059,-45.898,0
1486223273.080,40.039,23.438,39.551,58.105,-5.859,0
1486223273.084,-27.344,22.461,42.480,52.734,77.148,0
1486223273.088,-20.020,31.738,41.016,49.805,161.133,0
1486223273.092,52.246,28.809,36.133,39.551,33.203,0
1486223273.096,94.727,22.461,42.969,52.246,-42.480,0
1486223273.100,50.781,22.461,35.156,56.152,-3.906,0
1486223273.103,-9.766,31.250,40.039,71.289,58.594,0
1486223273.107,-18.066,28.320,43.457,69.824,171.875,0
1486223273.111,43.945,24.414,30.273,41.016,100.586,0
1486223273.115,95.703,32.715,32.227,43.945,10.742,0
1486223273.119,69.824,33.691,38.574,50.781,-2.441,0
1486223273.123,0.488,30.273,44.434,57.617,39.551,0
1486223273.127,-18.555,24.902,45.410,58.594,172.852,0
1486223273.131,43.457,25.391,40.039,38.574,105.957,0
1486223273.135,96.191,30.273,40.527,40.527,-52.246,0
1486223273.139,78.125,26.855,50.293,53.223,-59.082,0
1486223273.143,8.789,29.297,44.922,58.105,-4.395,0
1486223273.146,-27.344,28.809,25.879,61.035,112.793,0
1486223273.150,22.461,21.484,25.879,38.574,66.406,0
1486223273.154,87.891,24.414,34.180,37.598,-75.684,0
1486223273.158,78.125,32.227,42.480,59.570,-77.148,0
1486223273.162,9.766,33.203,47.852,58.105,11.230,0
1486223273.166,-26.855,26.367,42.969,60.059,145.996,0
1486223273.170,19.043,24.902,34.668,49.316,94.238,0
1486223273.174,89.844,29.297,37.598,42.969,-19.531,0
1486223273.178,88.867,33.203,36.621,55.176,-25.391,0
1486223273.182,17.578,32.227,31.250,58.594,-23.926,0
1486223273.185,-31.250,27.344,38.086,62.500,118.652,0
1486223273.189,8.789,22.949,38.574,54.688,198.730,0
1486223273.193,84.961,21.484,29.297,52.734,41.992,0
1486223273.197,104.980,26.855,37.109,66.895,-13.672,0
1486223273.201,51.758,28.320,47.363,73.730,26.367,0
1486223273.205,-11.719,30.762,43.457,75.195,142.578,0
1486223273.209,16.602,35.645,45.410,66.406,198.730,0
1486223273.213,85.449,25.391,34.668,52.734,28.809,0
1486223273.217,95.703,26.367,17.578,57.617,-37.109,0
1486223273.221,40.039,31.738,34.668,58.594,-17.090,0
1486223273.225,-18.066,31.738,48.828,70.312,76.660,0
1486223273.228,4.395,30.273,44.922,71.289,178.711,0
1486223273.232,73.242,29.297,42.480,50.781,47.363,0
1486223273.236,98.633,26.855,44.434,60.547,-9.277,0
1486223273.240,57.617,26.855,42.480,77.148,9.277,0
1486223273.244,-7.812,28.809,41.992,85.938,65.918,0
1486223273.248,-1.465,28.320,41.016,75.684,153.809,0
1486223273.252,71.289,31.738,45.898,58.594,30.762,0
1486223273.256,109.863,32.227,45.410,69.824,-60.547,0
1486223273.260,62.012,26.367,36.621,64.453,-25.391,0
1486223273.264,-14.648,32.715,43.945,69.336,48.828,0
1486223273.267,-20.020,29.297,38.086,70.312,151.855,0
1486223273.271,46.875,24.414,35.645,45.898,56.152,0
1486223273.275,97.656,26.367,41.992,47.363,-34.180,0
1486223273.279,62.500,25.879,36.133,58.105,-11.230,0
1486223273.283,-7.324,31.738,44.434,66.406,36.621,0
1486223273.287,-8.301,36.621,49.316,71.289,144.043,0
1486223273.291,53.711,29.297,44.434,54.688,77.637,0
1486223273.295,104.980,22.461,42.480,57.617,-25.391,0
1486223273.299,81.055,25.391,39.062,66.895,-9.766,0
1486223273.303,20.020,36.621,35.156,75.195,36.133,0
1486223273.307,-0.977,37.598,41.016,81.543,147.949,0
1486223273.310,48.340,25.391,44.922,54.688,91.797,0
1486223273.314,107.910,26.367,35.156,47.363,-37.109,0
1486223273.318,94.727,29.297,29.297,59.570,-25.879,0
1486223273.322,15.625,27.832,33.691,61.523,0.977,0
1486223273.326,-25.391,30.273,41.016,72.266,131.836,0
1486223273.330,26.855,29.785,48.828,70.312,149.414,0
1486223273.334,87.402,26.855,40.527,57.129,-29.785,0
1486223273.338,79.102,28.320,32.715,55.664,-49.805,0
1486223273.342,22.949,31.738,41.016,62.012,19.531,0
1486223273.346,-25.879,34.668,40.527,70.801,133.789,0
1486223273.350,10.254,36.133,43.945,58.594,157.227,0
1486223273.353,83.496,31.738,54.199,43.457,-5.859,0
1486223273.357,84.473,20.508,40.039,46.875,-82.520,1
1486223273.361,17.578,19.043,20.996,48.340,-44.922,0
1486223273.365,-30.273,26.367,27.344,62.500,105.469,0
1486223273.369,8.301,26.367,36.621,57.617,175.293,0
1486223273.373,83.984,25.391,33.691,42.969,6.836,0
1486223273.377,104.004,27.832,37.109,55.176,-48.340,0
1486223273.381,48.828,31.250,42.969,60.547,-14.160,0
1486223273.385,-16.602,36.133,40.527,73.242,102.051,0
1486223273.389,-3.418,34.180,34.180,64.941,186.035,0
1486223273.392,83.008,30.762,43.945,50.781,35.156,0
1486223273.396,101.074,25.391,46.387,54.199,-53.223,0
1486223273.400,45.410,26.855,27.832,58.594,-65.430,0
1486223273.404,-8.301,32.227,33.203,69.824,51.270,0
1486223273.408,-1.465,28.809,42.480,62.500,182.129,0
1486223273.412,64.453,22.949,34.180,45.898,25.391,0
1486223273.416,99.609,27.344,33.691,57.129,-71.777,0
1486223273.420,59.082,30.762,44.434,60.059,-59.082,0
1486223273.424,0.000,36.621,54.199,67.383,9.766,0
1486223273.428,-2.930,36.621,43.945,69.336,125.977,0
1486223273.432,58.594,28.809,31.738,48.340,37.598,0
1486223273.435,100.098,24.414,26.367,50.781,-45.898,0
1486223273.439,60.059,24.902,28.809,49.805,-13.672,0
1486223273.443,-15.137,28.809,36.133,61.523,62.012,0
1486223273.447,-25.391,30.273,42.480,66.406,163.086,0
1486223273.451,51.270,31.738,40.527,44.434,39.551,0
1486223273.455,100.098,32.227,36.133,45.898,-66.895,0
1486223273.459,76.172,27.832,40.527,55.664,-23.438,0
1486223273.463,5.859,26.855,40.039,58.594,24.902,0
1486223273.467,-23.926,33.691,45.898,59.570,168.457,0
1486223273.471,41.504,32.227,42.480,46.875,138.672,0
1486223273.475,91.309,20.508,25.879,44.922,-10.254,0
1486223273.478,76.660,26.855,40.039,57.129,-13.184,0
1486223273.482,16.602,32.715,49.805,67.871,41.992,0
1486223273.486,-23.438,28.809,37.109,66.895,162.109,0
1486223273.490,28.809,25.391,37.109,49.805,112.793,0
1486223273.494,101.562,29.785,49.316,56.641,-9.766,0
1486223273.498,97.168,37.109,44.922,68.359,-20.508,0
1486223273.502,22.949,41.992,33.691,68.359,-32.715,0
1486223273.506,-23.926,30.273,27.832,74.707,88.867,0
1486223273.510,14.648,18.555,34.668,65.918,113.770,0
1486223273.514,88.379,27.832,44.434,61.035,-1.465,0
1486223273.517,92.285,32.227,43.457,66.406,-15.137,0
1486223273.521,27.832,27.344,45.410,67.871,-15.625,0
1486223273.525,-25.879,27.832,35.156,67.871,112.305,0
1486223273.529,9.277,29.785,37.598,57.129,148.438,0
1486223273.533,83.496,30.273,42.480,50.781,-14.648,0
1486223273.537,96.680,32.715,29.297,61.523,-46.875,0
1486223273.541,48.828,35.645,32.227,63.965,-25.391,0
1486223273.545,-18.555,26.855,41.016,73.730,111.328,0
1486223273.549,-6.836,21.484,29.297,63.965,167.969,0
1486223273.553,67.871,21.484,33.203,46.387,-8.301,0
1486223273.557,92.285,27.832,43.945,62.988,-40.527,0
1486223273.560,41.016,29.785,38.574,68.848,-1.953,0
1486223273.564,-23.438,25.879,31.738,68.848,68.848,0
1486223273.568,-9.766,24.414,29.297,60.547,171.387,0
1486223273.572,74.219,28.809,30.273,53.711,52.734,0
1486223273.576,109.375,31.250,34.668,68.848,-57.129,0
1486223273.580,55.176,23.926,37.109,62.012,-56.641,0
1486223273.584,-13.672,25.879,44.434,66.406,47.852,0
1486223273.588,-4.883,25.391,46.387,77.637,178.223,0
1486223273.592,63.477,22.461,32.227,52.246,58.105,0
1486223273.596,105.957,28.320,30.273,60.059,-53.711,0
1486223273.599,73.730,32.715,50.781,82.031,-32.715,0
1486223273.603,-3.418,30.762,45.410,79.102,35.156,0
1486223273.607,-13.184,29.297,24.902,73.242,151.855,0
1486223273.611,61.523,30.762,28.809,58.594,79.102,0
1486223273.615,107.910,26.855,34.668,59.082,-18.555,0
1486223273.619,89.844,29.785,44.434,74.707,12.695,0
1486223273.623,13.672,29.297,60.059,79.590,87.402,0
1486223273.627,-23.926,21.973,44.922,80.566,184.570,0
1486223273.631,40.039,25.879,24.902,53.711,100.098,0
1486223273.635,94.727,23.438,32.715,46.875,-5.371,0
1486223273.639,79.590,26.855,28.809,62.500,-15.625,0
1486223273.642,6.348,32.715,23.438,65.430,57.617,0
1486223273.646,-34.180,23.926,31.738,69.824,202.148,0
1486223273.650,20.508,24.414,34.180,46.875,127.441,0
1486223273.654,89.355,35.645,38.086,47.363,-30.762,0
1486223273.658,74.707,35.156,39.551,62.500,-36.621,0
1486223273.662,12.695,30.762,40.527,66.406,-4.883,0
1486223273.666,-23.926,25.879,47.363,77.148,110.840,0
1486223273.670,11.230,25.391,37.109,52.734,143.555,0
1486223273.674,83.496,27.344,31.738,41.016,1.465,0
1486223273.678,90.820,25.879,31.250,57.617,-55.664,0
1486223273.682,21.484,33.691,29.785,55.176,0.977,0
1486223273.685,-30.762,35.156,42.480,59.082,163.574,0
1486223273.689,11.719,33.203,41.504,52.246,160.645,0
1486223273.693,79.590,31.738,33.203,45.898,-9.766,0
1486223273.697,90.332,29.785,35.645,60.547,-20.508,0
1486223273.701,36.621,32.227,40.039,65.430,-10.254,0
1486223273.705,-23.926,30.273,41.016,68.359,102.539,0
1486223273.709,1.953,24.902,51.270,62.012,190.430,0
1486223273.713,76.172,24.414,45.898,50.293,43.945,0
1486223273.717,90.332,24.902,39.062,51.758,-30.273,0
1486223273.721,33.203,29.785,40.527,55.176,-62.012,0
1486223273.724,-24.902,31.738,35.645,62.988,54.688,0
1486223273.728,-7.812,23.926,28.809,50.293,162.598,0
1486223273.732,70.801,23.926,21.973,41.992,8.789,0
1486223273.736,104.980,26.367,31.250,63.477,-57.129,0
1486223273.740,52.734,29.297,37.109,66.895,-17.578,0
1486223273.744,-9.766,39.551,40.039,74.219,79.102,0
1486223273.748,-0.488,31.250,50.781,75.195,150.879,0
1486223273.752,67.871,23.438,53.711,55.664,38.574,0
1486223273.756,110.352,32.715,47.852,71.289,-4.395,0
1486223273.760,70.801,28.809,37.598,70.801,-8.301,0
1486223273.764,-15.625,20.020,41.504,62.500,87.891,0
1486223273.767,-20.020,21.484,38.574,64.941,168.457,0
1486223273.771,62.012,30.762,35.645,53.223,-0.488,0
1486223273.775,106.934,33.691,37.598,59.082,-30.762,0
1486223273.779,65.918,29.785,27.832,58.594,-2.930,0
1486223273.783,-7.812,31.738,33.203,67.871,37.109,0
1486223273.787,-19.043,36.133,51.758,77.148,187.500,0
1486223273.791,38.086,25.391,41.992,46.875,80.566,0
1486223273.795,88.379,21.973,29.785,42.969,-52.734,0
1486223273.799,68.848,30.762,45.410,57.617,-49.316,0
1486223273.803,-2.930,30.273,38.086,63.477,-45.410,0
1486223273.807,-31.738,26.367,22.949,60.547,115.234,0
1486223273.810,23.438,22.461,30.273,44.434,114.746,0
1486223273.814,86.914,18.555,30.273,45.410,-24.902,0
1486223273.818,80.078,23.926,36.133,61.523,-44.922,0
1486223273.822,15.137,30.273,51.270,69.336,3.418,0
1486223273.826,-24.414,25.391,48.828,71.777,152.344,0
1486223273.830,24.414,25.391,43.945,58.105,136.719,0
1486223273.834,89.355,23.926,34.180,44.434,-12.695,0
1486223273.838,83.984,19.043,20.996,47.852,-18.066,0
1486223273.842,25.391,29.785,22.949,58.594,7.812,0
1486223273.846,-21.973,35.156,30.762,66.406,156.250,0
1486223273.849,18.066,23.926,38.086,55.664,164.551,0
1486223273.853,89.355,22.461,36.133,47.852,-4.883,0
1486223273.857,94.238,33.203,47.852,62.012,-0.488,0
1486223273.861,32.715,33.691,47.363,68.359,-2.930,0
1486223273.865,-28.320,23.926,25.391,60.547,94.727,0
1486223273.869,4.395,30.273,30.762,52.246,166.504,0
1486223273.873,79.590,26.855,38.086,45.410,17.090,0
1486223273.877,89.844,25.879,40.039,48.828,-21.973,0
1486223273.881,40.039,34.180,26.367,51.758,-8.301,0
1486223273.885,-19.043,35.156,27.344,59.082,105.469,0
1486223273.889,-1.953,29.297,37.598,55.664,192.383,0
1486223273.892,70.312,22.949,32.715,48.340,33.691,1
1486223273.896,100.586,31.250,39.551,60.059,-33.203,0
1486223273.900,42.969,28.809,40.039,55.664,-34.668,0
1486223273.904,-17.578,30.762,42.969,76.660,81.055,0
1486223273.908,7.324,38.086,45.898,82.520,190.430,0
1486223273.912,67.383,27.344,38.086,53.711,41.016,0
1486223273.916,99.121,29.297,42.480,62.500,-35.645,0
1486223273.920,53.711,30.762,29.785,63.477,-31.250,0
1486223273.924,-15.625,35.156,25.879,69.824,67.383,0
1486223273.928,-21.973,29.297,28.809,71.777,173.828,0
1486223273.931,53.711,20.508,35.156,44.922,56.641,0
1486223273.935,104.980,25.391,41.016,48.828,-24.902,0
1486223273.939,69.824,32.227,32.715,59.082,-27.832,0
1486223273.943,-2.930,34.668,33.691,67.871,42.480,0
1486223273.947,-22.461,37.598,37.109,65.918,157.715,0
1486223273.951,58.594,36.621,44.434,47.363,27.344,0
1486223273.955,112.793,26.855,41.016,54.688,-78.613,0
1486223273.959,74.707,31.738,25.879,54.199,-21.973,0
1486223273.963,-0.488,33.691,33.691,49.316,47.363,0
1486223273.967,-29.297,25.391,39.551,60.547,193.848,0
1486223273.971,33.691,23.438,31.250,36.133,69.336,0
1486223273.974,94.238,21.484,33.203,30.273,-76.172,0
1486223273.978,76.660,24.414,32.227,47.852,-32.715,0
1486223273.982,2.930,25.879,32.715,52.246,30.762,0
1486223273.986,-20.996,30.762,43.945,62.500,147.949,0
1486223273.990,38.574,24.902,39.062,48.828,101.074,0
1486223273.994,98.145,24.902,29.785,42.969,-33.691,0
1486223273.998,97.168,32.227,42.969,58.594,-30.762,0
1486223274.002,37.598,33.691,52.734,67.871,19.531,0
1486223274.006,-14.648,28.809,42.480,78.125,138.672,0
1486223274.010,13.672,23.926,29.785,56.152,116.699,0
1486223274.014,77.637,24.414,22.949,41.504,-28.320,0
1486223274.017,81.543,26.367,26.855,58.105,-19.043,0
1486223274.021,24.414,33.691,41.992,59.082,-27.344,0
1486223274.025,-29.297,31.738,41.992,58.105,74.707,0
1486223274.029,1.953,29.785,30.762,51.270,121.582,0
1486223274.033,77.148,32.715,33.203,50.781,1.953,0
1486223274.037,94.238,30.273,44.434,66.406,-27.344,0
1486223274.041,39.551,28.809,44.434,67.871,-47.852,0
1486223274.045,-22.949,29.297,42.480,83.496,73.730,0
1486223274.049,-0.488,28.809,42.969,78.125,177.246,0
1486223274.053,77.637,28.809,44.922,59.570,40.039,0
1486223274.056,102.539,25.391,43.945,76.660,-18.066,0
1486223274.060,49.805,24.902,40.527,79.590,-4.395,0
1486223274.064,-20.508,22.949,48.828,77.148,107.910,0
1486223274.068,-13.672,19.043,40.039,70.312,202.148,0
1486223274.072,63.477,22.461,24.414,50.781,55.176,0
1486223274.076,97.656,34.180,36.621,57.129,-61.035,0
1486223274.080,46.387,31.738,43.945,62.012,-48.340,0
1486223274.084,-14.160,25.391,39.551,73.242,71.777,0
1486223274.088,-0.488,34.180,46.387,84.473,163.574,0
1486223274.092,63.477,35.156,54.199,65.918,25.879,0
1486223274.096,99.121,30.762,41.992,64.941,-46.875,0
1486223274.099,68.359,31.738,30.273,74.219,-61.523,0
1486223274.103,-1.953,30.762,44.434,83.984,20.020,0
1486223274.107,-11.719,28.809,41.992,83.008,177.734,0
1486223274.111,60.547,24.902,27.832,59.570,47.363,0
1486223274.115,107.422,25.391,25.879,62.988,-55.176,0
1486223274.119,75.684,28.320,30.762,66.895,-19.043,0
1486223274.123,5.859,25.391,36.133,66.406,15.137,0
1486223274.127,-6.836,29.297,47.363,78.613,143.066,0
1486223274.131,56.152,34.180,52.246,62.500,60.059,0
1486223274.135,109.863,32.715,43.945,62.988,-65.918,0
1486223274.139,83.008,29.785,34.668,70.312,-33.691,0
1486223274.142,8.789,25.879,29.297,70.312,11.719,0
1486223274.146,-15.137,30.273,35.645,81.055,136.719,0
1486223274.150,46.875,28.809,46.875,61.523,133.301,0
1486223274.154,106.934,25.879,34.180,51.758,2.930,0
1486223274.158,87.402,29.785,29.297,67.383,-43.457,0
1486223274.162,22.461,34.180,46.875,72.266,7.324,0
1486223274.166,-26.855,26.367,41.992,73.242,154.785,0
1486223274.170,16.113,29.297,33.691,65.430,142.090,0
1486223274.174,91.797,34.668,39.551,57.129,-15.137,0
1486223274.178,90.820,30.273,39.062,63.965,-40.527,0
1486223274.181,26.367,32.715,26.367,68.359,6.836,0
1486223274.185,-14.160,38.086,39.062,78.613,126.953,0
1486223274.189,25.879,36.133,49.316,73.242,110.840,0
1486223274.193,98.145,33.691,47.363,62.012,-30.762,0
1486223274.197,103.027,35.645,48.828,65.918,-36.133,0
1486223274.201,38.574,27.832,42.480,61.035,-12.207,0
1486223274.205,-19.531,27.832,26.855,69.824,87.891,0
1486223274.209,3.906,33.203,25.879,66.895,155.273,0
1486223274.213,84.473,33.203,36.621,54.199,27.344,0
1486223274.217,107.422,36.133,32.227,63.965,-28.809,0
1486223274.221,48.828,32.227,41.504,65.430,-28.320,0
1486223274.224,-12.207,34.180,50.781,76.660,68.848,0
1486223274.228,5.859,36.133,43.945,69.336,169.922,0
1486223274.232,74.219,29.297,49.805,50.781,20.508,0
1486223274.236,101.562,29.785,39.062,63.477,-80.566,0
1486223274.240,49.316,28.809,23.438,61.035,-21.973,0
1486223274.244,-6.348,32.227,34.668,70.312,66.895,0
1486223274.248,-3.906,34.668,36.621,67.871,148.926,0
1486223274.252,53.711,24.414,24.414,44.922,34.668,0
1486223274.256,96.680,24.902,32.227,57.129,-62.988,0
1486223274.260,67.871,36.133,43.457,65.430,-51.758,0
1486223274.263,0.000,36.133,43.457,74.219,23.926,0
1486223274.267,-10.742,30.273,50.781,83.008,152.832,0
1486223274.271,51.270,26.855,51.270,60.059,34.668,0
1486223274.275,92.773,22.949,26.855,49.805,-76.172,0
1486223274.279,68.359,27.344,29.785,60.059,-56.641,0
1486223274.283,-1.465,33.203,49.316,66.406,15.625,0
1486223274.287,-24.414,22.949,24.414,65.430,120.605,0
1486223274.291,39.551,25.391,18.066,48.828,37.109,0
1486223274.295,89.355,28.809,42.480,43.945,-45.410,0
1486223274.299,65.430,26.855,45.410,56.641,-25.879,0
1486223274.303,1.465,33.203,47.363,70.801,38.574,0
1486223274.306,-34.180,31.738,46.875,72.754,186.523,0
1486223274.310,21.484,22.949,45.410,55.176,127.930,0
1486223274.314,92.285,27.832,38.086,52.734,-28.809,0
1486223274.318,76.660,32.715,31.250,62.500,12.695,0
1486223274.322,7.324,20.996,27.832,64.453,32.715,0
1486223274.326,-27.832,16.602,24.414,68.359,135.742,0
1486223274.330,21.973,29.785,42.480,54.199,180.176,0
1486223274.334,95.703,38.086,54.199,55.176,-9.766,0
1486223274.338,94.238,35.156,47.852,64.453,-79.102,0
1486223274.342,25.879,32.227,43.945,62.012,-19.531,0
1486223274.346,-22.461,31.250,40.039,70.312,103.027,0
1486223274.349,16.602,26.367,35.645,57.617,131.348,0
1486223274.353,88.867,24.414,33.691,46.387,14.648,0
1486223274.357,98.145,28.809,28.809,52.246,-24.902,0
1486223274.361,31.250,31.738,37.598,61.523,-34.180,0
1486223274.365,-20.996,36.133,46.875,78.125,104.980,0
1486223274.369,10.742,38.086,48.828,66.406,196.289,0
1486223274.373,77.637,34.180,47.852,53.711,42.480,0
1486223274.377,92.285,23.926,45.410,56.152,5.371,0
1486223274.381,34.180,19.531,40.527,50.293,4.883,0
1486223274.385,-20.508,28.320,37.598,67.383,93.750,0
1486223274.388,1.953,33.691,43.945,66.895,160.156,0
1486223274.392,64.941,28.809,43.457,38.574,-0.488,0
1486223274.396,94.727,28.320,24.414,41.992,-67.871,0
1486223274.400,50.293,35.156,31.250,57.617,-33.691,0
1486223274.404,-16.602,35.156,48.340,67.871,83.008,0
1486223274.408,-11.719,28.809,38.086,56.641,185.059,0
1486223274.412,62.012,32.227,34.668,39.551,12.207,0
1486223274.416,98.145,24.902,33.203,47.363,-65.430,0
1486223274.420,62.012,20.996,40.527,62.988,-29.785,0
1486223274.424,-6.348,33.203,49.316,76.660,51.270,0
1486223274.428,-20.020,29.297,41.992,69.336,168.945,0
1486223274.431,55.664,25.879,39.551,43.457,75.684,0
1486223274.435,97.168,28.809,30.762,44.434,-8.301,0
1486223274.439,65.918,32.715,25.391,56.641,3.418,0
1486223274.443,2.441,40.039,45.410,68.848,52.734,0
1486223274.447,-20.996,33.203,56.641,71.777,197.266,0
1486223274.451,41.992,22.461,39.062,53.223,123.535,0
1486223274.455,99.121,23.926,29.297,58.105,-37.598,1
1486223274.459,76.172,25.879,40.039,62.500,-47.852,0
1486223274.463,14.648,34.668,53.223,71.777,6.836,0
1486223274.467,-21.484,36.133,50.293,74.219,145.996,0
1486223274.471,28.320,29.297,41.016,54.688,87.891,0
1486223274.474,94.238,31.250,29.297,51.270,-49.805,0
1486223274.478,71.289,24.902,17.578,55.176,-36.133,0
1486223274.482,0.977,36.621,31.738,59.570,24.902,0
1486223274.486,-21.973,36.133,39.551,67.871,134.277,0
1486223274.490,26.855,20.508,36.133,51.270,114.746,0
1486223274.494,83.008,24.902,31.738,41.992,13.184,0
1486223274.498,85.938,28.809,32.715,57.129,-24.414,0
1486223274.502,23.926,33.203,38.574,64.453,-28.320,0
1486223274.506,-29.297,32.715,36.133,68.359,91.797,0
1486223274.510,11.230,24.902,34.180,51.758,92.285,0
1486223274.513,93.262,32.715,33.691,45.410,-43.945,0
1486223274.517,104.980,42.969,41.504,68.359,-66.895,0
1486223274.521,33.691,27.832,43.945,70.801,-28.809,0
1486223274.525,-20.020,25.879,26.855,74.219,120.605,0
1486223274.529,19.531,34.180,33.203,73.242,160.156,0
1486223274.533,88.379,30.762,46.387,59.570,7.324,0
1486223274.537,107.910,32.227,43.945,62.500,-54.688,0
1486223274.541,57.129,37.109,42.480,64.453,-68.848,0
1486223274.545,-13.184,34.180,51.758,69.336,42.480,0
1486223274.549,8.789,30.273,56.152,64.453,143.555,0
1486223274.553,74.219,27.832,40.039,41.016,23.438,0
1486223274.556,92.285,28.320,21.973,51.270,-17.090,0
1486223274.560,50.293,27.832,27.344,59.570,-39.062,0
1486223274.564,-19.531,34.180,54.199,71.777,53.711,0
1486223274.568,-10.254,35.645,55.664,78.613,166.504,0
1486223274.572,62.500,27.344,26.855,46.387,25.391,0
1486223274.576,91.797,21.973,25.391,45.898,-59.082,0
1486223274.580,59.570,25.391,33.203,63.965,-72.754,0
1486223274.584,-9.277,31.250,43.457,74.219,62.012,0
1486223274.588,-20.996,29.785,48.828,61.523,204.590,0
1486223274.592,61.035,29.297,36.133,50.293,73.730,0
1486223274.595,102.051,32.715,31.738,69.336,-32.227,0
1486223274.599,62.500,32.715,39.062,64.453,-54.199,0
1486223274.603,-2.441,30.273,44.922,70.312,25.879,0
1486223274.607,-24.902,26.855,43.945,73.730,155.273,0
1486223274.611,39.551,24.414,26.367,43.457,56.641,0
1486223274.615,102.051,35.645,39.062,59.082,-26.367,0
1486223274.619,73.242,38.574,48.340,63.965,-4.883,0
1486223274.623,-6.348,28.809,32.227,52.246,51.758,0
1486223274.627,-25.879,33.691,31.250,66.406,166.504,0
1486223274.631,42.480,39.062,30.273,49.316,103.027,0
1486223274.635,103.027,31.250,33.691,43.457,-24.414,0
1486223274.638,80.078,23.926,37.109,55.664,-18.555,0
1486223274.642,8.789,31.738,38.086,64.453,30.273,0
1486223274.646,-14.160,35.156,52.246,80.078,165.039,0
1486223274.650,33.691,26.367,47.363,58.105,128.906,0
1486223274.654,91.797,21.973,32.715,48.828,-20.996,0
1486223274.658,87.402,24.902,42.969,62.500,-7.324,0
1486223274.662,20.996,29.297,46.875,67.871,51.270,0
1486223274.666,-20.508,24.414,29.785,83.496,149.902,0
1486223274.670,21.484,21.484,17.578,64.453,117.188,0
1486223274.674,88.379,24.902,30.273,52.734,-52.246,0
1486223274.678,91.309,22.949,41.992,65.430,-67.871,0
1486223274.681,26.367,20.508,36.621,61.035,-10.742,0
1486223274.685,-20.020,25.391,34.668,69.824,123.047,0
1486223274.689,27.832,32.227,38.574,61.523,158.691,0
1486223274.693,101.074,29.785,40.527,55.176,-51.758,0
1486223274.697,107.422,25.879,35.645,66.895,-96.680,0
1486223274.701,44.922,24.902,36.133,58.105,-41.504,0
1486223274.705,-7.812,33.691,33.203,73.730,75.195,0
1486223274.709,13.672,36.621,32.715,68.359,120.117,0
1486223274.713,77.148,24.414,29.785,39.062,-41.016,0
1486223274.717,98.633,25.391,31.738,58.594,-91.797,0
1486223274.720,41.992,29.785,42.969,71.289,-65.430,0
1486223274.724,-22.461,30.762,44.922,68.848,61.523,0
1486223274.728,-7.812,29.297,44.922,65.918,167.969,0
1486223274.732,76.660,28.809,46.387,59.082,39.551,0
1486223274.736,109.375,32.227,42.969,63.965,-36.133,0
1486223274.740,49.316,31.250,37.109,63.477,-28.320,0
1486223274.744,-17.578,29.297,29.297,69.824,102.539,0
1486223274.748,-7.812,34.668,31.250,78.125,213.867,0
1486223274.752,59.082,31.738,42.480,60.547,58.105,0
1486223274.756,89.844,22.949,30.762,51.270,-22.461,0
1486223274.760,57.617,26.367,21.484,55.664,-27.832,0
1486223274.763,-17.090,21.973,34.180,65.918,34.668,0
1486223274.767,-31.738,23.926,42.480,69.336,173.340,0
1486223274.771,44.922,27.344,43.945,46.875,72.754,0
1486223274.775,98.633,31.250,32.227,50.781,-45.898,0
1486223274.779,69.824,28.320,34.180,57.617,-18.555,0
1486223274.783,2.930,30.273,50.293,72.266,25.879,0
1486223274.787,-14.648,34.668,45.898,83.984,159.668,0
1486223274.791,40.527,20.508,25.391,55.664,110.840,0
1486223274.795,96.680,23.926,39.062,54.688,-13.672,0
1486223274.799,79.590,31.738,49.805,66.895,7.324,0
1486223274.803,-1.465,25.879,37.598,63.477,55.176,0
1486223274.806,-34.180,27.832,34.668,63.477,183.594,0
1486223274.810,28.320,32.227,40.527,50.781,173.828,0
1486223274.814,86.426,29.785,38.086,42.969,26.367,0
1486223274.818,78.125,30.273,35.156,52.734,-16.113,0
1486223274.822,8.789,29.785,34.668,59.082,27.832,0
1486223274.826,-29.785,27.832,38.086,62.012,174.805,0
1486223274.830,17.578,24.902,35.156,46.387,172.852,0
1486223274.834,88.379,31.738,35.645,44.434,21.484,0
1486223274.838,88.379,33.691,51.758,60.059,-10.254,0
1486223274.842,20.996,31.250,35.645,60.547,11.719,0
1486223274.845,-19.531,36.621,27.344,70.801,135.742,0
1486223274.849,8.789,27.832,32.227,57.617,141.602,0
1486223274.853,80.078,38.086,24.902,49.805,-17.578,0
1486223274.857,92.285,35.156,26.855,54.199,-37.109,0
1486223274.861,20.996,18.066,33.203,51.270,-34.180,0
1486223274.865,-27.344,31.250,39.062,65.430,53.223,0
1486223274.869,6.348,33.691,42.480,58.105,167.969,0
1486223274.873,72.266,27.344,37.598,44.434,40.039,0
1486223274.877,95.703,32.227,23.438,62.500,-67.383,0
1486223274.881,44.434,35.645,36.621,66.895,-73.730,0
1486223274.885,-21.973,25.391,42.480,67.871,57.129,0
1486223274.888,-13.672,23.438,23.438,65.918,164.551,0
1486223274.892,63.477,32.227,20.996,47.852,13.184,0
1486223274.896,93.262,28.809,29.297,44.922,-71.777,0
1486223274.900,47.852,30.762,35.156,52.734,-36.133,0
1486223274.904,-16.113,36.621,44.922,66.895,89.844,0
1486223274.908,-17.090,28.809,36.621,62.012,208.008,0
1486223274.912,57.129,20.996,27.832,45.898,66.406,0
1486223274.916,108.887,36.133,42.969,59.082,-26.367,0
1486223274.920,67.871,40.039,37.598,64.941,-27.832,0
1486223274.924,-15.137,29.297,23.438,62.988,35.645,0
1486223274.927,-25.879,25.879,27.344,63.965,158.203,0
1486223274.931,53.223,24.414,26.855,49.316,62.988,0
1486223274.935,101.562,26.367,33.691,53.223,-41.016,0
1486223274.939,63.477,28.320,41.504,61.523,-70.312,0
1486223274.943,-7.812,31.738,47.363,62.012,3.418,0
1486223274.947,-28.809,31.250,42.969,66.406,134.277,0
1486223274.951,35.156,26.855,27.344,51.758,40.527,0
1486223274.955,96.680,33.691,43.457,55.664,-47.363,0
1486223274.959,84.961,40.039,46.875,74.219,-36.133,0
1486223274.963,12.207,29.785,24.902,72.754,-8.789,0
1486223274.967,-23.926,25.879,32.715,66.895,111.816,0
1486223274.970,28.320,28.809,41.016,51.758,72.266,0
1486223274.974,87.891,22.461,29.297,35.645,-44.922,0
1486223274.978,79.590,24.414,32.227,47.363,-45.898,0
1486223274.982,14.648,29.297,41.504,59.570,5.371,0
1486223274.986,-23.438,34.668,43.457,62.988,114.258,0
1486223274.990,26.367,31.738,41.016,56.641,95.215,0
1486223274.994,92.285,23.438,40.039,54.199,-10.742,0
1486223274.998,83.984,23.926,45.410,59.082,-37.109,0
1486223275.002,28.809,30.762,54.199,72.754,8.301,0
1486223275.006,-17.578,28.320,39.062,80.078,129.883,0
1486223275.010,15.137,26.367,29.785,64.453,154.785,0
1486223275.013,87.891,31.250,44.922,64.453,-41.504,0
1486223275.017,94.727,25.391,43.457,69.336,-83.496,0
1486223275.021,28.320,22.461,39.062,65.918,-2.930,0
1486223275.025,-20.508,27.344,46.387,78.613,131.348,0
1486223275.029,8.301,30.762,46.875,65.918,164.551,0
1486223275.033,77.637,32.227,48.340,47.852,5.859,0
1486223275.037,91.797,24.902,44.434,55.664,-48.340,0
1486223275.041,33.691,27.344,38.086,58.594,-37.598,0
1486223275.045,-20.020,33.203,45.898,70.801,107.910,0
1486223275.049,-1.953,28.320,38.086,65.918,190.918,0
1486223275.052,72.266,23.438,25.391,49.316,34.668,0
1486223275.056,98.145,19.531,37.598,57.129,-43.457,0
1486223275.060,48.340,21.973,45.410,60.059,-7.812,0
1486223275.064,-12.207,37.109,42.969,69.336,99.121,0
1486223275.068,-7.812,33.203,40.527,65.918,178.711,0
1486223275.072,66.406,23.438,43.945,47.363,51.270,0
1486223275.076,106.445,32.715,42.480,53.223,-34.180,0
1486223275.080,55.664,31.250,33.203,59.082,-39.551,0
1486223275.084,-8.301,37.109,41.016,73.730,48.828,0
1486223275.088,-1.465,39.551,51.758,77.637,189.941,0
1486223275.092,55.664,25.391,35.156,45.898,41.016,0
1486223275.095,92.285,25.879,35.156,44.434,-53.223,0
1486223275.099,56.152,26.367,45.410,49.316,-6.836,0
1486223275.103,-17.578,26.367,29.785,53.711,48.828,0
1486223275.107,-36.621,28.809,31.738,59.570,193.848,0
1486223275.111,31.738,28.809,39.062,42.969,109.375,0
1486223275.115,95.703,33.203,34.668,50.781,-20.996,0
1486223275.119,70.312,31.738,37.109,55.176,-27.344,0
1486223275.123,-0.977,24.902,38.086,57.129,63.477,0
1486223275.127,-20.996,27.832,33.203,70.801,217.773,0
1486223275.131,37.109,23.438,42.480,50.781,114.746,0
1486223275.135,99.121,29.785,46.875,48.828,-31.738,0
1486223275.138,78.125,32.227,29.297,58.105,-48.828,0
1486223275.142,0.977,24.902,31.738,49.316,20.020,0
1486223275.146,-25.879,32.715,41.504,63.477,141.602,0
1486223275.150,26.367,30.762,21.973,46.875,70.801,1
1486223275.154,95.215,27.344,22.949,40.039,-58.594,0
1486223275.158,89.355,28.809,32.715,55.176,-41.016,0
1486223275.162,22.461,30.762,33.203,51.758,-20.996,0
1486223275.166,-17.578,28.809,51.758,64.453,110.352,0
1486223275.170,21.973,30.762,43.457,51.270,160.645,0
1486223275.174,92.773,34.668,33.691,42.480,-12.695,0
1486223275.177,90.820,27.832,34.180,58.105,-66.406,0
1486223275.181,27.344,28.809,41.504,57.617,-41.016,0
1486223275.185,-30.762,26.855,39.062,66.406,94.727,0
1486223275.189,1.465,27.832,27.832,60.547,142.090,0
1486223275.193,82.520,31.738,36.133,50.781,-5.859,0
1486223275.197,94.238,32.715,41.016,60.547,-30.273,0
1486223275.201,27.832,32.715,39.062,57.617,-42.969,0
1486223275.205,-28.320,32.715,45.410,66.406,74.707,0
1486223275.209,-0.488,32.227,45.898,57.617,187.012,0
1486223275.213,68.848,28.320,32.715,33.691,47.363,0
1486223275.217,98.145,35.645,35.156,48.828,-37.598,0
1486223275.220,50.293,37.598,47.852,54.688,-53.711,0
1486223275.224,-22.461,28.809,47.363,62.500,53.223,0
1486223275.228,-12.695,29.785,37.598,61.035,170.410,0
1486223275.232,60.547,23.926,31.738,31.250,39.551,0
1486223275.236,96.191,22.949,35.645,49.805,-11.719,0
1486223275.240,51.758,29.297,34.668,56.641,16.602,0
1486223275.244,-10.742,35.156,43.457,62.012,40.039,0
1486223275.248,-13.672,32.715,50.781,65.918,134.766,0
1486223275.252,55.664,27.344,33.691,41.992,58.105,0
1486223275.256,96.191,21.484,34.180,51.758,-50.293,0
1486223275.259,62.500,25.391,41.016,72.266,-69.336,0
1486223275.263,-3.906,25.879,39.062,79.102,20.020,0
1486223275.267,-20.508,25.391,35.645,72.754,155.762,0
1486223275.271,51.270,28.809,41.016,55.176,24.414,0
1486223275.275,100.586,23.438,40.527,59.082,-68.359,0
1486223275.279,72.266,28.320,38.574,60.547,-15.625,0
1486223275.283,2.441,30.273,40.527,66.406,54.199,0
1486223275.287,-21.973,29.297,43.457,76.660,152.344,0
1486223275.291,38.574,28.320,46.387,50.781,91.309,0
1486223275.295,97.656,30.762,32.715,50.781,-17.578,0
1486223275.299,83.984,32.715,30.762,66.895,2.441,0
1486223275.302,5.371,25.391,36.621,66.406,44.434,0
1486223275.306,-30.273,23.926,38.086,67.871,168.457,0
1486223275.310,36.133,25.879,37.109,45.898,144.043,0
1486223275.314,105.957,32.715,40.039,50.781,-17.090,0
1486223275.318,93.750,38.574,45.898,66.895,-2.930,0
1486223275.322,15.137,27.344,40.527,52.246,37.109,0
1486223275.326,-33.691,26.855,39.062,64.941,154.297,0
1486223275.330,16.602,32.227,37.109,57.617,153.320,0
1486223275.334,83.008,28.320,24.414,38.574,-3.906,0
1486223275.338,79.590,24.902,27.344,48.340,-55.176,0
1486223275.342,23.926,30.273,42.969,53.223,-52.246,0
1486223275.345,-25.879,23.926,42.969,65.430,89.844,0
1486223275.349,10.742,20.508,29.297,58.594,146.973,0
1486223275.353,94.727,33.691,42.969,55.176,10.254,0
1486223275.357,101.562,36.621,46.875,65.430,-39.551,0
1486223275.361,32.715,35.645,39.551,64.941,-9.766,0
1486223275.365,-16.113,35.156,38.574,72.754,125.977,0
1486223275.369,5.859,27.344,28.809,61.035,171.387,0
1486223275.373,83.008,33.691,40.527,64.453,-7.324,0
1486223275.377,107.910,31.250,44.434,73.730,-76.660,0
1486223275.381,52.246,26.367,37.598,62.012,-39.551,0
1486223275.384,-7.324,35.645,43.945,75.684,64.453,0
1486223275.388,6.836,30.273,43.945,72.754,141.602,0
1486223275.392,82.031,24.902,44.922,56.641,2.930,0
1486223275.396,105.469,26.855,34.668,62.988,-61.523,0
1486223275.400,58.594,31.738,36.133,66.406,-14.648,0
1486223275.404,-5.859,29.297,34.668,75.195,100.586,0
1486223275.408,-4.883,26.367,26.855,70.801,193.848,0
1486223275.412,71.777,35.645,28.320,53.711,26.367,0
1486223275.416,117.676,36.621,32.715,62.500,-78.125,0
1486223275.420,78.125,30.273,43.945,69.824,-48.340,0
1486223275.424,8.301,33.691,50.293,76.172,24.902,0
1486223275.427,-4.883,27.832,42.969,65.430,181.641,0
1486223275.431,57.129,23.438,28.809,38.086,116.211,0
1486223275.435,111.328,34.180,38.574,53.711,-23.926,0
1486223275.439,78.125,32.715,44.434,60.059,-27.344,0
1486223275.443,-1.953,28.320,40.039,64.941,20.996,0
1486223275.447,-26.855,29.785,38.086,78.125,138.184,0
1486223275.451,49.805,29.297,30.762,54.199,88.379,0
1486223275.455,102.539,26.367,38.574,42.969,-22.949,0
1486223275.459,63.477,28.320,41.504,55.664,-19.043,0
1486223275.463,4.395,35.645,51.270,76.172,-2.441,0
1486223275.467,-29.785,28.320,48.340,73.242,99.609,0
1486223275.470,19.531,21.484,35.156,37.598,91.309,0
1486223275.474,88.867,23.926,40.039,36.133,-13.184,0
1486223275.478,76.660,23.438,40.527,53.223,-5.859,0
1486223275.482,6.836,25.391,43.457,62.012,20.020,0
1486223275.486,-23.926,31.738,46.875,74.219,87.891,0
1486223275.490,19.531,29.297,41.504,61.523,144.043,0
1486223275.494,86.914,22.949,39.062,56.641,34.668,0
1486223275.498,91.309,23.438,36.621,65.430,-28.320,0
1486223275.502,19.043,29.785,50.293,67.871,-11.719,0
1486223275.506,-22.949,34.668,52.734,83.496,110.352,0
1486223275.509,14.648,27.832,33.203,67.871,150.391,0
1486223275.513,83.496,30.762,40.527,59.082,-7.324,0
1486223275.517,97.168,29.297,49.316,77.148,-42.480,0
1486223275.521,37.598,21.973,45.410,75.684,8.301,0
1486223275.525,-10.742,28.320,45.898,83.008,111.816,0
1486223275.529,15.625,29.297,41.504,73.730,154.297,0
1486223275.533,81.055,24.414,31.250,53.711,5.371,0
1486223275.537,107.910,30.273,41.504,65.918,-46.875,0
1486223275.541,53.711,35.156,59.082,72.266,-30.273,0
1486223275.545,-25.391,28.809,33.691,62.988,85.938,0
1486223275.549,-5.371,28.809,26.367,59.082,169.922,0
1486223275.552,71.777,27.344,42.969,50.781,12.207,0
1486223275.556,99.121,27.832,39.551,55.664,-40.039,0
1486223275.560,51.758,31.738,41.992,60.059,-0.488,0
1486223275.564,-15.137,31.738,47.852,71.777,92.285,0
1486223275.568,-5.859,36.133,39.062,69.336,185.547,0
1486223275.572,62.012,31.738,34.668,47.852,85.938,0
1486223275.576,94.238,28.809,40.527,55.664,-16.113,0
1486223275.580,57.617,32.715,45.410,66.895,-49.805,0
1486223275.584,-8.301,25.879,35.156,71.777,15.137,0
1486223275.588,-21.484,22.461,30.273,67.871,145.020,0
1486223275.591,49.316,25.879,39.062,44.434,31.738,0
1486223275.595,101.562,26.855,37.109,48.828,-56.641,0
1486223275.599,62.012,23.926,26.367,57.129,-13.672,0
1486223275.603,-4.395,29.785,34.668,70.312,51.758,0
1486223275.607,-16.602,36.133,39.551,82.520,171.387,0
1486223275.611,53.223,35.645,35.156,64.941,85.938,0
1486223275.615,113.770,35.645,46.875,69.336,-23.926,0
1486223275.619,76.660,24.902,34.668,62.012,-9.277,0
1486223275.623,0.000,24.414,25.391,56.641,43.457,0
1486223275.627,-26.855,30.762,33.203,66.895,184.570,0
1486223275.631,39.062,25.879,28.809,44.434,131.836,0
1486223275.634,93.262,20.020,29.785,39.062,-25.879,0
1486223275.638,78.613,26.367,29.785,57.129,-38.086,0
1486223275.642,18.066,34.668,33.203,65.918,5.859,0
1486223275.646,-24.414,23.438,40.039,72.266,120.117,0
1486223275.650,33.203,23.926,33.691,63.965,104.980,0
1486223275.654,104.004,33.691,36.621,66.406,-50.293,0
1486223275.658,95.703,36.133,41.016,63.477,-58.594,0
1486223275.662,21.973,33.203,39.062,61.523,8.789,0
1486223275.666,-24.902,26.367,33.691,75.684,129.395,0
1486223275.670,25.879,29.297,33.691,65.430,137.207,0
1486223275.674,91.797,29.785,33.691,51.758,-6.348,0
1486223275.677,95.215,28.809,40.527,66.406,-33.203,0
1486223275.681,28.809,29.785,33.203,66.406,6.348,0
1486223275.685,-24.414,33.203,30.273,67.383,119.141,0
1486223275.689,8.301,33.203,37.598,53.711,153.809,0
1486223275.693,74.707,26.367,32.715,39.062,3.906,0
1486223275.697,93.262,32.227,35.156,54.688,-21.484,0
1486223275.701,38.574,31.738,38.574,55.664,46.387,0
1486223275.705,-20.020,25.879,35.156,63.965,137.695,0
1486223275.709,-10.254,22.461,27.832,55.176,173.340,0
1486223275.713,65.430,25.879,22.949,42.480,30.762,0
1486223275.716,102.539,32.227,39.551,59.570,-56.641,0
1486223275.720,43.457,27.832,42.969,58.105,-57.129,0
1486223275.724,-25.391,27.832,34.180,59.082,74.707,0
1486223275.728,-6.836,29.297,40.039,57.129,196.777,0
1486223275.732,68.848,30.273,39.551,43.457,28.320,0
1486223275.736,97.656,23.926,37.109,47.852,-36.621,0
1486223275.740,47.852,29.297,34.180,47.363,-18.066,0
1486223275.744,-27.344,23.926,26.855,52.246,37.598,0
1486223275.748,-25.391,19.043,30.273,54.199,156.250,0
1486223275.752,49.805,24.902,29.785,35.156,40.527,0
1486223275.756,94.727,27.832,30.273,48.340,-69.824,0
1486223275.759,61.035,29.297,37.598,60.547,-57.129,0
1486223275.763,-13.184,30.762,38.086,62.012,44.922,0
1486223275.767,-24.902,28.809,32.715,63.477,184.570,0
1486223275.771,44.434,25.391,38.086,43.945,92.285,0
1486223275.775,91.309,22.949,45.898,48.340,-19.531,1
1486223275.779,57.129,23.438,40.039,50.293,-8.301,0
1486223275.783,-5.859,25.879,38.574,56.152,44.922,0
1486223275.787,-28.320,24.902,36.621,69.824,178.711,0
1486223275.791,32.715,24.414,40.039,48.340,130.371,0
1486223275.795,94.727,24.902,35.156,40.039,-21.973,0
1486223275.799,74.707,23.926,32.715,55.176,-36.133,0
1486223275.802,7.324,30.273,45.410,62.988,-1.465,0
1486223275.806,-21.973,39.062,39.551,63.965,122.070,0
1486223275.810,32.227,35.156,38.574,49.805,140.625,0
1486223275.814,100.098,35.645,56.152,55.664,-20.020,0
1486223275.818,93.262,35.156,53.711,61.035,-72.754,0
1486223275.822,19.043,29.785,40.527,52.246,15.137,0
1486223275.826,-30.273,29.785,33.203,59.570,169.922,0
1486223275.830,15.625,34.180,34.668,47.363,126.953,0
1486223275.834,90.820,35.645,41.992,46.875,-4.883,0
1486223275.838,87.891,30.273,37.109,57.129,-12.207,0
1486223275.841,17.578,31.250,32.715,51.270,8.301,0
1486223275.845,-28.809,34.180,33.691,61.035,145.508,0
1486223275.849,3.418,29.297,39.062,58.105,177.734,0
1486223275.853,78.125,24.902,53.711,54.199,12.207,0
1486223275.857,88.867,22.461,50.293,63.477,-0.977,0
1486223275.861,29.297,23.926,41.504,64.941,0.488,0
1486223275.865,-31.738,22.949,35.645,71.777,95.215,0
1486223275.869,-4.883,24.414,40.527,66.895,191.406,0
1486223275.873,70.801,20.996,31.250,44.922,40.527,0
1486223275.877,90.820,23.438,24.414,50.293,-28.320,0
1486223275.881,46.387,28.809,36.133,57.617,-19.043,0
1486223275.884,-17.090,23.926,32.227,68.848,96.191,0
1486223275.888,-4.395,21.484,37.109,62.500,173.828,0
1486223275.892,77.637,23.438,45.898,38.086,28.320,0
1486223275.896,109.375,27.832,49.805,54.688,-59.570,0
1486223275.900,56.641,30.273,53.223,65.918,-55.664,0
1486223275.904,-23.438,22.461,36.133,63.965,37.598,0
1486223275.908,-27.344,20.020,22.949,52.734,196.289,0
1486223275.912,54.688,26.367,32.715,37.598,68.359,0
1486223275.916,99.609,34.668,30.762,51.270,-62.500,0
1486223275.920,62.988,36.133,28.320,64.941,-6.836,0
1486223275.923,-7.324,26.367,34.668,74.219,91.309,0
1486223275.927,-15.137,29.785,50.293,78.613,193.848,0
1486223275.931,58.594,36.133,62.988,59.570,66.406,0
1486223275.935,104.492,31.738,45.898,63.965,-29.785,0
1486223275.939,85.449,32.227,51.758,78.125,-10.254,0
1486223275.943,11.230,30.762,42.480,73.730,37.109,0
1486223275.947,-22.949,24.902,18.555,68.848,156.738,0
1486223275.951,43.945,31.250,32.715,55.176,69.336,0
1486223275.955,104.492,30.762,36.133,56.641,-7.812,0
1486223275.959,87.891,28.809,38.086,71.289,18.555,0
1486223275.963,9.766,40.039,54.199,81.543,48.828,0
1486223275.966,-27.344,38.086,44.922,81.055,189.453,0
1486223275.970,29.785,24.414,24.414,54.199,126.953,0
1486223275.974,96.680,26.367,34.180,48.828,-24.414,0
1486223275.978,83.496,27.832,41.504,55.664,-20.020,0
1486223275.982,21.973,36.621,27.344,66.406,34.180,0
1486223275.986,-17.090,41.992,27.344,72.754,194.336,0
1486223275.990,23.438,35.156,38.086,48.828,149.414,0
1486223275.994,94.238,29.297,32.227,43.457,-19.043,0
1486223275.998,102.051,28.809,48.828,63.477,-23.438,0
1486223276.002,37.109,29.297,60.059,75.195,2.441,0
1486223276.006,-13.672,29.297,36.133,74.707,103.027,0
1486223276.009,20.020,29.297,33.691,59.082,149.414,0
1486223276.013,85.938,25.879,43.945,55.664,54.688,0
1486223276.017,93.750,27.832,37.598,72.754,16.602,0
1486223276.021,32.715,32.227,31.738,74.707,-12.207,0
1486223276.025,-21.973,25.391,42.969,73.730,101.562,0
1486223276.029,3.906,17.090,34.668,58.105,162.598,0
1486223276.033,85.449,28.320,36.133,52.734,-13.184,0
1486223276.037,105.469,35.645,47.363,65.430,-36.133,0
1486223276.041,45.410,24.902,40.039,59.570,-37.598,0
1486223276.045,-20.020,27.832,30.762,74.707,70.801,0
1486223276.048,-2.930,33.691,32.227,72.754,185.547,0
1486223276.052,74.707,26.855,39.062,51.758,18.066,0
1486223276.056,97.168,22.949,30.762,54.688,-39.062,0
1486223276.060,49.805,22.949,27.832,52.734,-29.297,0
1486223276.064,-11.230,23.438,33.203,66.895,45.410,0
1486223276.068,-12.695,28.320,32.715,67.383,176.758,0
1486223276.072,52.734,30.762,40.039,42.969,24.902,0
1486223276.076,92.285,33.691,37.598,49.805,-95.703,0
1486223276.080,61.035,33.203,43.945,67.871,-38.086,0
1486223276.084,-12.695,26.855,49.316,68.848,31.250,0
1486223276.088,-26.367,28.809,40.039,61.035,96.680,0
1486223276.091,44.434,24.414,33.203,39.551,14.648,0
1486223276.095,96.680,23.926,26.367,43.945,-79.102,0
1486223276.099,68.848,26.855,40.039,62.500,-46.387,0
1486223276.103,-5.859,24.414,41.016,58.105,53.223,0
1486223276.107,-17.090,29.297,38.574,59.570,162.109,0
1486223276.111,51.758,30.762,42.969,51.270,57.129,0
1486223276.115,105.469,34.668,44.922,59.082,-56.641,0
1486223276.119,83.496,38.574,51.270,72.754,-41.992,0
1486223276.123,10.254,32.715,39.551,73.242,10.254,0
1486223276.127,-20.508,27.344,28.809,76.660,119.629,0
1486223276.131,38.086,28.809,28.320,55.176,70.801,0
1486223276.134,103.027,27.832,32.715,48.340,-62.012,0
1486223276.138,83.008,22.949,36.133,62.500,-24.414,0
1486223276.142,14.648,31.738,41.504,69.336,15.625,0
1486223276.146,-13.672,38.574,43.945,73.730,131.348,0
1486223276.150,30.762,27.832,35.645,56.641,157.227,0
1486223276.154,96.191,32.227,38.086,55.176,20.508,0
1486223276.158,95.703,39.062,52.734,71.289,-23.438,0
1486223276.162,30.273,33.691,45.898,73.730,9.277,0
1486223276.166,-18.555,30.762,26.367,74.707,126.465,0
1486223276.170,20.020,29.297,22.949,61.035,160.156,0
1486223276.173,94.238,29.785,34.668,45.898,10.254,0
1486223276.177,94.727,24.902,39.551,49.805,-54.199,0
1486223276.181,30.762,21.973,43.945,59.570,-28.809,0
1486223276.185,-20.996,24.902,44.434,64.453,67.871,0
1486223276.189,11.230,29.297,35.645,55.176,135.742,0
1486223276.193,90.820,32.715,35.156,53.711,1.953,0
1486223276.197,107.910,32.715,40.527,69.336,-52.734,0
1486223276.201,49.316,34.180,40.039,65.430,-18.555,0
1486223276.205,-21.973,30.273,25.391,65.918,98.633,0
1486223276.209,-5.859,34.668,26.367,71.289,173.340,0
1486223276.213,73.242,37.598,40.039,57.129,20.996,0
1486223276.216,93.262,23.926,43.945,57.617,-52.734,0
1486223276.220,53.711,34.668,46.387,67.383,-44.922,0
1486223276.224,-8.301,40.527,34.668,72.266,58.105,0
1486223276.228,-6.348,25.879,35.156,72.754,190.430,0
1486223276.232,65.918,22.949,47.852,52.246,65.918,0
1486223276.236,97.168,23.438,33.203,51.758,-52.246,0
1486223276.240,53.711,27.344,32.715,68.848,-30.273,0
1486223276.244,-9.766,25.879,47.363,80.078,48.340,0
1486223276.248,-19.043,20.508,35.645,75.195,144.043,0
1486223276.252,52.734,21.484,38.086,57.129,49.805,0
1486223276.255,99.609,22.461,49.316,59.570,-51.758,0
1486223276.259,57.129,22.461,41.504,66.406,-43.945,0
1486223276.263,-3.906,28.809,42.480,73.242,29.785,0
1486223276.267,-12.207,29.297,45.898,70.801,161.621,0
1486223276.271,50.293,26.367,45.410,52.246,64.453,0
1486223276.275,99.609,28.809,41.016,59.082,-28.320,0
1486223276.279,72.754,22.949,40.527,69.824,13.672,0
1486223276.283,0.000,22.949,53.223,70.801,38.574,0
1486223276.287,-24.414,29.297,41.016,72.754,149.414,0
1486223276.291,40.039,30.273,36.133,57.129,131.836,0
1486223276.295,97.656,26.367,44.434,57.129,0.977,0
1486223276.298,71.777,21.973,40.039,63.477,-23.926,0
1486223276.302,3.906,29.785,39.551,69.336,35.156,0
1486223276.306,-22.949,35.156,40.527,81.543,168.945,0
1486223276.310,33.203,30.273,48.340,69.824,135.742,0
1486223276.314,91.309,27.344,38.574,63.477,-10.742,0
1486223276.318,77.148,29.785,23.438,64.453,-21.973,0
1486223276.322,14.648,33.691,38.086,65.430,0.977,0
1486223276.326,-30.762,37.109,42.480,73.242,126.953,0
1486223276.330,13.672,28.809,28.320,57.617,152.344,0
1486223276.334,82.520,20.508,22.461,46.875,21.484,0
1486223276.338,82.520,24.414,37.598,56.641,-17.090,0
1486223276.341,15.137,23.926,45.410,62.012,5.859,0
1486223276.345,-35.645,24.902,44.434,67.871,151.367,0
1486223276.349,8.301,30.273,46.875,61.523,175.781,0
1486223276.353,84.961,29.785,46.875,56.641,11.230,0
1486223276.357,94.727,27.832,41.016,65.918,-24.414,0
1486223276.361,35.645,32.227,35.645,65.430,-24.902,0
1486223276.365,-19.531,39.551,45.898,76.660,71.777,0
1486223276.369,8.789,31.250,46.875,70.801,159.668,0
1486223276.373,80.078,18.066,23.926,56.641,19.531,0
1486223276.377,94.727,22.461,32.715,68.359,-42.480,0
1486223276.380,49.316,33.691,49.316,67.871,-7.812,0
1486223276.384,-10.254,30.273,44.434,72.754,88.867,0
1486223276.388,-1.953,27.344,41.992,69.824,152.832,0
1486223276.392,79.102,30.273,46.387,58.105,5.371,0
1486223276.396,118.164,31.250,47.363,65.918,-73.242,0
1486223276.400,62.988,27.832,30.762,60.059,-29.297,0
1486223276.404,9.766,37.109,41.016,83.008,76.172,0
1486223276.408,19.531,38.086,60.547,96.680,161.621,0
1486223276.412,62.012,19.043,42.969,53.711,63.477,1
1486223276.416,93.262,17.090,24.414,50.293,-22.949,0
1486223276.420,62.012,22.949,23.926,63.965,-12.695,0
1486223276.423,-6.348,28.809,33.203,70.801,61.035,0
1486223276.427,-23.926,27.344,35.156,67.871,198.730,0
1486223276.431,34.180,24.902,33.691,48.340,93.750,0
1486223276.435,85.449,33.691,35.645,56.152,-32.227,0
1486223276.439,66.406,36.133,37.598,62.012,4.883,0
1486223276.443,-2.441,31.738,38.086,68.359,63.477,0
1486223276.447,-32.715,33.691,44.434,71.289,185.059,0
1486223276.451,32.227,33.691,41.992,46.387,109.863,0
1486223276.455,96.191,31.250,42.480,50.293,-27.344,0
1486223276.459,74.219,29.785,46.875,64.453,-31.250,0
1486223276.463,4.883,31.738,34.668,65.918,-3.906,0
1486223276.466,-27.832,30.762,25.391,67.383,133.301,0
1486223276.470,31.738,28.809,29.297,48.340,95.703,0
1486223276.474,103.516,35.645,32.715,47.852,-44.434,0
1486223276.478,92.285,37.109,36.133,61.523,-59.570,0
1486223276.482,19.043,28.809,36.621,58.105,-3.906,0
1486223276.486,-19.531,35.156,48.828,76.660,136.719,0
1486223276.490,17.578,25.391,43.945,61.035,108.398,0
1486223276.494,83.496,20.508,32.715,39.551,-17.578,0
1486223276.498,93.262,28.320,46.875,55.664,8.789,0
1486223276.502,28.320,30.762,49.805,58.594,12.207,0
1486223276.505,-38.086,28.320,30.762,59.082,91.309,0
1486223276.509,-0.977,25.391,24.902,50.293,161.133,0
1486223276.513,89.844,29.785,41.992,48.340,28.320,0
1486223276.517,93.750,27.344,44.434,57.129,-22.949,0
1486223276.521,26.367,29.785,44.434,55.664,-15.625,0
1486223276.525,-23.438,29.297,39.062,70.801,70.312,0
1486223276.529,0.488,25.879,27.832,64.941,130.859,0
1486223276.533,68.848,29.297,33.203,47.363,-5.371,0
1486223276.537,93.750,29.785,41.504,57.617,-62.012,0
1486223276.541,44.922,26.367,43.457,64.941,-43.945,0
1486223276.545,-19.043,29.785,38.086,77.637,58.105,0
1486223276.548,-4.883,28.320,36.133,73.730,161.133,0
1486223276.552,77.148,31.250,48.828,62.988,34.180,0
1486223276.556,109.863,30.273,57.617,71.289,-27.832,0
1486223276.560,55.176,29.785,38.574,60.547,-33.203,0
1486223276.564,-11.230,31.250,37.109,66.895,12.207,0
1486223276.568,-11.230,26.367,39.062,67.871,122.559,0
1486223276.572,62.012,28.320,29.785,47.852,16.602,0
1486223276.576,107.910,26.367,36.621,57.129,-58.105,0
1486223276.580,68.848,27.344,50.293,66.895,-63.965,0
1486223276.584,-4.395,28.320,41.504,69.824,39.551,0
1486223276.587,-5.859,38.086,41.504,65.918,150.879,0
1486223276.591,66.895,39.062,53.223,53.223,40.527,0
1486223276.595,104.980,22.461,42.480,59.082,-34.668,0
1486223276.599,75.195,32.715,28.320,61.035,-15.625,0
1486223276.603,5.371,35.156,24.414,66.406,51.758,0
1486223276.607,-20.020,22.949,34.668,75.195,173.340,0
1486223276.611,48.828,25.879,41.992,59.082,80.566,0
1486223276.615,104.492,31.738,37.598,58.105,-46.387,0
1486223276.619,82.520,35.645,41.016,69.336,-31.738,0
1486223276.623,16.602,30.762,48.828,71.289,-8.301,0
1486223276.627,-15.137,30.273,54.688,82.031,144.531,0
1486223276.630,38.086,31.738,41.504,58.105,129.883,0
1486223276.634,101.562,30.762,33.691,44.434,-0.488,0
1486223276.638,91.797,27.344,37.598,60.059,-13.184,0
1486223276.642,20.996,21.973,37.109,69.336,-8.301,0
1486223276.646,-20.020,30.762,31.738,77.637,133.301,0
1486223276.650,35.645,36.133,44.434,67.383,148.926,0
1486223276.654,98.145,29.297,44.922,60.059,-9.277,0
1486223276.658,91.309,31.738,37.598,68.359,-41.992,0
1486223276.662,30.762,29.785,47.363,70.312,11.719,0
1486223276.666,-20.508,30.273,42.480,73.242,125.977,0
1486223276.670,14.648,35.156,40.527,62.012,130.859,0
1486223276.673,83.008,32.227,36.133,49.805,23.438,0
1486223276.677,90.820,29.785,33.203,67.383,10.254,0
1486223276.681,35.156,28.809,31.250,72.266,6.348,0
1486223276.685,-20.996,32.715,32.227,67.871,129.395,0
1486223276.689,16.602,39.062,45.898,60.059,184.082,0
1486223276.693,91.797,38.574,58.105,46.387,32.227,0
1486223276.697,97.168,27.832,41.992,46.387,-31.250,0
1486223276.701,32.715,22.461,23.926,50.781,-15.625,0
1486223276.705,-19.043,36.133,33.691,76.660,112.793,0
1486223276.709,6.348,34.668,42.480,75.684,187.012,0
1486223276.712,74.707,24.902,33.691,45.898,41.992,0
1486223276.716,102.051,29.785,39.062,53.711,-31.738,0
1486223276.720,47.852,26.855,40.039,54.199,2.441,0
1486223276.724,-19.043,24.902,36.133,63.965,111.816,0
1486223276.728,-5.371,29.785,43.457,68.848,203.125,0
1486223276.732,72.266,34.180,43.457,45.898,99.121,0
1486223276.736,102.051,32.715,41.504,49.805,-5.859,0
1486223276.740,47.363,31.738,32.227,58.105,1.953,0
1486223276.744,-13.672,34.180,28.809,67.871,81.543,0
1486223276.748,-14.648,31.250,33.691,65.918,192.383,0
1486223276.752,47.852,24.902,37.109,42.480,86.914,0
1486223276.755,102.539,26.367,41.016,46.387,-38.086,0
1486223276.759,70.312,30.762,44.434,50.781,-19.531,0
1486223276.763,-8.789,25.879,46.387,59.570,88.379,0
1486223276.767,-23.926,23.438,32.227,63.477,214.844,0
1486223276.771,44.922,25.879,34.668,44.922,110.352,0
1486223276.775,91.309,20.020,28.320,50.293,8.789,0
1486223276.779,66.406,16.113,20.020,55.176,-14.160,0
1486223276.783,5.371,20.508,33.203,59.570,18.555,0
1486223276.787,-23.438,27.832,35.156,70.312,166.016,0
1486223276.791,32.715,25.879,39.062,49.316,102.051,0
1486223276.795,99.121,31.738,45.898,51.270,-15.625,0
1486223276.798,84.961,29.297,46.875,62.988,-46.875,0
1486223276.802,8.789,25.879,33.691,59.570,-2.441,0
1486223276.806,-32.715,23.926,24.902,60.059,157.227,0
1486223276.810,21.484,15.625,29.297,46.387,149.414,0
1486223276.814,83.984,18.066,30.762,47.363,-9.766,0
1486223276.818,78.613,23.926,24.902,50.293,-28.809,0
1486223276.822,16.113,26.855,30.273,52.734,26.855,0
1486223276.826,-23.438,30.273,39.062,63.965,135.742,0
1486223276.830,11.230,28.320,37.598,49.316,179.688,0
1486223276.834,77.637,20.996,40.039,49.316,61.035,0
1486223276.837,91.797,27.832,44.434,55.176,4.395,0
1486223276.841,30.762,33.691,41.504,56.152,-10.742,0
1486223276.845,-19.043,32.715,40.527,70.801,101.074,0
1486223276.849,6.836,30.273,30.273,57.129,181.152,0
1486223276.853,77.637,20.508,19.043,43.457,35.156,0
1486223276.857,95.703,25.391,31.738,55.176,-26.367,0
1486223276.861,40.527,32.715,54.199,58.105,-9.766,0
1486223276.865,-19.043,24.414,45.410,65.430,118.652,0
1486223276.869,-0.488,26.855,34.180,61.035,178.711,0
1486223276.873,79.590,28.320,43.457,44.922,14.160,0
1486223276.877,107.910,28.320,57.129,59.082,-34.668,0
1486223276.880,50.781,26.367,41.504,59.082,-43.457,0
1486223276.884,-20.020,21.973,22.461,62.500,54.688,0
1486223276.888,-10.742,25.391,33.203,62.988,197.754,0
1486223276.892,64.453,20.020,37.598,45.410,70.312,0
1486223276.896,96.191,15.625,33.691,56.152,-71.777,0
1486223276.900,54.199,28.320,43.945,56.641,-41.504,0
1486223276.904,-4.883,29.785,43.945,63.965,70.312,0
1486223276.908,-11.719,28.809,34.180,69.336,167.480,0
1486223276.912,55.664,34.668,40.527,47.852,47.363,0
1486223276.916,101.562,23.438,31.738,50.293,-66.406,0
1486223276.919,69.824,28.320,38.574,65.430,-41.504,0
1486223276.923,-0.488,28.809,52.734,70.801,55.176,0
1486223276.927,-8.301,25.879,38.574,67.871,171.387,0
1486223276.931,61.523,28.320,41.992,46.387,57.129,0
1486223276.935,102.051,22.949,39.062,41.992,-36.133,0
1486223276.939,79.102,25.879,33.203,54.199,-40.527,0
1486223276.943,8.301,31.250,34.180,67.871,-8.301,0
1486223276.947,-20.508,29.297,24.902,75.195,134.766,0
1486223276.951,37.109,24.902,29.785,58.105,97.168,0
1486223276.955,101.074,30.762,42.969,59.082,-22.949,0
1486223276.959,89.844,37.598,51.758,65.918,-26.855,0
1486223276.962,10.742,27.344,52.246,66.895,36.133,0
1486223276.966,-29.297,24.414,45.898,71.777,149.902,0
1486223276.970,29.785,27.344,48.340,63.965,87.402,0
1486223276.974,93.750,24.414,42.969,59.570,-15.625,0
1486223276.978,84.961,30.273,45.410,66.895,0.000,0
1486223276.982,18.555,28.320,38.574,62.988,5.859,0
1486223276.986,-23.926,27.344,26.855,65.430,109.375,0
1486223276.990,22.949,25.391,32.715,55.176,139.648,0
1486223276.994,90.332,24.902,35.156,50.781,-0.488,0
1486223276.998,92.285,32.227,40.527,64.453,-30.762,0
1486223277.002,38.574,33.691,52.246,74.707,12.695,0
1486223277.005,-8.789,34.668,54.688,77.148,127.441,0
1486223277.009,14.160,31.738,46.387,54.688,159.668,0
1486223277.013,78.613,29.297,30.762,40.527,13.184,0
1486223277.017,105.957,37.598,42.969,58.594,-53.711,0
1486223277.021,39.551,29.785,39.551,55.664,-65.430,0
1486223277.025,-38.574,23.926,21.973,55.176,88.867,0
1486223277.029,-8.789,24.902,34.668,53.223,170.898,0
1486223277.033,69.336,22.949,37.109,34.180,-8.301,2
1486223277.037,96.680,30.273,41.016,43.945,-72.266,0
1486223277.041,48.828,35.156,49.805,64.453,-53.223,0
1486223277.044,-16.602,37.598,49.316,82.031,79.102,0
1486223277.048,-6.348,36.621,47.363,72.266,180.176,0
1486223277.052,66.895,30.762,36.133,45.410,27.832,0
1486223277.056,105.469,36.621,34.668,54.688,-15.625,0
1486223277.060,65.430,37.109,39.062,67.871,5.371,0
1486223277.064,-7.324,32.715,35.156,78.613,79.590,0
1486223277.068,-10.254,26.855,37.109,70.312,204.102,0
1486223277.072,65.430,29.785,40.039,53.223,63.965,0
1486223277.076,111.816,30.762,36.133,66.895,-49.316,0
1486223277.080,68.359,26.367,32.227,63.477,-31.738,0
1486223277.084,-5.371,33.691,42.969,61.523,56.641,0
1486223277.087,-9.766,36.133,45.410,66.895,193.848,0
1486223277.091,48.340,32.715,34.180,44.434,93.262,0
1486223277.095,92.773,33.691,34.668,45.898,-44.434,0
1486223277.099,77.637,37.598,38.086,59.570,-46.387,0
1486223277.103,5.371,34.668,40.039,65.918,16.113,0
1486223277.107,-30.762,20.996,32.715,60.059,160.156,0
1486223277.111,35.645,28.320,35.645,42.480,86.426,0
1486223277.115,98.145,30.762,39.551,45.898,-37.109,0
1486223277.119,74.707,26.855,36.621,51.758,-8.301,0
1486223277.123,4.395,34.180,42.969,62.988,25.391,0
1486223277.127,-25.879,25.391,43.457,69.336,164.551,0
1486223277.130,28.320,25.879,36.621,49.805,145.508,0
1486223277.134,89.844,24.902,34.180,45.898,-19.043,0
1486223277.138,86.426,24.414,37.109,62.988,-42.480,0
1486223277.142,27.832,30.762,39.062,76.660,10.254,0
1486223277.146,-24.902,25.879,30.273,81.055,186.035,0
1486223277.150,23.438,26.367,19.531,60.547,164.551,0
1486223277.154,97.656,27.832,28.320,51.270,-46.875,0
1486223277.158,89.844,21.484,49.805,59.082,-56.641,0
1486223277.162,29.785,21.484,51.270,64.941,16.602,0
1486223277.166,-16.602,38.574,42.969,72.266,100.586,0
1486223277.169,9.766,38.086,37.598,62.012,135.742,0
1486223277.173,74.707,24.414,29.785,45.410,36.621,0
1486223277.177,90.820,25.391,32.227,46.875,5.371,0
1486223277.181,39.551,31.738,35.645,53.711,8.301,0
1486223277.185,-23.926,29.297,27.344,66.895,103.027,0
1486223277.189,-6.836,25.391,30.273,58.105,136.230,0
1486223277.193,74.707,28.809,49.316,50.293,2.441,0
1486223277.197,99.609,27.344,43.945,67.871,-24.902,0
1486223277.201,44.434,29.785,39.062,71.777,-14.648,0
1486223277.205,-21.484,34.668,43.457,80.566,110.840,0
1486223277.209,-4.883,33.203,38.086,73.730,197.266,0
1486223277.212,78.613,30.273,40.039,61.035,0.000,0
1486223277.216,108.398,28.320,39.062,71.777,-58.594,0
1486223277.220,62.500,32.227,32.715,70.801,-21.973,0
1486223277.224,-3.906,36.133,39.551,82.031,51.270,0
1486223277.228,2.930,33.203,55.176,86.426,166.504,0
1486223277.232,62.012,20.508,41.992,59.082,41.016,0
1486223277.236,100.586,24.414,25.879,62.012,-32.227,0
1486223277.240,67.383,39.062,35.156,71.777,-16.113,0
1486223277.244,-5.371,33.691,39.062,73.730,36.133,0
1486223277.248,-8.789,27.344,37.109,72.754,132.812,0
1486223277.251,58.594,36.133,40.039,56.152,8.789,0
1486223277.255,103.027,33.691,39.551,60.059,-78.613,0
1486223277.259,81.543,38.574,53.223,79.590,-65.918,0
1486223277.263,8.301,37.109,61.523,84.473,-6.836,0
1486223277.267,-15.625,31.738,42.480,76.660,138.672,0
1486223277.271,51.758,25.879,38.574,53.711,22.949,0
1486223277.275,98.145,16.113,24.414,54.688,-106.445,0
1486223277.279,72.266,26.855,23.926,69.824,-52.246,0
1486223277.283,7.812,35.156,42.969,75.684,50.781,0
1486223277.287,-20.996,29.785,39.551,78.125,177.734,0
1486223277.291,46.875,32.227,48.828,63.477,85.938,0
1486223277.294,111.816,27.832,53.711,62.988,-22.949,0
1486223277.298,91.309,27.832,45.898,71.777,-0.488,0
1486223277.302,26.367,35.156,45.898,73.730,34.668,0
1486223277.306,-12.695,29.785,43.457,82.520,178.223,0
1486223277.310,28.320,26.855,25.391,71.289,168.457,0
1486223277.314,94.727,26.367,22.949,59.570,-5.859,0
1486223277.318,97.656,25.391,33.691,72.266,-40.039,0
1486223277.322,29.297,31.738,35.645,81.055,2.930,0
1486223277.326,-17.090,29.785,49.805,94.238,133.789,0
1486223277.330,27.832,26.855,57.129,75.195,129.395,0
1486223277.334,91.797,33.203,42.480,55.176,-0.977,0
1486223277.337,100.098,35.156,42.969,66.406,-15.137,0
1486223277.341,43.945,29.297,43.457,66.406,4.395,0
1486223277.345,-20.508,24.902,37.598,74.219,145.020,0
1486223277.349,-5.371,25.391,34.180,63.965,199.707,0
1486223277.353,66.406,29.297,20.508,43.945,4.395,0
1486223277.357,85.449,27.832,29.297,50.781,-20.508,0
1486223277.361,26.367,26.367,41.504,55.664,4.883,0
1486223277.365,-37.598,34.668,43.945,63.965,79.590,0
1486223277.369,-21.484,30.273,42.969,51.758,130.859,0
1486223277.373,59.082,26.367,34.668,35.645,-24.414,0
1486223277.376,91.797,33.691,40.039,48.828,-50.781,0
1486223277.380,41.016,28.809,40.527,51.270,-17.090,0
1486223277.384,-24.414,28.320,29.297,60.547,89.355,0
1486223277.388,-20.020,36.133,32.227,60.059,173.828,0
1486223277.392,52.246,34.180,34.180,35.156,14.160,0
1486223277.396,86.426,27.344,27.832,40.527,-62.012,0
1486223277.400,50.293,29.297,29.785,53.711,-49.805,0
1486223277.404,-17.578,30.273,41.992,62.500,45.410,0
1486223277.408,-26.367,29.785,50.293,66.406,183.105,0
1486223277.412,45.410,30.273,45.410,41.504,56.641,0
1486223277.416,87.891,24.414,40.039,46.875,-51.758,0
1486223277.419,55.664,25.879,35.645,60.547,-23.438,0
1486223277.423,-6.348,31.738,36.133,69.336,29.297,0
1486223277.427,-21.484,23.926,37.598,70.312,151.855,0
1486223277.431,41.504,22.949,43.457,41.992,71.289,0
1486223277.435,98.633,27.344,47.852,46.875,-43.945,0
1486223277.439,76.172,27.344,35.645,60.059,-31.738,0
1486223277.443,2.930,28.809,35.645,62.012,-19.043,0
1486223277.447,-28.320,25.879,38.574,67.871,152.344,0
1486223277.451,35.156,20.508,30.762,59.570,152.832,0
1486223277.455,106.934,22.461,34.180,67.383,-31.738,0
1486223277.459,87.402,28.809,28.320,75.195,-47.363,0
1486223277.462,14.160,33.203,35.156,76.660,34.668,0
1486223277.466,-13.184,28.809,40.039,88.379,156.250,0
1486223277.470,40.039,29.297,27.344,73.730,112.305,0
1486223277.474,105.957,34.668,46.387,69.336,-67.383,0
1486223277.478,92.773,34.180,42.969,66.895,-82.520,0
1486223277.482,25.391,30.762,31.250,71.289,3.906,0
1486223277.486,-20.508,26.367,35.156,82.031,132.812,0
1486223277.490,16.602,28.320,32.715,64.941,153.809,0
1486223277.494,93.750,31.250,40.527,58.594,-6.836,0
1486223277.498,105.957,35.156,44.434,71.777,-21.973,0
1486223277.501,37.109,28.809,35.156,71.777,21.484,0
1486223277.505,-22.461,23.926,31.738,79.590,98.633,0
1486223277.509,6.836,27.344,38.574,62.988,151.367,0
1486223277.513,83.008,28.320,44.922,48.828,-15.137,0
1486223277.517,103.516,28.320,49.316,67.871,-60.547,0
1486223277.521,42.969,26.855,39.062,68.848,-26.367,0
1486223277.525,-12.207,35.156,41.992,73.730,83.008,0
1486223277.529,12.695,35.156,48.340,66.895,149.902,0
1486223277.533,79.102,22.461,39.551,52.246,1.465,0
1486223277.537,99.121,24.414,29.297,56.641,-66.895,0
1486223277.541,44.434,24.902,30.762,59.570,-61.523,0
1486223277.544,-14.160,27.832,45.410,78.125,13.672,0
1486223277.548,-7.812,29.785,46.875,73.242,123.535,0
1486223277.552,57.129,25.879,38.574,47.852,-0.488,0
1486223277.556,94.238,30.273,24.414,56.152,-53.223,0
1486223277.560,54.199,28.320,31.250,62.012,-16.602,0
1486223277.564,-7.324,31.738,46.875,72.266,47.852,0
1486223277.568,-10.254,27.344,56.152,72.754,178.223,0
1486223277.572,63.477,24.414,45.410,48.340,58.105,0
1486223277.576,103.516,30.273,28.320,53.223,-55.664,0
1486223277.580,65.918,29.297,32.227,65.430,-65.918,0
1486223277.583,-6.836,28.809,34.180,67.383,2.441,0
1486223277.587,-18.066,27.344,28.809,72.266,151.855,0
1486223277.591,58.105,32.227,32.715,57.617,39.062,0
1486223277.595,100.586,30.273,46.875,50.781,-68.848,0
1486223277.599,71.289,31.738,41.016,58.594,-15.625,0
1486223277.603,10.742,45.898,46.387,72.266,24.902,0
1486223277.607,-22.949,31.738,42.969,71.289,166.016,0
1486223277.611,37.598,22.949,29.297,51.758,105.957,0
1486223277.615,98.633,24.902,34.668,56.641,-39.551,0
1486223277.619,66.895,19.043,34.668,54.688,-36.621,0
1486223277.623,4.883,23.926,28.809,60.059,47.852,0
1486223277.626,-19.531,30.762,35.156,73.242,203.125,0
1486223277.630,23.438,28.320,46.875,56.152,166.504,0
1486223277.634,86.914,30.273,49.805,56.152,25.391,0
1486223277.638,89.844,38.086,46.875,73.242,5.859,0
1486223277.642,13.672,34.180,41.016,76.172,47.852,0
1486223277.646,-25.879,31.738,50.293,81.543,151.855,0
1486223277.650,27.344,26.855,47.852,67.383,164.062,0
1486223277.654,90.820,22.949,29.297,52.246,36.621,0
1486223277.658,92.773,26.367,20.508,53.711,-9.277,0
1486223277.662,34.180,26.855,27.344,65.430,25.879,0
1486223277.666,-12.695,30.273,33.691,67.871,125.000,0
1486223277.669,21.973,35.645,33.203,55.176,126.953,0
1486223277.673,94.727,32.715,31.250,49.316,-4.395,0
1486223277.677,112.793,35.156,48.340,63.477,-40.527,0
1486223277.681,47.363,39.551,51.758,62.012,-6.836,0
1486223277.685,-33.691,29.785,24.414,49.805,123.047,0
1486223277.689,-19.531,22.949,20.020,40.527,168.945,0
1486223277.693,58.105,21.484,28.320,35.156,11.719,0
1486223277.697,82.031,22.949,30.762,49.316,-46.875,0
1486223277.701,30.762,22.949,27.832,53.711,-23.926,0
1486223277.705,-27.344,24.902,27.832,66.895,88.867,0
1486223277.708,-4.883,33.691,26.855,72.266,171.875,0
1486223277.712,76.660,28.320,28.809,52.734,44.922,0
1486223277.716,109.375,24.414,36.133,68.848,-26.855,1
1486223277.720,66.895,32.715,51.758,82.520,-28.320,0
1486223277.724,-3.418,29.297,49.805,78.125,80.078,0
1486223277.728,-16.602,18.066,23.926,61.035,192.871,0
1486223277.732,49.316,16.113,23.438,38.086,41.016,0
1486223277.736,98.145,20.020,32.227,49.805,-60.547,0
1486223277.740,68.359,28.809,37.598,65.430,-23.926,0
1486223277.744,-7.324,32.715,38.086,72.754,38.574,0
1486223277.748,-23.926,28.809,46.387,70.312,145.020,0
1486223277.751,46.387,25.879,34.180,42.969,58.594,0
1486223277.755,93.750,24.414,14.160,40.527,-12.207,0
1486223277.759,70.801,25.879,40.039,62.012,9.766,0
1486223277.763,-6.348,28.809,51.270,67.383,29.785,0
1486223277.767,-31.250,22.949,41.016,66.895,151.855,0
1486223277.771,41.016,21.484,27.832,53.223,99.121,0
1486223277.775,97.168,29.785,29.785,56.152,-31.250,0
1486223277.779,67.383,23.926,31.250,55.176,-38.086,0
1486223277.783,0.488,32.227,32.227,63.965,37.598,0
1486223277.787,-18.555,34.668,38.574,77.637,156.738,0
1486223277.790,30.762,22.461,27.344,45.898,86.426,0
1486223277.794,92.285,24.902,34.668,48.340,-27.832,0
1486223277.798,87.891,28.809,44.922,70.801,-38.086,0
1486223277.802,24.902,35.645,40.527,78.613,5.859,0
1486223277.806,-16.602,32.227,42.480,88.379,147.461,0
1486223277.810,21.484,21.484,32.715,61.035,133.301,0
1486223277.814,95.703,24.414,25.879,47.852,-12.207,0
1486223277.818,99.609,29.785,41.504,66.406,-17.578,0
1486223277.822,30.762,39.551,46.387,71.289,14.648,0
1486223277.826,-23.926,33.691,44.922,73.242,144.531,0
1486223277.830,10.254,25.391,28.809,54.199,176.758,0
1486223277.833,84.961,29.785,20.020,43.945,19.531,0
1486223277.837,97.656,27.344,37.109,66.406,-20.996,0
1486223277.841,38.574,28.320,35.645,63.477,14.648,0
1486223277.845,-23.926,26.367,39.062,67.871,144.531,0
1486223277.849,3.418,26.855,49.316,70.801,174.805,0
1486223277.853,78.125,32.715,34.668,49.805,19.043,0
1486223277.857,87.891,27.344,32.227,55.664,-14.648,0
1486223277.861,36.621,28.320,30.762,64.941,-13.184,0
1486223277.865,-16.602,32.715,31.250,69.824,117.188,0
1486223277.869,-0.977,24.902,42.969,63.965,191.406,0
1486223277.873,73.242,24.902,38.086,50.293,19.531,0
1486223277.876,103.027,26.855,28.809,58.105,-29.297,0
1486223277.880,56.641,28.809,34.668,68.848,8.789,0
1486223277.884,-9.277,33.203,43.457,79.102,119.629,0
1486223277.888,-6.348,30.273,42.969,72.754,227.539,0
1486223277.892,69.336,31.250,39.551,52.246,106.445,0
1486223277.896,101.562,26.367,36.133,52.246,-7.324,0
1486223277.900,62.012,26.855,31.738,62.012,-15.137,0
1486223277.904,3.906,34.668,32.715,76.172,61.523,0
1486223277.908,-12.695,29.297,34.668,71.777,151.367,0
1486223277.912,55.664,22.949,35.156,50.781,76.660,0
1486223277.915,111.816,25.879,42.480,68.359,-5.371,0
1486223277.919,71.289,27.832,38.574,75.195,-20.020,0
1486223277.923,-8.301,24.902,35.645,71.777,56.152,0
1486223277.927,-18.555,31.250,44.434,81.055,181.641,0
1486223277.931,40.039,26.855,36.133,52.734,111.816,0
1486223277.935,94.727,20.508,40.039,57.129,-19.531,0
1486223277.939,80.566,29.297,38.574,75.684,-34.180,0
1486223277.943,7.324,33.691,36.133,72.266,28.320,0
1486223277.947,-23.438,26.855,42.480,75.195,155.273,0
1486223277.951,37.109,30.762,41.016,57.617,77.637,0
1486223277.955,94.238,27.344,38.086,57.129,-47.852,0
1486223277.958,86.914,23.438,43.945,73.242,-6.348,0
1486223277.962,20.508,40.039,43.945,72.754,17.090,0
1486223277.966,-33.203,34.668,19.531,72.754,136.230,0
1486223277.970,21.484,21.484,19.531,63.477,159.180,0
1486223277.974,91.797,23.926,34.180,58.594,-2.930,0
1486223277.978,90.332,30.762,35.645,63.965,-40.527,0
1486223277.982,30.762,32.227,39.062,72.266,14.160,0
1486223277.986,-19.043,35.645,42.969,82.031,159.668,0
1486223277.990,14.648,34.180,39.062,63.477,153.320,0
1486223277.994,92.773,31.738,40.527,57.617,0.000,0
1486223277.998,106.445,32.227,48.828,73.242,-28.320,0
1486223278.001,32.715,26.855,33.691,63.477,-15.625,0
1486223278.005,-20.996,33.203,19.531,71.777,128.418,0
1486223278.009,12.695,31.250,32.227,66.895,187.012,0
1486223278.013,87.402,30.762,45.898,55.176,6.836,0
1486223278.017,109.375,32.715,42.969,76.660,-33.691,0
1486223278.021,42.480,26.855,28.320,69.336,32.227,0
1486223278.025,-20.508,30.273,33.691,69.824,143.555,0
1486223278.029,0.000,30.762,37.109,67.383,211.914,0
1486223278.033,77.148,29.297,35.156,47.852,47.852,0
1486223278.037,103.516,28.320,40.039,53.223,-20.508,0
1486223278.040,48.340,31.250,46.387,54.199,4.395,0
1486223278.044,-7.812,38.086,44.922,72.754,88.379,0
1486223278.048,-5.859,36.133,32.715,74.219,194.824,0
1486223278.052,59.570,31.738,35.156,51.758,52.734,0
1486223278.056,101.562,32.227,43.945,51.270,-40.039,0
1486223278.060,54.199,29.785,21.484,45.898,7.812,0
1486223278.064,-18.066,29.297,32.715,60.547,92.773,0
1486223278.068,-16.113,33.691,54.688,67.871,162.598,0
1486223278.072,50.781,22.949,35.645,46.387,41.504,0
1486223278.076,92.773,22.949,38.574,53.223,-31.738,0
1486223278.080,66.895,32.715,48.340,60.059,-12.207,0
1486223278.083,-4.883,36.133,41.992,63.477,40.527,0
1486223278.087,-24.902,38.574,37.109,66.895,175.781,0
1486223278.091,49.316,34.668,49.316,53.223,94.238,0
1486223278.095,95.703,26.855,53.711,61.035,-36.133,0
1486223278.099,61.035,26.367,32.227,62.500,-14.160,0
1486223278.103,-1.465,33.203,29.785,61.035,23.438,0
1486223278.107,-21.973,31.250,41.992,70.312,157.715,0
1486223278.111,36.621,27.832,46.875,56.152,87.402,0
1486223278.115,93.750,34.668,49.316,54.688,-83.496,0
1486223278.119,67.871,29.785,43.457,56.152,-97.168,0
1486223278.122,0.977,29.297,44.434,62.500,-10.254,0
1486223278.126,-28.320,31.250,36.621,75.684,160.156,0
1486223278.130,21.484,28.320,21.973,60.059,138.672,0
1486223278.134,86.914,24.414,26.855,49.316,4.883,0
1486223278.138,81.055,28.320,50.781,63.477,-22.461,0
1486223278.142,12.207,29.297,49.316,70.312,12.695,0
1486223278.146,-35.156,23.438,31.250,61.035,160.156,0
1486223278.150,4.883,20.996,35.645,49.805,161.133,0
1486223278.154,89.355,24.902,43.457,50.293,-20.020,0
1486223278.158,100.586,38.574,55.664,61.523,-35.156,0
1486223278.162,31.250,35.645,46.387,66.895,-14.160,0
1486223278.165,-20.996,29.297,29.297,71.289,83.008,0
1486223278.169,-0.488,29.297,26.855,55.176,132.812,0
1486223278.173,76.172,20.508,34.668,46.387,-3.906,0
1486223278.177,96.680,24.414,48.340,61.523,-30.273,0
1486223278.181,28.809,28.320,44.434,61.035,7.324,0
1486223278.185,-23.438,24.902,27.344,71.777,127.930,0
1486223278.189,6.836,29.785,30.762,74.219,181.152,0
1486223278.193,75.684,37.109,45.410,61.035,-3.906,0
1486223278.197,98.145,32.227,39.551,63.965,-63.477,0
1486223278.201,48.340,25.879,28.809,62.012,-63.477,0
1486223278.205,-14.160,30.273,40.039,74.219,25.391,0
1486223278.208,-2.930,30.762,45.410,74.219,157.715,0
1486223278.212,65.430,30.273,33.691,50.293,1.465,0
1486223278.216,100.098,31.738,35.156,59.082,-65.430,0
1486223278.220,53.223,26.855,39.062,63.965,-28.320,0
1486223278.224,-7.324,35.645,41.504,81.055,67.871,0
1486223278.228,-15.137,35.645,37.598,76.660,189.941,0
1486223278.232,55.176,27.344,36.621,51.758,39.551,0
1486223278.236,110.840,29.297,41.504,63.965,-67.871,0
1486223278.240,72.754,34.668,33.203,66.406,-50.293,0
1486223278.244,-0.488,35.645,35.645,74.219,43.945,0
1486223278.247,-20.996,29.297,36.621,76.172,179.688,1
1486223278.251,45.898,27.832,29.297,52.246,34.668,0
1486223278.255,103.027,30.273,32.715,51.758,-81.055,0
1486223278.259,79.102,34.180,40.527,67.871,-43.457,0
1486223278.263,10.742,41.992,37.109,77.637,8.789,0
1486223278.267,-20.508,32.715,41.992,75.195,140.137,0
1486223278.271,37.598,28.320,50.781,52.734,88.867,0
1486223278.275,104.980,32.715,49.805,55.664,-25.879,0
1486223278.279,84.473,28.320,38.574,63.965,0.000,0
1486223278.283,9.766,31.738,34.668,64.941,46.875,0
1486223278.287,-20.020,30.762,41.016,75.684,150.879,0
1486223278.290,33.691,32.715,40.527,55.664,130.371,0
1486223278.294,89.844,32.715,35.645,39.062,-30.762,0
1486223278.298,77.637,28.320,38.086,47.852,-55.664,0
1486223278.302,6.836,33.691,43.945,57.129,-24.414,0
1486223278.306,-44.922,34.180,49.316,65.430,127.441,0
1486223278.310,4.883,28.809,44.922,49.316,164.551,0
1486223278.314,74.707,23.926,36.621,48.828,14.648,0
1486223278.318,79.590,21.973,35.645,60.547,-20.508,0
1486223278.322,23.926,27.344,35.645,57.617,5.371,0
1486223278.326,-26.855,28.320,32.715,74.219,146.484,0
1486223278.330,5.371,26.855,30.762,63.477,159.668,0
1486223278.333,73.730,22.949,34.180,49.316,-21.973,0
1486223278.337,90.820,27.832,38.086,59.570,-31.250,0
1486223278.341,32.715,26.367,38.574,61.523,-22.461,0
1486223278.345,-23.926,24.414,37.109,68.359,62.012,0
1486223278.349,4.395,29.785,48.340,61.035,137.207,0
1486223278.353,75.684,29.297,49.316,49.316,-5.371,0
1486223278.357,95.703,30.273,33.203,54.688,-63.477,0
1486223278.361,36.133,30.762,29.785,56.641,-41.992,0
1486223278.365,-21.973,29.785,42.969,73.730,94.727,0
1486223278.369,-5.859,23.926,46.875,66.406,170.898,0
1486223278.372,56.152,21.973,29.785,42.480,7.324,0
1486223278.376,87.402,30.273,29.297,57.617,-63.965,0
1486223278.380,45.898,33.203,41.504,61.523,-41.504,0
1486223278.384,-23.438,30.762,42.969,69.336,55.664,0
1486223278.388,-22.461,29.297,31.738,68.848,160.156,0
1486223278.392,65.918,38.574,41.504,58.105,11.719,0
1486223278.396,108.398,32.715,41.992,73.730,-40.527,0
1486223278.400,66.895,20.508,28.320,71.289,-22.949,0
1486223278.404,16.113,32.715,43.457,83.984,20.996,0
1486223278.408,6.836,38.574,43.457,86.426,150.879,0
1486223278.412,78.613,34.180,35.156,57.129,51.270,0
1486223278.415,130.859,35.156,43.945,69.336,-65.430,0
1486223278.419,77.148,23.438,28.809,66.406,-59.082,0
1486223278.423,1.953,28.320,24.414,64.453,9.277,0
1486223278.427,-22.949,37.109,33.203,76.660,159.180,0
1486223278.431,36.621,29.785,39.551,60.059,56.152,0
1486223278.435,93.262,24.902,38.086,57.617,-64.941,0
1486223278.439,64.453,26.367,30.762,67.383,-20.020,0
1486223278.443,1.465,30.273,41.504,82.031,9.766,0
1486223278.447,-17.090,33.203,49.805,86.914,119.141,0
1486223278.451,33.691,35.645,43.457,53.711,78.125,0
1486223278.454,89.844,29.297,35.156,53.223,-31.738,0
1486223278.458,82.031,26.855,35.156,63.965,-5.859,0
1486223278.462,10.742,33.203,37.598,68.359,16.602,0
1486223278.466,-30.762,26.855,32.715,76.660,142.090,0
1486223278.470,15.625,22.949,37.598,56.152,137.207,0
1486223278.474,81.543,25.391,47.363,58.105,20.508,0
1486223278.478,83.984,25.879,41.016,68.848,26.855,0
1486223278.482,20.996,27.832,36.621,60.059,19.531,0
1486223278.486,-24.414,27.344,36.621,68.848,131.836,0
1486223278.490,19.043,21.973,34.180,59.082,150.391,0
1486223278.494,87.402,23.926,36.133,53.711,-21.973,0
1486223278.497,100.586,33.203,34.668,66.895,-71.289,0
1486223278.501,38.574,28.320,29.785,67.383,-12.207,0
1486223278.505,-28.809,23.438,36.133,69.336,134.277,0
1486223278.509,11.719,30.762,50.781,64.941,160.156,0
1486223278.513,99.121,30.273,57.617,57.129,18.555,0
1486223278.517,95.703,25.879,33.203,57.617,-41.504,0
1486223278.521,36.621,29.785,27.832,57.617,-34.180,0
1486223278.525,-18.555,30.273,39.062,61.523,70.312,0
1486223278.529,-4.883,25.391,31.250,60.059,143.066,0
1486223278.533,68.848,26.367,27.832,47.363,12.695,0
1486223278.537,101.562,33.691,33.691,53.711,-42.969,0
1486223278.540,59.570,36.133,47.852,61.523,13.672,0
1486223278.544,-13.184,30.273,49.805,66.406,114.746,0
1486223278.548,-16.602,25.879,41.016,58.105,170.898,0
1486223278.552,60.547,24.902,30.762,37.598,41.504,0
1486223278.556,106.934,31.250,41.504,57.617,-22.949,0
1486223278.560,66.406,28.809,48.340,68.359,13.184,0
1486223278.564,-4.883,26.367,41.016,68.359,95.215,0
1486223278.568,-11.719,25.391,30.273,77.148,204.590,0
1486223278.572,61.523,22.949,24.414,53.711,67.871,0
1486223278.576,103.027,24.414,41.992,56.152,-38.574,0
1486223278.579,64.941,28.809,48.340,65.918,26.367,0
1486223278.583,3.418,34.668,50.781,73.730,105.469,0
1486223278.587,-15.625,28.320,51.270,84.473,168.945,0
1486223278.591,39.551,22.949,33.203,60.547,56.641,0
1486223278.595,103.027,28.809,25.391,57.129,-32.715,0
1486223278.599,83.984,28.320,40.039,68.848,-37.109,0
1486223278.603,5.371,29.297,41.016,70.312,41.504,0
1486223278.607,-16.602,30.762,39.551,75.684,178.711,0
1486223278.611,45.410,32.715,49.805,66.406,111.328,0
1486223278.615,95.703,35.156,41.504,62.988,-12.695,0
1486223278.619,73.242,28.809,35.156,55.664,0.000,0
1486223278.622,10.254,30.273,39.551,56.152,12.695,0
1486223278.626,-20.996,32.227,39.062,67.871,124.512,0
1486223278.630,26.367,23.926,29.297,44.434,125.488,0
1486223278.634,87.402,23.926,20.996,41.016,-31.250,0
1486223278.638,86.426,28.320,15.625,57.617,-46.875,0
1486223278.642,30.273,30.273,25.879,64.453,-4.883,0
1486223278.646,-27.344,27.832,45.898,80.078,129.883,0
1486223278.650,4.883,25.391,51.758,64.453,158.691,0
1486223278.654,87.891,25.879,41.504,50.293,-17.090,0
1486223278.658,97.168,34.180,43.457,66.895,-25.391,0
1486223278.662,29.785,41.016,41.504,67.383,22.461,0
1486223278.665,-23.926,37.109,31.738,70.801,107.422,0
1486223278.669,9.277,38.574,38.086,63.965,169.922,0
1486223278.673,81.543,31.738,36.133,49.805,10.742,0
1486223278.677,97.656,29.297,44.434,60.547,-40.527,0
1486223278.681,35.156,28.809,47.363,59.570,-27.832,0
1486223278.685,-19.043,28.320,33.691,69.824,99.121,0
1486223278.689,-0.488,28.320,35.645,65.430,186.035,0
1486223278.693,75.684,27.832,50.293,56.641,26.367,0
1486223278.697,105.469,34.180,44.434,65.918,-39.551,0
1486223278.701,43.945,32.715,30.273,58.594,-39.551,0
1486223278.704,-21.484,29.297,42.480,75.195,88.379,0
1486223278.708,-13.672,30.273,44.922,72.266,198.242,0
1486223278.712,56.641,27.344,43.457,45.898,54.688,0
1486223278.716,102.051,30.762,42.480,56.152,-5.371,0
1486223278.720,64.941,30.273,35.645,58.594,-7.324,0
1486223278.724,-11.230,32.227,34.180,65.918,62.500,0
1486223278.728,-18.555,31.738,33.203,71.289,168.945,0
1486223278.732,52.246,23.926,20.020,51.758,13.672,0
1486223278.736,98.633,27.344,22.461,56.152,-94.727,0
1486223278.740,65.918,30.762,42.480,60.547,-60.059,0
1486223278.744,-4.395,27.344,45.898,76.172,44.922,0
1486223278.747,-7.812,31.738,48.828,83.496,182.129,0
1486223278.751,60.547,41.504,50.293,52.734,75.684,0
1486223278.755,95.703,26.855,41.992,50.781,-13.672,0
1486223278.759,70.801,23.438,29.785,62.500,-6.348,0
1486223278.763,4.395,34.180,26.367,65.918,35.645,0
1486223278.767,-23.438,25.879,38.086,66.895,152.344,0
1486223278.771,37.598,29.785,45.410,54.688,81.543,0
1486223278.775,97.168,35.156,41.504,59.570,-26.367,0
1486223278.779,92.773,34.668,50.293,73.730,-16.113,1
1486223278.783,24.902,33.691,51.758,76.660,19.043,0
1486223278.786,-19.531,31.738,53.711,83.984,135.742,0
1486223278.790,32.715,27.832,43.945,63.965,114.746,0
1486223278.794,97.656,27.832,31.738,58.105,-69.336,0
1486223278.798,89.355,25.879,40.039,67.383,-68.848,0
1486223278.802,16.113,23.926,46.387,63.477,8.301,0
1486223278.806,-31.250,25.879,41.992,69.336,132.812,0
1486223278.810,16.113,23.438,32.715,52.734,144.531,0
1486223278.814,83.496,22.461,36.133,41.016,-27.832,0
1486223278.818,87.891,31.250,40.039,56.641,-53.711,0
1486223278.822,33.691,36.133,34.668,65.430,-34.668,0
1486223278.826,-24.414,20.996,35.645,66.895,73.242,0
1486223278.829,7.812,23.926,41.016,58.594,126.465,0
1486223278.833,86.426,31.250,52.246,59.570,-18.066,0
1486223278.837,104.980,29.297,59.082,76.660,-44.434,0
1486223278.841,42.480,28.320,37.598,63.965,-4.395,0
1486223278.845,-26.855,24.902,26.367,63.477,119.141,0
1486223278.849,1.953,29.785,32.715,57.617,172.363,0
1486223278.853,74.219,28.809,24.902,42.480,-16.602,0
1486223278.857,98.145,38.086,37.109,58.105,-71.777,0
1486223278.861,42.480,37.109,37.109,53.223,-35.645,0
1486223278.865,-33.203,22.949,25.391,54.688,68.848,0
1486223278.869,-19.531,27.344,37.109,58.594,174.316,0
1486223278.872,53.711,32.715,45.410,44.922,79.590,0
1486223278.876,92.285,30.762,44.434,57.617,-34.180,0
1486223278.880,56.152,32.227,42.969,62.988,-45.898,0
1486223278.884,-16.602,32.227,38.086,65.918,87.402,0
1486223278.888,-13.184,30.762,32.715,62.500,205.566,0
1486223278.892,61.035,33.203,30.273,41.992,84.961,0
1486223278.896,101.074,32.715,29.297,50.293,-4.883,0
1486223278.900,59.082,27.344,40.527,62.500,3.906,0
1486223278.904,-10.742,22.949,44.922,70.312,46.875,0
1486223278.908,-20.508,27.344,28.809,68.359,177.246,0
1486223278.911,43.945,30.762,27.344,48.340,74.707,0
1486223278.915,96.191,29.785,46.387,45.898,-38.574,0
1486223278.919,69.824,29.785,41.016,50.781,1.465,0
1486223278.923,-1.953,30.762,30.762,61.523,65.430,0
1486223278.927,-21.484,29.297,37.598,64.453,206.055,0
1486223278.931,34.180,30.273,39.062,42.969,97.656,0
1486223278.935,94.727,35.645,40.527,56.641,-25.879,0
1486223278.939,84.961,29.785,45.410,71.289,20.020,0
1486223278.943,7.812,28.809,45.898,70.312,41.992,0
1486223278.947,-30.762,29.785,30.762,81.055,122.070,0
1486223278.951,31.738,29.297,33.203,55.664,79.102,0
1486223278.954,97.656,24.902,42.480,43.457,-22.949,0
1486223278.958,82.031,25.879,30.762,54.199,-31.250,0
1486223278.962,18.555,39.062,39.551,58.105,9.277,0
1486223278.966,-15.137,36.133,50.781,74.219,170.898,0
1486223278.970,30.762,25.879,45.410,67.871,166.504,0
1486223278.974,91.309,29.297,40.527,57.129,-15.625,0
1486223278.978,90.332,31.250,35.156,59.082,-60.059,0
1486223278.982,25.391,29.297,32.715,60.059,-20.996,0
1486223278.986,-29.297,32.227,36.133,72.754,100.586,0
1486223278.990,12.695,34.180,49.805,68.359,134.766,0
1486223278.994,91.797,34.668,54.688,51.270,0.000,0
1486223278.997,97.168,30.762,33.203,55.664,-3.906,0
1486223279.001,38.574,27.832,27.832,64.941,-26.367,0
1486223279.005,-22.461,29.297,40.527,68.359,69.336,0
1486223279.009,1.465,31.250,51.758,60.547,144.043,0
1486223279.013,77.148,25.391,44.922,46.875,-52.246,0
1486223279.017,101.562,24.902,33.691,59.570,-71.289,0
1486223279.021,48.828,22.461,36.133,59.570,-14.648,0
1486223279.025,-5.859,35.156,46.875,69.824,81.543,0
1486223279.029,8.789,40.527,54.199,75.684,164.551,0
1486223279.033,69.336,26.367,35.645,48.340,18.555,0
1486223279.036,100.098,26.367,28.320,56.641,-54.199,0
1486223279.040,62.500,35.156,35.156,67.871,-44.434,0
1486223279.044,-9.277,37.598,29.297,72.266,62.500,0
1486223279.048,-11.230,36.133,42.969,69.824,178.711,0
1486223279.052,62.012,28.809,44.434,44.922,39.062,0
1486223279.056,105.469,26.367,21.973,51.270,-39.551,0
1486223279.060,63.477,28.809,33.203,66.406,-15.625,0
1486223279.064,-20.508,27.832,41.992,67.871,52.734,0
1486223279.068,-17.578,29.785,40.527,74.219,182.129,0
1486223279.072,53.711,26.367,38.086,58.105,72.266,0
1486223279.076,93.262,21.484,27.832,58.105,-21.973,0
1486223279.079,73.730,27.344,41.504,68.848,-4.883,0
1486223279.083,7.324,34.180,55.664,73.730,38.086,0
1486223279.087,-23.438,26.367,41.992,74.707,172.852,0
1486223279.091,40.039,24.414,35.645,54.688,103.516,0
1486223279.095,92.773,24.414,46.875,53.711,-52.246,0
1486223279.099,65.430,22.949,47.852,62.500,-37.109,0
1486223279.103,-7.812,26.367,33.691,66.406,25.391,0
1486223279.107,-28.320,28.320,32.227,80.078,125.000,0
1486223279.111,36.133,22.461,45.898,65.918,93.750,0
1486223279.115,96.191,25.879,45.410,64.453,-3.418,0
1486223279.118,83.496,33.691,28.809,71.777,-18.555,0
1486223279.122,17.578,26.367,36.133,75.684,-1.953,0
1486223279.126,-11.719,34.180,51.270,87.402,118.652,0
1486223279.130,23.438,29.785,37.109,64.941,137.207,0
1486223279.134,93.262,20.508,37.109,55.176,12.695,0
1486223279.138,98.633,29.297,34.180,62.500,-17.090,0
1486223279.142,22.949,29.297,26.855,59.570,21.484,0
1486223279.146,-18.555,29.785,38.574,72.266,129.395,0
1486223279.150,21.484,29.785,28.320,60.547,130.371,0
1486223279.154,84.961,25.391,28.809,47.363,-26.855,0
1486223279.158,100.098,29.785,42.969,62.988,-62.500,0
1486223279.161,52.246,41.016,37.109,69.824,-51.270,0
1486223279.165,-0.977,40.527,32.227,75.684,92.285,0
1486223279.169,18.555,34.180,39.062,65.430,143.066,0
1486223279.173,77.637,21.973,38.086,51.758,-14.648,0
1486223279.177,93.750,21.973,41.504,60.059,-50.293,0
1486223279.181,43.457,34.180,39.551,67.871,-43.945,0
1486223279.185,-21.973,35.645,38.574,69.824,72.754,0
1486223279.189,-10.742,33.691,52.734,62.500,140.625,0
1486223279.193,64.941,32.227,43.457,57.617,-0.977,0
1486223279.197,95.703,26.367,26.855,60.547,-38.574,0
1486223279.201,47.852,25.879,21.973,52.734,-20.020,0
1486223279.204,-20.508,29.785,34.180,66.895,92.285,0
1486223279.208,-15.625,30.762,43.945,72.266,185.547,0
1486223279.212,61.523,29.297,35.645,42.969,39.551,0
1486223279.216,96.680,24.902,37.598,53.223,-36.621,0
1486223279.220,51.758,26.855,34.668,62.988,-41.016,0
1486223279.224,-13.184,30.273,37.598,68.848,17.578,0
1486223279.228,-16.113,31.250,41.016,72.754,132.324,0
1486223279.232,53.223,41.504,32.715,45.410,45.898,0
1486223279.236,96.680,31.250,33.691,48.828,-67.383,0
1486223279.240,62.012,21.484,38.574,56.641,-51.270,0
1486223279.243,-8.789,25.879,42.480,61.523,38.086,0
1486223279.247,-25.879,22.949,43.457,70.312,144.531,0
1486223279.251,41.992,27.344,47.363,53.711,88.379,0
1486223279.255,94.238,24.902,42.480,49.805,-21.484,0
1486223279.259,74.219,23.438,27.344,63.477,-23.926,0
1486223279.263,6.348,28.809,23.926,77.637,39.062,0
1486223279.267,-24.414,25.879,36.621,86.426,161.133,0
1486223279.271,34.668,21.484,41.016,64.941,100.586,0
1486223279.275,111.328,32.227,42.969,65.918,-43.457,0
1486223279.279,90.820,29.785,39.062,76.660,-20.508,0
1486223279.283,14.160,25.879,45.410,79.102,17.578,0
1486223279.286,-20.020,26.367,45.410,80.566,130.859,0
1486223279.290,27.344,21.973,44.434,56.641,135.254,0
1486223279.294,97.656,27.344,42.480,51.270,13.184,0
1486223279.298,89.844,32.715,31.250,65.430,-0.488,0
1486223279.302,19.531,30.762,36.621,77.148,21.484,0
1486223279.306,-28.320,26.367,31.738,80.078,168.945,0
1486223279.310,12.207,29.785,28.809,61.523,172.363,0
1486223279.314,97.168,38.574,46.875,60.547,-7.324,0
1486223279.318,97.168,28.809,54.688,66.895,-39.062,0
1486223279.322,25.879,24.902,52.734,69.824,-3.418,0
1486223279.326,-22.461,31.738,41.504,80.078,132.324,0
1486223279.329,15.137,34.180,34.180,71.289,172.363,0
1486223279.333,92.285,34.180,40.527,56.641,-12.695,0
1486223279.337,99.121,28.809,36.133,56.641,-40.527,0
1486223279.341,41.016,28.320,32.227,62.012,3.906,0
1486223279.345,-19.043,31.250,36.621,72.266,102.539,0
1486223279.349,4.395,30.273,38.086,69.824,187.500,0
1486223279.353,79.102,28.320,32.227,53.223,12.695,0
1486223279.357,104.492,37.109,38.086,60.059,-59.570,0
1486223279.361,49.805,35.645,46.875,62.988,-32.715,0
1486223279.365,-18.555,22.461,42.969,63.477,52.246,0
1486223279.368,-11.719,22.461,30.273,59.082,159.668,0
1486223279.372,60.547,25.391,27.344,46.387,33.203,0
1486223279.376,114.258,33.691,40.527,65.430,-64.453,0
1486223279.380,59.570,35.156,37.109,60.059,-41.016,0
1486223279.384,-20.996,25.879,31.250,63.477,89.355,0
1486223279.388,-14.648,22.949,33.691,74.219,186.035,0
1486223279.392,57.617,31.250,37.109,52.246,12.207,0
1486223279.396,101.074,35.645,32.227,60.059,-62.988,0
1486223279.400,69.824,31.738,39.551,70.312,-18.066,0
1486223279.404,-1.953,32.227,42.969,70.801,33.203,0
1486223279.408,-24.414,29.785,30.762,63.477,147.949,0
1486223279.411,46.387,20.508,38.574,40.039,55.664,0
1486223279.415,103.516,29.785,44.922,53.711,-57.129,0
1486223279.419,68.848,31.250,36.133,59.082,-23.926,0
1486223279.423,-7.812,26.367,29.297,51.758,1.465,1
1486223279.427,-26.855,31.738,44.434,64.941,145.508,0
1486223279.431,33.203,26.367,39.551,50.293,131.836,0
1486223279.435,94.727,26.367,27.344,51.270,-6.836,0
1486223279.439,77.148,28.809,31.738,62.012,-16.602,0
1486223279.443,8.301,27.832,33.203,60.547,29.297,0
1486223279.447,-24.414,29.297,35.645,74.707,159.668,0
1486223279.450,21.484,25.391,36.133,52.734,145.020,0
1486223279.454,90.820,27.832,32.715,44.434,-4.883,0
1486223279.458,79.102,28.320,32.227,60.547,-18.066,0
1486223279.462,10.254,22.461,37.109,59.570,10.254,0
1486223279.466,-30.273,36.621,34.668,71.777,114.746,0
1486223279.470,11.719,36.621,41.016,56.641,147.461,0
1486223279.474,78.125,29.297,46.387,40.039,1.953,0
1486223279.478,83.984,36.621,39.551,44.434,-6.836,0
1486223279.482,31.738,28.809,31.250,54.688,31.738,0
1486223279.486,-25.391,28.809,21.973,67.383,156.738,0
1486223279.490,3.906,37.109,27.344,49.805,172.852,0
1486223279.493,89.844,36.133,34.668,47.852,32.227,0
1486223279.497,104.980,34.668,39.062,67.871,-14.160,0
1486223279.501,31.738,33.691,35.156,61.035,-31.738,0
1486223279.505,-25.879,29.785,32.227,59.570,113.281,0
1486223279.509,-2.930,35.156,45.410,53.223,201.660,0
1486223279.513,71.289,32.715,41.016,42.969,32.715,0
1486223279.517,102.051,20.020,39.062,57.617,-28.320,0
1486223279.521,42.480,31.250,54.688,63.965,8.301,0
1486223279.525,-33.691,28.809,31.250,62.500,129.883,0
1486223279.529,-20.508,19.043,14.648,55.664,201.172,0
1486223279.533,59.082,24.902,22.949,44.922,62.012,0
1486223279.536,98.145,30.273,40.527,59.082,-20.996,0
1486223279.540,53.711,32.715,45.898,59.570,-9.766,0
1486223279.544,-13.672,34.180,39.062,62.988,78.125,0
1486223279.548,-8.301,31.250,41.992,69.824,200.684,0
1486223279.552,65.430,33.203,39.551,52.246,84.961,0
1486223279.556,105.469,32.227,36.133,55.664,-43.457,0
1486223279.560,69.336,29.297,36.621,62.012,-34.180,0
1486223279.564,5.859,36.621,47.852,69.824,51.270,0
1486223279.568,-16.602,30.762,45.410,74.219,178.711,0
1486223279.572,49.316,27.832,35.156,55.176,51.270,0
1486223279.575,108.887,37.598,42.969,65.430,-69.824,0
1486223279.579,75.195,35.156,44.922,66.406,-21.484,0
1486223279.583,-0.488,35.645,44.922,69.336,26.855,0
1486223279.587,-26.367,26.855,41.504,74.219,147.949,0
1486223279.591,34.668,18.066,36.621,41.992,71.289,0
1486223279.595,95.703,20.508,32.227,54.199,-60.547,0
1486223279.599,84.473,22.949,42.969,67.383,-26.855,0
1486223279.603,14.648,30.273,54.688,67.871,29.297,0
1486223279.607,-21.484,32.227,46.387,82.520,163.086,0
1486223279.611,35.156,35.645,37.598,61.523,144.531,0
1486223279.615,102.539,38.086,35.156,53.711,-11.230,0
1486223279.618,88.867,30.273,38.574,61.035,-37.109,0
1486223279.622,16.113,27.344,36.133,56.641,34.180,0
1486223279.626,-25.391,28.320,32.227,64.941,146.973,0
1486223279.630,29.297,32.227,43.945,62.988,112.793,0
1486223279.634,99.609,29.297,44.922,57.617,-44.434,0
1486223279.638,93.750,31.250,40.039,62.012,-57.129,0
1486223279.642,34.180,36.621,47.363,73.730,-29.785,0
1486223279.646,-19.043,32.227,39.551,77.637,95.215,0
1486223279.650,19.043,35.645,36.621,61.523,153.320,0
1486223279.654,99.121,32.715,50.293,55.176,-15.137,0
1486223279.658,97.656,28.320,37.598,60.059,-68.848,0
1486223279.661,39.062,35.645,24.414,63.965,-6.836,0
1486223279.665,-9.277,26.855,32.227,70.312,145.996,0
1486223279.669,19.043,27.344,41.504,66.895,181.152,0
1486223279.673,89.844,32.715,45.410,56.152,6.836,0
1486223279.677,101.562,25.391,40.039,62.988,-56.641,0
1486223279.681,45.898,26.367,42.480,67.871,-29.785,0
1486223279.685,-8.789,27.832,54.199,86.914,98.145,0
1486223279.689,7.812,29.297,46.387,83.984,193.359,0
1486223279.693,83.496,36.133,30.762,55.176,68.848,0
1486223279.697,113.770,32.227,35.156,61.523,-36.133,0
1486223279.700,63.965,28.320,46.387,74.219,-41.504,0
1486223279.704,-3.906,32.715,47.363,78.613,46.875,0
1486223279.708,-4.395,25.879,39.062,64.453,157.715,0
1486223279.712,64.453,24.902,36.621,46.387,54.688,0
1486223279.716,102.051,31.250,33.203,56.641,-41.992,0
1486223279.720,59.570,33.203,36.621,66.406,-9.277,0
1486223279.724,-12.695,28.320,35.645,73.730,95.703,0
1486223279.728,-12.207,31.738,37.598,75.684,184.570,0
1486223279.732,58.594,28.320,41.504,58.594,70.312,0
1486223279.736,107.422,23.926,52.734,63.965,-4.395,0
1486223279.740,74.707,28.320,43.945,65.918,5.371,0
1486223279.743,1.953,30.273,20.508,68.359,52.734,0
1486223279.747,-10.742,23.438,31.250,76.172,176.270,0
1486223279.751,53.711,22.949,38.574,62.988,89.355,0
1486223279.755,100.098,29.297,36.621,62.012,-56.152,0
1486223279.759,75.684,27.344,37.598,67.383,-30.762,0
1486223279.763,2.930,31.250,40.527,71.777,14.160,0
1486223279.767,-28.809,35.156,47.852,78.613,135.742,0
1486223279.771,30.762,26.855,45.898,54.199,122.070,0
1486223279.775,91.309,28.320,38.086,51.758,-41.504,0
1486223279.779,75.684,33.203,31.250,63.965,-54.199,0
1486223279.782,14.648,39.062,42.969,71.289,32.227,0
1486223279.786,-29.785,30.273,42.969,70.312,189.453,0
1486223279.790,14.160,18.555,35.645,51.758,164.551,0
1486223279.794,84.473,19.043,36.621,46.875,20.020,0
1486223279.798,86.914,26.855,35.645,60.547,-13.184,0
1486223279.802,21.973,25.391,35.645,65.918,-9.766,0
1486223279.806,-23.926,27.832,39.062,77.148,135.254,0
1486223279.810,15.625,33.691,36.621,76.172,177.734,0
1486223279.814,82.031,30.762,33.691,55.176,37.109,0
1486223279.818,84.473,24.902,35.645,51.758,-41.992,0
1486223279.822,28.320,32.227,41.016,54.688,-11.719,0
1486223279.825,-20.020,31.738,51.270,67.383,132.812,0
1486223279.829,1.465,23.438,42.480,55.176,173.340,0
1486223279.833,75.195,27.344,32.715,36.621,49.805,0
1486223279.837,103.516,33.691,25.391,49.316,-23.438,0
1486223279.841,50.293,35.156,35.156,61.523,-30.273,0
1486223279.845,-18.066,28.809,37.598,73.242,104.004,0
1486223279.849,-6.348,26.855,23.438,61.523,179.199,0
1486223279.853,75.684,28.320,37.109,47.852,29.785,0
1486223279.857,105.957,37.598,47.363,55.664,-27.344,0
1486223279.861,53.711,37.109,46.875,58.105,-29.297,0
1486223279.865,-11.719,29.297,44.922,68.359,41.992,0
1486223279.868,-7.812,32.227,43.457,70.312,161.133,0
1486223279.872,68.848,29.297,40.039,47.852,49.316,0
1486223279.876,99.609,24.902,27.832,44.922,-24.902,0
1486223279.880,58.105,23.926,21.484,50.293,-17.578,0
1486223279.884,-1.465,26.855,24.902,53.711,52.246,0
1486223279.888,-6.348,30.762,36.621,63.477,166.992,0
1486223279.892,63.965,30.762,42.480,47.363,61.035,0
1486223279.896,114.746,34.180,43.457,45.898,-24.902,0
1486223279.900,81.055,36.621,44.922,58.105,-10.254,0
1486223279.904,3.906,29.785,43.457,68.848,71.777,0
1486223279.907,-15.625,28.320,40.527,66.406,211.426,0
1486223279.911,48.828,34.668,35.645,41.504,107.910,0
1486223279.915,93.750,24.414,26.855,37.598,-11.230,0
1486223279.919,74.219,20.020,27.832,57.129,0.488,0
1486223279.923,6.348,25.879,36.133,70.312,41.992,0
1486223279.927,-35.156,25.391,34.668,67.871,175.293,0
1486223279.931,21.484,25.879,37.109,49.316,94.238,0
1486223279.935,85.938,30.273,41.504,45.410,-50.293,0
1486223279.939,78.125,34.668,52.246,56.641,-27.832,0
1486223279.943,17.578,37.109,63.477,75.684,-13.672,0
1486223279.947,-25.391,31.738,46.875,72.754,138.672,0
1486223279.950,18.555,27.344,27.832,41.504,151.855,0
1486223279.954,86.914,23.926,21.484,37.598,-13.184,0
1486223279.958,79.590,20.020,18.555,42.480,-29.297,0
1486223279.962,8.789,27.344,31.738,47.852,17.090,0
1486223279.966,-34.668,27.832,41.016,60.547,131.836,0
1486223279.970,7.324,24.414,38.574,54.688,146.484,0
1486223279.974,81.055,28.809,40.039,50.781,23.926,0
1486223279.978,90.820,30.273,48.340,62.500,-19.531,0
1486223279.982,29.297,24.902,53.711,64.941,-15.625,0
1486223279.986,-21.484,24.902,42.480,71.289,99.609,0
1486223279.990,1.465,25.391,32.715,54.688,158.691,0
1486223279.993,81.543,27.344,36.621,41.504,2.930,0
1486223279.997,99.121,29.785,26.367,54.688,-14.648,0
1486223280.001,36.133,29.297,22.949,55.664,16.602,0
1486223280.005,-22.949,35.645,42.969,68.848,103.516,0
1486223280.009,-2.930,35.156,48.828,64.941,183.594,0
1486223280.013,69.824,27.832,40.527,40.527,16.602,0
1486223280.017,103.516,26.367,49.805,60.059,-64.941,0
1486223280.021,57.617,22.461,61.035,64.941,-20.508,0
1486223280.025,-16.602,27.344,42.480,57.617,106.445,0
1486223280.029,-10.254,29.785,21.973,55.176,214.355,0
1486223280.032,75.195,29.785,29.785,47.363,51.758,0
1486223280.036,101.562,27.832,44.922,60.059,-38.086,0
1486223280.040,50.781,25.879,41.016,62.988,-12.207,0
1486223280.044,-15.625,24.414,31.250,62.988,61.035,0
1486223280.048,-18.066,27.832,38.086,63.477,196.289,0
1486223280.052,52.246,29.297,39.551,42.480,89.355,0
1486223280.056,101.074,28.809,41.992,57.617,-19.531,0
1486223280.060,68.359,27.344,42.480,73.730,-2.441,0
1486223280.064,-12.207,25.391,37.109,61.035,80.078,0
1486223280.068,-21.484,26.855,41.992,63.965,195.801,2
1486223280.072,38.086,19.531,47.363,44.922,99.121,0
1486223280.075,87.402,19.043,60.547,47.852,-18.066,0
1486223280.079,72.266,26.855,49.316,62.012,-13.184,0
1486223280.083,0.977,29.785,27.832,65.918,19.531,0
1486223280.087,-18.066,30.273,41.992,76.660,137.207,0
1486223280.091,46.387,32.227,43.945,53.223,78.613,0
1486223280.095,101.074,31.250,43.945,49.316,-51.758,0
1486223280.099,79.102,23.438,44.922,68.359,-31.738,0
1486223280.103,13.184,24.414,34.180,74.707,41.504,0
1486223280.107,-19.043,25.391,41.016,74.219,185.059,0
1486223280.111,37.598,28.320,49.805,61.035,116.699,0
1486223280.114,100.586,34.180,42.969,58.594,-10.254,0
1486223280.118,91.309,32.227,41.992,68.848,-23.438,0
1486223280.122,22.949,26.367,30.273,70.312,-31.738,0
1486223280.126,-21.973,31.250,29.297,69.824,125.977,0
1486223280.130,34.668,40.527,41.992,61.035,153.809,0
1486223280.134,107.910,36.133,53.223,63.477,-28.320,0
1486223280.138,105.469,31.250,50.293,77.637,-71.777,0
1486223280.142,34.668,29.785,39.551,66.406,-24.902,0
1486223280.146,-24.414,21.484,33.203,70.312,115.234,0
1486223280.150,14.648,24.414,31.250,57.129,132.324,0
1486223280.154,85.938,32.715,40.527,42.480,-20.508,0
1486223280.157,95.703,33.691,51.270,60.547,-44.434,0
1486223280.161,34.668,33.691,38.086,60.547,-13.184,0
1486223280.165,-24.902,38.086,33.203,65.430,77.637,0
1486223280.169,-1.465,28.320,39.551,56.152,127.441,0
1486223280.173,73.730,24.902,36.621,41.016,9.277,0
1486223280.177,92.285,31.250,35.645,57.617,-35.156,0
1486223280.181,37.598,29.297,40.039,59.570,3.418,0
1486223280.185,-25.879,27.832,43.945,64.941,117.188,0
1486223280.189,-12.695,31.250,36.621,65.430,177.246,0
1486223280.193,65.430,38.086,30.762,51.758,-20.020,0
1486223280.197,99.121,30.762,26.367,54.688,-106.445,0
1486223280.200,52.734,32.227,33.203,58.594,-55.176,0
1486223280.204,-10.742,33.691,40.039,77.148,42.969,0
1486223280.208,-2.441,28.320,40.527,77.148,175.293,0
1486223280.212,76.172,37.109,41.992,54.688,20.020,0
1486223280.216,113.770,33.203,43.945,66.406,-89.844,0
1486223280.220,68.359,26.855,37.109,73.730,-37.598,0
1486223280.224,1.465,30.273,24.414,72.266,7.324,0
1486223280.228,-9.277,28.320,30.762,78.613,111.328,0
1486223280.232,58.594,32.715,40.527,59.570,20.020,0
1486223280.236,106.934,34.668,31.738,57.129,-64.453,0
1486223280.239,69.824,31.738,27.832,63.477,-62.988,0
1486223280.243,3.906,37.109,52.734,74.219,42.480,0
1486223280.247,-13.184,33.203,56.641,86.914,164.062,0
1486223280.251,48.828,27.832,33.691,59.082,49.805,0
1486223280.255,107.422,31.738,28.809,53.223,-38.574,0
1486223280.259,83.008,38.574,42.969,66.406,-26.367,0
1486223280.263,14.648,33.691,47.363,71.777,-16.113,0
1486223280.267,-23.438,26.855,40.039,76.660,125.488,0
1486223280.271,30.762,32.227,35.156,59.082,114.746,0
1486223280.275,100.586,37.109,40.527,58.594,-37.109,0
1486223280.279,83.008,32.227,51.758,70.312,-69.336,0
1486223280.282,15.625,29.785,48.340,67.383,-1.465,0
1486223280.286,-28.809,25.391,40.039,73.242,161.621,0
1486223280.290,23.926,25.879,37.598,67.383,152.344,0
1486223280.294,113.770,36.133,45.898,69.824,-0.977,0
1486223280.298,100.586,32.715,41.016,69.336,-25.391,0
1486223280.302,27.344,31.738,34.180,66.406,-11.230,0
1486223280.306,-15.625,33.203,31.250,76.660,138.672,0
1486223280.310,17.090,23.438,31.250,62.988,198.242,0
1486223280.314,90.332,30.762,39.062,57.617,20.020,0
1486223280.318,106.445,31.250,42.480,73.730,-9.277,0
1486223280.322,51.270,30.273,41.504,73.730,24.414,0
1486223280.325,-9.277,31.250,47.852,83.984,124.023,0
1486223280.329,4.395,21.484,40.527,65.918,143.066,0
1486223280.333,76.660,22.949,33.691,47.363,-26.855,0
1486223280.337,96.680,29.297,35.645,64.941,-51.270,0
1486223280.341,41.016,26.855,35.645,64.453,41.992,0
1486223280.345,-17.090,24.414,41.992,74.707,125.488,0
1486223280.349,-2.441,23.438,44.434,78.125,151.367,0
1486223280.353,66.406,20.996,37.109,50.293,41.504,0
1486223280.357,100.586,29.785,38.086,58.105,-41.504,0
1486223280.361,51.270,36.133,39.551,62.012,-60.059,0
1486223280.364,-25.391,28.809,39.062,61.035,43.457,0
1486223280.368,-16.602,19.043,42.480,70.801,148.926,0
1486223280.372,62.012,24.414,51.758,55.664,23.926,0
1486223280.376,100.586,28.809,49.805,56.641,-59.082,0
1486223280.380,63.477,26.855,43.457,65.918,-72.266,0
1486223280.384,-12.695,24.414,38.086,67.871,32.715,0
1486223280.388,-27.344,25.879,40.039,71.289,164.062,0
1486223280.392,51.270,27.344,39.062,55.664,50.293,0
1486223280.396,98.145,25.879,32.715,49.316,-13.672,0
1486223280.400,68.848,26.367,31.738,62.012,2.441,0
1486223280.404,-3.418,25.391,39.062,65.430,26.367,0
1486223280.407,-31.250,31.738,43.457,69.336,155.762,0
1486223280.411,42.480,33.691,40.039,53.711,94.238,0
1486223280.415,96.191,28.809,40.039,45.410,-39.551,0
1486223280.419,64.453,24.902,36.133,55.664,-36.621,0
1486223280.423,-2.930,24.414,36.621,59.570,27.832,0
1486223280.427,-36.621,30.273,35.645,58.594,173.828,0
1486223280.431,21.484,28.320,33.203,41.016,129.395,0
