timestamps,TP9,AF7,AF8,TP10,Right AUX,Marker
1486223470.057,-9.277,25.391,28.809,50.781,147.949,0
1486223470.061,68.359,25.879,31.250,41.016,-2.441,0
1486223470.065,94.238,29.297,33.691,60.059,-41.016,0
1486223470.069,42.969,30.273,33.691,64.453,-22.949,0
1486223470.073,-16.113,28.320,37.598,69.824,100.098,0
1486223470.077,1.953,34.180,42.969,69.336,125.488,0
1486223470.081,74.707,32.715,34.180,52.246,-22.461,0
1486223470.084,103.516,29.297,32.715,66.406,-74.707,0
1486223470.088,55.176,27.832,28.809,65.918,-76.660,0
1486223470.092,-0.977,33.203,38.574,81.543,33.691,0
1486223470.096,0.488,27.344,56.152,82.520,114.746,0
1486223470.100,58.105,21.484,39.062,55.176,-12.207,0
1486223470.104,100.586,29.297,26.855,59.082,-80.078,0
1486223470.108,63.477,36.133,38.574,60.059,-62.988,0
1486223470.112,0.000,31.250,38.086,66.895,45.898,0
1486223470.116,-5.859,34.668,35.156,72.266,162.598,0
1486223470.120,54.199,35.645,43.945,50.293,29.785,0
1486223470.124,98.145,30.273,54.688,59.082,-81.543,0
1486223470.127,63.477,23.438,39.551,56.641,-12.207,0
1486223470.131,-6.348,24.902,26.855,53.711,78.613,0
1486223470.135,-24.414,34.668,46.387,73.242,191.895,0
1486223470.139,35.645,29.297,39.551,46.875,101.562,0
1486223470.143,85.449,20.020,23.926,35.645,-43.457,0
1486223470.147,69.336,21.973,29.297,50.781,-33.203,0
1486223470.151,3.418,26.367,36.621,56.152,10.742,0
1486223470.155,-24.902,30.762,36.621,64.941,129.395,0
1486223470.159,36.621,26.855,33.691,49.805,99.121,0
1486223470.163,90.820,31.738,50.293,41.504,-11.230,0
1486223470.167,77.148,36.621,54.199,55.176,-3.906,0
1486223470.170,10.742,26.855,37.598,55.664,46.387,0
1486223470.174,-32.715,22.461,22.461,61.523,180.176,0
1486223470.178,24.902,24.902,24.414,57.617,140.137,0
1486223470.182,101.074,30.273,46.875,60.059,-17.090,0
1486223470.186,91.797,31.738,40.039,68.359,-53.711,0
1486223470.190,22.949,26.855,33.691,64.453,2.930,0
1486223470.194,-25.879,27.832,42.969,75.684,135.742,0
1486223470.198,9.766,29.297,41.016,67.871,155.273,0
1486223470.202,83.008,29.785,46.875,58.105,2.930,0
1486223470.206,97.656,28.320,52.734,69.824,-56.641,0
1486223470.209,41.016,37.598,41.016,71.289,-2.441,0
1486223470.213,-19.043,36.133,27.344,74.707,118.164,0
1486223470.217,9.277,23.438,33.203,71.289,170.410,0
1486223470.221,83.496,29.785,37.598,61.035,40.039,0
1486223470.225,103.027,33.203,31.738,62.988,-38.574,0
1486223470.229,52.734,22.461,36.621,65.430,-8.789,0
1486223470.233,-7.812,22.461,38.086,78.613,98.633,0
1486223470.237,7.324,32.715,39.062,79.590,148.926,0
1486223470.241,77.148,32.715,39.062,60.547,11.230,0
1486223470.245,104.980,32.715,38.574,62.500,-56.641,0
1486223470.249,61.035,32.715,42.969,66.895,-14.648,0
1486223470.252,-6.348,35.645,31.738,70.312,72.754,0
1486223470.256,-3.906,29.297,23.438,68.359,163.574,0
1486223470.260,63.477,28.320,46.875,54.199,48.828,0
1486223470.264,93.750,26.855,50.293,53.223,-40.039,0
1486223470.268,51.758,28.320,34.668,55.664,-31.738,0
1486223470.272,-18.555,31.738,40.039,72.754,48.340,0
1486223470.276,-18.555,33.691,46.387,74.219,143.066,0
1486223470.280,53.223,33.203,49.316,52.734,31.738,0
1486223470.284,89.844,20.508,39.062,59.570,-39.551,0
1486223470.288,62.012,27.344,37.109,61.035,-2.930,0
1486223470.291,0.977,38.574,37.598,65.430,68.359,0
1486223470.295,-18.555,34.668,37.598,77.637,193.848,0
1486223470.299,40.527,26.855,34.180,45.898,125.977,0
1486223470.303,88.379,26.855,32.715,43.945,-31.250,0
1486223470.307,63.965,26.367,38.574,56.641,-42.480,0
1486223470.311,-6.836,20.996,31.250,49.805,69.824,0
1486223470.315,-31.250,27.344,36.133,57.617,213.379,0
1486223470.319,22.461,30.273,39.551,44.922,160.645,0
1486223470.323,86.914,26.855,39.062,37.109,-7.812,0
1486223470.327,75.195,30.273,45.898,45.898,-40.527,0
1486223470.331,2.930,25.879,39.551,47.363,18.066,0
1486223470.334,-26.855,31.738,36.621,63.965,177.246,0
1486223470.338,18.066,33.203,35.156,52.734,160.645,0
1486223470.342,76.172,25.391,21.484,41.992,-44.922,0
1486223470.346,85.449,35.645,30.273,56.641,-72.266,0
1486223470.350,27.344,30.762,42.969,61.035,24.414,0
1486223470.354,-20.020,26.367,35.645,69.824,147.949,0
1486223470.358,22.461,31.250,35.156,60.059,128.418,0
1486223470.362,88.867,32.227,35.156,44.922,-7.812,0
1486223470.366,98.633,38.086,45.410,55.664,-55.664,0
1486223470.370,37.598,36.621,44.434,58.594,-33.691,0
1486223470.374,-14.648,29.785,43.945,71.289,105.469,0
1486223470.377,15.625,30.762,39.551,63.965,153.320,0
1486223470.381,81.543,34.180,24.414,49.805,-17.090,0
1486223470.385,93.750,36.621,28.809,59.082,-44.434,0
1486223470.389,39.551,39.062,37.598,62.012,-10.742,0
1486223470.393,-15.137,34.180,43.945,77.148,77.148,0
1486223470.397,0.488,28.809,42.480,73.730,170.410,0
1486223470.401,67.871,26.367,32.715,55.664,35.645,0
1486223470.405,92.285,25.879,34.180,61.523,-42.969,0
1486223470.409,44.434,26.367,42.969,63.965,-19.043,0
1486223470.413,-9.277,37.598,47.363,77.148,83.008,0
1486223470.416,-0.977,33.203,47.363,76.172,127.930,0
1486223470.420,50.781,19.043,27.344,45.898,-27.832,0
1486223470.424,80.078,21.973,25.879,48.340,-60.059,0
1486223470.428,52.734,24.902,46.875,60.547,-18.555,0
1486223470.432,-6.836,31.738,46.387,72.754,49.316,0
1486223470.436,-18.555,32.715,42.969,68.359,166.992,0
1486223470.440,49.805,28.809,41.992,48.828,52.246,0
1486223470.444,95.215,26.855,39.062,57.617,-61.523,0
1486223470.448,60.547,25.879,34.668,62.988,-31.738,0
1486223470.452,-7.324,27.832,34.668,68.848,65.430,0
1486223470.456,-20.020,33.691,44.434,75.195,163.574,0
1486223470.459,45.410,33.203,40.039,48.340,81.055,0
1486223470.463,91.309,25.879,37.109,45.410,-15.625,0
1486223470.467,66.895,29.785,33.203,51.270,-43.945,0
1486223470.471,2.930,27.344,33.203,54.199,21.973,0
1486223470.475,-13.184,31.738,37.598,70.801,169.922,0
1486223470.479,48.828,38.574,41.992,58.594,108.887,0
1486223470.483,98.145,25.391,42.480,51.270,-25.391,0
1486223470.487,87.402,24.902,37.109,63.965,-30.273,0
1486223470.491,20.508,32.227,41.992,72.754,22.949,0
1486223470.495,-15.625,32.227,42.480,85.938,149.414,1
1486223470.499,36.133,30.762,41.016,69.336,101.074,0
1486223470.502,95.703,30.762,43.457,67.383,-23.438,0
1486223470.506,82.520,27.832,35.156,73.730,-32.227,0
1486223470.510,25.391,31.250,41.992,75.195,4.395,0
1486223470.514,-26.367,28.809,51.270,82.031,162.109,0
1486223470.518,5.371,26.855,47.363,68.848,159.668,0
1486223470.522,84.473,23.926,42.480,65.918,19.043,0
1486223470.526,82.031,29.785,34.668,71.289,4.883,0
1486223470.530,22.949,35.645,29.297,68.359,16.602,0
1486223470.534,-19.043,26.855,25.391,71.289,130.371,0
1486223470.538,7.812,28.809,35.645,61.035,154.785,0
1486223470.541,84.961,31.250,40.527,56.641,-16.113,0
1486223470.545,102.051,31.250,39.062,68.848,-48.828,0
1486223470.549,40.039,27.832,39.551,63.477,-22.461,0
1486223470.553,-13.184,25.879,44.922,73.730,93.262,0
1486223470.557,2.930,26.367,42.480,66.406,175.781,0
1486223470.561,80.078,30.273,41.992,57.129,15.625,0
1486223470.565,105.957,35.156,45.410,75.684,-92.285,0
1486223470.569,52.246,32.227,34.668,75.684,-62.500,0
1486223470.573,-3.906,31.250,25.391,85.938,83.008,0
1486223470.577,12.695,38.574,31.738,87.402,168.945,0
1486223470.581,76.660,34.180,38.086,63.965,38.574,0
1486223470.584,96.680,24.902,40.039,63.965,-45.898,0
1486223470.588,62.500,32.227,48.828,66.895,-18.066,0
1486223470.592,-8.301,31.738,40.039,66.895,71.777,0
1486223470.596,-10.254,29.785,36.621,66.406,166.016,0
1486223470.600,63.965,30.762,42.480,46.387,33.691,0
1486223470.604,99.121,29.785,38.086,41.992,-69.824,0
1486223470.608,66.406,36.133,37.598,55.176,-77.148,0
1486223470.612,-5.371,27.832,32.715,62.500,19.531,0
1486223470.616,-19.043,21.973,33.203,62.500,155.273,0
1486223470.620,49.316,27.344,44.434,50.293,48.340,0
1486223470.623,100.098,26.855,36.621,57.617,-52.246,0
1486223470.627,78.613,27.344,23.926,63.965,-49.316,0
1486223470.631,14.160,27.832,37.109,75.684,36.133,0
1486223470.635,-7.324,27.832,40.527,85.449,139.648,0
1486223470.639,47.852,32.715,41.504,59.570,80.078,0
1486223470.643,95.703,29.297,34.668,52.246,-40.039,0
1486223470.647,76.660,25.879,40.527,65.918,-85.449,0
1486223470.651,18.555,25.391,46.387,73.242,-5.371,0
1486223470.655,-17.578,24.414,25.879,71.289,155.762,0
1486223470.659,33.203,28.809,32.715,61.035,95.215,0
1486223470.663,103.027,29.785,45.410,66.406,-44.922,0
1486223470.666,94.238,29.297,35.156,62.500,-49.316,0
1486223470.670,28.809,22.461,29.785,56.641,-19.043,0
1486223470.674,-12.207,29.297,30.762,76.172,94.727,0
1486223470.678,29.297,33.203,33.203,61.523,126.465,0
1486223470.682,92.285,23.926,38.574,48.828,-29.785,0
1486223470.686,97.656,29.785,44.922,63.965,-45.898,0
1486223470.690,34.668,29.785,38.574,62.988,27.832,0
1486223470.694,-17.578,28.809,30.762,69.336,133.301,0
1486223470.698,26.855,36.133,39.551,70.801,169.434,0
1486223470.702,98.145,31.250,41.504,57.617,38.086,0
1486223470.706,103.027,27.344,40.039,59.570,-19.531,0
1486223470.709,40.527,27.344,33.203,60.059,-4.883,0
1486223470.713,-14.648,31.738,27.344,74.707,115.234,0
1486223470.717,3.418,31.738,42.480,71.289,155.762,0
1486223470.721,78.125,31.738,48.340,62.012,0.977,0
1486223470.725,99.609,30.762,40.527,69.336,-60.059,0
1486223470.729,43.457,26.855,36.133,64.941,-37.109,0
1486223470.733,-13.184,29.297,34.180,81.055,73.730,0
1486223470.737,-0.488,31.738,33.203,79.590,157.715,0
1486223470.741,69.824,29.297,33.691,57.129,10.742,0
1486223470.745,100.098,25.391,32.715,62.012,-72.266,0
1486223470.748,58.105,37.109,42.480,69.824,-29.785,0
1486223470.752,-6.836,31.250,40.527,84.961,92.773,0
1486223470.756,-3.906,25.391,37.109,78.613,187.012,0
1486223470.760,64.453,30.762,48.828,56.641,58.594,0
1486223470.764,97.656,27.832,50.293,65.918,-17.090,0
1486223470.768,61.035,32.227,32.715,61.035,-6.836,0
1486223470.772,-6.348,34.180,15.137,64.941,60.547,0
1486223470.776,-16.113,28.320,29.297,71.289,191.895,0
1486223470.780,46.387,24.414,39.551,40.527,129.883,0
1486223470.784,91.309,27.832,36.133,49.316,9.277,0
1486223470.788,58.105,25.391,30.762,57.617,-26.855,0
1486223470.791,4.395,36.133,48.828,73.730,48.828,0
1486223470.795,-4.883,41.016,62.500,90.332,187.500,0
1486223470.799,45.410,28.320,42.969,53.711,153.320,0
1486223470.803,89.355,24.414,36.621,51.270,21.484,0
1486223470.807,66.406,27.832,36.621,59.082,4.395,0
1486223470.811,-0.977,31.250,26.855,58.105,73.242,0
1486223470.815,-33.203,29.297,19.531,65.918,176.270,0
1486223470.819,31.250,29.297,38.086,54.688,134.277,0
1486223470.823,84.473,25.391,43.945,46.875,-12.207,0
1486223470.827,69.824,20.508,38.574,55.176,-63.965,0
1486223470.831,18.555,29.785,47.363,71.777,1.953,0
1486223470.834,-25.391,32.715,48.828,83.008,151.855,0
1486223470.838,14.648,25.879,41.504,61.035,143.066,0
1486223470.842,78.613,21.973,31.250,47.852,-16.113,0
1486223470.846,78.125,22.461,39.062,57.129,-59.082,0
1486223470.850,20.996,27.832,41.992,53.223,3.418,0
1486223470.854,-23.438,34.180,31.250,60.059,119.141,0
1486223470.858,11.719,32.715,32.227,52.734,157.227,0
1486223470.862,83.496,32.227,32.715,50.293,23.438,0
1486223470.866,88.867,29.297,33.691,59.082,-35.645,0
1486223470.870,33.203,35.156,47.852,60.547,-4.883,0
1486223470.873,-19.531,30.273,53.223,72.266,106.934,0
1486223470.877,-6.348,19.043,35.156,55.664,181.641,0
1486223470.881,63.477,23.926,25.879,38.086,19.043,0
1486223470.885,95.215,29.297,36.133,51.270,-83.984,0
1486223470.889,41.016,26.855,39.062,55.176,-25.879,0
1486223470.893,-23.926,24.902,28.809,61.035,93.262,0
1486223470.897,-4.395,32.227,24.414,61.035,145.020,0
1486223470.901,80.078,39.062,37.598,55.664,19.531,0
1486223470.905,104.492,33.691,40.039,57.129,-21.484,0
1486223470.909,48.828,24.902,41.504,59.082,24.414,0
1486223470.913,-12.207,26.855,48.828,71.289,96.680,0
1486223470.916,-11.230,28.320,42.480,69.824,177.734,0
1486223470.920,58.105,23.926,28.809,50.781,76.172,0
1486223470.924,96.680,22.461,26.367,51.270,-13.184,0
1486223470.928,52.734,28.809,37.598,60.059,-33.691,0
1486223470.932,-9.766,33.691,38.574,73.242,35.645,0
1486223470.936,-19.043,23.438,31.738,65.430,161.621,0
1486223470.940,58.594,24.902,33.691,47.363,50.293,0
1486223470.944,108.887,28.320,36.621,59.082,-60.059,0
1486223470.948,83.984,32.715,44.922,68.848,-44.922,0
1486223470.952,18.066,32.715,49.805,74.219,8.789,0
1486223470.955,-12.695,25.391,34.668,74.219,144.531,0
1486223470.959,45.898,26.367,31.738,55.176,62.012,0
1486223470.963,98.633,27.832,37.598,55.176,-56.641,0
1486223470.967,77.148,28.809,33.203,62.500,-71.289,0
1486223470.971,7.324,28.809,38.086,63.965,2.930,0
1486223470.975,-19.531,30.273,46.875,72.266,197.266,0
1486223470.979,41.504,26.367,42.480,56.152,103.516,0
1486223470.983,96.680,28.320,37.109,51.758,-45.898,0
1486223470.987,72.754,26.855,41.504,68.848,-54.688,0
1486223470.991,9.766,22.461,31.738,67.871,12.695,0
1486223470.995,-22.461,32.227,37.109,71.289,200.195,0
1486223470.998,27.344,33.203,40.039,62.500,168.945,0
1486223471.002,96.680,31.250,29.785,52.734,-35.645,0
1486223471.006,89.355,32.715,32.715,53.711,-55.664,0
1486223471.010,26.855,32.227,41.016,57.129,4.883,0
1486223471.014,-16.602,37.598,48.828,71.289,152.344,2
1486223471.018,11.230,31.738,40.039,57.129,182.129,0
1486223471.022,76.660,27.344,38.086,49.805,9.277,0
1486223471.026,88.379,30.762,37.598,59.570,-51.270,0
1486223471.030,37.598,29.785,32.227,58.105,-40.527,0
1486223471.034,-20.508,28.809,30.762,57.617,119.141,0
1486223471.038,7.812,31.250,28.809,53.223,182.617,0
1486223471.041,84.961,28.809,29.785,42.969,-6.836,0
1486223471.045,99.609,34.180,34.668,53.223,-87.402,0
1486223471.049,46.875,35.645,41.016,61.035,-38.086,0
1486223471.053,-16.602,24.414,46.875,67.871,100.586,0
1486223471.057,-9.277,28.320,48.340,59.082,167.969,0
1486223471.061,61.035,27.344,41.016,43.457,27.344,0
1486223471.065,87.891,23.438,43.457,52.734,-41.504,0
1486223471.069,36.621,21.484,33.203,49.316,-30.762,0
1486223471.073,-13.672,23.438,32.715,64.941,74.707,0
1486223471.077,-12.695,24.414,41.992,66.406,145.020,0
1486223471.080,55.664,22.461,34.668,47.852,1.953,0
1486223471.084,96.680,22.461,26.855,57.129,-71.777,0
1486223471.088,51.758,23.438,41.504,59.570,-49.805,0
1486223471.092,-12.207,28.320,52.246,67.383,44.434,0
1486223471.096,-18.066,29.297,41.016,70.801,179.688,0
1486223471.100,51.758,23.926,44.922,50.293,72.754,0
1486223471.104,100.098,28.320,51.270,53.711,-73.242,0
1486223471.108,61.523,33.203,35.156,58.105,-36.621,0
1486223471.112,-3.906,24.414,26.855,68.848,53.223,0
1486223471.116,-16.602,18.066,36.621,78.125,181.152,0
1486223471.120,47.852,24.902,35.645,59.082,102.051,0
1486223471.123,103.516,26.855,33.691,59.082,-66.895,0
1486223471.127,76.660,26.367,39.062,63.477,-51.758,0
1486223471.131,6.348,28.320,41.992,66.895,72.266,0
1486223471.135,-16.602,32.227,46.875,80.078,221.680,0
1486223471.139,35.645,30.273,34.668,53.711,131.836,0
1486223471.143,92.285,33.203,33.691,46.875,-24.414,0
1486223471.147,81.543,36.133,47.852,60.059,-59.570,0
1486223471.151,16.113,33.691,38.086,65.430,6.836,0
1486223471.155,-23.926,25.391,32.227,67.871,156.738,0
1486223471.159,26.855,30.762,41.016,56.152,134.277,0
1486223471.162,92.773,28.809,43.945,56.152,-29.297,0
1486223471.166,82.031,16.602,40.039,56.152,-80.078,0
1486223471.170,24.902,26.855,34.668,59.570,-16.113,0
1486223471.174,-14.160,29.785,34.180,76.660,130.371,0
1486223471.178,21.484,26.367,32.227,67.383,156.738,0
1486223471.182,88.379,28.320,33.203,54.688,8.301,0
1486223471.186,105.957,29.297,50.781,65.918,-64.941,0
1486223471.190,47.852,28.809,45.898,68.848,-30.273,0
1486223471.194,-19.043,23.926,41.016,66.895,102.051,0
1486223471.198,-1.465,19.043,44.922,58.105,127.441,0
1486223471.202,75.195,21.973,40.527,50.293,-26.855,0
1486223471.205,95.215,31.250,48.828,64.453,-63.477,0
1486223471.209,37.598,31.250,48.828,72.266,-15.625,0
1486223471.213,-22.461,33.691,35.645,78.613,102.539,0
1486223471.217,-1.953,38.574,48.340,70.801,149.902,0
1486223471.221,71.777,25.879,48.340,52.734,19.531,0
1486223471.225,88.867,26.855,31.250,54.688,-43.457,0
1486223471.229,41.016,36.621,34.180,55.176,-49.805,0
1486223471.233,-13.184,25.391,32.715,65.918,66.895,0
1486223471.237,-5.371,24.414,40.039,69.824,159.668,0
1486223471.241,63.477,29.297,43.457,53.711,25.879,0
1486223471.245,92.285,24.902,30.273,55.664,-29.297,0
1486223471.248,63.477,34.668,38.574,66.895,3.906,0
1486223471.252,3.906,33.203,43.945,79.102,87.891,0
1486223471.256,-9.766,27.344,37.109,73.242,164.551,0
1486223471.260,57.617,28.809,36.133,45.410,9.766,0
1486223471.264,102.539,29.297,44.434,57.617,-104.492,0
1486223471.268,65.918,26.855,42.480,62.500,-63.477,0
1486223471.272,-8.301,23.438,22.949,61.523,5.859,0
1486223471.276,-18.066,30.273,25.391,68.359,105.469,0
1486223471.280,45.410,27.344,40.039,41.992,63.965,0
1486223471.284,94.727,28.809,39.551,44.922,-40.039,0
1486223471.287,72.754,34.180,32.227,55.664,-60.547,0
1486223471.291,2.930,30.273,29.785,65.430,26.367,0
1486223471.295,-17.090,37.109,44.434,78.613,134.277,0
1486223471.299,44.434,30.273,56.641,61.523,69.824,0
1486223471.303,92.285,21.973,47.363,51.758,-69.824,0
1486223471.307,75.195,24.902,29.297,56.152,-72.754,0
1486223471.311,15.625,26.855,27.832,65.918,21.973,0
1486223471.315,-16.602,31.250,37.109,78.125,140.137,0
1486223471.319,30.762,26.855,50.781,55.176,91.797,0
1486223471.323,91.797,28.320,42.480,44.434,-37.109,0
1486223471.327,86.426,30.762,22.461,55.664,-57.617,0
1486223471.330,22.461,29.785,27.344,59.570,4.395,0
1486223471.334,-31.250,29.785,40.039,65.918,174.316,0
1486223471.338,14.160,36.133,54.688,58.594,155.273,0
1486223471.342,91.797,31.738,51.270,49.316,0.000,0
1486223471.346,84.473,21.973,29.785,45.898,-38.086,0
1486223471.350,34.180,29.297,35.645,56.152,-9.766,0
1486223471.354,-9.277,27.832,32.227,73.242,112.793,0
1486223471.358,12.695,23.438,22.949,56.152,132.324,0
1486223471.362,85.938,30.762,31.250,47.852,6.348,0
1486223471.366,91.309,26.855,36.133,55.664,-52.246,0
1486223471.370,36.133,27.832,28.809,58.105,-32.715,0
1486223471.373,-8.301,35.645,30.762,73.242,102.539,0
1486223471.377,10.254,29.785,46.387,72.266,191.406,0
1486223471.381,70.801,20.020,43.457,55.176,61.035,0
1486223471.385,90.820,22.461,34.180,54.199,-5.859,0
1486223471.389,47.852,26.855,32.227,60.059,6.348,0
1486223471.393,-15.625,29.297,28.809,72.266,105.469,0
1486223471.397,-8.301,32.227,26.855,68.359,174.805,0
1486223471.401,68.359,36.621,37.598,52.246,26.367,0
1486223471.405,96.680,32.227,47.852,47.852,-31.738,0
1486223471.409,54.199,27.832,38.086,49.805,-20.508,0
1486223471.412,-13.184,22.461,28.809,57.617,52.734,0
1486223471.416,-24.902,21.973,23.926,54.688,156.738,0
1486223471.420,53.223,41.992,39.062,47.363,59.082,0
1486223471.424,99.609,40.039,49.316,59.570,-14.648,0
1486223471.428,56.152,24.902,40.527,65.918,-3.906,0
1486223471.432,-11.230,22.949,31.250,62.500,67.383,0
1486223471.436,-20.508,23.438,38.086,64.453,175.293,0
1486223471.440,37.109,28.320,30.273,44.434,88.379,0
1486223471.444,92.773,29.297,16.113,49.316,-31.250,0
1486223471.448,73.242,27.832,39.551,65.430,4.883,0
1486223471.452,-2.930,27.344,46.875,64.941,75.684,0
1486223471.455,-25.879,27.832,34.180,68.359,193.848,0
1486223471.459,39.062,33.203,35.645,51.758,128.418,0
1486223471.463,104.004,33.203,44.922,52.734,-33.203,0
1486223471.467,85.938,27.832,44.434,64.941,-17.090,0
1486223471.471,7.812,24.414,37.598,67.871,95.703,0
1486223471.475,-25.391,22.949,33.691,76.172,222.656,0
1486223471.479,31.738,25.879,37.598,63.965,133.301,0
1486223471.483,97.656,24.902,38.574,61.035,-1.953,0
1486223471.487,85.449,26.855,35.645,62.012,12.207,0
1486223471.491,23.926,29.785,38.086,63.477,24.902,0
1486223471.494,-9.766,28.320,49.316,75.684,161.621,0
1486223471.498,21.973,27.344,45.898,57.617,170.898,0
1486223471.502,85.938,28.320,32.227,48.828,-10.254,0
1486223471.506,95.215,30.273,38.574,60.547,-18.066,0
1486223471.510,33.691,24.902,50.781,65.918,0.000,0
1486223471.514,-23.926,20.020,44.922,70.312,98.633,0
1486223471.518,1.953,20.020,33.203,54.688,154.785,0
1486223471.522,78.613,20.020,30.762,49.316,23.926,0
1486223471.526,92.773,19.531,32.227,58.105,-38.086,0
1486223471.530,35.645,24.902,33.691,56.152,-47.852,0
1486223471.534,-12.207,31.738,39.551,68.359,66.895,0
1486223471.537,8.301,29.785,42.480,65.430,173.340,0
1486223471.541,68.359,23.926,34.180,49.805,37.109,0
1486223471.545,84.473,23.438,30.273,47.363,-58.105,0
1486223471.549,36.133,28.809,32.227,49.805,-14.648,0
1486223471.553,-23.438,35.645,36.621,63.477,121.094,0
1486223471.557,-10.254,28.809,37.598,58.594,203.613,0
1486223471.561,62.012,20.020,38.574,48.828,47.852,0
1486223471.565,92.773,26.367,45.898,60.059,-20.996,0
1486223471.569,41.504,26.855,36.621,57.129,-8.789,0
1486223471.573,-19.531,25.391,34.180,71.289,60.059,0
1486223471.577,-9.766,29.785,38.574,74.219,160.156,0
1486223471.580,52.246,23.926,33.691,45.898,35.156,0
1486223471.584,92.773,21.973,45.410,51.270,-68.359,0
1486223471.588,66.406,39.062,53.223,64.941,-42.969,0
1486223471.592,-1.953,37.598,46.387,77.637,41.504,0
1486223471.596,-13.672,25.879,40.527,79.102,175.781,0
1486223471.600,53.711,25.879,34.180,52.734,61.523,0
1486223471.604,97.168,26.855,35.645,58.594,-96.191,0
1486223471.608,70.801,27.344,33.203,63.477,-83.984,0
1486223471.612,7.812,28.809,35.645,66.406,14.648,0
1486223471.616,-18.066,33.691,44.922,74.219,149.414,0
1486223471.619,41.992,33.691,38.086,54.199,73.730,0
1486223471.623,106.445,29.785,47.363,60.059,-60.059,0
1486223471.627,76.660,22.461,41.992,60.059,-60.059,0
1486223471.631,-0.488,24.902,32.227,60.547,0.000,0
1486223471.635,-23.438,30.273,38.574,69.336,131.836,0
1486223471.639,33.203,24.414,41.016,52.734,96.680,0
1486223471.643,95.703,27.832,48.828,58.105,-32.227,0
1486223471.647,83.984,23.926,50.781,67.383,-37.598,0
1486223471.651,8.789,14.160,34.668,65.430,-22.461,0
1486223471.655,-32.227,19.531,28.320,74.219,116.211,0
1486223471.659,19.531,24.414,41.992,58.105,122.070,0
1486223471.662,83.496,20.996,39.551,46.875,-57.617,0
1486223471.666,81.055,21.973,37.598,58.105,-71.777,0
1486223471.670,13.184,27.344,43.457,63.477,-29.297,0
1486223471.674,-28.809,33.203,46.875,77.148,102.051,2
1486223471.678,11.230,25.879,36.133,67.383,162.598,0
1486223471.682,70.801,19.043,27.344,44.434,8.301,0
1486223471.686,96.191,34.668,43.945,60.059,-41.992,0
1486223471.690,48.828,34.668,54.199,65.430,-11.230,0
1486223471.694,-26.855,24.902,38.574,61.523,118.652,0
1486223471.698,-9.277,23.438,32.227,55.176,187.012,0
1486223471.702,64.453,23.438,32.715,45.898,29.785,0
1486223471.705,90.820,36.621,38.086,61.523,-34.668,0
1486223471.709,43.457,33.691,45.898,64.941,-65.430,0
1486223471.713,-23.926,28.320,39.062,72.266,36.133,0
1486223471.717,-8.301,30.273,43.457,67.383,164.062,0
1486223471.721,66.895,24.902,43.945,50.293,11.719,0
1486223471.725,99.609,31.250,30.273,69.824,-110.840,0
1486223471.729,62.012,32.715,39.551,68.359,-85.938,0
1486223471.733,-6.348,27.832,39.062,70.312,38.086,0
1486223471.737,-8.789,28.320,30.762,71.777,140.625,0
1486223471.741,64.453,29.785,35.645,54.688,-6.836,0
1486223471.744,102.539,41.992,45.898,69.824,-73.730,0
1486223471.748,62.988,40.039,41.504,66.895,-12.207,0
1486223471.752,-6.348,21.484,28.320,60.547,67.871,0
1486223471.756,-14.160,28.809,26.855,62.012,189.941,0
1486223471.760,50.293,38.086,29.785,40.039,58.594,0
1486223471.764,99.121,32.227,38.086,51.758,-83.008,0
1486223471.768,74.219,34.180,36.133,54.688,-51.270,0
1486223471.772,10.254,39.551,36.133,47.852,57.617,0
1486223471.776,-14.160,36.133,34.668,67.871,159.668,0
1486223471.780,32.227,28.320,27.344,44.434,62.988,0
1486223471.784,89.844,23.926,28.320,40.527,-46.875,0
1486223471.787,77.148,29.785,27.832,63.965,-68.359,0
1486223471.791,9.277,31.250,43.457,68.359,12.695,0
1486223471.795,-20.508,29.785,46.387,73.730,152.344,0
1486223471.799,41.016,35.156,28.320,59.082,103.516,0
1486223471.803,101.074,37.109,27.344,57.129,-13.184,0
1486223471.807,91.309,30.273,34.668,72.754,-46.387,0
1486223471.811,30.762,28.809,38.574,76.172,8.301,0
1486223471.815,-12.207,25.391,36.621,84.961,173.828,0
1486223471.819,27.344,24.902,37.109,65.430,147.949,0
1486223471.823,95.703,29.785,37.109,56.641,-52.246,0
1486223471.826,92.285,30.762,38.574,67.383,-63.477,0
1486223471.830,27.344,28.809,38.574,64.453,23.438,0
1486223471.834,-18.555,28.320,26.367,70.312,134.766,0
1486223471.838,19.043,31.738,23.926,56.641,156.250,0
1486223471.842,84.961,26.367,34.668,45.898,32.715,0
1486223471.846,99.609,30.762,39.551,60.059,-49.316,0
1486223471.850,36.133,32.715,35.156,60.059,3.906,0
1486223471.854,-24.902,24.414,30.273,62.988,151.367,0
1486223471.858,9.277,29.785,28.809,57.617,184.570,0
1486223471.862,78.125,29.785,34.668,47.363,31.250,0
1486223471.866,97.656,31.250,42.969,53.223,-46.875,0
1486223471.869,51.758,36.621,45.898,50.293,-27.832,0
1486223471.873,-12.695,29.785,23.926,57.617,122.070,0
1486223471.877,6.836,26.855,20.996,61.035,198.730,0
1486223471.881,75.195,24.414,28.809,45.410,8.789,0
1486223471.885,104.004,31.250,34.180,58.594,-83.008,0
1486223471.889,54.688,28.809,46.387,69.824,-39.551,0
1486223471.893,-17.090,20.020,41.992,75.195,99.609,0
1486223471.897,-9.277,27.832,42.969,69.824,204.590,0
1486223471.901,54.199,30.273,47.852,55.664,74.219,0
1486223471.905,83.984,24.902,40.039,59.082,-32.715,0
1486223471.909,54.199,28.809,37.109,57.129,-27.832,0
1486223471.912,-0.977,36.621,47.852,76.660,92.285,0
1486223471.916,-17.578,25.391,40.039,77.637,203.125,0
1486223471.920,44.434,20.508,35.156,51.758,64.941,0
1486223471.924,91.309,26.367,31.250,60.547,-26.367,0
1486223471.928,61.523,32.227,30.762,65.430,-7.812,0
1486223471.932,-2.930,25.879,46.387,66.406,53.223,0
1486223471.936,-9.277,32.715,48.828,71.777,175.293,0
1486223471.940,49.805,35.645,44.434,53.711,104.980,0
1486223471.944,93.750,22.949,34.668,49.316,-4.883,0
1486223471.948,66.895,22.461,30.273,54.199,-37.109,0
1486223471.951,3.418,27.832,40.527,63.477,40.527,0
1486223471.955,-8.789,35.645,50.293,75.195,179.199,0
1486223471.959,35.156,29.785,45.410,49.316,116.699,0
1486223471.963,87.402,23.438,33.691,36.133,-6.348,0
1486223471.967,78.125,31.250,29.297,48.828,-31.250,0
1486223471.971,10.254,33.691,41.504,59.570,22.949,0
1486223471.975,-21.484,27.344,44.922,71.289,151.855,0
1486223471.979,26.367,23.438,35.156,60.059,135.254,0
1486223471.983,91.797,27.344,29.785,56.641,1.465,0
1486223471.987,85.449,30.762,35.645,66.406,-17.578,0
1486223471.991,19.531,28.320,35.645,64.453,-15.137,0
1486223471.994,-18.555,36.133,38.574,76.172,113.770,0
1486223471.998,23.438,37.598,44.922,68.848,188.965,0
1486223472.002,93.750,26.855,41.992,61.035,49.316,0
1486223472.006,95.215,26.367,46.875,75.195,-40.527,0
1486223472.010,32.227,30.762,34.180,75.195,-26.855,0
1486223472.014,-13.672,28.320,27.344,79.590,132.324,0
1486223472.018,15.625,20.996,39.551,74.707,169.434,0
1486223472.022,76.172,20.020,36.133,60.547,14.648,0
1486223472.026,91.309,23.438,34.180,62.988,-38.574,0
1486223472.030,44.922,26.367,39.551,72.754,-49.805,0
1486223472.034,-6.348,35.156,49.316,89.355,81.543,0
1486223472.037,6.836,32.227,46.387,73.242,163.574,0
1486223472.041,74.219,23.438,45.898,59.570,-6.348,0
1486223472.045,95.215,23.926,40.527,64.941,-78.125,0
1486223472.049,45.898,29.785,32.227,62.012,-41.992,0
1486223472.053,-16.113,27.832,26.367,70.312,76.660,0
1486223472.057,-8.301,19.043,22.949,68.848,179.688,0
1486223472.061,62.988,24.902,30.762,48.828,29.785,0
1486223472.065,94.238,31.250,37.109,53.711,-74.707,0
1486223472.069,52.734,31.738,36.133,55.664,-60.059,0
1486223472.073,-9.766,31.250,33.203,57.617,51.758,0
1486223472.076,-16.602,25.879,33.691,56.641,161.133,0
1486223472.080,58.594,27.344,29.785,46.387,45.898,0
1486223472.084,92.773,27.832,36.133,53.223,-42.969,0
1486223472.088,53.223,29.785,39.551,57.617,-34.668,0
1486223472.092,-3.906,31.250,44.922,68.848,34.180,0
1486223472.096,-21.973,29.297,47.363,68.848,178.711,0
1486223472.100,39.551,33.203,37.598,44.922,117.676,0
1486223472.104,93.262,31.738,34.180,51.758,-6.836,0
1486223472.108,76.172,30.273,40.039,63.965,-30.273,0
1486223472.112,9.766,38.086,37.598,71.289,47.363,0
1486223472.116,-13.184,37.109,39.062,77.637,189.453,0
1486223472.119,40.039,23.438,41.504,55.664,127.441,0
1486223472.123,87.891,20.996,37.109,53.223,-11.719,0
1486223472.127,80.078,27.344,39.062,64.453,-5.371,0
1486223472.131,22.949,32.715,47.852,74.707,39.062,0
1486223472.135,-22.949,22.949,46.387,80.566,133.301,0
1486223472.139,15.137,17.578,34.668,54.688,126.953,0
1486223472.143,86.914,23.926,34.180,52.246,-14.160,0
1486223472.147,91.309,28.809,42.969,67.871,-72.266,0
1486223472.151,21.973,29.297,45.410,67.383,-17.578,0
1486223472.155,-31.250,21.484,47.852,78.613,125.977,0
1486223472.158,10.742,21.484,43.457,70.312,121.582,0
1486223472.162,78.125,22.949,36.133,55.176,-4.883,0
1486223472.166,90.332,26.367,45.898,65.430,-27.832,0
1486223472.170,38.574,33.203,47.852,76.172,25.391,0
1486223472.174,-14.160,24.414,37.109,80.566,154.785,0
1486223472.178,11.719,28.320,36.133,68.848,194.824,0
1486223472.182,79.102,32.715,51.270,56.641,43.457,0
1486223472.186,96.191,30.273,49.316,68.359,-24.414,0
1486223472.190,43.945,33.691,37.598,72.754,-27.344,0
1486223472.194,-17.578,25.879,36.133,68.848,82.520,0
1486223472.198,3.418,26.367,41.016,65.430,155.273,0
1486223472.201,74.707,31.738,39.551,55.664,30.273,0
1486223472.205,92.285,32.227,39.551,57.129,-51.758,0
1486223472.209,55.664,34.180,42.969,67.383,-21.484,0
1486223472.213,-11.230,30.762,40.527,73.242,116.699,0
1486223472.217,-2.930,31.250,42.480,66.895,150.391,0
1486223472.221,69.336,31.250,36.621,57.129,-41.992,0
1486223472.225,92.773,22.461,23.926,59.570,-53.223,0
1486223472.229,55.664,29.297,27.832,64.941,-10.742,1
1486223472.233,-0.488,31.738,46.387,80.566,57.129,0
1486223472.237,-3.418,24.414,44.434,76.172,185.547,0
1486223472.241,59.570,25.391,27.832,53.223,76.660,0
1486223472.244,102.539,25.391,31.738,62.988,-15.625,0
1486223472.248,64.453,27.344,30.273,59.082,-23.438,0
1486223472.252,0.000,30.762,35.645,62.012,47.363,0
1486223472.256,-3.906,34.668,44.434,71.777,160.645,0
1486223472.260,54.688,32.227,42.480,51.758,69.336,0
1486223472.264,92.285,29.297,32.715,52.246,-16.602,0
1486223472.268,67.383,29.297,30.273,60.547,-3.906,0
1486223472.272,4.395,28.320,35.645,66.895,61.035,0
1486223472.276,-13.672,29.297,42.480,76.660,165.039,0
1486223472.280,40.527,24.414,37.598,58.105,80.566,0
1486223472.283,91.309,24.902,32.715,59.570,-48.340,0
1486223472.287,82.520,31.738,39.062,68.848,-62.012,0
1486223472.291,16.113,25.391,36.621,60.059,9.277,0
1486223472.295,-23.438,20.996,37.109,68.359,169.434,0
1486223472.299,23.926,24.902,37.109,55.664,120.117,0
1486223472.303,85.449,24.902,47.852,53.223,-67.871,0
1486223472.307,82.031,29.297,43.457,62.988,-76.660,0
1486223472.311,20.996,31.250,34.180,63.965,16.602,0
1486223472.315,-23.926,28.320,38.574,76.660,137.695,0
1486223472.319,18.066,23.438,38.574,56.641,115.723,0
1486223472.323,83.984,22.461,29.785,41.992,-16.113,0
1486223472.326,84.473,27.344,33.691,61.523,-61.035,0
1486223472.330,23.926,23.926,42.969,63.965,-30.273,0
1486223472.334,-30.273,26.367,35.156,63.477,101.562,0
1486223472.338,1.953,31.250,41.992,57.129,137.695,0
1486223472.342,74.219,23.438,35.156,50.293,-17.090,0
1486223472.346,81.543,27.832,25.391,56.152,-64.453,0
1486223472.350,20.020,27.832,30.762,54.199,12.695,0
1486223472.354,-31.250,17.090,36.621,68.848,144.043,0
1486223472.358,-8.301,21.484,32.227,62.012,170.410,0
1486223472.362,63.477,24.414,38.574,46.875,27.832,0
1486223472.365,92.773,28.809,44.434,57.129,-17.578,0
1486223472.369,39.062,30.273,34.180,51.758,6.836,0
1486223472.373,-18.555,27.832,43.945,72.754,123.535,0
1486223472.377,2.930,30.273,54.688,81.055,202.637,0
1486223472.381,70.801,31.738,46.387,49.805,53.223,0
1486223472.385,88.867,27.832,35.156,44.922,-32.715,0
1486223472.389,43.945,24.902,25.879,46.875,-17.578,0
1486223472.393,-7.812,23.926,21.973,60.059,109.863,0
1486223472.397,-11.230,25.391,25.391,64.941,208.984,0
1486223472.401,45.410,22.949,27.344,41.504,52.734,0
1486223472.405,95.703,31.738,34.180,57.617,-56.152,0
1486223472.408,61.523,31.738,40.039,66.895,-21.484,0
1486223472.412,-9.766,20.508,38.574,61.523,83.496,0
1486223472.416,-11.719,26.855,47.363,75.684,163.574,0
1486223472.420,53.711,27.832,46.387,59.082,68.359,0
1486223472.424,100.098,24.902,28.809,48.828,-38.574,0
1486223472.428,77.148,32.227,37.109,55.176,-54.199,0
1486223472.432,12.207,27.344,57.129,65.430,50.781,0
1486223472.436,-15.137,26.367,39.062,77.148,188.965,0
1486223472.440,41.504,27.832,26.855,56.641,99.121,0
1486223472.444,100.586,24.414,39.062,58.594,-27.832,0
1486223472.448,82.031,29.785,40.039,63.965,-23.926,0
1486223472.451,21.484,34.180,39.551,69.336,30.273,0
1486223472.455,1.465,34.668,48.340,91.797,157.227,0
1486223472.459,41.992,30.273,34.668,62.012,90.820,0
1486223472.463,103.516,29.785,33.203,58.105,-43.457,0
1486223472.467,91.309,27.832,50.781,75.684,-25.391,0
1486223472.471,24.902,32.227,49.805,79.102,17.090,0
1486223472.475,-9.277,30.762,46.875,85.449,136.230,0
1486223472.479,30.762,22.949,34.668,57.617,111.328,0
1486223472.483,91.797,28.320,24.414,54.199,-38.086,0
1486223472.487,85.938,32.227,29.297,69.336,-43.457,0
1486223472.490,33.691,40.527,36.133,71.777,-8.301,0
1486223472.494,-7.324,35.156,40.039,80.566,101.074,0
1486223472.498,15.137,21.484,36.133,59.570,105.957,0
1486223472.502,84.961,26.367,38.574,52.246,-42.480,0
1486223472.506,105.957,34.668,47.852,71.777,-80.078,0
1486223472.510,42.969,29.785,37.598,69.824,-18.555,0
1486223472.514,-10.254,27.344,42.480,74.707,125.488,0
1486223472.518,13.184,27.344,36.133,63.965,205.078,0
1486223472.522,87.402,32.715,36.133,53.711,52.734,0
1486223472.526,105.957,30.762,44.434,59.570,-48.828,0
1486223472.530,49.316,22.949,20.508,50.781,-29.785,0
1486223472.533,-13.184,29.297,31.738,69.336,114.746,0
1486223472.537,5.859,36.621,49.805,71.777,192.871,0
1486223472.541,72.754,29.297,33.691,43.945,66.406,0
1486223472.545,102.051,26.855,32.715,49.805,-20.020,0
1486223472.549,66.406,34.180,52.734,66.895,-19.043,0
1486223472.553,-4.395,31.250,50.293,77.637,89.844,0
1486223472.557,1.465,25.391,41.504,64.941,153.320,0
1486223472.561,76.172,30.762,45.410,46.387,24.902,0
1486223472.565,106.445,29.785,37.598,56.152,-30.762,0
1486223472.569,69.824,24.414,33.691,57.617,-32.227,0
1486223472.573,3.906,25.391,41.504,67.383,49.316,0
1486223472.576,-18.555,23.438,38.086,65.918,175.781,0
1486223472.580,44.434,22.949,33.691,40.039,39.551,0
1486223472.584,84.473,29.785,42.480,56.641,-80.078,0
1486223472.588,55.176,33.203,50.293,67.871,-32.227,0
1486223472.592,-9.766,26.855,47.852,71.777,43.945,0
1486223472.596,-32.227,27.344,46.387,79.102,140.137,0
1486223472.600,32.715,19.531,37.109,54.199,77.148,0
1486223472.604,86.914,20.020,34.668,53.223,-42.480,0
1486223472.608,70.312,30.762,53.223,60.547,-43.945,0
1486223472.612,-1.953,24.902,48.340,59.570,41.504,0
1486223472.615,-40.527,19.043,27.832,62.988,161.133,0
1486223472.619,16.113,21.973,29.297,46.387,102.539,0
1486223472.623,78.125,26.367,34.180,49.316,-48.340,0
1486223472.627,66.406,26.855,41.504,64.453,-65.430,0
1486223472.631,11.230,31.738,48.828,75.195,16.113,0
1486223472.635,-29.785,26.367,42.480,75.195,136.719,0
1486223472.639,7.812,15.137,35.156,42.480,122.559,0
1486223472.643,78.125,19.531,36.133,41.504,-21.484,0
1486223472.647,82.520,30.273,41.504,58.594,-52.734,0
1486223472.651,31.250,36.133,50.781,70.801,-22.461,0
1486223472.655,-15.625,32.227,49.316,83.984,108.887,0
1486223472.658,10.742,31.738,41.016,57.129,117.188,0
1486223472.662,83.496,24.414,40.527,49.805,-26.367,0
1486223472.666,94.727,26.367,34.668,59.082,-74.219,0
1486223472.670,29.785,30.273,34.668,49.316,-49.316,0
1486223472.674,-21.973,22.461,44.922,69.824,108.398,0
1486223472.678,7.324,23.926,44.922,66.895,156.250,0
1486223472.682,77.148,26.367,36.133,43.457,-34.668,0
1486223472.686,90.332,29.785,35.645,56.152,-87.402,0
1486223472.690,39.551,31.738,40.039,63.965,-47.852,0
1486223472.694,-6.836,31.738,43.945,73.242,25.879,0
1486223472.697,-2.441,30.273,37.109,59.570,95.215,0
1486223472.701,64.941,33.203,47.852,47.363,-23.926,0
1486223472.705,98.633,31.738,55.176,62.500,-52.734,0
1486223472.709,38.574,22.461,36.621,54.199,-5.371,0
1486223472.713,-19.043,25.879,32.715,58.594,92.773,0
1486223472.717,0.977,32.715,29.297,55.664,166.992,0
1486223472.721,72.266,29.297,31.250,45.410,27.832,0
1486223472.725,102.539,27.832,39.062,61.035,-77.148,0
1486223472.729,63.477,30.273,33.691,58.105,-56.641,0
1486223472.733,0.488,28.809,37.598,62.012,47.852,0
1486223472.737,-3.906,28.320,44.434,73.242,144.043,0
1486223472.740,60.547,27.344,41.504,58.594,50.293,0
1486223472.744,105.469,27.344,42.969,67.383,-53.223,0
1486223472.748,81.543,30.762,47.852,73.730,-41.016,2
1486223472.752,23.438,35.156,36.133,77.637,77.637,0
1486223472.756,2.930,28.809,30.273,84.961,210.449,0
1486223472.760,51.758,21.484,34.180,63.965,83.008,0
1486223472.764,99.121,25.391,34.180,64.941,-43.457,0
1486223472.768,76.660,27.344,34.668,70.801,-35.156,0
1486223472.772,8.789,26.367,31.250,74.219,21.973,0
1486223472.776,-16.113,29.297,35.156,79.102,166.992,0
1486223472.780,42.480,28.320,36.621,58.594,121.582,0
1486223472.783,95.215,23.438,38.086,55.176,-19.531,0
1486223472.787,79.102,23.926,41.504,69.336,-11.719,0
1486223472.791,19.043,28.809,32.715,74.219,31.738,0
1486223472.795,-24.902,28.809,22.949,70.801,149.902,0
1486223472.799,18.555,27.832,29.785,56.641,143.066,0
1486223472.803,86.426,26.855,47.363,60.547,-0.977,0
1486223472.807,75.195,22.461,42.480,62.988,-32.227,0
1486223472.811,8.789,22.461,32.227,52.246,-20.996,0
1486223472.815,-34.668,18.555,31.738,61.523,115.723,0
1486223472.819,2.930,20.996,29.785,48.340,145.020,0
1486223472.822,76.660,29.785,35.156,44.922,-26.367,0
1486223472.826,80.566,30.762,41.992,60.059,-33.691,0
1486223472.830,23.438,38.086,39.551,65.430,-2.441,0
1486223472.834,-19.531,42.480,33.691,77.637,95.703,0
1486223472.838,14.648,33.691,30.273,68.848,142.090,0
1486223472.842,86.914,28.320,49.805,62.012,-7.324,0
1486223472.846,91.797,22.461,53.223,62.500,-83.984,0
1486223472.850,33.203,21.973,25.391,59.570,-57.617,0
1486223472.854,-13.672,24.902,20.020,70.312,106.445,0
1486223472.858,5.371,23.438,32.715,62.012,181.641,0
1486223472.862,66.406,24.902,36.133,50.781,4.883,0
1486223472.865,93.750,29.297,31.738,59.570,-51.270,0
1486223472.869,45.410,34.668,36.133,54.688,-14.160,0
1486223472.873,-25.391,33.203,38.574,59.082,97.656,0
1486223472.877,-11.719,31.250,36.621,57.617,180.176,0
1486223472.881,48.340,27.832,40.039,33.691,10.742,0
1486223472.885,81.543,23.926,46.387,45.410,-67.871,0
1486223472.889,50.781,24.902,35.645,57.129,-16.113,0
1486223472.893,-16.602,35.156,35.156,66.406,46.875,0
1486223472.897,-15.625,26.855,35.645,69.336,133.789,0
1486223472.901,57.129,18.066,29.297,47.852,26.855,0
1486223472.905,92.285,27.832,40.527,61.523,-85.938,0
1486223472.908,63.477,27.832,40.039,69.824,-74.707,0
1486223472.912,4.883,28.809,34.180,83.008,36.621,0
1486223472.916,-9.277,28.809,31.738,86.914,189.453,0
1486223472.920,57.129,24.414,37.109,59.570,79.102,0
1486223472.924,112.305,27.832,60.059,69.824,-66.895,0
1486223472.928,78.613,25.879,52.734,72.754,-70.801,0
1486223472.932,2.930,28.809,24.902,65.918,31.250,0
1486223472.936,-18.555,28.320,24.902,70.312,155.762,0
1486223472.940,38.574,23.926,34.668,49.805,102.051,0
1486223472.944,98.145,28.320,48.340,54.199,-29.297,0
1486223472.947,85.938,40.039,44.922,62.988,-61.035,0
1486223472.951,12.207,32.715,32.227,54.688,13.184,0
1486223472.955,-17.090,21.973,39.062,70.801,140.625,0
1486223472.959,32.227,22.949,42.969,51.758,129.395,0
1486223472.963,89.355,24.414,41.992,44.434,6.836,0
1486223472.967,85.449,29.297,47.852,64.453,-26.367,0
1486223472.971,13.672,30.762,39.551,63.477,0.488,0
1486223472.975,-21.484,29.785,36.133,74.219,119.629,0
1486223472.979,19.531,20.996,41.016,62.012,112.793,0
1486223472.983,85.938,21.973,35.156,58.105,-13.672,0
1486223472.987,103.516,35.645,27.832,66.406,-41.016,0
1486223472.990,40.527,35.645,39.062,68.848,-18.066,0
1486223472.994,-19.531,29.297,45.410,81.055,100.098,0
1486223472.998,13.672,30.762,41.016,65.918,127.441,0
1486223473.002,89.844,29.785,38.086,50.293,4.883,0
1486223473.006,98.145,31.738,38.086,64.941,-59.082,0
1486223473.010,40.527,32.715,52.734,74.707,-54.688,0
1486223473.014,-11.230,31.250,50.293,80.566,80.078,0
1486223473.018,8.301,22.461,33.203,64.453,168.945,0
1486223473.022,74.707,21.973,26.855,50.293,6.348,0
1486223473.026,98.633,25.391,26.855,67.383,-50.781,0
1486223473.029,52.734,33.203,32.227,72.754,17.578,0
1486223473.033,-4.883,36.621,38.574,78.125,111.328,0
1486223473.037,10.742,29.785,42.969,71.289,202.148,0
1486223473.041,76.660,31.250,49.316,58.105,52.246,0
1486223473.045,103.516,32.227,47.852,62.988,-70.312,0
1486223473.049,57.129,28.809,38.574,59.570,-19.531,0
1486223473.053,-12.207,23.926,35.156,64.453,80.566,0
1486223473.057,-13.672,18.066,34.180,60.059,165.527,0
1486223473.061,60.547,17.090,28.320,45.898,59.570,0
1486223473.065,105.469,24.414,35.645,62.988,-20.996,0
1486223473.069,59.082,24.902,48.340,65.918,37.109,0
1486223473.072,-10.742,24.902,43.945,64.453,103.516,0
1486223473.076,-23.438,31.738,32.227,58.105,197.266,0
1486223473.080,42.969,34.180,37.109,41.992,124.512,0
1486223473.084,95.703,28.320,52.246,50.781,-13.184,0
1486223473.088,59.082,26.855,40.527,50.781,-28.809,0
1486223473.092,-7.324,23.926,29.297,54.199,67.871,0
1486223473.096,-32.715,17.090,34.180,60.547,195.312,0
1486223473.100,16.602,16.113,20.020,37.109,111.816,0
1486223473.104,79.102,23.438,21.973,43.457,-27.832,0
1486223473.108,64.941,25.391,34.668,54.688,-20.508,0
1486223473.112,5.371,27.344,37.109,53.223,45.898,0
1486223473.115,-14.160,34.180,51.758,73.242,176.270,0
1486223473.119,32.715,34.180,41.504,60.547,140.137,0
1486223473.123,84.473,26.855,28.320,50.781,-1.465,0
1486223473.127,78.125,24.902,32.715,59.570,-49.316,0
1486223473.131,15.625,26.855,30.762,62.500,12.695,0
1486223473.135,-20.020,27.344,36.133,77.637,158.691,0
1486223473.139,27.344,32.227,33.691,67.871,180.176,0
1486223473.143,90.332,30.273,40.039,48.340,40.039,0
1486223473.147,89.844,27.344,43.457,51.758,-33.691,0
1486223473.151,20.996,30.273,29.297,55.176,19.531,0
1486223473.154,-25.391,24.902,28.809,64.941,143.066,0
1486223473.158,11.719,26.367,39.062,61.035,187.012,0
1486223473.162,77.148,21.973,43.457,52.246,39.062,0
1486223473.166,89.355,24.902,32.715,60.547,-38.086,0
1486223473.170,28.320,28.809,22.949,58.594,-8.789,0
1486223473.174,-29.297,21.973,24.414,66.895,123.535,0
1486223473.178,3.906,25.391,39.551,61.035,169.922,0
1486223473.182,71.289,32.715,45.898,44.922,28.320,0
1486223473.186,85.938,26.855,45.410,59.082,-39.551,0
1486223473.190,38.086,26.367,44.922,57.129,-20.020,0
1486223473.194,-28.320,28.320,32.227,47.852,137.695,0
1486223473.197,-21.484,23.926,28.320,46.387,182.617,0
1486223473.201,50.293,26.367,48.828,46.387,20.020,0
1486223473.205,80.078,29.785,33.203,48.828,-39.551,0
1486223473.209,36.621,25.391,16.113,43.457,-21.973,0
1486223473.213,-22.461,27.832,36.621,58.105,46.387,0
1486223473.217,-30.762,33.203,35.156,53.223,146.973,0
1486223473.221,34.668,21.973,32.715,37.109,64.941,0
1486223473.225,83.984,18.555,37.109,47.852,-59.082,0
1486223473.229,48.828,22.461,33.203,50.293,-34.180,0
1486223473.233,-18.066,26.855,39.062,63.477,84.961,0
1486223473.237,-19.043,26.855,56.641,76.660,183.105,0
1486223473.240,41.504,24.414,43.457,51.758,85.938,0
1486223473.244,88.867,29.297,20.020,50.781,-41.504,0
1486223473.248,65.918,29.785,42.969,65.918,-33.203,0
1486223473.252,1.953,33.203,47.852,70.312,48.340,0
1486223473.256,-17.578,33.203,26.855,75.195,138.672,0
1486223473.260,38.086,21.973,36.133,55.664,55.176,0
1486223473.264,98.633,19.531,37.598,51.758,-59.570,0
1486223473.268,85.449,25.391,31.250,57.129,-49.316,0
1486223473.272,23.926,27.344,41.992,64.941,54.688,0
1486223473.276,-10.742,18.066,41.504,67.871,170.898,0
1486223473.279,36.133,21.973,28.809,61.035,129.883,0
1486223473.283,93.750,28.809,26.855,59.570,7.812,0
1486223473.287,87.402,25.391,34.668,65.430,-43.945,0
1486223473.291,31.738,29.785,52.734,76.660,4.395,0
1486223473.295,-17.090,32.715,45.410,72.754,151.855,0
1486223473.299,20.508,26.367,28.809,55.176,146.484,0
1486223473.303,83.496,21.484,32.227,54.688,-13.184,0
1486223473.307,84.961,21.973,25.391,62.988,-82.520,0
1486223473.311,28.809,22.949,33.691,63.477,-46.387,0
1486223473.315,-14.648,25.879,36.133,70.801,99.609,0
1486223473.319,20.020,26.855,35.645,65.430,128.418,0
1486223473.322,85.449,23.438,38.086,51.758,-32.227,0
1486223473.326,97.656,24.902,36.621,57.617,-117.676,0
1486223473.330,45.898,29.297,50.781,64.453,-75.195,1
1486223473.334,-13.184,28.320,50.781,73.242,111.328,0
1486223473.338,3.418,30.762,40.527,63.965,164.062,0
1486223473.342,83.984,30.762,42.480,56.641,-43.457,0
1486223473.346,106.445,25.879,41.992,70.801,-90.332,0
1486223473.350,49.805,25.391,38.086,68.848,-0.488,0
1486223473.354,-2.441,36.133,36.621,74.707,113.770,0
1486223473.358,3.418,26.855,40.039,62.500,139.160,0
1486223473.361,65.430,18.555,35.156,46.875,-33.203,0
1486223473.365,96.680,27.344,33.691,60.547,-102.051,0
1486223473.369,49.805,29.785,41.504,57.617,-62.988,0
1486223473.373,-6.836,34.180,41.992,67.871,60.547,0
1486223473.377,0.000,33.203,49.316,81.543,190.918,0
1486223473.381,57.129,26.855,50.293,56.152,34.668,0
1486223473.385,98.633,31.738,48.340,65.430,-86.914,0
1486223473.389,67.871,32.715,42.480,74.707,-41.016,0
1486223473.393,-3.418,30.762,34.668,68.848,31.250,0
1486223473.397,-14.160,27.832,35.645,69.336,141.113,0
1486223473.401,47.363,20.996,24.414,49.316,65.918,0
1486223473.404,98.145,30.273,25.391,55.664,-51.270,0
1486223473.408,73.242,34.668,48.340,67.871,-51.758,0
1486223473.412,-0.488,28.320,43.945,78.125,23.438,0
1486223473.416,-19.531,22.949,32.227,78.613,168.457,0
1486223473.420,48.828,21.484,42.969,55.664,110.840,0
1486223473.424,103.516,36.133,52.734,65.918,-59.570,0
1486223473.428,81.543,35.156,47.852,70.801,-64.453,0
1486223473.432,4.883,24.902,36.133,62.012,18.066,0
1486223473.436,-23.438,31.738,36.621,67.871,140.137,0
1486223473.440,31.250,35.156,40.039,50.781,82.031,0
1486223473.444,85.938,27.832,40.527,53.223,-53.223,0
1486223473.447,70.801,22.949,35.156,52.734,-42.480,0
1486223473.451,3.418,26.855,32.227,52.734,27.832,0
1486223473.455,-25.879,26.855,42.480,74.707,170.898,0
1486223473.459,21.484,20.996,38.086,52.734,126.465,0
1486223473.463,90.820,24.902,36.621,50.781,-40.039,0
1486223473.467,98.145,29.785,40.527,68.848,-58.105,0
1486223473.471,39.062,33.691,45.410,71.289,-28.809,0
1486223473.475,-9.277,36.133,47.363,78.613,123.047,0
1486223473.479,21.973,35.645,35.156,65.430,154.785,0
1486223473.483,94.727,36.133,39.062,52.734,-17.578,0
1486223473.486,102.539,34.668,46.387,58.105,-33.691,0
1486223473.490,37.109,35.156,41.016,65.430,15.137,0
1486223473.494,-16.602,38.574,40.039,77.148,117.676,0
1486223473.498,13.184,35.156,38.574,71.777,133.789,0
1486223473.502,77.148,24.902,32.715,56.152,-5.371,0
1486223473.506,97.168,24.414,38.086,59.570,-51.758,0
1486223473.510,53.711,28.809,47.363,57.617,-31.738,0
1486223473.514,-11.719,37.109,37.598,70.312,105.957,0
1486223473.518,1.953,34.180,30.762,65.918,151.367,0
1486223473.522,75.195,29.785,35.645,43.457,-11.230,0
1486223473.526,101.562,27.344,42.969,55.176,-36.621,0
1486223473.529,53.223,30.273,50.781,61.035,6.348,0
1486223473.533,-12.207,34.180,39.551,61.523,112.305,0
1486223473.537,-3.418,25.391,25.391,65.430,234.863,0
1486223473.541,70.801,27.832,36.621,56.152,83.984,0
1486223473.545,102.051,31.738,50.293,56.152,-30.762,0
1486223473.549,61.035,27.832,51.758,56.641,-36.133,0
1486223473.553,-6.348,31.738,36.621,64.453,37.598,0
1486223473.557,-13.184,36.621,36.133,67.871,174.805,0
1486223473.561,56.152,29.297,32.227,51.270,68.359,0
1486223473.565,96.191,23.438,32.227,49.316,-29.297,0
1486223473.569,60.547,27.344,44.922,50.781,-3.418,0
1486223473.572,-0.977,30.762,43.945,66.406,58.594,0
1486223473.576,-12.695,31.738,41.992,80.078,180.664,0
1486223473.580,39.551,32.715,35.156,50.293,107.910,0
1486223473.584,94.727,32.227,33.691,54.199,-30.762,0
1486223473.588,83.984,38.574,39.062,63.477,-40.527,0
1486223473.592,6.348,38.086,37.598,67.871,64.941,0
1486223473.596,-25.391,31.250,28.320,79.102,208.496,0
1486223473.600,31.250,29.297,28.320,47.852,138.184,0
1486223473.604,86.426,28.320,43.945,42.969,-17.090,0
1486223473.608,80.078,31.738,44.434,65.918,-37.598,0
1486223473.611,15.137,28.320,35.156,74.219,59.570,0
1486223473.615,-28.809,27.832,38.086,76.660,168.457,0
1486223473.619,18.066,31.250,38.574,63.477,153.809,0
1486223473.623,92.773,27.832,40.527,61.035,15.137,0
1486223473.627,96.191,27.832,42.969,65.430,-36.133,0
1486223473.631,30.762,31.738,32.715,63.965,-4.883,0
1486223473.635,-17.090,30.273,33.203,78.125,97.168,0
1486223473.639,17.090,35.645,42.969,62.988,163.574,0
1486223473.643,78.125,29.297,34.180,39.062,18.066,0
1486223473.647,87.402,21.484,30.273,48.828,-55.664,0
1486223473.651,25.879,26.855,33.691,59.082,-9.766,0
1486223473.654,-27.344,27.344,46.875,71.289,114.746,0
1486223473.658,0.977,23.438,36.133,59.082,153.320,0
1486223473.662,73.242,27.344,28.320,46.387,-9.277,0
1486223473.666,84.473,27.832,37.109,49.805,-15.137,0
1486223473.670,27.344,31.738,31.250,55.664,41.992,0
1486223473.674,-24.902,38.086,31.250,73.242,80.566,0
1486223473.678,-11.230,30.762,33.691,68.359,135.254,0
1486223473.682,61.523,23.926,34.668,58.105,36.133,0
1486223473.686,97.656,31.250,37.598,64.941,-45.410,0
1486223473.690,48.828,28.809,35.645,65.430,-35.156,0
1486223473.693,-10.742,30.762,46.875,74.219,83.496,0
1486223473.697,-1.465,31.250,52.246,66.895,177.246,0
1486223473.701,61.523,22.949,53.223,49.805,34.180,0
1486223473.705,94.238,24.414,34.180,53.711,-44.922,0
1486223473.709,62.500,28.320,22.949,61.523,-33.691,0
1486223473.713,-1.465,30.762,34.668,72.266,52.734,0
1486223473.717,-7.324,33.203,33.691,67.383,178.711,0
1486223473.721,61.035,31.250,35.645,49.805,58.105,0
1486223473.725,93.750,26.367,36.621,54.688,-63.965,0
1486223473.729,58.105,23.438,37.109,59.082,-5.371,0
1486223473.733,4.395,34.180,48.340,78.613,91.797,0
1486223473.736,-0.977,35.156,51.758,84.473,201.660,0
1486223473.740,63.965,29.785,51.270,61.523,98.145,0
1486223473.744,100.098,28.320,50.293,58.105,-14.648,0
1486223473.748,68.359,27.344,28.809,58.105,23.926,0
1486223473.752,9.277,34.180,25.391,70.312,74.219,0
1486223473.756,-28.809,19.531,35.156,68.359,195.801,0
1486223473.760,27.832,18.555,33.691,49.316,162.598,0
1486223473.764,95.215,29.297,36.621,57.617,-3.418,0
1486223473.768,79.590,26.367,41.016,69.336,-17.090,0
1486223473.772,8.789,24.902,39.551,72.266,55.664,0
1486223473.776,-15.137,30.762,45.898,79.590,168.457,0
1486223473.779,27.832,24.902,50.781,61.523,149.902,0
1486223473.783,87.402,24.902,38.086,48.340,-0.488,0
1486223473.787,93.262,36.133,43.945,61.523,-69.336,0
1486223473.791,26.367,33.203,59.082,75.195,-8.789,0
1486223473.795,-23.438,27.832,34.668,77.637,148.438,0
1486223473.799,13.672,22.461,25.391,61.523,209.961,0
1486223473.803,82.520,25.391,36.621,55.176,37.598,0
1486223473.807,83.984,24.414,34.180,62.988,-37.109,0
1486223473.811,28.320,25.879,35.645,64.941,-6.348,0
1486223473.815,-22.949,29.297,41.504,75.195,97.656,0
1486223473.818,8.789,23.438,51.270,72.754,162.109,0
1486223473.822,88.867,28.320,61.035,65.430,-22.461,0
1486223473.826,104.492,33.691,50.293,67.871,-76.172,0
1486223473.830,42.969,29.297,35.156,56.152,2.930,0
1486223473.834,-9.766,32.227,35.156,71.777,124.023,0
1486223473.838,4.395,28.320,37.598,73.730,175.293,0
1486223473.842,60.059,20.020,28.809,49.805,28.320,0
1486223473.846,89.355,25.879,27.344,52.734,-58.594,0
1486223473.850,39.551,29.297,36.133,58.105,-37.598,0
1486223473.854,-17.090,27.832,45.898,74.707,99.121,0
1486223473.858,-1.465,26.855,44.434,73.730,174.316,0
1486223473.861,68.848,35.645,38.574,52.246,13.184,0
1486223473.865,108.887,41.504,43.945,60.547,-68.359,0
1486223473.869,65.430,35.645,49.805,71.289,-20.996,0
1486223473.873,-8.301,26.367,42.480,65.918,88.379,0
1486223473.877,-5.371,30.762,36.621,67.383,185.547,0
1486223473.881,62.500,32.227,34.180,57.129,86.914,0
1486223473.885,97.168,27.344,37.598,57.129,-44.434,0
1486223473.889,66.895,30.273,38.574,62.012,-54.688,0
1486223473.893,-0.977,35.156,42.480,71.777,62.988,0
1486223473.897,-9.277,28.320,52.246,76.172,198.242,0
1486223473.900,52.246,23.438,35.645,44.434,70.801,0
1486223473.904,91.309,31.250,32.715,51.270,-72.266,0
1486223473.908,68.359,34.180,54.688,68.848,-17.090,0
1486223473.912,-0.488,35.645,55.176,67.383,80.566,0
1486223473.916,-32.715,26.855,29.297,70.312,176.758,0
1486223473.920,27.344,20.020,27.344,53.711,94.727,0
1486223473.924,89.355,28.320,39.551,53.711,-41.016,0
1486223473.928,70.312,36.133,44.434,64.941,-43.457,0
1486223473.932,6.348,36.621,42.480,69.824,29.297,0
1486223473.936,-30.273,25.879,37.109,68.848,165.527,0
1486223473.940,25.879,26.855,32.227,50.293,141.113,0
1486223473.943,93.262,32.227,32.227,55.176,-30.762,0
1486223473.947,84.473,34.180,39.062,72.266,-34.668,0
1486223473.951,25.391,30.273,42.969,68.359,24.902,0
1486223473.955,-12.695,29.297,49.316,73.730,155.273,0
1486223473.959,21.484,28.320,52.246,59.570,169.434,0
1486223473.963,85.938,28.809,32.227,44.434,-18.555,0
1486223473.967,85.938,27.344,20.996,54.199,-47.363,0
1486223473.971,25.391,28.809,37.109,61.523,-13.184,0
1486223473.975,-22.461,31.738,38.574,67.871,81.543,0
1486223473.979,-6.348,28.320,27.832,47.363,131.836,0
1486223473.983,61.035,20.996,26.367,38.574,-2.441,0
1486223473.986,85.938,24.902,40.039,56.641,-37.598,0
1486223473.990,28.320,33.691,53.223,58.594,-29.785,0
1486223473.994,-27.344,28.809,54.688,69.824,96.191,0
1486223473.998,-3.906,24.414,43.945,57.617,179.688,0
1486223474.002,68.848,26.855,27.832,43.457,27.832,0
1486223474.006,100.586,22.461,30.762,60.547,-47.363,0
1486223474.010,49.316,24.414,31.738,59.082,-39.062,0
1486223474.014,-12.695,31.738,25.879,66.406,90.820,0
1486223474.018,3.418,33.203,31.250,63.965,182.129,0
1486223474.022,81.055,31.250,39.062,51.758,22.949,0
1486223474.025,113.770,32.227,44.434,60.547,-76.172,0
1486223474.029,74.219,34.180,48.828,62.988,-20.996,1
1486223474.033,1.953,27.832,47.363,73.242,116.699,0
1486223474.037,-19.531,22.461,30.762,62.500,208.496,0
1486223474.041,49.316,20.996,29.297,47.363,49.805,0
1486223474.045,98.145,24.414,40.039,64.453,-60.547,0
1486223474.049,58.105,26.367,26.855,63.477,-41.504,0
1486223474.053,-11.719,24.902,24.414,71.777,65.430,0
1486223474.057,-19.531,27.344,43.945,81.055,193.848,0
1486223474.061,46.387,27.344,45.410,61.523,39.062,0
1486223474.065,88.867,21.484,44.922,58.105,-52.246,0
1486223474.068,65.430,28.320,47.363,62.988,-16.113,0
1486223474.072,11.719,38.574,61.523,77.148,39.062,0
1486223474.076,-14.648,33.691,56.152,78.613,195.801,0
1486223474.080,43.457,32.715,34.180,51.270,114.258,0
1486223474.084,102.539,35.156,41.992,52.246,-26.367,0
1486223474.088,76.660,28.809,41.504,59.082,-24.414,0
1486223474.092,6.348,24.414,28.809,53.711,36.133,0
1486223474.096,-23.438,30.762,38.574,70.801,170.410,0
1486223474.100,25.391,31.738,34.180,59.570,142.578,0
1486223474.104,94.727,23.438,42.480,56.152,-20.020,0
1486223474.108,90.820,26.855,51.758,73.242,-30.273,0
1486223474.111,20.508,34.180,40.527,68.848,34.668,0
1486223474.115,-17.578,26.855,34.180,74.219,171.875,0
1486223474.119,35.645,25.391,44.922,73.730,165.039,0
1486223474.123,100.586,34.668,50.293,71.289,0.000,0
1486223474.127,92.773,31.250,34.668,69.824,-52.246,0
1486223474.131,32.227,29.785,42.480,72.266,-17.578,0
1486223474.135,-13.672,31.738,47.852,83.008,146.973,0
1486223474.139,10.742,28.320,37.598,71.777,171.875,0
1486223474.143,78.125,25.879,28.809,57.129,-10.254,0
1486223474.147,100.098,32.715,38.086,58.594,-65.918,0
1486223474.150,44.434,38.574,58.105,70.312,-40.039,0
1486223474.154,-19.043,34.668,42.969,77.148,101.562,0
1486223474.158,-1.465,34.180,29.785,56.641,165.039,0
1486223474.162,70.312,26.367,45.410,40.039,4.883,0
1486223474.166,97.168,24.902,44.434,58.105,-31.250,0
1486223474.170,41.504,33.203,35.645,59.570,14.160,0
1486223474.174,-21.484,31.738,31.738,64.453,112.305,0
1486223474.178,-0.488,28.809,42.969,68.848,141.113,0
1486223474.182,66.406,29.785,43.945,52.734,7.324,0
1486223474.186,93.750,30.762,44.434,62.988,-58.594,0
1486223474.190,51.758,32.227,53.711,66.406,-39.062,0
1486223474.193,-15.625,27.832,43.945,67.383,114.746,0
1486223474.197,-7.324,30.762,35.156,78.613,194.824,0
1486223474.201,65.918,33.203,34.180,66.895,60.059,0
1486223474.205,103.027,27.832,40.527,65.430,-8.301,0
1486223474.209,69.336,27.344,43.457,67.383,-47.852,0
1486223474.213,6.836,30.273,42.969,77.637,39.062,0
1486223474.217,-3.906,29.297,40.527,74.219,146.973,0
1486223474.221,59.082,25.391,41.016,61.035,21.973,0
1486223474.225,111.816,27.344,54.199,79.590,-81.543,0
1486223474.229,82.520,28.809,61.035,77.637,-62.988,0
1486223474.232,5.371,29.297,34.180,70.312,20.996,0
1486223474.236,-8.301,31.738,20.508,81.055,159.668,0
1486223474.240,60.059,25.391,31.250,60.059,83.496,0
1486223474.244,105.469,27.832,42.480,55.664,-63.477,0
1486223474.248,79.590,38.086,45.898,73.242,-87.402,0
1486223474.252,14.160,30.762,47.852,78.125,-30.273,0
1486223474.256,-22.949,24.902,44.434,75.195,128.418,0
1486223474.260,30.273,26.855,42.480,57.129,103.516,0
1486223474.264,102.051,31.250,51.758,65.918,-44.434,0
1486223474.268,83.984,30.273,45.410,72.754,-53.711,0
1486223474.272,18.555,34.180,29.297,74.219,26.855,0
1486223474.275,-16.113,33.691,24.414,86.914,137.695,0
1486223474.279,31.738,35.645,38.086,73.730,90.332,0
1486223474.283,102.539,43.457,43.945,68.359,-33.691,0
1486223474.287,100.098,30.762,38.086,69.336,-31.250,0
1486223474.291,35.645,26.855,41.992,72.266,-14.648,0
1486223474.295,-17.578,28.809,41.016,77.637,119.141,0
1486223474.299,26.367,36.133,38.574,72.266,152.832,0
1486223474.303,98.145,35.156,52.246,65.430,21.484,0
1486223474.307,98.145,32.227,41.504,64.453,-21.484,0
1486223474.311,30.273,36.133,21.973,59.082,10.742,0
1486223474.315,-31.250,32.715,33.203,69.336,143.555,0
1486223474.318,1.465,30.762,38.574,72.266,186.035,0
1486223474.322,71.777,35.156,33.203,62.988,19.531,0
1486223474.326,88.867,33.203,40.527,64.941,-27.832,0
1486223474.330,46.387,26.367,43.945,64.941,34.180,0
1486223474.334,-17.578,28.809,38.574,75.195,145.020,0
1486223474.338,-0.488,31.250,41.504,72.754,180.664,0
1486223474.342,76.660,29.297,47.363,62.012,38.574,0
1486223474.346,102.539,36.621,41.504,63.477,-41.016,0
1486223474.350,61.523,34.668,37.109,61.523,-42.969,0
1486223474.354,-5.371,28.320,35.156,69.336,58.105,0
1486223474.357,1.953,34.668,38.086,70.312,143.555,0
1486223474.361,75.684,32.227,38.086,53.223,51.270,0
1486223474.365,104.492,34.668,36.621,61.035,-42.480,0
1486223474.369,64.453,34.180,36.133,70.801,-39.062,0
1486223474.373,-1.465,26.367,32.227,69.336,72.266,0
1486223474.377,-9.277,28.320,33.691,70.801,157.227,0
1486223474.381,63.477,34.180,42.969,64.453,29.785,0
1486223474.385,106.445,29.297,43.457,60.059,-29.297,0
1486223474.389,73.242,27.344,40.039,62.988,-3.418,0
1486223474.393,3.906,27.344,39.551,67.383,55.664,0
1486223474.397,-22.949,20.508,30.273,61.035,197.754,0
1486223474.400,40.039,25.879,36.133,49.805,91.797,0
1486223474.404,99.121,36.133,49.805,58.594,-90.332,0
1486223474.408,77.637,33.691,47.363,59.082,-72.754,0
1486223474.412,7.324,23.926,35.645,63.965,7.324,0
1486223474.416,-22.949,21.973,27.832,77.637,126.465,0
1486223474.420,36.133,27.344,25.879,56.641,59.082,0
1486223474.424,97.168,25.391,33.203,54.199,-88.867,0
1486223474.428,79.102,26.367,45.898,63.477,-48.340,0
1486223474.432,9.277,28.809,34.180,58.594,40.039,0
1486223474.436,-20.020,26.855,36.621,74.707,164.062,0
1486223474.440,29.785,29.297,46.387,61.523,124.512,0
1486223474.443,85.938,34.668,46.875,45.410,-45.898,0
1486223474.447,76.660,24.902,37.598,50.293,-72.266,0
1486223474.451,9.277,22.461,22.949,49.316,-0.488,0
1486223474.455,-34.180,26.367,33.691,62.500,150.879,0
1486223474.459,19.531,30.762,38.574,59.570,171.387,0
1486223474.463,82.031,28.320,27.832,43.945,5.859,0
1486223474.467,76.660,27.344,35.645,53.711,-28.320,0
1486223474.471,23.438,27.344,46.875,57.617,27.344,0
1486223474.475,-33.203,25.879,40.039,64.941,139.160,0
1486223474.479,0.977,34.180,40.527,61.523,178.711,0
1486223474.482,78.125,30.762,44.922,57.129,20.508,0
1486223474.486,86.426,20.508,38.086,61.035,-35.645,0
1486223474.490,41.504,25.879,34.668,64.941,-21.484,0
1486223474.494,-10.254,34.180,40.527,84.961,78.125,0
1486223474.498,-0.977,29.297,38.086,75.684,170.410,0
1486223474.502,65.430,20.020,29.785,53.711,35.156,0
1486223474.506,98.145,23.926,38.574,59.570,-27.344,0
1486223474.510,56.641,27.832,44.922,65.918,-12.695,0
1486223474.514,0.000,30.762,55.664,85.938,98.145,0
1486223474.518,-4.883,27.832,48.828,73.730,218.750,0
1486223474.522,60.059,26.855,29.297,47.363,45.410,0
1486223474.525,103.516,31.738,28.809,60.059,-29.785,0
1486223474.529,65.430,35.645,34.668,65.918,41.016,0
1486223474.533,5.371,42.969,52.734,80.566,113.281,0
1486223474.537,-1.953,30.762,51.758,85.449,167.969,0
1486223474.541,53.711,27.344,26.855,54.688,50.781,0
1486223474.545,99.609,27.344,26.855,51.758,-43.457,1
1486223474.549,72.266,28.320,40.527,58.594,-65.430,0
1486223474.553,3.906,32.227,36.621,60.059,23.926,0
1486223474.557,-11.719,30.273,40.527,75.195,136.230,0
1486223474.561,52.246,33.691,45.410,62.012,42.969,0
1486223474.564,100.098,30.273,34.180,49.316,-34.668,0
1486223474.568,68.359,29.297,47.363,57.617,-36.133,0
1486223474.572,1.953,30.273,38.574,58.105,35.156,0
1486223474.576,-20.020,33.203,23.926,61.523,180.664,0
1486223474.580,29.297,28.320,37.109,44.434,110.840,0
1486223474.584,82.031,23.926,35.156,41.504,-62.012,0
1486223474.588,78.125,28.320,34.180,53.223,-47.852,0
1486223474.592,23.438,34.180,42.480,62.012,47.363,0
1486223474.596,-16.113,36.133,43.945,71.777,157.227,0
1486223474.600,20.996,20.996,46.875,57.129,117.188,0
1486223474.604,77.637,16.113,40.527,50.781,-18.066,0
1486223474.607,75.195,30.273,35.645,54.688,-14.648,0
1486223474.611,10.742,32.227,51.758,55.664,8.301,0
1486223474.615,-27.832,30.273,49.805,73.242,140.137,0
1486223474.619,5.859,29.785,26.855,56.152,166.992,0
1486223474.623,76.660,25.879,29.785,39.551,-7.324,0
1486223474.627,79.102,22.949,32.227,47.363,-50.781,0
1486223474.631,16.602,26.367,36.133,50.781,-6.348,0
1486223474.635,-25.391,27.832,39.062,69.336,132.324,0
1486223474.639,0.000,25.391,28.320,55.664,170.410,0
1486223474.643,79.590,28.809,33.203,38.086,-2.930,0
1486223474.647,104.004,30.762,49.316,57.617,-56.641,0
1486223474.650,44.434,32.227,60.547,67.871,-4.883,0
1486223474.654,-20.020,33.691,40.527,66.895,104.492,0
1486223474.658,1.465,24.902,29.297,62.012,150.879,0
1486223474.662,73.730,21.973,31.738,43.945,-4.395,0
1486223474.666,106.934,30.762,41.992,61.035,-54.199,0
1486223474.670,63.477,33.691,54.199,76.172,-17.090,0
1486223474.674,-11.230,30.273,39.062,73.730,85.449,0
1486223474.678,-3.906,23.926,33.691,63.477,200.195,0
1486223474.682,66.406,27.832,36.621,43.457,29.297,0
1486223474.686,100.586,33.691,51.758,53.223,-86.914,0
1486223474.689,60.059,27.344,63.477,62.988,-46.387,0
1486223474.693,-14.160,22.461,37.598,67.383,68.848,0
1486223474.697,-8.301,32.715,33.691,71.777,168.457,0
1486223474.701,59.082,27.832,40.527,60.059,24.902,0
1486223474.705,89.355,18.066,38.574,65.918,-57.129,0
1486223474.709,58.105,21.484,40.039,65.430,-38.574,0
1486223474.713,-0.977,30.273,41.504,71.289,25.879,0
1486223474.717,-6.836,35.156,47.852,82.520,137.207,0
1486223474.721,52.734,29.785,46.875,53.223,49.316,0
1486223474.725,95.703,26.855,37.109,48.340,-67.383,0
1486223474.729,73.242,32.715,40.039,65.918,-41.504,0
1486223474.732,8.789,35.156,49.316,75.684,44.922,0
1486223474.736,-11.719,33.203,45.898,82.520,178.711,0
1486223474.740,48.340,29.297,41.016,63.477,102.051,0
1486223474.744,98.145,23.438,27.832,57.617,-51.758,0
1486223474.748,93.262,32.227,38.574,73.730,-17.090,0
1486223474.752,32.227,32.715,48.828,77.148,28.809,0
1486223474.756,-12.207,28.320,32.715,85.449,139.160,0
1486223474.760,36.133,26.855,27.344,66.406,109.375,0
1486223474.764,101.562,25.879,41.504,58.105,-29.785,0
1486223474.768,91.797,33.203,49.316,63.477,-37.109,0
1486223474.772,24.414,33.203,41.016,62.012,-4.395,0
1486223474.775,-17.578,31.738,33.691,76.660,144.531,0
1486223474.779,26.855,28.809,44.434,65.430,131.836,0
1486223474.783,90.332,27.832,46.387,52.734,-16.113,0
1486223474.787,99.121,30.762,42.480,65.918,6.348,0
1486223474.791,46.875,28.320,43.457,70.312,58.594,0
1486223474.795,-9.277,26.367,36.621,74.219,178.711,0
1486223474.799,28.320,32.715,38.574,71.289,205.566,0
1486223474.803,92.773,31.250,35.156,56.152,27.344,0
1486223474.807,98.145,24.414,41.992,61.035,-32.715,0
1486223474.811,38.574,23.926,40.527,62.500,17.578,0
1486223474.814,-21.484,24.902,36.133,73.242,124.512,0
1486223474.818,-0.488,26.855,45.898,73.730,186.523,0
1486223474.822,58.594,27.344,47.363,56.152,44.922,0
1486223474.826,80.078,26.367,39.551,57.129,-28.809,0
1486223474.830,45.410,28.320,47.363,68.359,-4.395,0
1486223474.834,-15.625,27.832,45.410,72.754,94.238,0
1486223474.838,-6.348,35.645,36.621,65.430,160.156,0
1486223474.842,70.312,34.668,35.645,53.711,17.090,0
1486223474.846,100.586,24.902,23.926,54.688,-72.754,0
1486223474.850,56.641,30.273,32.227,66.895,-20.996,0
1486223474.854,-4.883,32.227,46.387,79.590,84.473,0
1486223474.857,-3.906,32.715,47.363,75.684,138.672,0
1486223474.861,65.430,32.227,45.898,56.641,27.832,0
1486223474.865,104.004,27.832,45.410,60.547,-44.922,0
1486223474.869,72.754,28.809,53.223,73.242,-40.527,0
1486223474.873,-6.348,30.273,54.688,78.125,35.645,0
1486223474.877,-16.113,31.738,40.039,75.195,165.039,0
1486223474.881,61.035,32.227,36.133,60.059,99.609,0
1486223474.885,109.863,35.645,38.086,64.453,-24.414,0
1486223474.889,74.707,31.250,28.809,65.430,-33.203,0
1486223474.893,1.953,24.414,29.785,74.219,39.551,0
1486223474.896,-11.230,28.809,34.180,79.590,169.922,0
1486223474.900,44.922,30.762,43.457,55.664,99.609,0
1486223474.904,96.680,26.367,41.504,59.570,-61.035,0
1486223474.908,81.543,27.832,36.621,64.941,-47.852,0
1486223474.912,17.578,31.738,41.504,67.871,29.297,0
1486223474.916,-4.395,33.203,48.340,86.426,145.020,0
1486223474.920,51.270,31.738,46.875,73.242,113.281,0
1486223474.924,108.398,33.203,33.203,67.871,-53.711,0
1486223474.928,101.074,35.645,37.598,75.684,-70.801,0
1486223474.932,32.227,32.715,45.898,76.660,8.789,0
1486223474.936,-18.066,30.762,27.344,83.984,162.109,0
1486223474.939,28.320,31.250,24.902,71.777,141.602,0
1486223474.943,105.469,31.250,41.016,58.594,-46.387,0
1486223474.947,94.727,28.320,41.016,57.617,-54.688,0
1486223474.951,31.250,33.203,35.156,67.383,-45.898,0
1486223474.955,-12.695,31.738,37.109,78.613,105.469,0
1486223474.959,21.484,28.809,41.016,62.012,188.477,0
1486223474.963,91.797,31.738,35.645,56.152,1.465,0
1486223474.967,97.168,29.297,27.832,61.523,-57.129,0
1486223474.971,36.621,28.809,33.203,56.641,-21.973,0
1486223474.975,-17.090,37.598,46.387,73.242,116.211,0
1486223474.979,11.719,44.922,42.969,71.777,176.270,0
1486223474.982,83.008,37.109,47.852,55.176,29.785,0
1486223474.986,95.215,20.996,47.852,59.082,-24.414,0
1486223474.990,46.875,23.438,20.508,57.129,-30.273,0
1486223474.994,-11.230,33.203,20.508,65.918,84.961,0
1486223474.998,1.465,29.297,29.785,65.430,188.965,0
1486223475.002,71.777,31.738,34.668,53.223,42.480,0
1486223475.006,104.492,36.133,45.410,66.895,-43.945,0
1486223475.010,63.965,37.598,42.969,64.941,-9.766,0
1486223475.014,-7.812,35.156,35.156,64.941,71.777,0
1486223475.018,-7.812,34.180,36.621,72.266,162.109,0
1486223475.021,67.383,32.227,39.551,55.664,41.992,0
1486223475.025,108.398,32.715,44.922,58.105,-34.180,0
1486223475.029,65.430,29.785,47.852,66.895,-20.508,0
1486223475.033,-13.184,24.902,31.738,69.824,65.430,0
1486223475.037,-23.926,26.855,26.367,66.406,204.590,0
1486223475.041,50.293,26.367,33.203,52.246,83.496,0
1486223475.045,99.609,28.320,36.133,62.988,-65.430,0
1486223475.049,71.777,31.738,44.922,64.453,-50.781,0
1486223475.053,4.395,33.203,53.711,75.684,44.434,0
1486223475.057,-17.090,34.180,48.340,88.379,180.176,0
1486223475.061,43.457,23.926,36.133,53.223,116.211,0
1486223475.064,94.727,25.391,30.273,53.711,-47.363,0
1486223475.068,67.383,31.738,43.945,70.801,-55.176,0
1486223475.072,3.418,32.227,44.922,76.172,21.973,2
1486223475.076,-19.043,34.668,30.762,82.520,144.043,0
1486223475.080,31.738,31.250,32.715,59.570,96.680,0
1486223475.084,91.309,27.832,40.039,52.734,-44.922,0
1486223475.088,84.473,32.715,36.621,66.406,-48.828,0
1486223475.092,22.949,38.086,39.062,72.754,2.441,0
1486223475.096,-20.020,30.762,47.852,74.219,109.375,0
1486223475.100,14.160,20.996,36.133,52.246,121.582,0
1486223475.104,82.520,28.320,36.133,49.316,-0.488,0
1486223475.107,89.355,33.691,47.363,65.430,-77.148,0
1486223475.111,14.160,27.344,35.645,66.895,-32.227,0
1486223475.115,-31.250,21.973,28.320,72.266,146.484,0
1486223475.119,7.812,25.879,26.855,51.758,157.227,0
1486223475.123,72.754,29.785,30.273,43.457,-42.969,0
1486223475.127,80.566,20.508,40.527,61.035,-50.781,0
1486223475.131,28.320,24.414,49.316,60.547,13.184,0
1486223475.135,-16.113,33.203,55.176,69.336,125.000,0
1486223475.139,0.488,30.273,45.410,63.477,151.855,0
1486223475.143,64.453,26.367,36.133,48.340,-1.465,0
1486223475.146,83.008,24.902,29.297,50.781,-35.156,0
1486223475.150,29.785,31.250,37.109,49.316,-7.324,0
1486223475.154,-16.602,28.320,43.945,61.523,93.750,0
1486223475.158,-4.883,19.043,32.715,50.293,183.594,0
1486223475.162,59.082,21.484,28.809,37.598,48.340,0
1486223475.166,88.379,24.414,35.156,56.152,-48.340,0
1486223475.170,46.387,23.926,38.086,62.988,-42.969,0
1486223475.174,-10.742,29.297,45.898,74.219,52.246,0
1486223475.178,-8.789,36.621,46.387,70.801,172.852,0
1486223475.182,63.477,27.344,52.734,56.641,35.645,0
1486223475.186,101.074,16.602,48.828,67.871,-75.195,0
1486223475.189,62.988,26.367,33.691,68.848,-52.734,0
1486223475.193,-4.395,26.855,33.203,74.707,47.363,0
1486223475.197,-6.836,27.344,36.133,80.566,145.508,0
1486223475.201,60.059,26.367,41.504,51.758,33.691,0
1486223475.205,100.586,21.973,39.551,46.387,-38.574,0
1486223475.209,74.707,30.762,31.250,58.594,-39.551,0
1486223475.213,8.301,32.715,36.133,69.336,17.090,0
1486223475.217,-11.719,29.785,45.898,69.336,155.762,0
1486223475.221,39.551,22.949,46.387,40.039,88.867,0
1486223475.225,88.379,17.578,39.551,37.109,-41.016,0
1486223475.228,79.590,30.762,37.109,55.176,-10.742,0
1486223475.232,14.160,35.645,39.062,72.266,26.855,0
1486223475.236,-17.090,30.273,37.109,71.289,154.785,0
1486223475.240,31.738,26.855,32.715,39.062,137.695,0
1486223475.244,89.355,31.250,35.156,35.645,-17.578,0
1486223475.248,79.590,25.879,33.691,50.781,-28.320,0
1486223475.252,25.879,22.949,39.551,65.918,42.969,0
1486223475.256,-14.648,29.297,50.293,74.219,164.062,0
1486223475.260,17.090,23.926,46.875,52.734,138.672,0
1486223475.264,86.426,30.273,41.504,51.758,-27.344,0
1486223475.268,80.078,26.367,37.598,61.035,-23.926,0
1486223475.271,13.672,20.020,37.598,56.641,15.137,0
1486223475.275,-23.438,31.738,33.691,69.824,123.535,0
1486223475.279,17.578,29.785,42.969,62.012,147.461,0
1486223475.283,87.891,23.438,53.223,52.734,-5.371,0
1486223475.287,92.285,23.926,40.039,63.965,-63.477,0
1486223475.291,41.016,29.297,41.992,68.848,-40.527,0
1486223475.295,-5.371,37.598,43.457,75.195,97.656,0
1486223475.299,9.766,29.785,29.297,65.918,137.207,0
1486223475.303,71.777,22.461,30.762,53.711,-26.855,0
1486223475.307,98.145,33.203,36.133,63.965,-64.941,0
1486223475.311,54.199,32.227,42.969,76.172,-30.273,0
1486223475.314,-8.789,29.297,41.504,83.496,47.852,0
1486223475.318,11.230,32.715,43.945,76.172,117.676,0
1486223475.322,78.125,24.902,45.410,54.688,9.277,0
1486223475.326,104.004,28.320,41.992,63.965,-44.434,0
1486223475.330,56.641,29.297,45.410,65.430,-30.273,0
1486223475.334,-13.184,25.879,38.574,68.848,76.172,0
1486223475.338,-6.836,24.414,28.809,70.801,189.941,0
1486223475.342,64.941,26.855,33.691,58.594,66.406,0
1486223475.346,105.957,31.738,35.645,59.570,-71.777,0
1486223475.350,62.988,32.227,22.461,57.617,-52.734,0
1486223475.353,0.488,34.668,38.086,75.684,59.570,0
1486223475.357,-3.418,29.297,50.293,75.684,152.344,0
1486223475.361,52.246,27.832,45.898,47.852,49.316,0
1486223475.365,103.516,31.738,51.270,55.176,-48.828,0
1486223475.369,70.312,28.809,42.969,65.430,-48.340,0
1486223475.373,-5.859,31.250,38.574,68.359,20.020,0
1486223475.377,-13.184,33.691,41.504,70.312,142.578,0
1486223475.381,51.758,27.344,35.156,52.246,50.293,0
1486223475.385,89.355,23.926,28.809,47.852,-63.477,0
1486223475.389,62.500,24.902,27.344,52.734,-43.457,0
1486223475.393,0.488,24.414,32.227,63.965,45.898,0
1486223475.396,-28.320,29.297,34.180,75.195,187.988,0
1486223475.400,26.855,25.391,29.297,55.664,142.578,0
1486223475.404,88.379,23.926,35.645,55.176,14.160,0
1486223475.408,82.520,31.738,50.781,64.941,-58.594,0
1486223475.412,13.672,28.809,41.992,68.359,-32.227,0
1486223475.416,-20.020,26.367,32.715,83.496,147.949,0
1486223475.420,28.320,26.367,43.945,64.453,141.113,0
1486223475.424,92.773,30.273,43.457,47.852,-18.555,0
1486223475.428,94.727,34.180,34.180,57.129,-26.367,0
1486223475.432,18.555,33.691,37.598,66.406,16.113,0
1486223475.435,-27.832,28.320,39.551,76.660,135.254,0
1486223475.439,13.184,24.902,34.668,66.895,192.383,0
1486223475.443,80.078,28.809,36.621,54.688,12.207,0
1486223475.447,89.844,37.598,38.086,61.523,-77.637,0
1486223475.451,33.203,30.762,36.621,68.848,-10.742,0
1486223475.455,-14.160,24.902,34.180,80.566,91.797,0
1486223475.459,17.090,36.621,41.504,74.219,141.602,0
1486223475.463,87.891,35.645,51.270,57.129,-0.977,0
1486223475.467,99.121,27.344,43.457,60.059,-93.750,0
1486223475.471,37.109,32.227,41.016,65.430,-24.902,0
1486223475.475,-18.066,34.668,46.875,77.148,101.562,0
1486223475.478,3.906,31.250,43.945,68.848,152.344,0
1486223475.482,73.242,29.297,34.180,47.363,27.344,0
1486223475.486,95.215,26.367,33.203,49.316,-48.828,0
1486223475.490,45.898,23.438,37.109,50.293,-3.906,0
1486223475.494,-9.277,28.809,35.156,62.500,134.766,0
1486223475.498,-7.812,30.273,32.227,68.359,208.496,0
1486223475.502,67.383,32.227,42.480,59.082,30.273,0
1486223475.506,109.375,35.645,47.363,59.570,-61.523,0
1486223475.510,59.082,31.250,31.738,62.500,-45.898,0
1486223475.514,-3.418,37.598,38.574,80.078,42.969,0
1486223475.518,-1.465,39.062,48.828,82.031,185.059,0
1486223475.521,64.941,27.832,41.504,57.129,72.266,0
1486223475.525,103.027,26.367,37.598,54.688,-80.566,0
1486223475.529,61.035,26.367,31.250,59.570,-52.734,0
1486223475.533,1.953,32.715,39.062,69.824,46.387,0
1486223475.537,-5.859,36.621,42.969,74.219,179.688,0
1486223475.541,54.199,32.227,28.320,47.852,95.215,0
1486223475.545,103.516,33.203,34.180,55.664,-46.875,0
1486223475.549,79.102,34.668,39.551,65.918,0.977,0
1486223475.553,10.254,31.250,37.109,66.895,85.938,0
1486223475.557,-14.648,27.832,37.109,74.707,191.895,0
1486223475.560,36.133,26.855,26.367,49.805,111.816,0
1486223475.564,92.773,29.297,42.480,50.781,-12.207,0
1486223475.568,82.520,34.180,58.594,64.453,-26.855,0
1486223475.572,10.742,33.691,48.828,62.988,20.508,0
1486223475.576,-31.250,27.832,38.574,66.895,149.902,0
1486223475.580,19.531,26.367,35.156,50.781,101.562,0
1486223475.584,91.309,29.297,33.691,45.898,-73.730,0
1486223475.588,85.938,33.203,29.297,56.641,-100.098,0
1486223475.592,20.508,28.320,31.250,58.105,-25.879,0
1486223475.596,-20.996,18.555,36.621,65.918,110.840,0
1486223475.600,21.484,23.926,40.527,57.129,106.445,0
1486223475.603,84.473,29.785,44.922,46.875,-29.297,0
1486223475.607,85.449,32.715,39.062,58.105,-58.105,0
1486223475.611,35.156,39.062,30.273,72.754,-12.695,0
1486223475.615,-15.137,34.668,34.668,80.566,110.352,0
1486223475.619,4.883,25.879,36.621,60.547,121.582,0
1486223475.623,81.055,28.320,35.156,51.270,-40.527,0
1486223475.627,104.980,30.762,40.039,62.988,-101.074,0
1486223475.631,52.734,34.180,34.668,67.871,-40.039,0
1486223475.635,-2.930,33.691,30.273,83.008,69.336,0
1486223475.639,11.719,32.715,44.922,77.148,102.051,0
1486223475.643,78.613,31.738,49.316,54.199,-33.691,0
1486223475.646,100.586,29.785,45.898,63.477,-80.078,0
1486223475.650,50.781,32.715,45.410,63.477,-47.852,0
1486223475.654,-20.996,29.297,26.855,61.035,55.176,0
1486223475.658,-9.766,29.297,23.926,62.012,171.875,0
1486223475.662,66.406,29.785,31.250,47.363,41.504,0
1486223475.666,98.145,25.391,37.598,52.734,-95.703,0
1486223475.670,61.035,27.344,37.109,58.594,-70.312,1
1486223475.674,-2.441,31.738,38.086,73.730,44.922,0
1486223475.678,-10.742,34.180,49.805,82.031,164.062,0
1486223475.682,53.223,29.785,46.387,53.711,51.270,0
1486223475.685,98.145,31.250,37.598,59.570,-65.430,0
1486223475.689,63.965,38.086,35.645,67.871,-33.691,0
1486223475.693,0.977,32.227,53.223,66.406,45.898,0
1486223475.697,-15.137,22.949,53.711,65.430,177.734,0
1486223475.701,47.363,28.809,31.250,41.992,103.027,0
1486223475.705,96.191,30.762,26.367,35.156,-18.555,0
1486223475.709,64.453,29.785,28.320,40.039,-41.016,0
1486223475.713,0.977,30.273,29.785,56.641,20.020,0
1486223475.717,-21.973,35.645,42.969,62.988,160.156,0
1486223475.721,38.574,39.551,46.387,43.945,79.102,0
1486223475.725,96.191,28.809,41.992,50.781,-80.078,0
1486223475.728,73.730,28.809,48.828,56.152,-37.109,0
1486223475.732,7.812,33.691,48.340,58.105,37.109,0
1486223475.736,-22.949,31.250,38.574,65.918,113.281,0
1486223475.740,28.320,25.879,37.598,51.758,106.445,0
1486223475.744,95.703,27.344,38.086,51.270,-9.766,0
1486223475.748,92.773,31.738,33.691,60.059,-30.273,0
1486223475.752,21.484,29.297,20.020,55.664,9.277,0
1486223475.756,-20.996,29.785,30.273,74.219,108.398,0
1486223475.760,26.367,32.227,44.434,59.082,124.023,0
1486223475.764,90.820,27.344,33.691,36.133,-16.113,0
1486223475.767,83.496,23.926,33.203,54.199,-76.172,0
1486223475.771,20.020,28.809,42.969,63.965,-27.344,0
1486223475.775,-20.508,35.156,44.434,72.754,134.277,0
1486223475.779,5.371,30.762,37.109,55.664,174.316,0
1486223475.783,71.289,29.785,33.203,43.457,21.973,0
1486223475.787,82.031,28.320,21.484,45.898,-39.551,0
1486223475.791,37.109,28.809,30.273,52.734,-2.930,0
1486223475.795,-10.742,28.809,44.434,74.707,105.957,0
1486223475.799,6.348,25.879,31.738,66.406,178.711,0
1486223475.803,78.125,26.367,36.621,55.176,51.758,0
1486223475.807,101.562,27.344,48.828,66.406,-62.012,0
1486223475.810,46.387,27.832,46.387,62.988,-32.227,0
1486223475.814,-20.020,31.738,52.734,76.172,110.352,0
1486223475.818,-0.488,32.715,44.922,75.684,178.223,0
1486223475.822,72.266,30.273,36.621,55.176,8.301,0
1486223475.826,89.355,26.855,37.109,59.570,-103.027,0
1486223475.830,41.016,24.902,30.762,58.105,-30.273,0
1486223475.834,-17.578,25.879,35.645,69.824,96.191,0
1486223475.838,-8.789,24.902,38.086,82.031,177.734,0
1486223475.842,62.500,22.949,41.504,63.965,71.289,0
1486223475.846,94.238,24.902,38.086,58.594,-25.391,0
1486223475.850,70.312,33.691,43.945,68.359,-30.273,0
1486223475.853,-2.441,29.297,43.945,82.031,46.875,0
1486223475.857,-21.484,22.461,36.133,76.172,143.066,0
1486223475.861,46.387,28.320,36.133,56.641,45.898,0
1486223475.865,90.332,28.809,33.203,59.082,-35.645,0
1486223475.869,63.477,30.273,36.133,60.547,-3.418,0
1486223475.873,2.441,30.273,48.340,69.336,66.406,0
1486223475.877,-21.973,26.367,44.922,63.965,185.059,0
1486223475.881,35.156,26.367,32.715,46.387,85.449,0
1486223475.885,93.750,28.809,42.480,55.176,-53.223,0
1486223475.889,75.684,31.250,41.504,57.617,-43.457,0
1486223475.892,16.602,34.180,37.598,69.336,15.625,0
1486223475.896,-17.578,32.227,31.250,77.637,170.898,0
1486223475.900,40.527,38.086,47.852,65.918,134.766,0
1486223475.904,106.934,43.945,63.477,68.848,-1.953,0
1486223475.908,87.891,29.785,37.598,74.707,-22.461,0
1486223475.912,20.996,21.484,31.250,75.195,7.812,0
1486223475.916,-20.508,27.832,41.504,76.172,131.348,0
1486223475.920,25.391,28.809,39.062,61.523,135.254,0
1486223475.924,89.844,29.297,37.598,52.734,-0.977,0
1486223475.928,93.750,33.691,39.551,67.871,-37.109,0
1486223475.932,41.016,36.621,44.922,78.125,-20.508,0
1486223475.935,-11.719,36.621,37.598,79.590,112.793,0
1486223475.939,12.695,32.715,32.715,70.312,167.480,0
1486223475.943,93.262,34.180,41.992,69.824,7.324,0
1486223475.947,109.863,35.156,41.016,79.102,-41.992,0
1486223475.951,35.645,34.668,36.133,76.660,-10.742,0
1486223475.955,-19.531,29.297,37.109,78.613,100.098,0
1486223475.959,9.277,22.949,35.645,67.383,145.996,0
1486223475.963,79.102,29.785,39.551,55.664,8.789,0
1486223475.967,91.309,29.297,40.527,62.012,-25.391,0
1486223475.971,37.109,30.273,36.621,62.988,4.395,0
1486223475.975,-20.020,30.273,25.879,67.871,97.656,0
1486223475.978,-1.465,29.785,26.367,67.383,178.223,0
1486223475.982,77.637,38.574,33.691,56.152,20.508,0
1486223475.986,106.445,35.156,30.762,60.059,-59.570,0
1486223475.990,55.176,31.250,25.391,58.105,-38.086,0
1486223475.994,-1.465,33.203,40.527,73.242,63.477,0
1486223475.998,-1.465,29.297,39.551,71.289,171.875,0
1486223476.002,56.641,27.832,30.762,41.016,31.738,0
1486223476.006,99.121,29.785,45.410,51.758,-60.547,0
1486223476.010,62.988,29.785,36.133,57.129,-20.020,0
1486223476.014,-6.348,33.203,29.785,62.988,74.219,0
1486223476.017,-18.066,32.715,33.691,65.918,162.598,0
1486223476.021,56.152,31.738,28.320,50.293,78.125,0
1486223476.025,106.445,33.691,30.762,56.641,-16.113,0
1486223476.029,76.660,32.227,35.645,62.012,-21.484,0
1486223476.033,6.836,35.156,35.156,62.012,66.406,0
1486223476.037,-20.508,33.203,38.574,65.918,202.148,0
1486223476.041,39.551,21.973,41.016,55.664,120.117,0
1486223476.045,98.633,21.973,46.387,58.594,-40.039,0
1486223476.049,83.496,28.320,53.711,69.824,-44.922,0
1486223476.053,9.766,27.832,45.898,69.336,26.855,0
1486223476.057,-16.602,35.156,38.086,78.125,145.020,0
1486223476.060,38.574,31.738,28.320,61.523,132.324,0
1486223476.064,92.285,23.926,20.020,56.152,7.324,0
1486223476.068,73.242,25.879,34.668,71.289,-16.602,0
1486223476.072,6.348,23.926,39.551,73.730,49.316,0
1486223476.076,-28.320,26.367,38.574,77.637,186.035,0
1486223476.080,18.066,26.855,38.086,61.035,176.270,0
1486223476.084,86.426,27.832,35.156,53.223,16.113,0
1486223476.088,94.238,32.715,40.039,63.965,-23.926,0
1486223476.092,38.086,39.062,49.316,71.777,15.137,0
1486223476.096,-11.719,35.645,47.852,73.730,115.723,0
1486223476.099,27.832,35.645,43.457,64.453,154.297,0
1486223476.103,95.215,34.668,46.387,57.129,6.836,0
1486223476.107,92.773,23.926,42.480,58.594,-66.406,0
1486223476.111,33.203,25.391,39.062,61.035,-12.207,0
1486223476.115,-16.113,30.273,41.504,67.871,127.930,0
1486223476.119,14.160,30.273,39.062,67.871,120.117,0
1486223476.123,85.449,28.809,38.574,59.570,-16.602,0
1486223476.127,104.492,36.621,36.621,64.941,-61.035,0
1486223476.131,63.477,41.504,41.016,73.730,-59.082,0
1486223476.135,13.184,30.762,53.711,87.891,68.848,0
1486223476.139,13.672,26.367,44.922,78.613,168.457,0
1486223476.142,72.266,27.832,41.992,62.500,34.668,0
1486223476.146,93.262,20.996,37.109,64.453,-22.461,0
1486223476.150,49.805,26.855,46.387,70.801,11.230,0
1486223476.154,-7.324,33.203,53.223,79.102,74.219,0
1486223476.158,-15.137,32.715,33.691,70.312,164.062,0
1486223476.162,54.688,29.785,37.109,55.176,39.062,0
1486223476.166,95.215,21.484,43.457,55.664,-43.945,0
1486223476.170,53.711,20.996,34.668,56.152,-6.348,0
1486223476.174,-7.324,31.738,39.551,73.242,66.895,0
1486223476.178,-16.602,31.250,35.156,71.289,154.297,0
1486223476.182,45.898,26.855,33.691,50.293,54.199,0
1486223476.185,83.984,25.391,42.480,50.781,-66.406,0
1486223476.189,55.664,20.996,38.574,60.059,-44.922,0
1486223476.193,-4.883,29.785,40.527,78.125,60.059,0
1486223476.197,-31.738,32.715,38.574,76.172,140.137,0
1486223476.201,38.574,35.645,47.363,56.641,65.430,0
1486223476.205,104.980,38.574,52.734,61.523,-48.828,0
1486223476.209,71.777,27.344,38.574,61.035,-38.574,0
1486223476.213,-5.371,27.344,33.203,55.664,32.227,0
1486223476.217,-26.367,35.645,38.574,66.895,143.066,0
1486223476.221,37.598,33.691,44.434,58.594,87.891,0
1486223476.224,93.750,30.273,33.203,48.828,-67.383,0
1486223476.228,76.172,31.738,33.203,54.688,-54.199,0
1486223476.232,8.301,26.367,38.574,63.477,40.527,0
1486223476.236,-20.996,25.391,38.086,70.801,159.668,0
1486223476.240,29.785,28.809,36.621,56.152,125.488,0
1486223476.244,92.773,27.344,34.180,55.664,-31.250,0
1486223476.248,82.520,29.785,41.504,59.570,-41.016,0
1486223476.252,22.949,35.645,44.922,62.988,20.996,0
1486223476.256,-18.555,30.273,42.969,73.242,145.508,0
1486223476.260,12.695,25.879,47.363,63.965,187.988,0
1486223476.264,82.031,24.414,36.133,58.105,41.504,0
1486223476.267,90.820,26.855,24.902,61.523,-22.461,0
1486223476.271,29.297,30.273,29.785,65.918,20.020,0
1486223476.275,-20.020,36.621,41.016,78.613,144.531,0
1486223476.279,9.766,30.762,44.922,69.336,166.504,0
1486223476.283,73.730,23.438,34.180,52.246,12.695,0
1486223476.287,91.309,28.809,34.180,62.500,-27.832,0
1486223476.291,42.480,32.227,34.668,61.035,24.902,0
1486223476.295,-17.578,31.250,35.645,60.547,93.750,0
1486223476.299,3.418,32.715,56.152,68.359,131.348,0
1486223476.303,78.125,37.109,49.316,56.641,38.086,0
1486223476.307,96.680,30.273,28.809,55.664,-7.812,0
1486223476.310,53.223,27.832,28.320,60.059,6.348,0
1486223476.314,-9.766,28.320,33.203,70.312,115.234,0
1486223476.318,-6.836,26.367,36.133,70.801,186.035,0
1486223476.322,62.988,31.250,38.086,55.176,24.414,0
1486223476.326,104.980,35.645,48.340,63.965,-49.316,0
1486223476.330,68.848,29.297,43.945,63.965,-24.414,0
1486223476.334,-9.277,24.414,38.086,66.895,62.012,0
1486223476.338,-15.137,30.273,37.109,70.801,168.457,0
1486223476.342,59.082,30.273,39.551,52.734,23.926,0
1486223476.346,99.609,28.320,48.828,61.523,-75.684,0
1486223476.349,67.871,30.273,42.969,68.848,-40.527,0
1486223476.353,2.441,26.855,35.645,72.266,49.805,0
1486223476.357,-9.766,23.438,25.879,71.289,155.273,0
1486223476.361,53.711,28.809,28.809,56.641,43.457,1
1486223476.365,108.398,32.715,37.109,57.129,-55.664,0
1486223476.369,82.031,27.344,23.438,57.129,-51.758,0
1486223476.373,14.648,25.879,28.320,71.289,-4.395,0
1486223476.377,-5.859,31.250,41.504,82.520,155.273,0
1486223476.381,49.316,27.344,41.992,56.152,83.984,0
1486223476.385,100.586,26.855,39.062,51.758,-65.430,0
1486223476.389,83.496,33.203,41.016,61.523,-76.660,0
1486223476.392,16.602,28.320,51.758,69.824,-11.719,0
1486223476.396,-28.320,21.973,43.945,74.707,126.465,0
1486223476.400,12.695,26.855,38.574,52.734,64.941,0
1486223476.404,73.242,25.879,32.227,47.852,-48.340,0
1486223476.408,76.660,28.809,28.809,56.152,-48.340,0
1486223476.412,14.648,28.320,37.109,58.594,-24.902,0
1486223476.416,-35.156,22.461,31.738,67.383,96.680,0
1486223476.420,16.602,29.297,39.062,64.453,119.629,0
1486223476.424,90.332,34.668,42.480,58.105,-13.184,0
1486223476.428,82.031,26.367,32.227,56.641,-20.996,0
1486223476.431,29.297,24.902,39.551,64.453,1.465,0
1486223476.435,-19.531,24.414,50.781,78.125,96.191,0
1486223476.439,8.789,33.203,39.551,67.871,174.316,0
1486223476.443,81.055,37.109,30.273,55.176,1.465,0
1486223476.447,87.891,30.762,35.645,57.617,-35.156,0
1486223476.451,36.621,28.809,29.297,58.594,22.949,0
1486223476.455,-17.090,23.438,32.715,64.453,97.656,0
1486223476.459,-0.977,23.438,39.062,57.129,146.973,0
1486223476.463,72.266,27.832,39.062,51.758,1.953,0
1486223476.467,97.168,30.762,47.363,67.383,-76.660,0
1486223476.471,45.410,24.902,40.039,68.359,-53.223,0
1486223476.474,-12.207,28.809,28.320,78.613,72.266,0
1486223476.478,4.395,31.738,41.992,79.590,197.266,0
1486223476.482,63.965,28.809,38.086,52.246,58.105,0
1486223476.486,92.773,33.203,31.250,54.199,-59.570,0
1486223476.490,59.082,33.203,43.457,66.406,-41.992,0
1486223476.494,-5.371,30.762,46.875,78.613,93.750,0
1486223476.498,-13.184,26.855,39.551,77.637,219.727,0
1486223476.502,52.246,27.344,33.691,56.152,72.266,0
1486223476.506,91.797,23.926,33.203,54.688,-30.273,0
1486223476.510,60.059,23.438,34.668,65.430,-5.371,0
1486223476.514,8.789,31.250,42.969,92.773,109.863,0
1486223476.517,-2.930,28.320,38.086,96.191,210.938,0
1486223476.521,45.898,20.020,23.926,58.594,75.684,0
1486223476.525,91.797,22.949,31.738,50.293,-23.438,0
1486223476.529,83.008,41.504,48.340,74.219,6.348,0
1486223476.533,17.578,41.504,48.828,83.496,66.406,0
1486223476.537,-14.648,26.855,39.062,80.078,192.383,0
1486223476.541,42.969,28.320,48.828,63.477,110.840,0
1486223476.545,98.145,34.180,48.340,61.035,-35.156,0
1486223476.549,80.078,28.809,35.156,67.871,-34.180,0
1486223476.553,18.555,22.949,37.109,70.801,35.645,0
1486223476.556,-14.160,29.297,41.504,77.637,180.664,0
1486223476.560,27.344,30.762,44.434,59.082,145.020,0
1486223476.564,84.473,25.879,41.992,54.688,9.766,0
1486223476.568,87.402,28.809,36.133,64.453,-14.160,0
1486223476.572,28.320,36.133,38.086,65.918,18.555,0
1486223476.576,-20.508,34.668,44.434,77.148,153.320,0
1486223476.580,16.113,30.762,40.527,63.477,156.250,0
1486223476.584,76.660,29.297,36.133,49.316,17.578,0
1486223476.588,81.055,28.809,40.527,59.570,-25.879,0
1486223476.592,37.598,30.762,40.527,70.312,-6.836,0
1486223476.596,-13.184,33.691,46.387,84.473,137.207,0
1486223476.599,17.090,34.180,46.387,75.684,176.758,0
1486223476.603,90.820,32.227,32.715,59.570,10.254,0
1486223476.607,97.656,31.250,40.039,63.965,-18.555,0
1486223476.611,41.992,28.320,41.992,62.500,14.160,0
1486223476.615,-14.160,28.809,39.551,75.195,144.531,0
1486223476.619,5.859,33.691,40.527,72.266,198.730,0
1486223476.623,73.242,27.832,32.227,50.293,29.297,0
1486223476.627,92.285,25.391,31.250,59.082,-50.781,0
1486223476.631,47.363,33.691,38.086,62.988,-4.395,0
1486223476.635,-9.277,33.691,49.805,79.590,103.027,0
1486223476.639,-2.930,26.855,43.945,82.031,174.805,0
1486223476.642,65.918,26.855,23.438,57.129,38.574,0
1486223476.646,102.051,30.273,29.785,62.988,-50.781,0
1486223476.650,59.082,33.691,42.480,68.848,-14.160,0
1486223476.654,-5.859,33.203,43.457,78.125,57.617,0
1486223476.658,-3.418,32.227,50.781,82.031,144.531,0
1486223476.662,71.777,32.715,48.340,61.523,43.945,0
1486223476.666,110.352,31.250,28.320,60.059,-41.504,0
1486223476.670,70.312,32.715,30.273,62.500,-10.254,0
1486223476.674,5.371,39.551,50.781,72.754,99.121,0
1486223476.678,-11.719,31.250,38.574,76.172,240.234,0
1486223476.681,42.969,18.066,21.973,55.664,107.422,0
1486223476.685,96.191,28.809,36.621,64.941,-15.625,0
1486223476.689,76.660,36.621,39.551,71.777,-15.625,0
1486223476.693,5.371,33.691,35.645,67.383,34.180,0
1486223476.697,-20.508,28.320,37.598,73.730,175.293,0
1486223476.701,33.203,23.926,33.691,54.199,125.000,0
1486223476.705,94.727,28.809,32.715,52.734,3.906,0
1486223476.709,84.473,35.156,37.109,69.336,-9.766,0
1486223476.713,19.043,38.086,40.039,82.520,33.691,0
1486223476.717,-21.484,32.715,40.527,83.496,145.020,0
1486223476.721,25.879,26.855,34.668,50.293,117.188,0
1486223476.724,83.008,23.438,23.926,44.434,-8.301,0
1486223476.728,78.613,33.691,28.809,60.059,-23.438,0
1486223476.732,20.020,35.645,31.250,60.059,4.395,0
1486223476.736,-20.996,23.926,30.762,69.336,146.973,0
1486223476.740,23.438,28.809,35.156,62.988,156.738,0
1486223476.744,94.727,33.691,46.875,60.547,-11.719,0
1486223476.748,94.727,36.133,36.133,66.895,-50.781,0
1486223476.752,30.762,34.180,29.297,65.430,9.277,0
1486223476.756,-27.832,26.855,39.551,75.195,161.133,0
1486223476.760,1.465,39.062,47.363,67.383,170.410,0
1486223476.763,82.520,38.574,53.223,57.129,0.977,0
1486223476.767,83.496,20.996,37.109,55.664,-22.461,0
1486223476.771,24.414,27.344,31.738,59.570,8.301,0
1486223476.775,-24.902,32.227,38.574,72.266,119.629,0
1486223476.779,-0.488,26.367,41.992,64.453,183.594,0
1486223476.783,69.824,29.785,42.480,49.316,33.691,0
1486223476.787,94.727,33.691,44.434,56.641,-51.270,0
1486223476.791,43.457,25.391,46.387,53.223,-20.020,0
1486223476.795,-24.902,25.879,36.133,61.035,112.793,0
1486223476.799,-18.066,30.762,28.809,59.570,204.102,0
1486223476.803,64.941,37.109,41.504,50.293,30.762,0
1486223476.806,97.168,32.227,50.293,62.500,-57.617,0
1486223476.810,44.922,26.855,43.945,60.059,-20.020,0
1486223476.814,-19.043,31.250,46.875,63.477,60.547,0
1486223476.818,-19.531,29.297,41.504,63.477,186.523,0
1486223476.822,47.852,26.855,33.203,43.945,61.523,0
1486223476.826,90.332,31.250,35.645,51.270,-54.199,0
1486223476.830,62.012,31.738,51.270,67.871,-37.109,0
1486223476.834,-0.488,29.785,47.363,76.172,63.477,0
1486223476.838,-11.230,28.809,40.527,73.730,201.660,0
1486223476.842,47.852,26.367,41.992,51.758,73.730,0
1486223476.846,89.355,28.320,35.645,56.152,-46.875,0
1486223476.849,63.965,26.855,42.480,62.500,-39.551,0
1486223476.853,10.742,35.645,44.922,71.777,33.691,0
1486223476.857,-8.789,36.621,41.016,80.078,183.594,0
1486223476.861,52.734,32.227,40.039,61.035,92.285,0
1486223476.865,118.164,40.039,57.129,67.383,-67.871,0
1486223476.869,87.891,25.879,57.129,73.242,-78.613,0
1486223476.873,8.789,17.578,43.945,69.336,-9.766,1
1486223476.877,-16.602,23.926,39.062,78.613,119.141,0
1486223476.881,31.250,23.926,29.297,62.988,93.262,0
1486223476.885,85.938,27.344,40.527,60.059,-18.066,0
1486223476.888,82.031,28.809,36.621,64.453,-55.176,0
1486223476.892,17.578,26.855,34.668,62.500,-18.066,0
1486223476.896,-18.555,31.738,37.598,76.172,120.117,0
1486223476.900,35.156,29.785,37.598,67.871,119.629,0
1486223476.904,97.656,25.879,44.922,55.664,-14.648,0
1486223476.908,92.773,29.297,44.434,60.547,-18.555,0
1486223476.912,27.832,29.297,44.434,71.777,27.344,0
1486223476.916,-8.789,33.691,42.969,84.961,152.344,0
1486223476.920,25.391,36.133,55.664,77.148,162.598,0
1486223476.924,78.125,29.297,48.828,56.641,-14.648,0
1486223476.928,87.891,31.738,27.344,51.270,-69.824,0
1486223476.931,36.133,28.320,27.832,57.129,-34.180,0
1486223476.935,-17.090,28.809,37.109,75.684,106.445,0
1486223476.939,0.977,31.250,46.387,66.895,163.086,0
1486223476.943,80.078,31.250,38.574,47.363,2.930,0
1486223476.947,98.145,27.344,35.645,49.805,-68.848,0
1486223476.951,35.156,27.832,43.945,56.152,-10.254,0
1486223476.955,-23.438,28.320,38.574,68.359,102.539,0
1486223476.959,-9.277,25.879,31.738,60.547,166.016,0
1486223476.963,59.570,27.832,46.875,45.410,35.156,0
1486223476.967,90.332,28.809,44.922,59.570,-20.020,0
1486223476.970,44.434,33.691,34.180,63.477,-29.785,0
1486223476.974,-22.461,32.715,39.062,62.500,81.055,0
1486223476.978,-19.531,26.367,38.086,61.523,187.500,0
1486223476.982,45.410,21.484,42.480,41.504,21.973,0
1486223476.986,83.008,21.973,38.574,49.805,-54.688,0
1486223476.990,55.176,22.949,38.574,61.035,-17.090,0
1486223476.994,-4.883,28.320,36.133,69.336,79.590,0
1486223476.998,-18.555,26.855,30.273,68.359,200.684,0
1486223477.002,43.945,28.809,39.551,54.688,91.797,0
1486223477.006,97.168,29.297,46.875,60.059,-25.879,0
1486223477.010,75.195,37.109,52.246,65.918,-13.672,0
1486223477.013,7.812,41.992,45.410,69.336,57.617,0
1486223477.017,-16.602,24.902,25.391,72.754,183.594,0
1486223477.021,48.340,21.973,28.809,56.152,80.566,0
1486223477.025,103.516,26.855,40.527,53.223,-42.480,0
1486223477.029,77.637,27.344,42.969,65.918,-38.574,0
1486223477.033,10.254,31.250,32.227,75.684,1.465,0
1486223477.037,-18.555,29.297,25.391,75.195,138.184,0
1486223477.041,41.016,31.250,35.156,52.246,102.539,0
1486223477.045,103.516,29.785,43.457,55.176,-19.531,0
1486223477.049,92.773,27.832,43.945,70.801,-18.555,0
1486223477.053,23.438,37.109,38.574,79.102,8.301,0
1486223477.056,-21.484,32.227,29.785,85.938,133.301,0
1486223477.060,29.297,24.414,45.410,69.336,130.859,0
1486223477.064,97.656,26.855,57.129,59.570,-21.973,0
1486223477.068,91.309,29.785,42.480,62.500,-52.734,0
1486223477.072,34.180,28.320,31.250,72.754,-12.695,0
1486223477.076,-17.578,28.809,36.621,85.938,116.211,0
1486223477.080,21.973,30.273,44.922,75.195,132.812,0
1486223477.084,86.426,25.879,49.316,62.500,-15.625,0
1486223477.088,88.379,29.785,40.527,62.988,-23.438,0
1486223477.092,43.945,40.039,34.180,64.453,-20.020,0
1486223477.095,-10.742,36.133,31.250,71.777,67.871,0
1486223477.099,8.301,27.344,32.715,62.500,142.090,0
1486223477.103,84.473,29.297,35.645,56.641,24.902,0
1486223477.107,107.910,30.273,40.039,66.895,-35.156,0
1486223477.111,53.711,32.227,47.852,69.336,-15.625,0
1486223477.115,3.418,37.598,50.293,83.008,85.449,0
1486223477.119,13.184,33.203,37.598,75.684,161.621,0
1486223477.123,73.242,30.762,34.180,54.688,1.465,0
1486223477.127,98.145,33.203,33.691,63.965,-70.801,0
1486223477.131,55.176,37.109,33.203,76.660,-13.672,0
1486223477.135,0.000,41.016,36.133,83.984,86.914,0
1486223477.138,-0.488,31.738,26.367,71.289,136.230,0
1486223477.142,69.824,26.855,26.855,54.688,-10.742,0
1486223477.146,110.352,29.785,42.969,63.477,-76.660,0
1486223477.150,68.359,28.320,40.527,61.523,-49.805,0
1486223477.154,6.348,30.762,32.227,66.406,40.527,0
1486223477.158,7.812,35.156,47.363,72.266,164.062,0
1486223477.162,68.848,37.109,39.062,53.223,41.992,0
1486223477.166,100.098,28.809,21.484,47.363,-91.309,0
1486223477.170,70.801,29.297,32.227,50.781,-50.293,0
1486223477.174,9.277,27.832,40.039,66.895,50.293,0
1486223477.178,-11.719,25.879,31.738,69.336,113.281,0
1486223477.181,47.363,30.762,32.227,48.828,22.949,0
1486223477.185,99.609,31.738,38.574,55.664,-89.844,0
1486223477.189,68.848,28.320,37.598,57.129,-75.684,0
1486223477.193,2.930,27.832,43.457,66.895,30.762,0
1486223477.197,-29.785,29.785,50.293,75.684,135.742,0
1486223477.201,22.461,22.949,49.316,52.734,81.055,0
1486223477.205,83.984,21.484,28.809,45.898,-25.391,0
1486223477.209,67.383,25.879,24.414,51.270,-30.762,0
1486223477.213,10.742,30.273,41.016,66.406,29.785,0
1486223477.217,-21.484,39.551,48.828,84.473,154.297,0
1486223477.220,20.508,28.320,45.898,64.453,151.855,0
1486223477.224,80.078,17.578,28.809,49.316,-32.227,0
1486223477.228,76.172,25.391,29.297,51.270,-63.965,0
1486223477.232,14.648,25.391,44.922,59.570,1.953,0
1486223477.236,-21.484,34.668,54.688,83.984,139.648,0
1486223477.240,13.672,28.320,46.875,62.012,171.387,0
1486223477.244,70.312,17.578,27.344,34.180,-3.418,0
1486223477.248,85.449,25.391,41.992,56.152,-33.203,0
1486223477.252,30.762,28.320,48.828,63.965,24.414,0
1486223477.256,-25.391,27.832,28.809,69.824,117.188,0
1486223477.260,0.488,22.949,32.715,65.430,169.922,0
1486223477.263,71.777,22.949,41.992,51.758,0.000,0
1486223477.267,93.750,29.297,37.109,55.664,-75.195,0
1486223477.271,41.504,27.832,32.715,54.199,-11.719,0
1486223477.275,-19.043,28.320,38.086,59.082,110.352,0
1486223477.279,0.488,27.832,43.457,55.664,189.453,0
1486223477.283,80.566,24.414,40.527,45.410,42.969,0
1486223477.287,108.398,28.809,41.016,49.805,-25.879,0
1486223477.291,51.270,30.273,44.434,49.805,-21.484,0
1486223477.295,-13.672,31.250,37.598,63.477,64.941,0
1486223477.299,-0.977,33.203,37.109,64.941,182.129,0
1486223477.302,70.312,34.668,51.270,46.875,58.594,0
1486223477.306,103.027,28.320,42.969,49.805,-56.641,0
1486223477.310,67.383,27.832,33.691,53.711,-36.621,0
1486223477.314,5.859,32.715,41.016,66.406,77.148,0
1486223477.318,-10.742,28.809,40.527,65.430,186.523,0
1486223477.322,59.082,31.250,43.945,44.922,51.758,0
1486223477.326,103.027,25.879,39.551,49.316,-48.828,0
1486223477.330,70.312,30.273,39.062,62.012,-27.344,0
1486223477.334,9.766,34.668,48.340,74.707,50.781,0
1486223477.338,-4.395,31.738,42.480,73.242,183.594,0
1486223477.342,56.641,33.691,34.180,50.781,64.453,0
1486223477.345,99.609,26.855,40.527,59.082,-59.082,0
1486223477.349,76.172,21.973,39.062,61.035,-25.879,0
1486223477.353,15.137,27.344,30.273,61.035,33.691,0
1486223477.357,-13.672,28.809,40.039,69.336,166.992,0
1486223477.361,40.039,24.902,43.945,52.246,99.121,0
1486223477.365,97.656,29.785,32.715,51.270,-82.031,0
1486223477.369,83.984,26.855,38.086,57.617,-72.754,0
1486223477.373,20.996,26.855,39.062,68.359,-4.395,0
1486223477.377,-14.648,30.762,35.645,79.102,125.488,0
1486223477.381,30.273,29.785,40.527,57.129,144.043,0
1486223477.385,96.191,36.621,34.180,54.688,-35.645,0
1486223477.388,93.262,36.133,43.945,72.754,-72.754,0
1486223477.392,24.414,27.344,53.711,65.430,33.203,0
1486223477.396,-21.973,22.949,34.668,63.965,153.809,0
1486223477.400,14.160,27.344,27.344,56.641,124.023,0
1486223477.404,86.914,30.762,30.762,51.270,-10.254,0
1486223477.408,96.680,25.391,25.879,53.223,-41.992,0
1486223477.412,35.156,29.297,23.926,58.105,-20.508,0
1486223477.416,-13.672,32.227,29.297,72.754,110.352,0
1486223477.420,19.531,32.227,29.785,64.941,165.039,0
1486223477.424,90.332,32.227,39.551,61.523,-2.930,0
1486223477.427,111.816,36.133,44.922,70.312,-84.961,0
1486223477.431,52.246,33.691,46.387,66.406,-66.895,0
1486223477.435,-21.973,31.250,46.875,72.754,81.055,0
1486223477.439,-1.953,32.715,34.668,69.336,125.488,0
1486223477.443,73.242,30.273,44.922,54.199,-41.504,0
1486223477.447,87.402,24.902,39.062,52.734,-101.562,0
1486223477.451,39.551,24.902,25.879,54.199,-62.500,2
1486223477.455,-19.043,26.367,30.762,60.547,81.055,0
1486223477.459,-5.859,28.809,35.645,60.547,199.707,0
1486223477.463,60.547,28.320,32.227,49.316,54.199,0
1486223477.467,97.168,30.762,43.945,61.523,-25.879,0
1486223477.470,60.059,36.621,49.316,63.965,-23.438,0
1486223477.474,-12.207,37.598,36.621,62.500,45.410,0
1486223477.478,-11.719,35.156,35.156,65.918,159.180,0
1486223477.482,54.688,31.250,43.457,55.176,22.461,0
1486223477.486,92.773,26.855,42.969,55.176,-112.305,0
1486223477.490,61.523,27.344,32.715,55.176,-81.055,0
1486223477.494,1.953,36.621,47.363,72.754,50.293,0
1486223477.498,-13.184,32.715,45.410,77.637,156.738,0
1486223477.502,38.574,19.531,27.832,46.875,42.969,0
1486223477.506,88.867,27.344,31.250,58.105,-66.895,0
1486223477.510,66.406,23.438,27.344,68.359,-40.527,0
1486223477.513,2.930,22.461,40.039,63.477,33.691,0
1486223477.517,-14.160,32.715,53.223,74.219,149.902,0
1486223477.521,36.621,27.832,46.387,54.688,54.688,0
1486223477.525,82.520,22.461,42.969,43.945,-62.988,0
1486223477.529,65.918,23.438,37.109,54.199,-20.508,0
1486223477.533,-1.953,28.809,39.551,64.453,46.875,0
1486223477.537,-38.086,31.738,39.551,69.336,173.340,0
1486223477.541,13.184,30.273,33.691,38.086,118.652,0
1486223477.545,84.961,32.227,47.852,43.945,-55.176,0
1486223477.549,81.543,28.320,41.016,61.035,-59.082,0
1486223477.552,15.625,29.785,35.156,54.199,-4.883,0
1486223477.556,-19.043,33.203,41.016,65.430,145.508,0
1486223477.560,28.809,31.738,38.086,62.012,166.016,0
1486223477.564,93.262,25.391,50.293,50.293,7.812,0
1486223477.568,86.426,18.066,47.363,53.711,-12.695,0
1486223477.572,32.715,26.367,37.598,60.059,5.371,0
1486223477.576,-11.719,32.227,40.527,71.289,150.879,0
1486223477.580,15.625,27.832,36.621,64.453,183.105,0
1486223477.584,81.543,22.461,33.691,46.875,18.066,0
1486223477.588,93.262,27.344,33.691,54.688,-44.922,0
1486223477.592,42.969,28.809,35.645,62.500,12.207,0
1486223477.595,-11.719,25.879,46.387,73.730,145.020,0
1486223477.599,6.348,27.832,48.340,72.266,200.195,0
1486223477.603,62.012,22.461,42.480,49.805,53.223,0
1486223477.607,91.309,21.484,42.480,50.781,-31.250,0
1486223477.611,52.246,24.902,34.180,50.293,-5.371,0
1486223477.615,-15.625,34.668,36.621,60.059,85.449,0
1486223477.619,-2.441,36.133,38.086,60.059,179.688,0
1486223477.623,69.824,22.461,24.902,45.898,30.273,0
1486223477.627,104.004,27.344,31.250,58.105,-73.730,0
1486223477.631,66.406,36.621,45.898,61.035,-17.090,0
1486223477.634,-0.488,31.738,50.293,73.730,97.656,0
1486223477.638,3.906,31.250,49.316,80.078,174.805,0
1486223477.642,66.406,27.832,41.992,53.711,33.203,0
1486223477.646,103.027,24.414,35.645,54.688,-49.316,0
1486223477.650,72.266,29.785,34.180,61.523,-16.113,0
1486223477.654,5.859,32.715,41.504,69.824,54.688,0
1486223477.658,-8.301,31.738,36.133,78.125,198.242,0
1486223477.662,59.570,28.809,30.762,52.734,114.746,0
1486223477.666,112.793,24.902,42.480,59.570,-5.371,0
1486223477.670,83.984,28.809,42.480,78.613,-0.488,0
1486223477.674,16.113,34.668,44.922,84.473,54.688,0
1486223477.677,-14.160,24.414,48.828,83.496,185.059,0
1486223477.681,46.387,24.902,43.945,58.105,96.191,0
1486223477.685,101.074,27.344,38.574,51.758,-44.922,0
1486223477.689,93.750,24.902,37.109,61.035,-42.480,0
1486223477.693,28.809,31.250,29.297,66.895,29.297,0
1486223477.697,-16.113,36.133,30.762,75.684,167.480,0
1486223477.701,33.691,29.297,44.922,60.059,132.812,0
1486223477.705,104.004,26.367,53.711,61.035,9.277,0
1486223477.709,92.773,30.762,46.387,74.219,17.090,0
1486223477.713,26.855,32.227,47.852,74.219,74.219,0
1486223477.717,-5.371,31.250,51.758,87.402,172.852,0
1486223477.720,22.461,29.297,50.781,72.754,172.852,0
1486223477.724,81.543,24.902,44.922,52.734,25.391,0
1486223477.728,90.820,24.414,31.738,57.617,-67.871,0
1486223477.732,34.180,37.598,30.762,58.594,-34.668,0
1486223477.736,-15.625,35.645,38.086,64.453,101.562,0
1486223477.740,7.324,23.438,43.945,58.105,134.766,0
1486223477.744,67.871,26.367,40.527,41.504,1.465,0
1486223477.748,85.938,31.250,31.738,50.293,-50.781,0
1486223477.752,33.691,32.227,34.180,52.246,-33.691,0
1486223477.756,-27.832,32.715,38.086,57.129,101.074,0
1486223477.759,-7.812,31.738,46.387,51.758,158.203,0
1486223477.763,64.453,33.203,44.922,45.410,1.953,0
1486223477.767,83.008,29.297,34.668,48.340,-60.547,0
1486223477.771,36.621,28.320,33.203,44.922,-22.949,0
1486223477.775,-10.254,35.645,39.551,60.547,88.379,0
1486223477.779,-9.277,32.715,23.926,51.270,161.133,0
1486223477.783,48.828,27.832,14.160,31.738,60.059,0
1486223477.787,84.961,30.273,36.133,40.039,2.441,0
1486223477.791,41.016,32.715,34.180,39.551,26.855,0
1486223477.795,-22.949,34.668,28.809,42.969,101.562,0
1486223477.799,-22.461,33.691,36.133,44.922,174.316,0
1486223477.802,42.480,33.203,39.062,34.668,64.941,0
1486223477.806,88.379,34.668,41.992,37.598,-45.898,0
1486223477.810,52.734,29.785,36.621,41.016,-17.578,0
1486223477.814,-15.137,39.551,33.203,60.547,58.105,0
1486223477.818,-17.090,38.574,37.109,63.965,152.832,0
1486223477.822,45.410,21.484,28.320,37.109,78.125,0
1486223477.826,95.703,23.926,28.809,43.457,-52.734,0
1486223477.830,72.754,25.879,34.180,50.781,-33.203,0
1486223477.834,3.418,30.273,35.645,62.988,65.918,0
1486223477.838,-19.531,35.645,39.551,70.801,167.480,0
1486223477.842,41.016,32.227,41.016,53.711,109.375,0
1486223477.845,95.703,26.367,43.945,63.965,-28.809,0
1486223477.849,76.172,30.762,36.133,67.871,-37.109,0
1486223477.853,12.207,29.297,31.250,62.988,39.062,0
1486223477.857,-18.066,22.949,42.969,82.031,167.480,0
1486223477.861,26.855,24.414,37.598,62.500,147.949,0
1486223477.865,101.074,34.668,41.504,60.059,9.766,0
1486223477.869,109.375,39.062,67.383,86.914,-7.812,0
1486223477.873,30.762,36.621,55.664,76.660,43.945,0
1486223477.877,-17.578,29.297,34.668,74.707,173.828,0
1486223477.881,31.250,20.996,38.086,70.312,145.996,0
1486223477.884,96.191,23.926,37.109,59.570,-38.086,0
1486223477.888,94.727,26.367,28.809,66.406,-53.711,0
1486223477.892,35.645,28.809,28.320,66.406,7.812,0
1486223477.896,-17.090,21.484,35.645,68.359,132.324,0
1486223477.900,22.949,24.902,41.016,62.500,168.945,0
1486223477.904,103.516,31.250,54.688,62.988,10.254,0
1486223477.908,103.027,25.391,48.828,62.988,-33.203,0
1486223477.912,42.480,26.367,34.668,56.152,19.531,0
1486223477.916,-16.602,20.508,34.668,71.289,134.277,0
1486223477.920,-2.441,21.484,29.785,67.383,205.078,0
1486223477.924,68.848,25.391,31.738,44.922,45.898,0
1486223477.927,95.215,26.855,33.203,63.965,-30.762,0
1486223477.931,45.410,29.785,33.203,69.824,-0.488,0
1486223477.935,-15.137,27.832,41.992,75.195,107.910,0
1486223477.939,1.953,31.738,44.922,79.590,196.777,0
1486223477.943,76.172,33.691,50.781,62.012,26.855,0
1486223477.947,104.492,27.344,50.781,62.988,-40.527,0
1486223477.951,66.895,38.574,48.340,74.707,9.766,0
1486223477.955,-0.488,35.645,48.828,84.961,90.332,0
1486223477.959,-7.812,22.949,42.969,76.660,174.805,0
1486223477.963,65.918,27.832,33.691,60.059,56.641,0
1486223477.966,95.215,24.414,28.320,57.617,-62.500,0
1486223477.970,59.082,26.855,39.551,63.477,-45.898,0
1486223477.974,-2.441,29.785,41.992,72.754,64.941,0
1486223477.978,-18.066,24.902,39.551,64.941,160.645,0
1486223477.982,42.969,21.484,37.598,44.922,43.945,0
1486223477.986,94.238,23.926,40.039,49.805,-69.824,0
1486223477.990,70.801,28.809,43.457,61.035,-39.062,0
1486223477.994,3.418,27.344,42.969,76.172,54.199,0
1486223477.998,-15.625,28.320,42.969,83.984,180.664,0
1486223478.002,45.898,32.715,38.574,58.594,81.055,0
1486223478.006,102.051,32.715,34.668,50.293,-43.457,0
1486223478.009,76.172,32.715,38.086,56.152,-11.230,2
1486223478.013,-0.488,28.809,33.691,55.176,65.430,0
1486223478.017,-27.344,27.832,35.645,63.965,204.590,0
1486223478.021,27.344,28.809,35.645,49.805,139.648,0
1486223478.025,81.543,24.414,36.621,40.039,-7.324,0
1486223478.029,70.801,28.809,36.133,50.293,-45.898,0
1486223478.033,8.301,31.738,34.668,54.688,-0.488,0
1486223478.037,-16.602,32.227,34.180,70.801,129.395,0
1486223478.041,32.227,29.785,25.879,57.129,70.801,0
1486223478.045,85.449,29.785,37.109,48.340,-44.922,0
1486223478.049,90.820,34.180,56.641,66.895,-61.523,0
1486223478.052,24.414,26.367,42.480,58.105,-28.320,0
1486223478.056,-29.785,25.391,29.785,64.941,137.207,0
1486223478.060,2.930,22.461,26.855,56.152,177.246,0
1486223478.064,79.102,29.297,33.203,47.363,19.531,0
1486223478.068,91.309,34.668,42.969,56.152,-30.273,0
1486223478.072,29.297,25.879,37.109,57.617,16.113,0
1486223478.076,-17.578,26.367,33.691,72.754,143.066,0
1486223478.080,9.766,28.320,38.574,64.941,172.363,0
1486223478.084,81.055,28.809,39.551,51.758,-14.648,0
1486223478.088,98.145,30.273,38.574,60.059,-64.941,0
1486223478.091,44.922,33.691,48.828,71.777,-6.836,0
1486223478.095,-9.766,30.273,54.688,86.914,103.027,0
1486223478.099,-3.906,23.438,36.133,66.406,200.195,0
1486223478.103,56.152,22.949,25.391,43.945,50.781,0
1486223478.107,84.961,21.973,30.762,47.363,-50.293,0
1486223478.111,49.316,23.926,28.320,51.270,-35.645,0
1486223478.115,-10.254,32.227,34.180,70.801,78.613,0
1486223478.119,-7.324,34.668,42.480,69.824,187.500,0
1486223478.123,59.570,29.785,37.109,46.875,25.391,0
1486223478.127,92.285,30.762,39.062,49.316,-65.918,0
1486223478.131,55.176,31.250,35.645,45.898,-26.855,0
1486223478.134,-5.859,23.926,30.762,62.988,44.434,0
1486223478.138,-8.301,27.832,43.945,81.543,166.016,0
1486223478.142,57.129,27.344,46.387,59.082,63.477,0
1486223478.146,96.680,27.344,29.297,56.152,-71.777,0
1486223478.150,72.266,31.250,33.203,66.895,-62.012,0
1486223478.154,6.836,27.344,44.922,75.684,32.715,0
1486223478.158,-18.066,28.320,41.016,77.637,134.277,0
1486223478.162,47.363,25.391,38.086,59.570,71.289,0
1486223478.166,97.168,24.414,32.715,60.059,-65.430,0
1486223478.170,69.336,25.879,33.203,66.895,-54.688,0
1486223478.173,14.648,34.668,44.434,82.031,45.410,0
1486223478.177,-11.719,37.109,58.105,89.355,155.762,0
1486223478.181,26.367,27.344,42.969,59.082,76.660,0
1486223478.185,81.543,25.879,35.645,46.875,-71.289,0
1486223478.189,75.195,26.367,46.875,61.035,-32.227,0
1486223478.193,14.648,26.367,37.109,70.801,11.230,0
1486223478.197,-16.113,24.414,33.203,79.102,119.629,0
1486223478.201,26.367,17.578,36.621,62.012,145.508,0
1486223478.205,83.984,21.973,35.156,54.199,-27.344,0
1486223478.209,89.355,31.738,31.738,65.918,-42.480,0
1486223478.213,29.297,36.133,38.086,66.895,11.719,0
1486223478.216,-15.625,31.738,45.410,77.148,133.789,0
1486223478.220,9.766,20.996,42.969,63.965,166.016,0
1486223478.224,77.148,23.926,39.062,58.105,-14.648,0
1486223478.228,94.727,28.809,44.434,69.336,-64.453,0
1486223478.232,38.574,30.273,36.133,71.289,0.488,0
1486223478.236,-20.996,26.367,26.855,75.195,146.973,0
1486223478.240,2.441,24.414,35.645,61.523,185.059,0
1486223478.244,86.914,32.227,28.809,50.293,28.320,0
1486223478.248,96.191,31.738,31.250,62.500,-22.949,0
1486223478.252,35.156,23.438,38.086,62.988,-4.883,0
1486223478.256,-11.719,32.227,33.691,72.754,99.609,0
1486223478.259,8.301,36.621,41.504,77.637,186.035,0
1486223478.263,75.195,25.391,51.758,56.152,52.246,0
1486223478.267,107.422,27.832,42.969,58.594,-16.113,0
1486223478.271,63.477,27.344,34.180,64.941,-16.113,0
1486223478.275,-9.766,24.902,28.320,71.777,87.891,0
1486223478.279,-5.859,24.902,22.949,69.336,180.176,0
1486223478.283,66.406,27.344,38.086,52.734,41.992,0
1486223478.287,110.352,34.180,41.016,66.895,-50.293,0
1486223478.291,62.988,28.809,35.156,67.383,-31.738,0
1486223478.295,-7.812,28.320,36.133,71.777,78.613,0
1486223478.298,-3.418,33.203,40.527,73.730,214.844,0
1486223478.302,59.082,34.668,41.504,42.480,72.266,0
1486223478.306,104.004,30.762,41.992,49.805,-62.988,0
1486223478.310,70.312,29.297,41.016,62.988,-42.480,0
1486223478.314,-6.348,24.902,38.086,66.406,30.762,0
1486223478.318,-13.672,24.902,41.016,74.219,140.625,0
1486223478.322,47.852,26.855,36.621,53.223,71.777,0
1486223478.326,94.727,27.344,37.598,55.176,-18.066,0
1486223478.330,71.289,37.598,41.016,65.430,-36.133,0
1486223478.334,6.836,35.645,45.410,73.730,-19.043,0
1486223478.338,-28.809,23.438,41.016,77.637,111.816,0
1486223478.341,20.020,23.438,27.344,47.852,116.211,0
1486223478.345,86.914,21.973,28.320,39.062,-24.902,0
1486223478.349,76.660,24.902,40.527,53.223,-77.148,0
1486223478.353,18.066,29.297,56.641,66.895,-5.859,0
1486223478.357,-30.762,22.949,46.875,65.918,150.879,0
1486223478.361,4.395,20.020,30.273,45.410,131.348,0
1486223478.365,81.543,24.902,29.785,44.922,3.418,0
1486223478.369,80.078,20.508,21.973,49.316,-12.695,0
1486223478.373,20.508,23.438,33.691,54.688,15.625,0
1486223478.377,-16.602,35.156,49.316,74.707,153.320,0
1486223478.381,14.160,25.879,32.227,64.941,160.645,0
1486223478.384,72.266,20.020,26.855,51.270,1.953,0
1486223478.388,83.984,35.156,40.039,54.688,-88.867,0
1486223478.392,37.598,29.297,49.316,61.523,-62.988,0
1486223478.396,-20.508,15.137,38.086,70.312,93.262,0
1486223478.400,0.000,20.996,29.785,54.199,117.676,0
1486223478.404,75.195,25.879,40.527,47.852,-11.230,0
1486223478.408,90.820,22.461,42.480,62.012,-39.551,0
1486223478.412,30.762,24.902,39.551,60.547,-20.508,0
1486223478.416,-25.879,28.320,39.062,69.824,113.281,0
1486223478.420,-3.418,32.227,32.227,66.895,173.340,0
1486223478.423,68.359,34.180,37.598,53.711,19.043,0
1486223478.427,96.191,27.344,41.992,55.664,-63.965,0
1486223478.431,55.176,28.809,37.109,58.105,-38.574,0
1486223478.435,-7.812,36.133,39.551,72.266,67.871,0
1486223478.439,-6.836,29.297,36.133,64.453,193.359,0
1486223478.443,57.129,23.438,33.691,40.527,70.801,0
1486223478.447,79.102,26.367,28.809,43.945,-34.668,0
1486223478.451,43.945,24.902,28.320,47.363,-0.977,0
1486223478.455,-9.277,26.367,40.527,60.547,73.242,0
1486223478.459,-6.348,34.668,37.598,62.012,145.020,0
1486223478.463,60.059,29.297,28.809,39.551,19.531,0
1486223478.466,100.098,23.438,40.527,51.270,-66.895,0
1486223478.470,67.871,24.902,34.180,58.594,-15.625,0
1486223478.474,-2.930,26.855,18.066,60.059,81.543,0
1486223478.478,-12.695,27.832,28.809,64.941,149.902,0
1486223478.482,52.734,30.273,35.645,52.246,45.898,0
1486223478.486,94.727,31.250,36.133,49.316,-60.547,0
1486223478.490,73.242,30.273,37.109,56.641,-67.383,0
1486223478.494,7.324,29.297,33.691,68.848,21.484,0
1486223478.498,-20.020,25.391,34.668,66.406,159.668,0
1486223478.502,36.133,24.414,41.992,46.875,77.148,0
1486223478.505,91.309,31.738,45.898,53.711,-46.875,0
1486223478.509,79.102,29.785,30.273,59.570,-13.672,0
1486223478.513,14.160,23.926,18.555,61.035,44.922,0
1486223478.517,-23.926,26.367,22.461,69.824,195.801,0
1486223478.521,30.762,32.227,33.203,51.758,124.512,0
1486223478.525,94.727,35.645,36.133,48.340,-58.105,0
1486223478.529,88.867,39.062,38.086,58.594,-41.016,0
1486223478.533,35.156,38.086,53.711,67.871,32.715,0
1486223478.537,-22.461,28.320,48.340,70.801,145.508,0
1486223478.541,0.977,21.484,34.180,46.387,155.273,0
1486223478.545,80.566,21.973,30.762,42.969,36.621,0
1486223478.548,90.332,28.320,27.832,53.223,-25.391,0
1486223478.552,24.414,29.297,34.668,57.129,-4.883,0
1486223478.556,-24.414,27.832,29.297,67.383,136.719,0
1486223478.560,5.859,30.273,22.949,59.082,196.289,0
1486223478.564,79.590,23.438,33.691,52.734,37.598,0
1486223478.568,95.215,20.996,46.387,64.453,-31.250,0
1486223478.572,38.086,28.320,55.176,70.312,13.184,0
1486223478.576,-21.973,27.832,62.012,70.801,150.391,0
1486223478.580,-5.371,18.555,42.480,55.176,204.590,0
1486223478.584,64.941,18.066,31.738,44.922,53.711,0
1486223478.588,87.891,21.973,43.457,52.246,-13.672,0
1486223478.591,40.039,31.250,34.668,60.547,-3.906,0
1486223478.595,-24.902,30.273,32.715,77.148,90.332,0
1486223478.599,-8.789,24.902,39.551,66.406,166.504,0
1486223478.603,64.941,25.391,32.227,42.969,20.508,0
1486223478.607,97.168,20.020,32.715,52.246,-33.203,0
1486223478.611,52.734,20.996,37.109,61.523,-3.418,1
1486223478.615,2.930,33.691,53.711,73.730,56.152,0
1486223478.619,4.883,32.227,55.664,64.453,166.504,0
1486223478.623,57.129,25.879,34.668,34.180,40.039,0
1486223478.627,102.539,29.297,42.480,47.852,-93.262,0
1486223478.630,76.172,30.273,35.645,55.664,-78.613,0
1486223478.634,5.371,30.273,28.809,60.059,46.875,0
1486223478.638,-11.230,29.297,34.668,69.336,172.363,0
1486223478.642,54.688,23.438,23.926,50.293,46.875,0
1486223478.646,105.469,22.949,30.273,57.617,-54.199,0
1486223478.650,76.172,29.297,47.852,70.312,-15.625,0
1486223478.654,3.906,28.320,43.945,66.895,41.504,0
1486223478.658,-27.344,22.949,40.039,76.660,167.969,0
1486223478.662,38.574,27.832,56.641,69.336,93.262,0
1486223478.666,96.680,30.273,62.012,60.059,-74.707,0
1486223478.670,68.848,21.973,36.621,64.941,-58.594,0
1486223478.673,10.742,26.367,31.738,68.848,19.043,0
1486223478.677,-22.949,31.250,35.156,72.266,147.461,0
1486223478.681,25.391,21.484,31.250,49.805,116.699,0
1486223478.685,91.797,20.508,29.785,42.969,-15.137,0
1486223478.689,83.984,24.902,32.227,58.105,-30.762,0
1486223478.693,14.160,20.020,38.086,58.594,18.066,0
1486223478.697,-26.855,26.367,46.875,74.219,188.477,0
1486223478.701,22.949,29.785,53.711,71.289,167.480,0
1486223478.705,84.961,27.344,43.457,54.688,-17.578,0
1486223478.709,86.914,30.762,41.504,64.453,-39.062,0
1486223478.713,26.367,23.438,52.734,64.941,38.574,0
1486223478.716,-21.484,28.320,47.852,75.195,167.480,0
1486223478.720,9.277,29.297,30.762,62.500,173.340,0
1486223478.724,64.941,18.555,16.602,40.039,0.000,0
1486223478.728,87.891,24.414,27.832,51.758,-30.762,0
1486223478.732,41.992,28.809,41.504,50.293,35.156,0
1486223478.736,-17.578,25.879,25.391,61.035,143.066,0
1486223478.740,7.812,27.344,21.973,68.848,184.570,0
1486223478.744,83.008,28.809,37.109,55.664,24.902,0
1486223478.748,107.422,33.691,35.156,59.082,-46.875,0
1486223478.752,58.594,35.645,42.969,59.082,-25.879,0
1486223478.755,-0.977,29.297,38.574,69.824,69.824,0
1486223478.759,5.371,27.832,28.809,70.801,180.176,0
1486223478.763,74.219,31.250,32.715,51.758,29.297,0
1486223478.767,103.027,22.949,31.738,54.688,-68.848,0
1486223478.771,56.152,20.996,31.250,60.547,-34.668,0
1486223478.775,-10.254,28.320,28.809,70.312,67.871,0
1486223478.779,-10.742,25.879,36.133,67.383,163.574,0
1486223478.783,66.406,26.855,54.688,52.734,24.414,0
1486223478.787,112.305,31.738,54.688,61.523,-54.688,0
1486223478.791,67.871,27.832,39.551,62.988,-2.930,0
1486223478.795,-0.977,27.832,27.832,66.895,99.609,0
1486223478.798,-8.301,25.391,20.508,69.336,196.289,0
1486223478.802,58.594,21.973,30.273,46.875,70.312,0
1486223478.806,104.492,26.367,39.062,49.805,-48.828,0
1486223478.810,74.707,23.926,42.480,59.082,-0.488,0
1486223478.814,16.602,29.785,45.898,75.684,74.219,0
1486223478.818,-11.719,31.250,35.156,79.590,152.344,0
1486223478.822,36.621,27.344,32.227,45.410,82.520,0
1486223478.826,97.656,32.715,45.410,47.363,-62.500,0
1486223478.830,75.195,28.320,26.855,51.270,-45.898,0
1486223478.834,6.836,27.832,14.648,49.805,75.684,0
1486223478.837,-26.855,27.832,27.832,64.941,180.664,0
1486223478.841,25.879,35.156,22.949,53.711,127.930,0
1486223478.845,93.750,29.785,38.086,53.711,-40.527,0
1486223478.849,77.637,21.973,42.969,59.570,-63.965,0
1486223478.853,15.625,34.668,28.809,70.801,1.953,0
1486223478.857,-19.043,30.273,31.738,80.078,128.906,0
1486223478.861,22.949,25.391,42.969,65.918,130.859,0
1486223478.865,90.332,27.832,41.016,61.523,-17.578,0
1486223478.869,84.473,22.949,22.461,63.477,-41.016,0
1486223478.873,22.461,24.414,19.531,67.383,-1.465,0
1486223478.877,-26.855,27.344,28.809,70.801,142.578,0
1486223478.880,1.465,30.273,40.527,56.152,185.547,0
1486223478.884,75.195,31.738,44.922,48.828,7.812,0
1486223478.888,87.891,31.250,39.551,61.523,-53.223,0
1486223478.892,25.391,26.367,32.227,66.895,-15.625,0
1486223478.896,-20.508,26.855,35.645,74.707,89.355,0
1486223478.900,1.465,24.414,43.457,64.941,163.574,0
1486223478.904,68.848,20.508,44.434,50.781,-28.809,0
1486223478.908,92.773,24.902,33.691,54.688,-117.676,0
1486223478.912,37.598,22.949,27.832,57.617,-46.875,0
1486223478.916,-20.508,26.855,36.133,68.359,56.152,0
1486223478.920,-7.812,33.203,35.156,67.383,140.137,0
1486223478.923,59.570,27.344,38.574,50.781,-14.648,0
1486223478.927,89.355,23.438,46.875,54.688,-96.191,0
