timestamps,TP9,AF7,AF8,TP10,Right AUX,Marker
1486223115.483,-44.922,27.832,32.715,58.105,82.031,0
1486223115.487,-28.809,22.949,40.039,52.734,77.148,0
1486223115.491,85.938,25.879,37.598,58.594,-16.602,0
1486223115.495,133.301,33.691,31.250,74.219,12.695,0
1486223115.499,69.824,35.645,37.109,67.871,34.180,0
1486223115.503,-35.156,30.762,43.945,56.152,46.387,0
1486223115.507,-26.367,31.250,41.992,53.711,39.062,0
1486223115.511,90.332,35.156,50.781,62.988,-52.734,0
1486223115.514,134.766,25.391,38.574,72.266,4.395,0
1486223115.518,74.707,26.367,11.719,58.105,17.578,0
1486223115.522,-27.344,28.809,28.809,51.270,-31.738,0
1486223115.526,-42.969,24.902,50.293,48.828,25.879,0
1486223115.530,57.617,24.414,40.527,41.992,-21.973,0
1486223115.534,128.906,27.344,38.574,65.918,-1.465,0
1486223115.538,83.496,31.738,37.598,69.824,41.504,0
1486223115.542,-24.902,32.715,41.016,54.688,23.926,0
1486223115.546,-48.340,32.227,48.828,57.617,56.152,0
1486223115.550,56.152,29.785,45.898,60.059,7.812,0
1486223115.553,130.371,23.926,32.227,65.918,41.992,0
1486223115.557,99.121,27.832,28.320,62.988,99.609,0
1486223115.561,-2.441,34.180,41.016,54.688,56.152,1
1486223115.565,-60.547,25.879,40.039,46.387,50.293,0
1486223115.569,38.574,28.809,33.691,45.410,21.973,0
1486223115.573,126.953,35.156,40.527,62.012,2.441,0
1486223115.577,97.656,32.715,42.480,60.059,29.297,0
1486223115.581,9.766,32.715,36.621,54.688,47.852,0
1486223115.585,-54.199,28.809,37.598,59.082,104.980,0
1486223115.589,24.414,29.785,40.527,57.129,39.551,0
1486223115.593,124.512,30.273,32.227,64.941,2.930,0
1486223115.596,105.957,31.738,35.156,65.430,90.332,0
1486223115.600,13.672,30.762,41.504,52.734,78.125,0
1486223115.604,-60.547,29.297,42.969,50.781,70.801,0
1486223115.608,-6.348,27.832,41.504,51.270,32.227,0
1486223115.612,108.398,32.715,40.039,65.918,-7.324,0
1486223115.616,120.605,32.227,32.227,72.266,37.109,0
1486223115.620,38.574,28.809,32.227,60.059,33.691,0
1486223115.624,-40.039,41.504,45.898,55.664,59.082,0
1486223115.628,-0.488,38.086,38.086,54.199,53.223,0
1486223115.632,111.328,25.391,32.715,59.570,-17.578,0
1486223115.636,132.812,33.203,41.992,64.453,40.039,0
1486223115.639,54.199,37.109,38.086,56.152,55.664,0
1486223115.643,-42.480,30.762,26.855,43.945,47.852,0
1486223115.647,-22.461,26.855,28.809,38.574,34.668,0
1486223115.651,91.797,22.949,33.203,46.875,-26.855,0
1486223115.655,128.906,23.926,30.762,61.523,25.879,0
1486223115.659,68.359,34.668,37.109,62.988,58.594,0
1486223115.663,-25.391,37.598,43.945,55.176,54.199,0
1486223115.667,-29.785,30.273,39.062,46.875,59.570,0
1486223115.671,88.867,34.668,52.734,58.594,18.066,0
1486223115.675,137.207,29.297,49.805,69.336,50.781,0
1486223115.678,66.406,18.555,31.250,52.246,60.547,0
1486223115.682,-37.109,24.902,33.691,39.551,66.406,0
1486223115.686,-49.316,28.809,28.809,40.039,90.332,0
1486223115.690,64.453,22.949,26.855,43.457,-8.789,0
1486223115.694,119.141,22.949,36.621,58.594,-10.254,0
1486223115.698,70.801,32.715,45.410,60.547,50.781,0
1486223115.702,-26.855,36.621,44.922,51.758,54.688,0
1486223115.706,-56.152,28.809,35.645,45.410,91.309,0
1486223115.710,55.664,26.855,43.945,45.898,37.598,0
1486223115.714,130.371,32.227,48.340,62.012,26.367,0
1486223115.718,89.844,27.344,40.039,64.453,66.895,0
1486223115.721,-9.766,30.762,39.062,54.688,87.402,0
1486223115.725,-62.012,31.250,33.691,44.434,110.352,0
1486223115.729,31.738,25.879,37.598,42.480,21.484,0
1486223115.733,118.164,28.809,45.898,57.129,13.672,0
1486223115.737,93.262,31.250,44.922,63.477,95.703,0
1486223115.741,6.348,36.621,51.758,53.711,69.336,0
1486223115.745,-62.500,36.621,55.664,41.504,49.316,0
1486223115.749,3.906,25.391,28.809,30.762,-7.812,0
1486223115.753,101.562,20.996,21.484,47.852,-28.320,0
1486223115.757,92.285,27.832,37.109,62.988,46.875,0
1486223115.760,10.254,36.133,40.527,55.664,65.430,0
1486223115.764,-60.547,30.762,34.668,45.898,86.914,0
1486223115.768,3.418,23.438,37.598,39.551,28.320,0
1486223115.772,115.723,30.762,35.156,53.223,-41.504,0
1486223115.776,129.883,40.527,50.293,75.684,17.578,0
1486223115.780,45.410,35.156,59.082,62.988,66.895,0
1486223115.784,-45.410,30.762,41.504,42.969,87.891,0
1486223115.788,-2.930,27.344,34.180,46.387,60.547,0
1486223115.792,110.352,21.973,31.250,56.641,3.906,0
1486223115.796,131.348,23.438,31.250,71.289,20.020,0
1486223115.800,56.152,26.367,40.527,66.406,48.340,0
1486223115.803,-35.645,28.809,35.156,52.246,79.102,0
1486223115.807,-2.930,30.762,36.621,53.223,63.965,0
1486223115.811,116.699,27.344,45.898,68.359,-9.766,0
1486223115.815,148.926,30.273,39.551,79.590,47.363,0
1486223115.819,72.754,29.785,47.852,62.012,80.078,0
1486223115.823,-35.156,30.273,41.016,45.410,83.984,0
1486223115.827,-26.855,38.574,27.832,49.316,72.754,0
1486223115.831,90.820,35.645,41.504,62.988,13.184,0
1486223115.835,136.230,30.762,44.434,80.078,51.758,0
1486223115.839,62.500,33.691,45.410,65.918,73.242,0
1486223115.843,-33.691,36.133,51.758,57.129,79.590,0
1486223115.846,-36.621,29.297,41.504,57.617,91.309,0
1486223115.850,67.383,27.344,34.668,55.176,3.418,0
1486223115.854,130.371,29.785,36.133,71.289,17.578,0
1486223115.858,90.332,29.785,42.969,68.848,86.426,0
1486223115.862,-20.996,33.203,39.062,48.828,75.684,0
1486223115.866,-55.176,32.227,30.762,43.457,90.332,0
1486223115.870,55.664,23.438,27.832,44.434,20.996,0
1486223115.874,127.930,26.367,44.922,66.895,6.836,0
1486223115.878,86.914,27.832,47.852,66.406,94.238,0
1486223115.882,-21.484,26.367,33.691,44.434,80.078,0
1486223115.885,-56.641,32.227,48.340,50.781,65.430,0
1486223115.889,44.434,27.832,39.062,54.199,56.152,0
1486223115.893,122.070,22.949,23.926,61.035,35.645,0
1486223115.897,93.262,28.809,39.062,61.523,34.668,0
1486223115.901,-2.930,30.762,39.551,52.246,20.996,0
1486223115.905,-62.012,24.902,31.738,48.828,69.824,0
1486223115.909,25.879,29.297,50.293,52.734,33.691,0
1486223115.913,126.953,25.391,53.711,66.895,-10.742,0
1486223115.917,103.516,24.414,33.203,69.336,36.621,0
1486223115.921,12.207,26.367,39.551,61.035,49.316,0
1486223115.925,-55.176,24.414,41.504,58.594,67.871,0
1486223115.928,10.742,25.391,43.457,64.941,70.801,0
1486223115.932,124.512,33.203,56.641,82.520,16.113,0
1486223115.936,115.234,27.344,46.875,72.754,50.293,0
1486223115.940,24.414,22.949,43.457,56.641,14.648,0
1486223115.944,-50.293,27.832,46.875,55.176,30.273,0
1486223115.948,-10.254,25.879,35.645,48.340,72.266,0
1486223115.952,105.469,26.855,32.227,54.688,-22.949,0
1486223115.956,128.906,25.879,30.762,69.824,-2.441,0
1486223115.960,42.969,27.832,36.133,61.523,52.734,0
1486223115.964,-48.340,29.297,44.434,51.270,78.613,0
1486223115.967,-17.578,27.344,41.992,49.805,35.156,0
1486223115.971,92.285,23.438,35.645,53.711,6.348,0
1486223115.975,125.488,31.738,50.293,68.359,63.965,0
1486223115.979,50.293,36.621,57.617,60.059,41.016,0
1486223115.983,-41.504,27.344,43.457,45.410,48.340,0
1486223115.987,-22.949,26.855,37.598,41.992,65.430,0
1486223115.991,62.012,30.762,32.715,41.016,6.348,0
1486223115.995,111.328,29.297,33.203,58.105,47.852,0
1486223115.999,80.078,23.926,32.715,56.641,86.426,0
1486223116.003,-22.461,28.320,35.156,54.199,80.566,0
1486223116.007,-25.391,31.250,27.832,55.664,69.336,0
1486223116.010,89.355,28.320,37.109,57.129,-1.953,0
1486223116.014,141.602,26.855,48.828,66.895,-8.789,0
1486223116.018,90.820,34.668,42.969,64.453,28.809,0
1486223116.022,-10.742,32.715,50.781,54.688,54.199,0
1486223116.026,-41.992,21.973,47.363,45.898,63.965,0
1486223116.030,65.918,25.391,41.504,53.223,15.137,0
1486223116.034,140.625,28.809,39.062,66.895,28.320,0
1486223116.038,88.867,31.250,38.086,63.965,53.711,0
1486223116.042,-10.742,30.273,32.227,55.176,63.965,0
1486223116.046,-50.781,31.738,43.457,55.176,53.711,0
1486223116.050,41.992,33.203,42.480,56.152,-43.457,0
1486223116.053,132.812,28.320,27.344,61.035,-14.648,0
1486223116.057,107.910,27.344,38.086,65.918,13.184,0
1486223116.061,7.324,31.738,49.805,61.035,19.043,0
1486223116.065,-57.617,28.809,40.039,48.340,79.102,0
1486223116.069,21.484,23.438,31.250,48.828,22.461,0
1486223116.073,129.395,28.320,40.527,72.754,-29.785,0
1486223116.077,113.281,30.762,32.715,75.195,-10.254,0
1486223116.081,0.488,30.762,36.621,62.012,-10.742,0
1486223116.085,-53.711,31.250,45.898,51.758,25.391,0
1486223116.089,15.625,26.367,37.109,45.410,27.344,0
1486223116.092,107.910,20.020,29.297,58.594,-20.020,0
1486223116.096,115.723,32.227,29.297,78.125,29.785,0
1486223116.100,23.438,37.109,42.480,69.824,70.312,0
1486223116.104,-66.406,22.461,41.992,49.805,83.008,0
1486223116.108,-6.348,22.949,42.480,49.805,33.203,0
1486223116.112,98.145,24.902,35.645,53.223,-30.762,0
1486223116.116,108.887,28.809,41.016,65.430,-5.371,0
1486223116.120,38.086,29.297,55.664,64.941,13.672,0
1486223116.124,-50.293,25.391,47.363,51.758,32.227,0
1486223116.128,-28.809,25.391,35.645,46.875,43.457,0
1486223116.132,89.844,25.879,33.691,55.176,3.418,0
1486223116.135,121.094,29.297,31.250,68.359,18.066,0
1486223116.139,47.363,29.785,39.551,61.523,27.832,0
1486223116.143,-43.457,26.855,43.945,46.387,66.895,0
1486223116.147,-34.180,28.320,37.598,40.527,57.129,0
1486223116.151,79.590,24.414,47.852,44.922,4.395,0
1486223116.155,114.746,21.484,39.551,55.176,54.199,0
1486223116.159,57.129,30.762,40.039,60.547,51.270,0
1486223116.163,-46.387,31.738,42.480,47.852,86.426,0
1486223116.167,-45.410,27.832,32.715,37.598,82.520,0
1486223116.171,81.055,24.902,40.527,47.852,-22.461,0
1486223116.175,121.582,24.902,37.109,62.012,11.230,0
1486223116.178,63.477,23.926,28.320,65.430,43.457,0
1486223116.182,-32.227,24.414,27.344,49.805,59.570,0
1486223116.186,-50.781,29.785,34.180,44.922,70.312,0
1486223116.190,57.617,27.344,37.598,48.340,-22.949,0
1486223116.194,125.000,27.344,33.691,63.477,-4.395,0
1486223116.198,81.055,32.227,40.527,66.406,68.359,0
1486223116.202,-23.438,30.273,37.109,50.781,73.730,0
1486223116.206,-61.035,23.438,34.668,42.480,90.820,0
1486223116.210,44.922,25.879,43.457,45.410,49.316,0
1486223116.214,124.512,28.809,45.410,59.570,23.926,0
1486223116.217,83.008,20.508,39.062,56.641,46.875,0
1486223116.221,-20.020,23.926,31.738,41.016,38.574,1
1486223116.225,-68.359,27.832,26.855,36.621,65.918,0
1486223116.229,28.809,21.973,31.250,35.645,25.391,0
1486223116.233,123.535,21.484,37.598,53.711,-1.465,0
1486223116.237,102.539,25.879,41.504,64.941,4.395,0
1486223116.241,5.371,30.273,41.504,47.363,15.625,0
1486223116.245,-54.688,31.738,39.062,43.945,85.449,0
1486223116.249,20.508,37.109,43.457,53.223,63.965,0
1486223116.253,115.723,32.227,40.039,59.082,27.344,0
1486223116.257,113.770,23.438,32.227,66.406,61.035,0
1486223116.260,26.367,30.273,39.551,62.988,69.824,0
1486223116.264,-54.688,24.414,39.062,52.734,125.000,0
1486223116.268,-2.441,24.902,34.180,47.363,95.215,0
1486223116.272,104.492,24.902,32.227,55.176,38.086,0
1486223116.276,112.793,16.113,38.086,65.430,69.336,0
1486223116.280,29.297,23.926,41.016,54.688,28.320,0
1486223116.284,-49.805,34.180,43.945,50.781,45.898,0
1486223116.288,-13.184,28.809,51.758,50.781,46.875,0
1486223116.292,96.680,22.461,34.180,51.758,-10.742,0
1486223116.296,118.652,22.949,36.133,63.477,-1.465,0
1486223116.299,39.062,20.508,41.016,57.617,-10.254,0
1486223116.303,-53.223,25.391,32.715,50.781,28.320,0
1486223116.307,-18.555,39.551,49.805,57.617,67.871,0
1486223116.311,92.285,35.645,41.992,61.523,-14.160,0
1486223116.315,117.676,21.973,27.832,67.383,8.301,0
1486223116.319,56.152,27.832,36.621,60.547,58.594,0
1486223116.323,-39.551,38.086,39.551,51.758,15.625,0
1486223116.327,-27.344,33.691,39.062,48.340,27.832,0
1486223116.331,82.031,28.320,33.691,52.246,-41.992,0
1486223116.335,117.676,29.297,34.180,65.430,-26.855,0
1486223116.339,61.523,27.344,38.086,55.664,34.180,0
1486223116.342,-40.527,28.320,42.480,43.945,83.008,0
1486223116.346,-53.223,28.809,45.898,39.062,116.211,0
1486223116.350,61.035,27.832,39.551,38.086,45.898,0
1486223116.354,120.605,26.367,41.504,57.617,43.457,0
1486223116.358,78.613,32.227,43.945,58.594,47.852,0
1486223116.362,-20.508,36.621,41.992,51.270,66.895,0
1486223116.366,-59.082,29.297,33.691,45.410,113.770,0
1486223116.370,39.062,20.508,24.414,42.480,15.137,0
1486223116.374,117.676,21.484,31.738,64.453,22.461,0
1486223116.378,83.008,29.785,39.062,67.871,107.910,0
1486223116.382,-22.949,30.273,43.945,51.270,87.891,0
1486223116.385,-64.453,21.973,48.340,49.316,110.840,0
1486223116.389,31.250,19.043,36.621,45.410,59.082,0
1486223116.393,114.746,30.273,37.598,62.500,6.348,0
1486223116.397,88.379,32.227,43.457,64.941,61.035,0
1486223116.401,-13.184,28.809,32.227,45.898,51.270,0
1486223116.405,-63.965,26.855,31.250,43.945,64.941,0
1486223116.409,26.855,26.855,32.715,43.457,51.270,0
1486223116.413,119.629,30.762,39.062,60.547,3.418,0
1486223116.417,106.934,29.297,42.480,70.312,41.016,0
1486223116.421,16.602,27.344,31.250,56.152,64.941,0
1486223116.424,-57.617,26.855,35.645,47.852,88.867,0
1486223116.428,7.324,24.414,42.969,49.316,41.992,0
1486223116.432,118.652,27.344,29.785,63.477,-6.836,0
1486223116.436,125.977,30.762,31.738,73.242,49.805,0
1486223116.440,41.992,28.809,37.598,59.570,29.785,0
1486223116.444,-41.992,25.879,38.086,53.223,48.340,0
1486223116.448,5.371,26.367,41.992,58.105,55.664,0
1486223116.452,124.512,26.855,38.574,67.383,-11.719,0
1486223116.456,141.602,26.367,39.062,80.078,22.461,0
1486223116.460,52.246,30.762,38.574,76.172,32.227,0
1486223116.464,-44.922,29.297,43.457,57.129,26.855,0
1486223116.467,-16.113,27.344,50.781,55.176,53.711,0
1486223116.471,95.703,28.809,39.062,58.105,-5.371,0
1486223116.475,129.883,26.855,38.086,67.383,17.090,0
1486223116.479,54.199,24.902,40.039,61.035,47.852,0
1486223116.483,-44.922,30.273,35.645,39.062,17.090,0
1486223116.487,-35.156,20.996,35.156,27.832,22.461,0
1486223116.491,70.312,21.484,24.414,33.203,-4.883,0
1486223116.495,120.117,25.391,30.273,52.246,8.789,0
1486223116.499,57.129,20.508,38.086,45.898,22.461,0
1486223116.503,-36.133,30.762,41.016,43.457,55.176,0
1486223116.506,-42.480,30.762,53.711,46.875,71.777,0
1486223116.510,57.617,25.391,44.434,44.434,-3.906,0
1486223116.514,121.094,28.320,39.551,59.570,-1.953,0
1486223116.518,64.941,22.461,51.270,48.340,49.805,0
1486223116.522,-38.086,21.973,41.992,27.344,83.984,0
1486223116.526,-60.547,19.043,26.855,26.367,58.105,0
1486223116.530,42.480,20.508,39.551,36.133,-8.789,0
1486223116.534,119.629,21.973,46.875,57.129,1.953,0
1486223116.538,81.543,22.949,35.156,52.246,38.574,0
1486223116.542,-11.230,26.367,44.434,46.875,37.109,0
1486223116.546,-50.781,23.438,52.246,45.898,45.410,0
1486223116.549,33.691,19.043,44.922,37.109,-16.113,0
1486223116.553,117.676,21.484,41.016,62.012,-24.414,0
1486223116.557,87.402,26.367,40.527,72.266,16.602,0
1486223116.561,-18.066,28.320,36.133,57.129,20.020,0
1486223116.565,-67.871,31.250,31.738,55.176,46.875,0
1486223116.569,20.508,24.414,32.227,52.246,16.602,0
1486223116.573,111.816,21.484,36.133,66.895,20.020,0
1486223116.577,93.750,29.785,34.180,71.289,60.059,0
1486223116.581,5.371,33.203,51.270,61.035,48.828,0
1486223116.585,-58.594,25.879,46.387,56.152,73.242,0
1486223116.589,6.348,22.949,28.320,53.223,51.758,0
1486223116.592,109.863,24.414,47.363,67.871,10.254,0
1486223116.596,116.211,27.344,49.316,74.707,15.625,0
1486223116.600,37.109,37.109,44.922,61.523,35.156,0
1486223116.604,-43.457,30.762,42.969,52.246,57.129,0
1486223116.608,-1.953,21.484,34.180,45.898,45.410,0
1486223116.612,107.422,27.832,33.691,55.176,-6.836,0
1486223116.616,127.441,29.785,40.039,76.172,0.977,0
1486223116.620,45.898,25.879,42.480,63.965,10.254,0
1486223116.624,-50.293,25.391,36.133,46.387,36.621,0
1486223116.628,-22.949,29.297,32.715,44.922,33.691,0
1486223116.631,96.191,32.227,34.180,55.664,-40.527,0
1486223116.635,118.652,23.438,32.227,61.035,-10.254,0
1486223116.639,37.598,20.020,29.785,47.363,0.977,0
1486223116.643,-50.293,27.344,29.297,40.527,6.348,0
1486223116.647,-25.879,31.250,48.828,47.852,18.555,0
1486223116.651,80.078,24.414,43.945,50.781,-14.648,0
1486223116.655,123.535,25.391,41.504,65.430,14.648,0
1486223116.659,64.941,25.879,41.016,64.453,44.434,0
1486223116.663,-41.504,26.855,23.926,45.898,43.457,0
1486223116.667,-49.316,26.367,22.461,42.969,48.340,0
1486223116.671,69.824,23.438,30.762,50.781,3.906,0
1486223116.674,132.812,26.367,34.180,71.289,4.395,0
1486223116.678,73.730,29.785,30.762,68.848,48.340,0
1486223116.682,-21.973,34.180,41.992,52.246,48.340,0
1486223116.686,-41.992,27.832,30.762,46.875,42.969,0
1486223116.690,66.406,23.438,29.297,57.129,-12.207,0
1486223116.694,135.742,26.855,34.180,64.941,-19.043,0
1486223116.698,96.191,33.203,37.109,66.895,17.090,0
1486223116.702,-4.883,35.156,34.180,61.523,30.762,0
1486223116.706,-49.316,29.297,30.762,50.293,70.801,0
1486223116.710,60.059,26.367,34.668,53.223,8.789,0
1486223116.714,144.043,28.320,27.344,68.359,-17.090,0
1486223116.717,100.098,27.832,34.668,71.289,27.344,0
1486223116.721,3.418,33.203,41.992,61.523,68.848,0
1486223116.725,-43.457,32.715,50.293,60.547,103.027,0
1486223116.729,38.086,22.949,44.434,49.805,34.180,0
1486223116.733,128.906,24.902,28.320,61.523,-18.066,0
1486223116.737,101.562,26.855,30.762,71.777,24.414,0
1486223116.741,1.953,28.809,23.438,44.922,38.574,0
1486223116.745,-49.316,33.691,28.809,40.039,92.285,0
1486223116.749,24.414,35.156,39.062,51.270,56.641,0
1486223116.753,115.234,27.832,20.996,53.223,-41.504,0
1486223116.756,109.863,26.855,20.508,56.152,10.742,0
1486223116.760,25.879,37.598,42.480,52.734,63.477,0
1486223116.764,-52.246,31.250,46.875,49.316,63.965,0
1486223116.768,-4.395,19.043,41.016,37.109,17.578,0
1486223116.772,94.727,21.973,33.691,44.434,15.137,0
1486223116.776,96.680,20.996,19.531,56.152,46.875,0
1486223116.780,24.902,24.902,31.738,47.852,40.527,0
1486223116.784,-58.594,32.227,47.363,40.039,64.941,0
1486223116.788,-20.508,23.926,34.668,38.086,45.410,0
1486223116.792,99.609,24.902,31.250,54.688,-22.949,0
1486223116.796,120.117,27.344,40.039,62.988,10.254,0
1486223116.799,34.180,27.832,41.504,47.363,23.438,0
1486223116.803,-56.641,29.297,31.250,36.621,49.316,0
1486223116.807,-29.297,21.973,33.691,38.574,66.406,0
1486223116.811,92.285,20.508,41.016,47.852,1.953,0
1486223116.815,121.582,28.809,32.715,62.988,36.133,0
1486223116.819,49.316,30.273,31.250,60.547,49.805,0
1486223116.823,-45.898,19.043,31.250,45.898,33.691,0
1486223116.827,-40.039,24.414,29.297,49.316,68.848,0
1486223116.831,83.984,29.297,44.434,66.406,18.555,0
1486223116.835,127.441,26.367,38.086,75.195,32.715,0
1486223116.838,65.918,31.250,26.855,60.059,38.086,0
1486223116.842,-34.668,27.832,37.598,50.293,33.203,0
1486223116.846,-50.293,22.461,41.016,43.945,45.898,0
1486223116.850,62.988,22.461,31.250,40.527,-22.949,0
1486223116.854,131.348,27.832,34.180,65.918,-1.953,0
1486223116.858,83.496,35.156,38.574,69.336,46.387,0
1486223116.862,-23.926,31.738,29.785,47.852,44.922,0
1486223116.866,-44.434,29.297,39.551,41.992,41.992,0
1486223116.870,49.316,22.461,47.363,44.922,19.531,0
1486223116.874,120.117,19.531,36.133,60.547,25.879,0
1486223116.878,85.938,27.344,28.809,60.547,63.965,0
1486223116.881,-11.230,29.785,39.551,52.734,42.480,0
1486223116.885,-51.270,29.785,42.480,56.641,69.824,0
1486223116.889,30.762,23.926,31.250,49.805,32.715,0
1486223116.893,118.652,21.973,30.762,59.570,9.766,0
1486223116.897,98.145,28.320,43.457,70.312,78.125,1
1486223116.901,6.836,33.203,53.223,60.059,85.449,0
1486223116.905,-58.594,27.832,38.574,47.852,129.883,0
1486223116.909,20.996,27.832,30.273,45.410,78.125,0
1486223116.913,125.488,32.715,35.156,61.523,17.578,0
1486223116.917,99.609,25.879,22.949,59.082,91.309,0
1486223116.921,10.742,21.484,28.320,47.852,65.430,0
1486223116.924,-52.734,23.926,35.645,44.922,72.754,0
1486223116.928,8.789,26.855,33.203,48.340,83.984,0
1486223116.932,119.141,28.809,51.270,67.871,-6.836,0
1486223116.936,112.793,18.555,41.016,63.965,34.180,0
1486223116.940,28.320,21.484,19.531,47.852,78.125,0
1486223116.944,-44.922,28.320,33.203,48.828,76.660,0
1486223116.948,1.465,31.738,37.598,48.340,49.316,0
1486223116.952,107.910,32.227,27.832,58.105,-9.277,0
1486223116.956,123.047,23.926,34.180,71.289,59.082,0
1486223116.960,52.246,28.809,34.668,57.617,76.172,0
1486223116.963,-40.527,34.668,34.180,49.805,59.082,0
1486223116.967,-25.391,28.320,40.039,40.039,94.727,0
1486223116.971,99.609,29.785,51.270,52.246,11.230,0
1486223116.975,128.906,23.438,49.805,63.965,-23.926,0
1486223116.979,42.969,24.902,35.645,41.992,35.645,0
1486223116.983,-46.387,33.203,39.551,39.551,63.477,0
1486223116.987,-31.738,30.273,42.969,41.992,52.734,0
1486223116.991,79.590,23.438,30.273,41.992,-48.828,0
1486223116.995,138.184,23.926,21.973,65.430,-30.762,0
1486223116.999,71.777,25.879,33.691,67.871,59.082,0
1486223117.003,-33.691,26.367,43.945,51.758,95.703,0
1486223117.006,-36.621,30.273,44.434,44.922,95.703,0
1486223117.010,67.383,22.461,41.504,44.922,-6.836,0
1486223117.014,125.000,20.996,38.574,62.500,36.133,0
1486223117.018,80.078,33.203,36.133,69.824,68.359,0
1486223117.022,-23.926,32.715,46.387,60.059,36.133,0
1486223117.026,-54.199,30.762,38.574,52.734,113.770,0
1486223117.030,43.457,25.391,17.090,42.969,37.109,0
1486223117.034,115.234,23.438,25.391,61.523,37.109,0
1486223117.038,83.984,25.391,38.574,68.848,62.012,0
1486223117.042,-18.555,23.926,42.969,57.129,41.504,0
1486223117.046,-63.965,26.855,45.410,52.246,102.539,0
1486223117.049,34.180,25.391,42.969,50.293,38.574,0
1486223117.053,125.488,22.949,41.992,65.430,29.785,0
1486223117.057,103.516,27.344,43.457,71.289,66.895,0
1486223117.061,-1.465,21.973,36.133,51.758,20.996,0
1486223117.065,-67.871,16.113,30.762,38.574,58.105,0
1486223117.069,17.578,20.508,28.809,44.434,43.945,0
1486223117.073,124.023,33.691,44.434,69.824,3.906,0
1486223117.077,99.609,26.367,45.410,66.895,32.715,0
1486223117.081,4.883,25.879,34.668,52.734,62.500,0
1486223117.085,-47.363,34.668,47.363,53.711,104.492,0
1486223117.088,14.160,26.855,47.852,51.270,60.059,0
1486223117.092,109.375,20.020,37.598,60.059,-12.695,0
1486223117.096,113.770,31.250,42.969,71.289,28.809,0
1486223117.100,33.203,37.598,42.480,59.570,34.668,0
1486223117.104,-42.480,34.180,36.621,55.176,54.199,0
1486223117.108,2.441,30.762,41.992,57.129,57.617,0
1486223117.112,96.191,19.043,39.062,53.711,0.977,0
1486223117.116,115.234,24.902,47.852,75.195,71.289,0
1486223117.120,44.434,32.715,48.828,69.336,57.617,0
1486223117.124,-52.734,25.391,32.715,45.410,53.223,0
1486223117.128,-20.020,20.996,31.738,50.781,63.965,0
1486223117.131,92.285,22.949,34.180,58.105,-27.832,0
1486223117.135,127.441,27.832,37.598,62.500,-15.625,0
1486223117.139,61.523,34.668,42.969,62.012,23.438,0
1486223117.143,-40.039,32.227,53.223,58.105,48.340,0
1486223117.147,-29.297,27.344,35.156,53.223,63.965,0
1486223117.151,89.355,29.785,22.461,62.988,-12.695,0
1486223117.155,134.766,30.273,36.133,78.125,18.555,0
1486223117.159,58.105,24.414,31.738,67.383,58.105,0
1486223117.163,-42.480,25.391,33.203,58.594,57.617,0
1486223117.167,-33.691,29.297,33.691,57.617,49.805,0
1486223117.170,71.289,27.832,25.391,52.734,-26.855,0
1486223117.174,125.000,29.785,37.109,70.312,9.277,0
1486223117.178,82.031,32.227,52.246,74.707,49.316,0
1486223117.182,-27.344,29.785,42.969,60.059,39.551,0
1486223117.186,-59.082,25.879,24.902,47.852,65.918,0
1486223117.190,50.293,23.926,31.738,49.316,18.555,0
1486223117.194,125.488,19.043,42.480,63.965,36.621,0
1486223117.198,82.520,22.461,34.180,63.477,56.152,0
1486223117.202,-22.949,31.250,36.621,51.758,23.438,0
1486223117.206,-61.523,26.855,46.387,45.898,58.105,0
1486223117.210,33.203,21.484,38.574,48.828,4.883,0
1486223117.213,123.047,30.273,43.457,66.406,0.000,0
1486223117.217,92.773,34.668,35.645,67.871,76.660,0
1486223117.221,-9.277,30.273,27.832,54.688,72.266,0
1486223117.225,-67.383,22.949,39.062,44.434,81.055,0
1486223117.229,6.836,18.066,30.762,33.691,36.133,0
1486223117.233,113.770,24.902,29.297,51.270,-12.207,0
1486223117.237,103.516,27.832,38.086,63.965,31.250,0
1486223117.241,6.348,26.855,41.992,48.340,33.203,0
1486223117.245,-55.176,36.133,45.410,44.922,64.453,0
1486223117.249,13.184,39.062,45.410,50.293,30.762,0
1486223117.253,115.723,27.344,29.785,55.664,-33.203,0
1486223117.256,116.211,27.832,32.227,71.289,12.207,0
1486223117.260,28.320,28.809,38.086,59.570,19.531,0
1486223117.264,-47.363,24.414,33.203,47.363,43.945,0
1486223117.268,8.789,24.902,34.180,49.316,12.695,0
1486223117.272,122.070,25.879,35.156,62.012,-37.598,0
1486223117.276,138.184,32.227,46.875,84.473,-1.465,0
1486223117.280,53.223,35.156,57.129,80.566,12.207,0
1486223117.284,-46.387,28.809,45.898,63.965,46.875,0
1486223117.288,-18.066,24.902,30.762,61.523,54.688,0
1486223117.292,103.027,36.133,23.438,69.824,11.719,0
1486223117.295,126.953,33.203,33.691,82.031,34.180,0
1486223117.299,41.992,21.973,49.316,74.707,44.434,0
1486223117.303,-52.246,25.391,48.828,57.129,62.012,0
1486223117.307,-34.668,27.832,49.316,55.664,82.031,0
1486223117.311,79.590,27.344,50.781,64.941,-14.160,0
1486223117.315,116.699,22.949,36.621,67.871,-9.277,0
1486223117.319,54.688,26.367,32.227,65.918,29.297,0
1486223117.323,-38.574,32.227,42.969,62.500,77.148,0
1486223117.327,-36.621,32.227,41.992,56.641,84.961,0
1486223117.331,73.730,33.203,31.738,56.641,10.742,0
1486223117.335,119.141,32.227,29.297,66.406,27.344,0
1486223117.338,60.547,34.668,36.133,63.965,30.273,0
1486223117.342,-35.645,30.762,47.363,51.270,22.461,0
1486223117.346,-52.734,27.344,47.363,46.387,64.453,0
1486223117.350,50.293,26.367,34.668,50.781,17.090,0
1486223117.354,123.047,27.832,43.945,68.848,-0.977,0
1486223117.358,89.844,34.180,43.457,71.777,21.973,0
1486223117.362,-9.277,33.203,27.832,57.617,26.367,0
1486223117.366,-51.758,30.273,30.273,50.781,54.199,0
1486223117.370,40.039,25.879,25.879,53.223,-0.977,0
1486223117.374,119.629,22.949,29.297,69.824,14.648,0
1486223117.377,91.309,24.414,31.250,68.848,68.848,0
1486223117.381,-1.953,32.715,41.504,55.176,70.312,0
1486223117.385,-48.340,35.156,49.805,60.059,92.773,0
1486223117.389,35.645,27.832,45.410,54.199,21.484,0
1486223117.393,125.000,31.738,44.434,64.941,-16.602,0
1486223117.397,106.445,31.738,36.621,78.125,63.965,0
1486223117.401,7.812,24.902,30.273,62.012,66.406,0
1486223117.405,-49.805,30.762,36.133,61.035,54.688,0
1486223117.409,30.762,37.598,49.316,65.430,46.875,0
1486223117.413,125.488,30.762,41.992,69.336,19.043,0
1486223117.417,115.234,28.809,29.785,78.125,41.016,0
1486223117.420,29.297,33.203,42.480,71.777,21.484,0
1486223117.424,-52.734,35.156,43.945,62.988,58.594,0
1486223117.428,6.836,36.133,42.480,57.617,44.922,0
1486223117.432,119.141,32.227,34.668,68.848,-7.324,0
1486223117.436,126.953,29.785,33.691,81.543,31.738,0
1486223117.440,45.410,40.527,49.316,73.730,0.977,0
1486223117.444,-44.434,36.621,41.016,53.223,24.902,0
1486223117.448,-3.906,31.250,35.645,45.898,39.062,0
1486223117.452,107.910,32.715,34.668,58.105,-5.859,0
1486223117.456,120.117,30.273,27.344,68.848,37.109,0
1486223117.460,39.062,32.715,46.387,62.012,25.879,0
1486223117.463,-52.734,31.250,42.480,49.316,91.797,0
1486223117.467,-28.809,23.926,24.902,42.969,103.516,0
1486223117.471,88.867,30.762,29.785,57.129,-8.789,0
1486223117.475,132.324,38.086,39.551,71.289,49.805,0
1486223117.479,60.547,31.250,34.668,56.641,52.734,0
1486223117.483,-42.969,29.785,31.250,48.340,42.480,0
1486223117.487,-35.645,25.879,41.016,45.898,81.543,0
1486223117.491,76.172,19.531,32.227,46.875,-4.395,0
1486223117.495,129.883,29.785,36.133,63.965,29.785,0
1486223117.499,69.824,34.180,41.016,55.176,67.871,0
1486223117.502,-34.180,28.809,28.809,43.945,63.965,0
1486223117.506,-36.621,37.109,41.016,51.270,94.238,0
1486223117.510,74.219,39.062,44.922,54.688,23.438,0
1486223117.514,127.441,22.461,27.344,61.035,27.832,0
1486223117.518,76.660,20.020,20.996,61.035,86.914,0
1486223117.522,-22.949,29.297,29.785,57.129,82.520,2
1486223117.526,-50.293,30.762,41.504,49.805,81.543,0
1486223117.530,63.965,24.902,42.969,51.758,22.949,0
1486223117.534,136.230,29.785,40.527,68.359,16.602,0
1486223117.538,87.891,30.273,38.574,69.824,74.707,0
1486223117.542,-7.812,28.809,49.316,68.848,70.312,0
1486223117.545,-58.594,32.715,48.828,59.570,78.613,0
1486223117.549,22.949,25.879,34.668,49.316,15.137,0
1486223117.553,106.445,21.973,26.367,62.012,6.348,0
1486223117.557,87.402,25.391,28.809,68.848,55.176,0
1486223117.561,4.395,34.180,41.992,66.406,14.160,0
1486223117.565,-62.012,32.715,42.969,56.641,56.152,0
1486223117.569,17.090,27.832,40.039,49.316,33.203,0
1486223117.573,122.070,27.344,48.340,65.430,-14.648,0
1486223117.577,115.234,27.832,40.039,70.801,27.832,0
1486223117.581,18.066,31.738,33.203,50.781,52.246,0
1486223117.585,-59.082,30.273,40.039,44.922,102.539,0
1486223117.588,5.859,22.949,36.133,43.457,75.684,0
1486223117.592,113.770,25.879,42.969,58.594,-6.348,0
1486223117.596,111.816,27.832,41.016,68.848,15.625,0
1486223117.600,23.438,29.785,47.363,57.617,25.391,0
1486223117.604,-54.688,30.273,52.246,48.828,51.270,0
1486223117.608,-18.555,24.414,38.086,43.457,52.246,0
1486223117.612,95.703,24.414,31.738,54.199,-19.043,0
1486223117.616,123.047,30.762,39.551,74.707,18.066,0
1486223117.620,38.086,36.621,37.598,66.406,43.457,0
1486223117.624,-59.082,26.855,22.949,45.898,57.129,0
1486223117.627,-26.855,23.926,42.480,47.852,46.387,0
1486223117.631,90.332,27.832,56.152,57.617,-30.273,0
1486223117.635,120.117,29.785,42.969,64.941,3.906,0
1486223117.639,52.246,32.227,48.340,64.453,41.992,0
1486223117.643,-47.363,26.855,50.293,49.805,59.082,0
1486223117.647,-28.809,30.762,35.156,42.480,65.430,0
1486223117.651,83.496,30.762,28.809,51.758,23.438,0
1486223117.655,119.141,29.785,33.203,68.848,58.105,0
1486223117.659,61.523,33.203,41.992,66.895,80.566,0
1486223117.663,-44.434,28.809,41.504,53.711,114.746,0
1486223117.667,-51.758,27.832,40.527,47.363,129.883,0
1486223117.670,61.523,24.414,40.039,44.922,22.949,0
1486223117.674,121.582,24.902,43.457,65.918,13.672,0
1486223117.678,79.590,35.156,48.340,69.336,63.965,0
1486223117.682,-22.461,32.227,37.598,50.781,89.355,0
1486223117.686,-54.199,29.785,28.320,45.898,99.609,0
1486223117.690,44.922,28.809,29.297,49.805,-10.254,0
1486223117.694,119.141,20.020,28.809,62.988,-6.348,0
1486223117.698,85.938,22.461,32.715,68.848,39.551,0
1486223117.702,-9.766,33.203,42.480,63.477,45.898,0
1486223117.706,-46.387,36.621,52.734,62.012,83.984,0
1486223117.709,41.504,28.320,41.504,52.734,20.508,0
1486223117.713,120.605,25.391,32.227,59.570,1.465,0
1486223117.717,95.703,23.926,33.203,60.547,38.086,0
1486223117.721,3.418,22.461,35.645,53.223,41.504,0
1486223117.725,-53.223,27.832,33.203,54.688,64.941,0
1486223117.729,29.297,31.738,33.691,53.711,25.391,0
1486223117.733,122.070,25.391,38.086,60.059,-15.625,0
1486223117.737,104.492,22.949,37.109,69.824,23.438,0
1486223117.741,12.207,31.250,44.922,61.035,33.691,0
1486223117.745,-58.105,29.785,40.039,45.898,42.480,0
1486223117.749,2.930,19.531,32.227,42.480,18.555,0
1486223117.752,114.746,23.438,33.203,62.988,-43.457,0
1486223117.756,121.582,26.855,32.715,76.660,-4.883,0
1486223117.760,23.926,30.762,27.832,57.129,26.367,0
1486223117.764,-52.246,29.297,38.086,51.270,58.105,0
1486223117.768,-1.465,21.484,40.527,53.223,63.477,0
1486223117.772,105.957,29.297,27.832,57.617,-22.949,0
1486223117.776,128.418,28.320,27.344,66.895,-5.859,0
1486223117.780,48.340,29.785,37.598,61.035,35.156,0
1486223117.784,-47.363,30.273,43.945,54.199,64.453,0
1486223117.788,-12.695,26.855,40.527,57.129,59.570,0
1486223117.792,99.121,28.320,35.156,64.453,-2.930,0
1486223117.795,134.766,26.855,29.785,72.754,-8.789,0
1486223117.799,73.242,35.645,39.062,76.660,-4.883,0
1486223117.803,-23.438,36.133,47.852,69.336,47.363,0
1486223117.807,-16.113,34.180,40.527,58.594,68.848,0
1486223117.811,84.961,28.320,27.344,60.059,-22.949,0
1486223117.815,123.047,21.484,31.738,67.871,-7.324,0
1486223117.819,69.824,36.621,43.945,67.871,24.414,0
1486223117.823,-29.297,34.180,50.781,58.105,55.176,0
1486223117.827,-49.316,20.996,46.387,46.387,72.266,0
1486223117.831,63.477,23.926,37.598,47.852,-23.438,0
1486223117.834,124.023,25.391,42.969,67.871,-13.184,0
1486223117.838,61.035,21.484,34.180,62.500,47.363,0
1486223117.842,-43.457,20.508,27.832,46.875,90.820,0
1486223117.846,-61.523,23.438,36.133,41.992,134.766,0
1486223117.850,47.363,27.832,33.203,39.551,37.598,0
1486223117.854,114.746,25.391,37.109,55.176,24.414,0
1486223117.858,79.590,31.250,44.434,63.965,89.355,0
1486223117.862,-8.301,42.480,49.805,55.664,89.355,0
1486223117.866,-63.477,31.250,38.574,36.621,121.094,0
1486223117.870,26.367,20.996,20.508,29.297,38.086,0
1486223117.874,120.117,24.414,27.344,53.711,-16.602,0
1486223117.877,84.961,20.996,26.855,61.523,22.949,0
1486223117.881,-22.949,22.949,29.297,46.387,85.449,0
1486223117.885,-63.477,28.320,40.039,43.457,120.117,0
1486223117.889,25.879,24.414,40.039,44.922,26.367,0
1486223117.893,119.629,27.832,42.480,61.035,13.672,0
1486223117.897,104.492,35.156,38.086,62.500,39.551,0
1486223117.901,18.066,41.016,47.852,50.293,0.488,0
1486223117.905,-51.758,35.156,53.223,43.457,15.625,0
1486223117.909,8.301,26.855,39.062,37.109,4.883,0
1486223117.913,115.234,24.414,27.832,51.758,-21.484,0
1486223117.917,109.375,26.367,22.461,64.453,49.316,0
1486223117.920,25.879,34.180,30.762,56.152,67.871,0
1486223117.924,-51.270,31.250,41.016,54.199,62.988,0
1486223117.928,-0.488,32.715,40.039,57.617,18.555,0
1486223117.932,108.398,32.227,40.039,64.941,-32.227,0
1486223117.936,123.535,25.879,47.363,76.660,10.254,0
1486223117.940,43.945,31.738,44.922,70.801,25.391,0
1486223117.944,-48.828,29.785,42.969,55.664,86.426,0
1486223117.948,-17.578,24.414,31.738,51.270,104.492,0
1486223117.952,101.562,27.832,35.156,61.035,26.855,0
1486223117.956,131.348,32.227,42.969,74.707,31.250,0
1486223117.959,58.105,36.621,41.016,70.312,26.855,0
1486223117.963,-38.574,30.273,38.574,55.664,60.547,0
1486223117.967,-33.691,29.297,28.809,47.852,75.195,0
1486223117.971,82.031,30.762,29.297,54.688,-12.695,0
1486223117.975,123.535,28.809,36.621,69.336,7.812,0
1486223117.979,65.430,30.273,34.180,62.012,64.941,0
1486223117.983,-33.203,30.762,33.203,48.828,85.938,0
1486223117.987,-41.016,29.785,39.551,48.828,87.891,0
1486223117.991,76.172,30.273,39.062,50.781,32.715,0
1486223117.995,129.395,27.344,31.250,60.059,46.875,0
1486223117.999,77.637,27.344,38.086,65.430,39.062,0
1486223118.002,-26.367,29.785,42.480,45.410,22.949,0
1486223118.006,-50.781,28.320,38.574,38.086,36.621,0
1486223118.010,60.547,25.879,32.715,45.898,-25.879,0
1486223118.014,134.277,24.902,31.250,60.547,-5.371,0
1486223118.018,87.891,25.879,32.715,56.152,49.805,0
1486223118.022,-10.742,26.367,33.691,44.434,55.664,0
1486223118.026,-36.621,38.086,39.062,52.734,75.195,0
1486223118.030,59.082,35.156,33.691,50.781,26.855,0
1486223118.034,127.441,22.461,30.762,53.223,7.324,0
1486223118.038,87.402,23.438,41.992,56.152,36.621,0
1486223118.041,-17.090,28.320,41.992,45.898,31.250,0
1486223118.045,-68.848,28.320,35.645,36.621,103.516,0
1486223118.049,27.832,26.855,49.805,43.457,58.594,0
1486223118.053,121.094,27.832,45.898,60.059,-22.949,0
1486223118.057,93.750,27.344,27.832,55.176,36.133,0
1486223118.061,1.465,31.250,21.484,45.410,61.523,0
1486223118.065,-62.012,30.273,27.832,44.922,51.270,0
1486223118.069,9.766,29.785,44.922,46.875,5.371,0
1486223118.073,116.699,28.809,42.480,64.453,14.160,0
1486223118.077,111.328,20.996,42.969,68.359,53.711,0
1486223118.081,24.902,31.250,47.363,50.781,54.199,0
1486223118.084,-54.688,32.227,43.457,45.410,109.863,0
1486223118.088,-4.883,22.461,37.109,41.016,91.309,0
1486223118.092,112.793,30.273,42.480,53.223,-22.949,0
1486223118.096,122.559,33.691,40.039,62.012,35.645,0
1486223118.100,34.180,33.203,27.832,47.852,52.734,0
1486223118.104,-54.688,33.203,32.715,42.969,36.133,0
1486223118.108,-15.625,31.250,34.668,41.504,80.566,0
1486223118.112,104.004,31.738,35.645,59.570,1.953,0
1486223118.116,129.395,30.273,43.945,69.824,8.301,0
1486223118.120,45.898,28.320,38.574,52.734,30.762,0
1486223118.124,-42.480,31.738,45.410,54.199,63.965,0
1486223118.127,-10.742,34.668,47.363,58.594,55.664,0
1486223118.131,102.051,34.180,32.715,62.988,-12.695,0
1486223118.135,129.395,29.297,33.691,70.312,22.949,0
1486223118.139,65.430,33.203,40.527,67.871,40.039,0
1486223118.143,-29.785,35.645,44.434,66.895,25.879,0
1486223118.147,-32.227,33.203,40.039,59.082,20.508,0
1486223118.151,79.590,26.855,33.691,56.641,-20.508,0
1486223118.155,130.371,26.367,31.250,65.918,13.184,0
1486223118.159,71.289,27.344,41.504,62.012,8.789,0
1486223118.163,-32.715,25.879,48.828,52.734,6.836,0
1486223118.166,-38.574,29.297,45.410,56.641,52.734,0
1486223118.170,71.777,25.391,42.480,62.988,11.230,0
1486223118.174,133.789,25.391,36.133,76.660,19.531,0
1486223118.178,91.309,28.809,36.133,78.613,64.453,0
1486223118.182,-12.207,32.227,34.668,65.430,48.828,0
1486223118.186,-41.504,34.668,39.551,62.500,67.383,1
1486223118.190,68.848,25.391,43.457,65.430,9.277,0
1486223118.194,132.324,23.438,37.598,81.055,4.395,0
1486223118.198,86.914,34.180,38.574,83.008,70.801,0
1486223118.202,-4.395,34.180,41.016,65.918,53.223,0
1486223118.206,-57.129,24.902,38.086,54.199,62.500,0
1486223118.209,32.715,28.320,36.133,51.758,6.348,0
1486223118.213,127.441,26.855,41.016,67.871,-18.555,0
1486223118.217,106.445,26.855,37.109,67.871,13.184,0
1486223118.221,11.719,34.668,36.133,58.105,29.785,0
1486223118.225,-52.246,28.809,49.805,57.617,64.453,0
1486223118.229,22.949,20.508,55.176,53.223,11.230,0
1486223118.233,123.047,23.438,41.992,64.453,-41.016,0
1486223118.237,119.141,35.645,44.434,77.148,6.836,0
1486223118.241,21.484,34.180,45.898,62.012,27.832,0
1486223118.245,-62.500,24.902,35.645,47.852,76.172,0
1486223118.248,7.812,28.809,50.781,51.758,41.016,0
1486223118.252,114.258,33.203,49.316,67.383,-30.273,0
1486223118.256,115.723,26.855,35.156,75.195,46.875,0
1486223118.260,21.973,24.902,40.527,61.523,42.969,0
1486223118.264,-64.453,32.227,45.410,55.176,60.059,0
1486223118.268,-18.066,27.344,42.969,51.270,62.500,0
1486223118.272,94.238,24.414,37.109,56.641,-10.254,0
1486223118.276,118.652,25.879,36.621,76.172,39.062,0
1486223118.280,39.551,29.297,41.016,71.289,68.359,0
1486223118.284,-38.574,36.621,47.363,68.359,75.684,0
1486223118.288,-6.836,36.133,46.387,63.965,40.527,0
1486223118.291,84.961,21.973,36.133,60.547,-23.926,0
1486223118.295,119.629,19.531,26.367,74.219,46.387,0
1486223118.299,60.547,34.180,36.621,67.383,50.293,0
1486223118.303,-41.992,27.344,43.945,56.152,56.641,0
1486223118.307,-35.156,22.461,37.598,46.875,96.191,0
1486223118.311,85.938,29.785,40.527,56.152,44.434,0
1486223118.315,126.953,27.832,41.504,75.195,67.383,0
1486223118.319,59.082,26.855,37.109,62.012,85.938,0
1486223118.323,-34.180,26.367,40.527,49.805,95.215,0
1486223118.327,-41.992,30.273,48.340,49.805,127.441,0
1486223118.331,63.477,36.133,41.992,49.805,52.246,0
1486223118.334,123.047,32.715,38.086,64.941,18.555,0
1486223118.338,65.918,17.090,39.551,60.059,49.316,0
1486223118.342,-33.691,18.066,37.109,51.270,81.543,0
1486223118.346,-52.734,28.320,39.551,52.734,140.137,0
1486223118.350,53.223,21.484,35.645,51.758,79.102,0
1486223118.354,127.441,20.020,38.574,65.918,57.129,0
1486223118.358,90.332,29.785,34.180,65.430,110.352,0
1486223118.362,-15.137,29.297,26.855,50.781,108.398,0
1486223118.366,-62.012,23.438,41.016,48.828,111.328,0
1486223118.370,36.621,20.508,34.180,45.410,50.293,0
1486223118.373,120.117,22.461,25.879,53.711,32.227,0
1486223118.377,89.844,23.926,34.668,61.523,76.172,0
1486223118.381,-1.465,21.973,34.668,47.363,57.129,0
1486223118.385,-52.734,30.762,42.480,43.945,61.523,0
1486223118.389,21.973,28.809,43.457,39.062,13.184,0
1486223118.393,116.699,23.438,34.180,55.176,-1.465,0
1486223118.397,109.375,31.738,36.133,67.871,89.355,0
1486223118.401,8.301,25.391,35.645,48.340,48.828,0
1486223118.405,-64.941,21.973,31.738,41.016,33.203,0
1486223118.409,2.441,22.949,31.250,39.062,31.250,0
1486223118.413,105.957,22.949,33.691,56.152,21.973,0
1486223118.416,114.746,27.832,40.039,67.871,58.594,0
1486223118.420,25.391,29.785,39.551,52.246,22.461,0
1486223118.424,-58.594,37.109,35.645,48.828,60.059,0
1486223118.428,-8.301,33.203,32.715,51.270,50.293,0
1486223118.432,112.793,29.297,35.645,66.406,-62.012,0
1486223118.436,131.836,37.109,35.645,78.125,-30.273,0
1486223118.440,41.504,33.203,26.367,62.500,23.438,0
1486223118.444,-46.875,32.715,35.156,57.129,35.156,0
1486223118.448,-19.531,36.133,40.039,51.758,37.598,0
1486223118.452,99.609,29.785,47.363,64.453,-3.906,0
1486223118.456,131.348,20.996,43.945,74.707,34.180,0
1486223118.459,57.617,23.438,37.109,58.594,68.359,0
1486223118.463,-28.809,34.668,44.434,57.129,70.312,0
1486223118.467,-23.926,35.645,41.992,53.711,75.195,0
1486223118.471,72.754,25.391,33.691,49.805,5.371,0
1486223118.475,124.023,22.949,33.691,68.359,61.523,0
1486223118.479,73.242,29.297,40.039,67.871,54.688,0
1486223118.483,-24.902,31.250,44.434,54.688,57.129,0
1486223118.487,-42.480,28.320,40.039,45.898,131.348,0
1486223118.491,63.965,21.484,35.156,44.434,41.504,0
1486223118.495,127.930,24.902,33.691,60.059,41.992,0
1486223118.498,71.777,32.715,38.086,65.430,82.520,0
1486223118.502,-31.738,26.367,35.645,54.688,64.941,0
1486223118.506,-53.711,25.391,29.785,36.133,102.051,0
1486223118.510,53.711,35.156,34.668,39.062,15.137,0
1486223118.514,120.117,27.344,39.062,62.012,-18.066,0
1486223118.518,86.914,22.949,37.109,58.594,34.668,0
1486223118.522,-10.254,31.250,37.109,50.781,48.340,0
1486223118.526,-55.664,31.738,40.039,51.758,79.590,0
1486223118.530,38.574,29.785,37.109,44.922,25.879,0
1486223118.534,118.652,32.715,35.156,58.594,11.230,0
1486223118.538,97.656,33.691,36.133,70.312,47.363,0
1486223118.541,-1.953,31.738,39.062,56.641,38.086,0
1486223118.545,-64.941,27.344,35.156,46.875,37.598,0
1486223118.549,24.414,25.879,38.086,51.270,10.254,0
1486223118.553,123.047,27.344,39.551,64.453,15.625,0
1486223118.557,106.934,23.926,38.086,66.406,43.457,0
1486223118.561,14.648,27.344,45.898,54.199,35.645,0
1486223118.565,-56.152,34.180,51.270,55.176,85.938,0
1486223118.569,9.766,32.715,40.039,54.199,57.617,0
1486223118.573,107.910,26.855,30.273,57.617,-5.859,0
1486223118.577,101.562,24.414,39.062,62.500,50.293,0
1486223118.580,16.113,28.320,38.574,46.387,37.598,0
1486223118.584,-62.500,28.809,38.574,40.039,27.832,0
1486223118.588,-11.719,26.855,34.668,39.062,44.922,0
1486223118.592,107.422,29.785,28.809,51.758,-8.789,0
1486223118.596,116.211,28.320,38.086,69.824,19.531,0
1486223118.600,31.738,28.809,43.945,54.688,35.156,0
1486223118.604,-48.828,33.203,42.969,40.039,59.570,0
1486223118.608,-18.066,31.738,39.062,43.945,56.641,0
1486223118.612,93.750,24.902,34.668,53.711,3.906,0
1486223118.616,123.047,25.879,31.738,63.965,12.695,0
1486223118.620,50.293,31.738,38.086,55.176,23.926,0
1486223118.623,-47.363,29.297,43.457,43.457,47.363,0
1486223118.627,-38.574,26.367,33.691,42.480,41.992,0
1486223118.631,77.637,23.926,30.762,51.270,-6.348,0
1486223118.635,132.812,29.785,42.480,75.195,22.949,0
1486223118.639,67.871,32.227,51.758,71.777,41.504,0
1486223118.643,-31.738,25.391,50.781,58.105,8.789,0
1486223118.647,-32.227,21.484,39.551,54.688,34.668,0
1486223118.651,77.148,25.879,32.715,55.176,-4.883,0
1486223118.655,127.930,32.715,28.320,62.500,17.578,0
1486223118.659,73.730,30.273,35.645,66.406,58.105,0
1486223118.663,-32.227,33.203,43.457,59.082,31.738,0
1486223118.666,-47.852,32.227,34.668,46.387,79.590,0
1486223118.670,66.406,23.926,40.527,48.828,25.391,0
1486223118.674,124.512,28.320,50.781,65.918,-2.441,0
1486223118.678,81.543,27.344,45.898,69.336,10.254,0
1486223118.682,-19.531,21.973,39.551,51.270,41.992,0
1486223118.686,-59.570,22.461,30.273,37.598,85.938,0
1486223118.690,47.852,25.391,29.297,41.992,8.301,0
1486223118.694,133.301,32.227,37.598,63.965,27.832,0
1486223118.698,92.773,29.785,36.621,65.918,89.355,0
1486223118.702,-9.277,27.832,36.621,55.664,42.969,0
1486223118.705,-60.059,30.762,43.945,50.293,67.871,0
1486223118.709,31.738,37.109,50.781,51.270,53.223,0
1486223118.713,126.953,33.203,47.363,66.895,27.344,0
1486223118.717,98.633,23.926,33.203,60.547,60.547,0
1486223118.721,8.301,27.832,29.785,48.340,71.289,0
1486223118.725,-52.734,28.809,38.086,49.316,98.145,2
1486223118.729,13.672,25.879,35.645,47.852,40.039,0
1486223118.733,127.930,30.273,30.762,65.918,14.160,0
1486223118.737,126.465,35.156,34.180,78.613,59.082,0
1486223118.741,28.320,31.250,47.852,58.594,68.359,0
1486223118.745,-47.852,27.344,47.363,42.480,83.008,0
1486223118.748,-3.418,22.949,36.621,41.016,76.660,0
1486223118.752,98.145,27.832,38.086,53.223,34.668,0
1486223118.756,114.746,36.133,36.133,60.059,55.664,0
1486223118.760,30.762,30.762,36.621,49.805,93.262,0
1486223118.764,-58.105,24.902,35.156,40.039,137.207,0
1486223118.768,-12.695,30.762,36.133,42.480,103.516,0
1486223118.772,103.516,30.273,44.434,56.152,4.883,0
1486223118.776,125.977,28.809,36.621,65.918,69.336,0
1486223118.780,60.547,38.086,39.062,66.406,129.395,0
1486223118.784,-33.691,35.645,50.293,59.570,141.113,0
1486223118.788,-23.926,31.738,31.738,46.387,138.672,0
1486223118.791,86.914,30.762,19.043,47.363,39.062,0
1486223118.795,121.582,25.879,33.203,62.012,45.898,0
1486223118.799,57.617,26.855,36.133,60.547,48.828,0
1486223118.803,-42.480,28.320,33.203,53.223,21.973,0
1486223118.807,-43.945,28.809,31.250,49.316,38.574,0
1486223118.811,79.590,29.785,40.039,52.734,-11.719,0
1486223118.815,132.812,31.738,51.270,73.242,-21.973,0
1486223118.819,68.359,27.832,33.203,64.941,6.348,0
1486223118.823,-29.297,28.809,24.414,50.293,25.391,0
1486223118.827,-38.086,29.785,30.762,49.805,3.906,0
1486223118.830,66.895,35.156,29.297,52.734,-69.824,0
1486223118.834,125.488,35.156,34.180,61.523,-6.348,0
1486223118.838,79.102,24.902,38.086,61.523,70.312,0
1486223118.842,-20.020,29.785,37.598,55.664,28.320,0
1486223118.846,-58.594,32.227,40.527,46.875,45.898,0
1486223118.850,42.969,30.762,46.387,49.316,29.785,0
1486223118.854,130.859,32.227,39.551,67.871,25.879,0
1486223118.858,99.609,29.297,31.250,76.172,45.898,0
1486223118.862,-1.465,29.297,32.227,60.547,61.035,0
1486223118.866,-48.828,32.715,35.645,54.199,83.496,0
1486223118.870,39.062,25.879,24.414,54.199,-0.977,0
1486223118.873,134.766,29.785,22.461,69.336,-33.203,0
1486223118.877,114.258,33.203,39.062,80.566,14.160,0
1486223118.881,16.113,28.320,48.828,61.035,9.277,0
1486223118.885,-51.758,30.273,36.621,43.945,55.176,0
1486223118.889,27.832,34.180,36.133,52.246,20.508,0
1486223118.893,128.906,31.738,35.645,65.918,-41.016,0
1486223118.897,110.352,28.809,28.809,71.289,11.719,0
1486223118.901,21.973,27.832,35.156,62.988,14.648,0
1486223118.905,-57.129,22.461,30.273,52.246,32.715,0
1486223118.909,0.977,32.715,31.738,51.758,32.715,0
1486223118.912,110.352,30.273,39.062,63.477,-4.395,0
1486223118.916,123.047,25.879,50.293,78.125,10.254,0
1486223118.920,37.598,30.762,44.434,62.012,39.062,0
1486223118.924,-46.387,33.203,43.457,55.664,68.359,0
1486223118.928,-10.742,28.809,37.598,51.758,53.223,0
1486223118.932,97.656,21.973,23.926,55.176,40.039,0
1486223118.936,119.141,28.320,33.691,71.777,93.262,0
1486223118.940,51.758,31.250,43.457,65.430,65.430,0
1486223118.944,-40.039,25.879,38.574,51.270,59.570,0
1486223118.948,-18.066,27.832,41.016,49.316,99.609,0
1486223118.952,104.004,31.250,44.434,64.453,23.438,0
1486223118.955,127.441,24.902,34.180,73.242,43.945,0
1486223118.959,59.570,25.391,43.945,62.988,76.172,0
1486223118.963,-36.621,34.180,47.852,54.688,88.867,0
1486223118.967,-32.227,27.344,43.457,51.270,101.562,0
1486223118.971,84.961,21.973,36.621,57.617,23.438,0
1486223118.975,129.395,29.297,28.809,64.453,34.668,0
1486223118.979,62.988,30.762,30.273,52.734,42.480,0
1486223118.983,-22.949,34.668,36.133,56.641,32.715,0
1486223118.987,-28.320,31.250,43.457,60.059,65.918,0
1486223118.991,67.383,23.926,36.621,51.758,26.367,0
1486223118.995,140.137,29.785,41.016,75.684,18.066,0
1486223118.998,85.938,25.391,44.434,67.871,20.020,0
1486223119.002,-17.090,26.855,42.969,51.270,52.734,0
1486223119.006,-40.527,30.762,41.016,57.129,79.102,0
1486223119.010,57.129,20.996,27.344,50.781,-18.555,0
1486223119.014,135.254,18.555,25.391,61.035,-27.832,0
1486223119.018,92.285,26.855,40.527,67.383,21.484,0
1486223119.022,-3.418,34.668,57.129,63.965,49.805,0
1486223119.026,-41.992,34.668,49.316,61.035,82.520,0
1486223119.030,46.387,35.645,43.945,55.176,-11.719,0
1486223119.034,130.859,30.762,49.316,67.383,-60.059,0
1486223119.037,102.539,24.414,43.457,70.312,2.441,0
1486223119.041,3.906,30.762,39.062,55.176,16.602,0
1486223119.045,-56.641,31.250,37.109,45.410,34.180,0
1486223119.049,24.902,29.297,38.086,50.781,-2.930,0
1486223119.053,126.953,36.133,42.969,69.336,9.277,0
1486223119.057,107.422,39.062,40.039,65.430,58.105,0
1486223119.061,6.348,29.297,35.645,48.340,58.594,0
1486223119.065,-65.918,24.902,41.992,48.828,69.824,0
1486223119.069,-3.418,28.809,40.039,50.293,48.340,0
1486223119.073,103.027,25.879,36.621,63.477,49.316,0
1486223119.077,117.188,30.762,52.734,80.566,90.332,0
1486223119.080,24.902,28.809,50.781,60.547,80.566,0
1486223119.084,-64.941,25.391,41.992,50.293,86.914,0
1486223119.088,-13.672,30.273,43.945,50.293,77.148,0
1486223119.092,92.285,27.832,31.738,45.410,20.020,0
1486223119.096,111.816,24.414,27.344,57.129,50.293,0
1486223119.100,38.086,26.855,41.504,56.641,42.969,0
1486223119.104,-57.617,27.344,34.180,50.781,87.402,0
1486223119.108,-30.762,25.879,28.809,46.387,108.887,0
1486223119.112,85.938,29.785,39.062,53.711,15.137,0
1486223119.116,123.047,30.273,41.504,71.777,55.176,0
1486223119.119,51.758,27.832,39.551,61.035,76.660,0
1486223119.123,-41.992,34.668,45.898,54.199,76.172,0
1486223119.127,-33.691,33.203,39.062,50.781,64.453,0
1486223119.131,72.754,24.414,25.391,49.316,-21.973,0
1486223119.135,122.070,28.320,32.715,66.895,8.789,0
1486223119.139,62.988,31.250,46.875,63.477,35.156,0
1486223119.143,-40.527,27.344,45.898,49.805,62.988,0
1486223119.147,-44.922,29.297,44.922,50.781,80.566,0
1486223119.151,70.801,30.762,43.945,55.176,14.648,0
1486223119.155,130.859,29.785,37.598,68.848,16.602,0
1486223119.159,83.984,39.062,42.480,69.336,25.879,0
1486223119.162,-15.625,47.852,56.641,67.871,28.320,0
1486223119.166,-45.410,35.156,47.363,56.152,56.641,0
1486223119.170,60.547,22.461,36.133,41.016,-11.719,0
1486223119.174,132.812,24.902,38.574,61.035,-19.531,0
1486223119.178,85.938,24.902,39.062,63.477,9.766,0
1486223119.182,-11.230,31.250,41.992,56.641,20.020,0
1486223119.186,-43.457,35.156,43.457,62.500,73.242,0
1486223119.190,46.875,27.344,43.457,52.734,16.602,0
1486223119.194,126.953,26.855,42.480,59.082,-9.277,0
1486223119.198,98.633,34.180,41.016,69.336,29.297,0
1486223119.202,5.371,38.086,46.387,63.965,48.340,0
1486223119.205,-56.641,29.297,35.156,52.246,96.191,0
1486223119.209,27.344,25.391,38.574,54.199,49.316,0
1486223119.213,125.977,31.250,47.852,72.266,10.254,0
1486223119.217,101.074,29.297,46.875,70.312,64.941,0
1486223119.221,9.277,22.461,44.434,56.641,61.523,0
1486223119.225,-61.523,25.879,36.621,44.434,90.820,0
1486223119.229,10.254,32.715,32.227,44.922,68.848,0
1486223119.233,124.023,37.598,40.527,63.965,1.465,0
1486223119.237,115.234,30.273,39.062,61.523,48.340,0
1486223119.241,23.438,27.832,27.344,46.387,82.520,0
1486223119.244,-47.852,30.762,35.156,49.316,95.703,0
1486223119.248,-0.977,25.879,40.039,49.805,55.176,0
1486223119.252,109.375,30.762,42.969,63.477,-20.020,1
1486223119.256,126.465,32.715,43.945,78.613,22.949,0
1486223119.260,40.527,25.391,31.250,58.105,36.133,0
1486223119.264,-49.805,25.391,23.926,43.457,43.457,0
1486223119.268,-19.043,32.227,27.344,42.480,12.207,0
1486223119.272,89.355,25.391,40.039,50.293,-48.828,0
1486223119.276,112.793,18.555,36.621,57.617,20.508,0
1486223119.280,45.898,28.320,32.715,51.758,2.930,0
1486223119.284,-52.246,30.273,35.156,44.922,3.418,0
1486223119.287,-37.109,25.391,38.086,41.504,41.504,0
1486223119.291,78.125,26.367,37.109,48.340,2.930,0
1486223119.295,123.047,28.809,40.527,66.406,70.801,0
1486223119.299,62.500,28.809,43.945,61.035,75.195,0
1486223119.303,-43.945,28.809,32.715,45.898,52.246,0
1486223119.307,-47.363,26.855,36.133,41.992,66.895,0
1486223119.311,63.477,23.926,38.086,41.016,0.488,0
1486223119.315,118.652,25.391,30.762,52.734,13.672,0
1486223119.319,66.895,21.973,38.086,59.082,52.246,0
1486223119.323,-31.250,23.438,38.574,53.223,74.707,0
1486223119.327,-54.688,26.367,24.902,43.945,103.027,0
1486223119.330,56.641,31.738,33.691,48.340,-2.441,0
1486223119.334,122.070,28.809,39.551,60.547,-11.230,0
1486223119.338,72.754,22.949,29.297,54.688,43.945,0
1486223119.342,-22.461,27.344,32.715,46.387,78.125,0
1486223119.346,-57.129,27.344,33.691,42.480,78.613,0
1486223119.350,42.969,23.438,32.227,42.480,-11.719,0
1486223119.354,131.836,27.344,41.016,62.988,-3.418,0
1486223119.358,96.191,27.832,40.527,62.012,60.059,0
1486223119.362,-5.371,28.809,30.762,42.480,77.148,0
1486223119.366,-60.547,32.715,35.645,39.551,96.680,0
1486223119.369,27.344,22.949,36.133,45.898,21.484,0
1486223119.373,124.023,17.578,28.809,61.523,3.418,0
1486223119.377,108.887,27.832,39.551,65.430,53.711,0
1486223119.381,13.672,32.715,43.945,51.270,51.758,0
1486223119.385,-55.664,21.484,29.785,45.898,82.520,0
1486223119.389,11.719,21.973,30.273,51.758,53.223,0
1486223119.393,115.723,28.320,34.180,63.477,4.395,0
1486223119.397,124.512,26.855,35.645,76.660,47.852,0
1486223119.401,38.086,31.250,36.133,64.453,57.617,0
1486223119.405,-48.340,29.785,31.738,47.363,64.453,0
1486223119.409,16.602,29.785,34.668,55.176,45.898,0
1486223119.412,121.582,39.551,29.297,66.406,-6.348,0
1486223119.416,116.211,37.109,39.551,70.312,40.527,0
1486223119.420,37.598,28.320,41.504,59.082,49.316,0
1486223119.424,-50.293,24.414,21.973,44.434,82.031,0
1486223119.428,-12.695,30.762,28.809,46.875,77.637,0
1486223119.432,101.074,32.227,34.668,57.617,-3.418,0
1486223119.436,129.883,28.320,31.738,71.289,37.598,0
1486223119.440,52.734,35.156,40.039,65.430,76.172,0
1486223119.444,-42.969,35.156,34.668,47.852,79.590,0
1486223119.448,-26.855,26.855,26.855,43.457,95.215,0
1486223119.451,93.750,29.297,38.086,56.152,6.348,0
1486223119.455,132.812,27.344,33.203,68.359,17.090,0
1486223119.459,53.223,25.391,25.879,57.617,67.871,0
1486223119.463,-43.945,23.438,23.438,48.340,71.289,0
1486223119.467,-36.133,26.855,33.203,46.875,75.684,0
1486223119.471,73.730,25.391,34.180,49.805,14.160,0
1486223119.475,128.418,24.902,37.598,80.078,16.113,0
1486223119.479,73.242,23.926,49.316,78.613,38.086,0
1486223119.483,-33.691,24.414,41.992,59.082,47.363,0
1486223119.487,-43.945,30.273,39.551,64.453,54.688,0
1486223119.491,65.918,28.320,30.762,60.059,-23.926,0
1486223119.494,129.395,22.949,27.832,67.383,-16.113,0
1486223119.498,86.914,30.273,28.809,74.219,34.668,0
1486223119.502,-21.484,34.180,30.762,55.664,31.738,0
1486223119.506,-63.477,24.902,39.551,49.316,62.988,0
1486223119.510,53.223,24.414,47.363,60.059,-0.488,0
1486223119.514,137.207,28.809,49.805,68.359,-29.785,0
1486223119.518,94.238,34.180,39.551,63.477,19.531,0
1486223119.522,4.395,34.180,34.180,61.523,54.688,0
1486223119.526,-41.992,29.297,37.109,55.664,96.191,0
1486223119.530,43.945,28.320,35.156,44.922,11.230,0
1486223119.534,135.742,29.785,32.227,62.012,-17.578,0
1486223119.537,116.211,31.250,39.062,74.219,45.898,0
1486223119.541,12.695,29.297,35.156,52.734,52.246,0
1486223119.545,-49.316,31.250,36.133,53.223,117.188,0
1486223119.549,12.695,24.414,37.598,55.176,66.895,0
1486223119.553,104.004,18.555,30.762,64.941,-9.766,0
1486223119.557,99.121,22.461,34.668,73.730,38.086,0
1486223119.561,19.043,24.902,39.062,62.500,56.152,0
1486223119.565,-52.246,26.367,33.203,56.641,86.426,0
1486223119.569,-4.395,29.297,28.809,54.199,64.941,0
1486223119.573,111.328,31.250,41.016,64.453,-0.977,0
1486223119.576,117.188,30.273,38.086,72.266,50.293,0
1486223119.580,27.832,34.180,42.969,62.012,66.895,0
1486223119.584,-53.711,37.109,46.875,54.199,95.215,0
1486223119.588,-14.648,31.738,29.785,49.805,110.840,0
1486223119.592,101.074,29.785,29.785,56.641,13.672,0
1486223119.596,121.582,35.156,33.691,74.219,13.672,0
1486223119.600,40.039,30.273,31.738,62.012,23.438,0
1486223119.604,-52.246,25.391,36.621,45.898,41.504,0
1486223119.608,-33.691,28.809,37.598,42.969,45.410,0
1486223119.612,78.613,22.949,43.457,48.828,-27.832,0
1486223119.616,127.441,22.461,46.875,66.406,-4.395,0
1486223119.619,61.523,32.715,33.203,57.129,14.648,0
1486223119.623,-46.875,28.320,36.133,40.039,29.297,0
1486223119.627,-39.062,30.273,40.527,45.410,37.109,0
1486223119.631,70.801,30.273,32.227,50.293,0.000,0
1486223119.635,116.211,24.414,29.785,60.547,30.762,0
1486223119.639,65.430,28.809,31.738,59.082,10.254,0
1486223119.643,-35.645,28.320,40.039,44.922,6.348,0
1486223119.647,-57.617,26.855,40.527,32.715,61.523,0
1486223119.651,59.082,28.809,30.273,43.945,-8.301,0
1486223119.655,131.348,31.738,39.062,67.871,-36.133,0
1486223119.658,77.637,30.273,43.945,56.152,27.832,0
1486223119.662,-29.297,24.902,43.457,43.945,78.613,0
1486223119.666,-62.500,23.438,39.062,41.016,59.570,0
1486223119.670,38.086,27.832,31.250,37.598,-29.297,0
1486223119.674,116.211,25.391,35.156,53.711,12.207,0
1486223119.678,91.309,24.902,41.016,62.012,50.293,0
1486223119.682,-4.883,29.297,52.246,56.641,24.902,0
1486223119.686,-53.223,30.273,49.805,45.898,74.707,0
1486223119.690,30.762,24.414,40.039,38.086,0.000,0
1486223119.694,117.676,23.926,29.785,50.781,-15.625,0
1486223119.698,106.934,35.156,36.621,62.500,49.316,0
1486223119.701,8.789,34.668,45.410,55.176,43.945,0
1486223119.705,-49.316,29.785,26.855,54.199,74.707,0
1486223119.709,30.762,28.809,26.367,48.828,47.363,0
1486223119.713,126.953,31.250,31.738,61.035,17.090,0
1486223119.717,118.164,38.086,42.969,77.637,70.801,0
1486223119.721,23.438,35.156,46.387,62.988,89.844,0
1486223119.725,-51.758,27.832,31.250,54.199,96.191,0
1486223119.729,5.859,24.902,25.391,49.805,62.988,0
1486223119.733,115.723,26.855,33.691,62.500,24.414,0
1486223119.737,130.859,36.133,44.922,82.031,18.066,0
1486223119.741,41.504,35.645,37.598,63.965,16.113,0
1486223119.744,-48.828,30.273,23.438,50.293,93.262,0
1486223119.748,-10.254,25.391,27.344,53.223,96.191,0
1486223119.752,99.121,24.902,24.902,60.547,9.766,0
1486223119.756,123.535,26.855,27.832,71.777,33.203,0
1486223119.760,57.129,34.180,46.875,71.289,50.781,0
1486223119.764,-29.785,37.598,54.199,73.242,54.688,0
1486223119.768,-18.066,31.738,35.645,55.176,32.715,0
1486223119.772,84.961,20.508,29.297,48.828,-3.906,0
1486223119.776,123.535,18.555,44.434,69.336,39.551,0
1486223119.780,56.152,23.926,41.504,59.570,28.320,0
1486223119.783,-47.363,25.879,25.879,41.992,41.992,0
1486223119.787,-38.574,23.438,31.250,47.363,64.941,0
1486223119.791,81.543,19.531,34.180,59.570,-3.906,0
1486223119.795,128.418,25.391,33.691,73.242,17.090,0
1486223119.799,60.547,30.762,39.062,62.500,50.293,0
1486223119.803,-50.781,32.715,29.785,42.969,106.934,0
1486223119.807,-51.270,31.738,35.645,48.340,130.371,1
1486223119.811,63.477,24.902,49.316,53.223,2.441,0
1486223119.815,116.211,22.949,37.109,57.129,25.879,0
1486223119.819,75.195,28.809,30.762,64.941,55.176,0
1486223119.823,-22.461,27.344,34.668,55.664,39.551,0
1486223119.826,-47.363,29.785,32.715,47.363,83.496,0
1486223119.830,58.105,28.320,35.645,53.223,6.348,0
1486223119.834,129.883,22.949,40.039,71.777,11.230,0
1486223119.838,84.473,29.297,30.273,73.242,57.617,0
1486223119.842,-17.090,30.273,37.109,64.941,47.852,0
1486223119.846,-60.547,24.414,59.570,56.641,85.449,0
1486223119.850,30.273,20.996,42.969,58.105,30.273,0
1486223119.854,119.141,20.020,24.902,70.312,20.020,0
1486223119.858,100.586,26.367,38.086,74.707,61.523,0
1486223119.862,14.160,35.645,46.387,72.754,39.062,0
1486223119.866,-42.969,36.133,50.293,64.941,56.641,0
1486223119.869,28.809,31.250,44.434,61.523,49.316,0
1486223119.873,117.188,22.949,30.762,65.918,23.438,0
1486223119.877,105.957,22.461,31.250,69.336,58.105,0
1486223119.881,21.484,35.645,54.199,61.523,41.504,0
1486223119.885,-54.688,29.785,55.176,54.199,66.406,0
1486223119.889,-9.766,15.137,30.762,36.133,65.430,0
1486223119.893,95.703,20.508,26.855,41.016,-24.414,0
1486223119.897,113.281,27.344,40.039,70.312,16.113,0
1486223119.901,20.508,28.809,39.062,55.176,63.965,0
1486223119.905,-61.523,30.273,33.203,41.992,44.922,0
1486223119.908,-8.301,31.250,41.504,46.387,37.598,0
1486223119.912,100.586,25.879,33.691,56.152,-6.836,0
1486223119.916,127.441,34.668,36.621,74.707,0.977,0
1486223119.920,50.781,40.527,54.688,62.988,32.715,0
1486223119.924,-38.574,28.320,40.527,49.316,61.035,0
1486223119.928,-9.766,29.785,31.250,48.828,48.828,0
1486223119.932,104.004,32.227,49.805,60.059,-2.441,0
1486223119.936,128.418,26.367,41.504,67.871,10.254,0
1486223119.940,54.199,26.367,30.273,54.199,11.230,0
1486223119.944,-34.668,35.645,41.992,48.828,46.875,0
1486223119.948,-31.250,30.762,42.480,43.457,104.492,0
1486223119.951,87.891,27.344,44.434,56.641,22.949,0
1486223119.955,139.160,33.203,45.898,70.801,38.574,0
1486223119.959,67.383,31.738,29.785,49.805,77.148,0
1486223119.963,-33.691,34.180,29.297,39.062,101.074,0
1486223119.967,-41.504,28.809,39.062,43.945,142.090,0
1486223119.971,70.801,24.414,41.992,50.293,51.270,0
1486223119.975,120.117,29.297,32.715,56.641,28.809,0
1486223119.979,69.824,30.762,36.621,57.129,51.270,0
1486223119.983,-24.414,33.691,44.434,51.270,33.203,0
1486223119.987,-53.711,33.203,36.133,47.852,70.312,0
1486223119.990,50.781,22.461,37.109,47.363,6.348,0
1486223119.994,121.582,21.973,33.203,61.035,-19.043,0
1486223119.998,92.773,36.621,46.875,73.730,55.176,0
1486223120.002,-4.395,35.156,49.805,59.570,107.422,0
1486223120.006,-64.453,20.996,29.297,41.992,143.555,0
1486223120.010,30.273,20.996,32.227,38.574,57.617,0
1486223120.014,123.047,29.297,38.574,54.688,37.598,0
1486223120.018,97.168,31.250,40.039,61.035,62.988,0
1486223120.022,-0.977,29.785,48.828,46.387,43.457,0
1486223120.026,-54.688,30.273,47.852,37.598,119.141,0
1486223120.030,29.297,28.809,31.738,36.133,102.539,0
1486223120.033,117.188,26.855,20.020,51.270,36.133,0
1486223120.037,104.980,26.367,28.320,59.082,40.527,0
1486223120.041,16.113,25.879,41.016,47.852,47.363,0
1486223120.045,-55.176,26.367,37.109,46.387,111.328,0
1486223120.049,12.207,24.414,29.297,51.270,36.133,0
1486223120.053,123.047,33.691,41.016,66.895,-16.602,0
1486223120.057,122.559,36.621,50.293,73.242,50.781,0
1486223120.061,27.832,25.391,32.227,54.199,66.406,0
1486223120.065,-49.316,29.297,36.133,49.805,62.012,0
1486223120.069,-9.277,26.855,45.898,52.734,43.457,0
1486223120.073,106.934,25.879,27.344,62.012,20.020,0
1486223120.076,129.395,38.086,28.809,65.918,30.273,0
1486223120.080,45.898,35.156,42.969,55.664,30.273,0
1486223120.084,-41.016,27.832,38.574,47.852,54.688,0
1486223120.088,-17.578,28.320,29.785,41.504,54.199,0
1486223120.092,95.703,30.273,30.762,50.781,-25.391,0
1486223120.096,133.789,32.227,49.316,66.895,15.625,0
1486223120.100,55.664,27.832,46.875,54.688,63.477,0
1486223120.104,-38.574,29.785,31.738,39.551,80.078,0
1486223120.108,-21.973,30.273,31.738,42.480,83.008,0
1486223120.112,89.355,29.297,33.691,53.223,20.508,0
1486223120.115,139.160,38.574,43.457,70.801,26.855,0
1486223120.119,63.477,37.109,45.898,61.035,38.086,0
1486223120.123,-45.410,25.879,41.504,39.551,44.434,0
1486223120.127,-38.086,25.391,30.273,40.527,51.758,0
1486223120.131,69.824,29.785,33.203,54.688,-5.371,0
1486223120.135,129.395,27.832,51.270,77.148,3.906,0
1486223120.139,77.637,27.832,41.016,67.383,38.086,0
1486223120.143,-33.691,27.344,27.832,42.969,65.918,0
1486223120.147,-49.805,26.367,41.016,48.828,93.750,0
1486223120.151,62.500,30.762,41.992,53.223,20.996,0
1486223120.155,135.254,32.715,38.574,65.430,20.508,0
1486223120.158,91.309,36.621,46.387,69.336,50.781,0
1486223120.162,-17.578,29.785,47.852,53.223,36.621,0
1486223120.166,-57.617,23.926,49.316,47.852,69.824,0
1486223120.170,26.367,29.297,48.828,58.594,80.078,0
1486223120.174,113.281,24.902,25.391,68.848,68.359,0
1486223120.178,94.238,20.996,26.367,56.641,71.777,0
1486223120.182,-11.230,24.902,39.062,43.945,51.270,0
1486223120.186,-55.176,26.855,35.645,41.992,48.828,0
1486223120.190,9.277,23.926,33.203,48.828,87.891,0
1486223120.194,112.793,27.344,36.133,58.594,84.473,0
1486223120.198,117.676,34.668,40.527,63.477,80.566,0
1486223120.201,14.648,31.250,43.457,60.547,66.406,0
1486223120.205,-46.875,29.297,39.062,53.223,84.473,0
1486223120.209,17.578,26.367,37.598,47.363,51.270,0
1486223120.213,118.164,22.949,36.621,63.965,-9.766,0
1486223120.217,107.910,21.973,30.273,68.848,68.359,0
1486223120.221,13.184,25.879,24.414,53.223,104.004,0
1486223120.225,-57.617,28.320,29.785,50.781,89.844,0
1486223120.229,-3.906,30.762,43.457,51.758,73.730,0
1486223120.233,108.398,29.785,41.504,61.035,20.020,0
1486223120.237,118.164,22.949,32.715,69.336,41.016,0
1486223120.240,30.762,28.809,33.203,64.941,83.008,0
1486223120.244,-39.062,36.133,42.480,63.477,55.176,0
1486223120.248,-15.137,33.691,41.504,59.082,54.688,0
1486223120.252,92.773,33.203,29.785,69.824,38.086,0
1486223120.256,128.906,30.273,25.879,77.148,38.086,0
1486223120.260,39.551,19.531,38.574,60.059,53.711,0
1486223120.264,-45.410,26.855,38.574,52.246,73.242,0
1486223120.268,-30.273,25.879,28.320,50.293,96.191,0
1486223120.272,77.637,24.902,42.480,60.059,63.477,0
1486223120.276,132.812,28.320,38.574,65.430,45.410,0
1486223120.280,70.312,30.762,35.156,70.312,57.617,0
1486223120.283,-20.508,33.691,51.270,63.965,54.688,0
1486223120.287,-24.414,24.414,42.480,43.457,40.527,0
1486223120.291,77.148,24.414,19.531,46.875,-7.812,0
1486223120.295,137.695,25.879,26.367,67.871,-17.090,0
1486223120.299,83.496,26.855,36.621,64.453,-6.836,0
1486223120.303,-22.949,29.785,35.156,57.617,-12.695,0
1486223120.307,-42.969,29.297,46.387,57.129,-15.625,0
1486223120.311,67.383,27.344,52.734,59.082,-75.684,0
1486223120.315,133.301,24.902,35.156,76.172,-19.043,0
1486223120.319,84.473,23.926,37.109,66.406,23.438,0
1486223120.322,-28.320,33.203,41.016,54.688,31.250,0
1486223120.326,-62.012,34.180,34.180,51.270,56.641,0
1486223120.330,45.898,25.391,26.855,46.875,-21.484,0
1486223120.334,125.000,28.320,22.949,58.105,-21.484,0
1486223120.338,88.867,29.297,41.992,58.105,13.672,0
1486223120.342,-5.859,33.691,55.664,54.199,20.020,0
1486223120.346,-62.988,28.809,39.551,46.387,62.012,0
1486223120.350,13.184,22.949,34.180,41.992,38.574,0
1486223120.354,117.676,25.879,50.781,58.594,3.418,0
1486223120.358,104.004,29.785,45.898,64.941,15.625,0
1486223120.362,1.953,32.227,33.691,44.922,28.320,0
1486223120.365,-55.664,32.227,34.180,41.504,63.965,0
1486223120.369,20.508,39.551,33.203,48.828,31.250,0
1486223120.373,121.094,35.156,34.180,53.711,1.953,0
1486223120.377,112.305,25.391,45.898,64.941,63.965,0
1486223120.381,10.742,26.367,45.410,52.734,49.805,0
1486223120.385,-56.641,25.879,41.992,45.898,108.398,0
1486223120.389,11.230,29.297,42.969,53.711,85.938,0
1486223120.393,115.723,26.855,39.062,59.570,-0.977,0
1486223120.397,120.605,24.902,38.574,66.895,61.035,0
1486223120.401,37.598,29.785,36.621,55.176,88.867,0
1486223120.405,-39.551,34.668,33.691,52.246,115.723,0
1486223120.408,-1.953,36.133,36.133,52.734,69.824,1
1486223120.412,104.980,22.949,34.180,54.199,-3.418,0
1486223120.416,128.906,24.414,38.574,66.895,36.133,0
1486223120.420,52.246,32.715,58.594,62.988,45.410,0
1486223120.424,-47.363,25.391,50.781,51.758,69.824,0
1486223120.428,-31.738,25.391,36.133,48.828,96.191,0
1486223120.432,89.844,31.250,35.156,60.547,33.691,0
1486223120.436,130.859,28.809,33.691,79.102,56.152,0
1486223120.440,52.246,31.250,34.180,65.430,77.637,0
1486223120.444,-49.805,29.785,41.992,44.922,73.242,0
1486223120.447,-44.434,19.531,32.227,39.062,76.172,0
1486223120.451,70.801,25.391,31.250,49.316,0.977,0
1486223120.455,127.441,34.668,48.828,74.219,28.320,0
1486223120.459,72.754,31.250,50.293,68.359,50.293,0
1486223120.463,-28.809,24.414,41.992,54.688,64.941,0
1486223120.467,-39.062,32.715,32.227,53.711,86.914,0
1486223120.471,66.406,28.809,30.273,52.246,-19.043,0
1486223120.475,127.441,20.508,36.621,69.336,-18.066,0
1486223120.479,80.078,26.367,40.039,66.895,62.988,0
1486223120.483,-22.461,25.879,32.227,46.387,64.453,0
1486223120.487,-44.434,29.297,35.156,47.363,84.961,0
1486223120.490,55.664,30.273,32.715,45.898,10.742,0
1486223120.494,130.859,36.133,35.645,60.059,-9.277,0
1486223120.498,105.469,45.898,50.293,68.359,58.105,0
1486223120.502,1.465,32.715,42.480,53.711,44.922,0
1486223120.506,-57.129,23.438,35.156,45.898,69.336,0
1486223120.510,30.762,25.879,41.016,42.969,30.273,0
1486223120.514,123.047,27.832,33.691,60.059,-14.160,0
1486223120.518,104.004,35.645,30.273,74.219,64.453,0
1486223120.522,14.160,31.738,40.039,67.871,75.195,0
1486223120.526,-57.617,20.996,34.668,49.805,71.289,0
1486223120.529,17.090,30.273,35.156,45.898,44.434,0
1486223120.533,127.441,41.504,46.875,64.453,-7.812,0
1486223120.537,117.676,31.250,50.781,67.383,22.461,0
1486223120.541,17.090,25.391,35.156,48.828,44.922,0
1486223120.545,-60.059,35.156,31.738,45.410,95.703,0
1486223120.549,-4.883,25.391,29.297,40.039,77.637,0
1486223120.553,101.562,23.438,30.762,51.270,33.203,0
1486223120.557,108.887,28.809,43.945,62.988,64.941,0
1486223120.561,25.879,28.809,41.504,51.758,62.988,0
1486223120.565,-58.594,30.762,38.086,51.758,83.496,0
1486223120.569,-21.484,32.227,31.250,44.434,86.426,0
1486223120.572,96.680,29.785,46.875,58.594,44.922,0
1486223120.576,118.164,24.902,47.852,76.660,47.363,0
1486223120.580,31.250,26.855,27.832,54.688,26.855,0
1486223120.584,-63.477,24.902,33.691,36.621,53.711,0
1486223120.588,-28.809,23.926,31.738,40.527,91.797,0
1486223120.592,84.961,24.902,33.203,47.852,5.371,0
1486223120.596,118.652,25.391,39.551,62.988,18.066,0
1486223120.600,61.035,34.180,41.992,63.965,48.828,0
1486223120.604,-35.156,34.180,54.199,57.129,102.051,0
1486223120.608,-30.273,25.879,44.922,50.781,93.262,0
1486223120.612,75.195,26.367,27.832,50.293,-9.766,0
1486223120.615,122.070,23.926,15.625,67.871,26.367,0
1486223120.619,74.219,27.832,25.391,68.359,58.594,0
1486223120.623,-33.203,32.227,43.945,51.270,53.711,0
1486223120.627,-37.598,29.785,44.434,47.363,56.152,0
1486223120.631,73.242,30.762,48.828,54.688,9.277,0
1486223120.635,124.023,35.156,41.016,69.824,27.344,0
1486223120.639,85.449,33.203,40.527,78.125,50.293,0
1486223120.643,-19.531,31.250,41.504,57.129,54.688,0
1486223120.647,-48.828,30.762,35.156,49.316,91.309,0
1486223120.651,63.965,23.438,29.785,61.035,13.672,0
1486223120.654,136.230,24.902,25.391,72.754,-10.254,0
1486223120.658,97.656,31.738,28.809,75.684,48.828,0
1486223120.662,0.488,35.156,40.527,70.801,54.688,0
1486223120.666,-53.711,30.762,51.270,58.594,67.871,0
1486223120.670,37.598,22.949,42.969,52.734,-1.465,0
1486223120.674,131.836,28.320,49.805,73.730,-39.551,0
1486223120.678,108.398,39.551,60.059,84.961,28.809,0
1486223120.682,1.953,33.691,37.598,66.406,32.227,0
1486223120.686,-69.336,20.020,30.273,48.340,35.156,0
1486223120.690,21.484,22.461,34.180,41.992,20.508,0
1486223120.694,117.188,24.414,30.762,55.176,23.926,0
1486223120.697,104.980,27.344,42.969,62.012,79.102,0
1486223120.701,15.625,30.273,44.434,49.316,49.316,0
1486223120.705,-56.152,28.320,43.457,51.270,48.828,0
1486223120.709,12.695,23.926,52.246,55.664,36.133,0
1486223120.713,113.770,21.973,41.504,59.082,9.766,0
1486223120.717,111.328,28.320,37.109,69.336,46.875,0
1486223120.721,23.926,25.391,41.504,55.664,15.625,0
1486223120.725,-59.570,27.832,34.668,42.969,9.766,0
1486223120.729,-17.578,28.809,19.531,45.898,45.898,0
1486223120.733,91.309,20.508,28.320,57.617,0.488,0
1486223120.737,118.652,24.902,50.293,76.660,27.832,0
1486223120.740,50.293,28.809,56.152,71.777,59.570,0
1486223120.744,-42.480,32.715,48.828,59.082,55.176,0
1486223120.748,-24.414,31.250,39.551,49.805,25.879,0
1486223120.752,84.961,22.461,24.902,51.758,-11.230,0
1486223120.756,126.465,24.414,25.391,70.312,57.129,0
1486223120.760,54.688,27.344,36.133,63.965,41.016,0
1486223120.764,-44.434,29.785,38.574,57.129,2.930,0
1486223120.768,-24.902,34.668,36.133,54.688,55.176,0
1486223120.772,89.844,32.715,39.062,52.246,-9.766,0
1486223120.776,144.043,29.785,43.945,82.520,-25.391,0
1486223120.779,71.777,28.809,44.922,77.637,25.879,0
1486223120.783,-41.016,25.391,48.340,52.246,29.785,0
1486223120.787,-34.180,29.785,44.922,58.594,42.969,0
1486223120.791,78.125,27.832,36.621,59.570,3.418,0
1486223120.795,134.766,27.344,33.691,74.707,15.625,0
1486223120.799,78.613,26.855,30.273,68.359,54.199,0
1486223120.803,-24.902,29.297,23.438,46.387,56.641,0
1486223120.807,-50.293,37.109,31.250,48.340,70.801,0
1486223120.811,59.082,37.109,49.805,56.152,21.973,0
1486223120.815,136.230,26.855,50.781,69.336,20.996,0
1486223120.819,86.426,24.414,30.762,63.477,46.875,0
1486223120.822,-13.672,32.227,34.668,57.617,36.621,0
1486223120.826,-50.781,30.762,38.086,56.641,59.082,0
1486223120.830,44.922,32.715,30.273,51.758,44.434,0
1486223120.834,135.742,35.645,38.086,66.406,12.695,0
1486223120.838,99.121,30.762,34.180,66.895,78.613,0
1486223120.842,-2.930,30.762,41.016,57.129,97.168,0
1486223120.846,-59.082,29.785,41.992,55.176,108.887,0
1486223120.850,14.160,31.738,30.762,50.293,69.824,0
1486223120.854,119.141,27.344,36.133,62.500,-11.230,0
1486223120.858,108.887,23.926,35.645,69.336,31.738,0
1486223120.861,11.230,30.762,34.668,61.523,35.645,0
1486223120.865,-51.758,33.691,48.340,56.152,62.988,0
1486223120.869,15.625,29.297,43.945,59.082,29.297,0
1486223120.873,121.582,29.785,30.273,72.754,-49.805,0
1486223120.877,122.070,36.621,44.434,76.660,15.137,0
1486223120.881,32.227,34.180,54.199,66.406,40.527,0
1486223120.885,-47.852,35.645,44.434,53.711,68.359,0
1486223120.889,-1.465,27.344,37.109,46.875,42.969,0
1486223120.893,110.840,21.973,34.668,62.012,-3.906,0
1486223120.897,122.559,27.344,37.109,71.777,63.965,0
1486223120.901,39.062,30.273,41.992,59.082,48.340,0
1486223120.904,-48.340,26.367,42.480,52.246,74.219,0
1486223120.908,-18.066,28.320,41.504,53.223,78.125,0
1486223120.912,96.191,29.297,41.992,63.965,-21.973,0
1486223120.916,127.441,26.367,43.457,70.801,19.531,0
1486223120.920,50.781,28.320,40.039,55.664,17.578,0
1486223120.924,-42.480,25.391,38.574,47.363,-6.348,0
1486223120.928,-25.879,26.367,40.039,44.922,16.602,0
1486223120.932,86.914,29.785,33.691,54.688,-10.742,0
1486223120.936,137.207,35.645,34.180,70.312,23.438,0
1486223120.940,73.242,31.738,41.016,58.594,23.926,0
1486223120.944,-37.109,24.902,43.457,48.340,79.590,0
1486223120.947,-44.922,24.902,38.574,49.316,103.027,0
1486223120.951,71.289,23.926,43.457,55.664,8.301,0
1486223120.955,123.535,23.926,39.062,69.336,34.668,0
1486223120.959,64.941,26.855,33.691,71.777,64.941,0
1486223120.963,-30.273,28.320,45.898,62.500,59.570,0
1486223120.967,-50.781,27.344,40.039,55.664,90.332,0
1486223120.971,55.176,28.809,36.621,58.594,9.766,0
1486223120.975,131.348,27.832,44.922,72.754,-2.930,0
1486223120.979,92.773,28.320,46.875,67.871,55.176,0
1486223120.983,-14.648,30.762,33.691,51.758,31.738,0
1486223120.986,-58.105,29.785,35.156,46.875,65.918,1
1486223120.990,40.039,23.438,37.109,49.805,14.160,0
1486223120.994,124.023,24.414,32.715,66.406,-5.371,0
1486223120.998,98.633,32.227,48.340,71.777,40.039,0
1486223121.002,6.348,36.621,52.246,61.523,49.316,0
1486223121.006,-58.105,29.297,30.273,46.387,51.758,0
1486223121.010,12.695,20.996,33.203,42.480,-1.953,0
1486223121.014,112.793,22.949,34.180,60.059,-18.066,0
1486223121.018,102.539,27.832,34.668,68.359,11.719,0
1486223121.022,5.859,29.785,45.898,58.105,33.203,0
1486223121.026,-60.059,27.832,42.480,48.828,109.863,0
1486223121.029,9.277,24.414,36.621,47.363,41.504,0
1486223121.033,111.328,24.902,34.668,58.594,-21.484,0
1486223121.037,114.746,31.250,44.922,79.102,53.711,0
1486223121.041,34.668,29.785,48.340,72.266,58.105,0
1486223121.045,-42.969,30.273,41.504,54.199,56.152,0
1486223121.049,7.812,27.344,31.250,53.711,21.973,0
1486223121.053,121.582,20.996,35.645,62.988,-17.578,0
1486223121.057,134.766,23.438,38.086,68.848,34.180,0
1486223121.061,45.898,27.832,25.391,60.547,14.160,0
1486223121.065,-47.363,25.879,38.574,56.152,37.109,0
1486223121.069,-7.812,28.320,51.270,60.059,69.336,0
1486223121.072,104.980,31.738,43.457,67.871,1.953,0
1486223121.076,125.000,30.273,40.527,78.125,21.484,0
1486223121.080,49.805,27.344,41.016,68.359,16.113,0
1486223121.084,-48.340,28.320,35.156,56.641,23.926,0
1486223121.088,-23.926,37.598,38.574,60.547,46.875,0
1486223121.092,91.309,28.320,35.156,65.430,-0.488,0
1486223121.096,125.977,22.949,35.156,72.754,-14.160,0
1486223121.100,59.570,32.227,40.527,65.918,1.465,0
1486223121.104,-41.992,34.180,44.434,54.199,42.969,0
1486223121.108,-36.621,29.297,42.480,50.293,44.922,0
1486223121.111,78.613,25.391,27.832,51.270,-15.625,0
1486223121.115,132.812,26.855,33.691,69.824,13.184,0
1486223121.119,76.172,27.832,39.551,64.453,42.480,0
1486223121.123,-24.414,30.762,35.156,54.688,69.336,0
1486223121.127,-41.016,26.855,31.738,56.152,131.348,0
1486223121.131,60.059,23.926,25.391,50.293,45.410,0
1486223121.135,130.371,28.320,33.691,70.312,17.090,0
1486223121.139,89.844,26.367,44.434,75.195,57.129,0
1486223121.143,-12.695,34.180,54.199,62.012,54.688,0
1486223121.147,-49.316,31.250,36.621,54.199,62.012,0
1486223121.151,39.062,19.043,15.625,49.805,28.809,0
1486223121.154,120.117,33.203,33.203,71.777,29.785,0
1486223121.158,91.797,35.156,41.016,75.684,33.691,0
1486223121.162,-6.348,27.344,33.203,62.012,44.922,0
1486223121.166,-57.617,28.809,34.180,56.152,87.402,0
1486223121.170,28.320,24.902,36.621,53.223,18.555,0
1486223121.174,127.441,27.832,40.039,72.266,-17.090,0
1486223121.178,116.211,35.645,41.504,84.961,46.387,0
1486223121.182,21.973,38.086,40.039,70.312,60.059,0
1486223121.186,-43.945,33.691,41.504,60.059,77.637,0
1486223121.190,27.832,35.156,28.809,56.641,59.082,0
1486223121.193,127.441,35.156,21.484,67.871,28.809,0
1486223121.197,124.512,32.227,40.039,81.543,47.852,0
1486223121.201,31.250,28.809,34.180,67.383,63.965,0
1486223121.205,-44.922,30.273,30.762,59.570,123.535,0
1486223121.209,15.137,37.598,48.340,61.523,76.172,0
1486223121.213,119.629,27.832,47.363,61.523,38.574,0
1486223121.217,123.535,26.855,30.273,63.965,83.008,0
1486223121.221,44.434,40.527,38.574,61.523,59.082,0
1486223121.225,-41.504,34.668,41.992,56.641,86.914,0
1486223121.229,-11.230,26.367,27.344,48.340,84.961,0
1486223121.233,111.816,36.133,32.227,62.988,20.020,0
1486223121.236,139.160,34.668,27.344,78.613,53.223,0
1486223121.240,56.152,31.738,31.738,65.918,58.105,0
1486223121.244,-28.320,34.180,44.434,54.688,75.195,0
1486223121.248,-8.301,33.691,38.086,53.223,81.543,0
1486223121.252,97.656,32.227,39.062,64.453,20.020,0
1486223121.256,144.043,34.180,45.410,82.520,40.527,0
1486223121.260,71.289,38.086,40.527,67.383,34.668,0
1486223121.264,-34.180,31.738,31.738,54.199,50.293,0
1486223121.268,-26.855,30.762,28.320,56.152,21.973,0
1486223121.272,83.496,33.691,30.762,54.199,-40.527,0
1486223121.276,142.090,34.180,38.574,73.242,24.902,0
1486223121.279,72.266,31.738,35.645,62.012,37.598,0
1486223121.283,-38.574,29.297,30.762,45.410,56.152,0
1486223121.287,-45.410,29.785,44.434,50.781,108.398,0
1486223121.291,58.105,26.367,40.039,54.199,34.668,0
1486223121.295,125.488,27.344,34.180,72.754,74.219,0
1486223121.299,82.031,33.691,42.969,72.754,140.137,0
1486223121.303,-22.461,27.344,40.527,56.641,104.980,0
1486223121.307,-54.199,30.762,36.133,52.734,93.750,0
1486223121.311,50.781,27.832,45.410,56.152,-10.254,0
1486223121.315,123.535,18.066,37.598,64.453,-6.836,0
1486223121.318,79.102,25.879,35.156,62.012,86.426,0
1486223121.322,-19.531,27.344,38.086,53.223,79.102,0
1486223121.326,-64.453,27.832,25.391,47.852,89.355,0
1486223121.330,17.578,26.367,32.715,47.852,59.082,0
1486223121.334,108.887,26.367,39.551,62.988,18.555,0
1486223121.338,95.215,27.832,45.898,66.895,80.566,0
1486223121.342,-3.906,24.902,42.480,52.734,94.727,0
1486223121.346,-63.965,23.926,32.227,42.969,92.773,0
1486223121.350,18.066,23.438,35.645,43.457,34.180,0
1486223121.354,117.676,29.785,44.434,62.500,-13.184,0
1486223121.358,106.445,31.250,43.457,68.359,61.035,0
1486223121.361,12.695,19.531,31.738,57.129,96.680,0
1486223121.365,-58.105,25.879,29.785,53.711,102.539,0
1486223121.369,4.883,31.250,34.668,51.758,44.434,0
1486223121.373,115.723,26.855,44.434,70.801,-36.133,0
1486223121.377,116.699,29.297,48.828,78.613,9.766,0
1486223121.381,29.297,28.809,45.898,69.336,-9.766,0
1486223121.385,-51.758,27.832,45.410,64.941,1.465,0
1486223121.389,-16.602,29.785,39.551,51.270,1.953,0
1486223121.393,95.703,26.367,42.480,58.105,-55.176,0
1486223121.397,118.164,27.832,38.086,72.266,20.996,0
1486223121.400,37.598,28.320,35.645,61.523,65.918,0
1486223121.404,-42.969,33.203,42.480,61.035,60.547,0
1486223121.408,-18.555,38.086,49.316,60.547,11.230,0
1486223121.412,83.984,26.367,35.645,56.641,-32.715,0
1486223121.416,124.512,25.879,31.738,72.266,20.508,0
1486223121.420,53.223,25.391,44.922,56.641,30.762,0
1486223121.424,-44.434,22.461,53.223,42.480,18.555,0
1486223121.428,-36.133,24.902,46.875,44.922,17.578,0
1486223121.432,78.125,27.832,41.504,51.270,-50.293,0
1486223121.436,126.953,28.320,38.086,61.523,-30.273,0
1486223121.440,66.895,26.367,37.109,60.547,-16.113,0
1486223121.443,-35.645,23.438,41.016,52.734,11.719,0
1486223121.447,-45.898,28.809,41.504,56.641,37.109,0
1486223121.451,70.801,36.133,47.363,66.895,-29.785,0
1486223121.455,133.301,32.715,47.852,76.660,0.977,0
1486223121.459,83.496,28.809,50.293,76.172,57.617,0
1486223121.463,-20.020,30.273,47.363,62.988,41.016,0
1486223121.467,-41.504,33.691,44.434,62.500,100.586,0
1486223121.471,55.664,24.902,31.738,52.246,49.805,0
1486223121.475,135.254,29.297,30.762,62.988,20.996,0
1486223121.479,102.539,35.156,41.992,75.684,89.844,0
1486223121.483,-3.418,25.879,39.551,62.012,92.285,0
1486223121.486,-41.992,28.320,37.109,57.617,139.160,0
1486223121.490,50.781,37.109,41.016,64.941,90.332,0
1486223121.494,133.789,29.785,35.645,75.684,47.852,0
1486223121.498,109.375,30.273,32.715,81.543,99.121,0
1486223121.502,11.230,36.621,43.945,66.406,83.984,0
1486223121.506,-53.223,22.949,46.875,54.688,109.863,0
1486223121.510,22.949,17.578,35.156,53.711,65.918,0
1486223121.514,128.418,32.227,38.574,65.430,7.812,0
1486223121.518,116.699,38.086,50.293,76.172,115.723,0
1486223121.522,15.625,38.086,43.945,65.430,110.840,0
1486223121.525,-62.012,29.785,24.902,49.316,88.867,0
1486223121.529,7.324,30.762,34.668,51.270,83.984,0
1486223121.533,115.723,34.668,45.898,66.406,-1.953,2
1486223121.537,111.816,28.809,41.504,70.801,42.480,0
1486223121.541,24.902,32.715,40.527,54.688,66.406,0
1486223121.545,-56.152,31.738,33.691,45.898,56.641,0
1486223121.549,-5.859,23.926,37.109,50.781,46.875,0
1486223121.553,103.516,26.855,36.621,63.965,47.363,0
1486223121.557,123.047,36.621,36.133,86.914,77.148,0
1486223121.561,45.898,34.180,35.645,78.125,38.086,0
1486223121.565,-47.852,26.367,35.645,54.199,74.219,0
1486223121.568,-24.902,22.461,39.062,49.316,76.660,0
1486223121.572,91.797,25.391,41.016,54.199,14.648,0
1486223121.576,129.395,35.645,49.316,72.266,56.641,0
1486223121.580,57.617,30.762,48.340,66.406,104.004,0
1486223121.584,-40.527,26.367,39.551,51.758,120.117,0
1486223121.588,-26.367,30.273,38.574,54.199,78.613,0
1486223121.592,83.984,33.203,43.457,65.430,-1.953,0
1486223121.596,130.371,33.203,48.340,83.008,17.578,0
1486223121.600,75.195,30.273,48.828,79.102,20.508,0
1486223121.604,-35.156,28.809,45.898,63.965,27.344,0
1486223121.608,-42.969,27.344,27.344,56.641,83.984,0
1486223121.611,75.684,28.809,30.762,58.594,-15.625,0
1486223121.615,130.371,25.879,44.434,75.195,-47.852,0
1486223121.619,73.730,26.855,38.086,71.289,37.109,0
1486223121.623,-24.414,31.250,42.969,55.664,57.617,0
1486223121.627,-42.480,32.715,44.922,54.199,63.965,0
1486223121.631,58.105,29.297,29.785,50.293,-6.836,0
1486223121.635,135.742,29.297,34.668,71.289,-22.461,0
1486223121.639,95.215,35.645,46.875,70.801,26.855,0
1486223121.643,-12.207,27.832,35.156,49.316,63.477,0
1486223121.647,-58.105,22.949,25.879,49.316,75.195,0
1486223121.650,31.250,28.809,37.598,48.828,15.625,0
1486223121.654,123.047,27.344,38.086,63.965,9.766,0
1486223121.658,99.609,27.832,30.273,73.730,21.973,0
1486223121.662,2.441,32.227,40.527,62.012,22.949,0
1486223121.666,-57.617,27.832,44.922,52.734,104.004,0
1486223121.670,28.809,29.785,40.039,47.852,80.078,0
1486223121.674,127.441,35.645,44.922,62.012,22.461,0
1486223121.678,104.004,29.297,41.504,69.824,49.316,0
1486223121.682,7.812,25.879,30.273,51.270,37.109,0
1486223121.686,-50.781,35.645,41.504,52.734,90.332,0
1486223121.690,3.418,28.809,43.945,50.781,39.062,0
1486223121.693,92.285,23.926,24.414,52.734,-19.043,0
1486223121.697,106.445,29.297,26.855,69.824,44.434,0
1486223121.701,24.414,28.320,44.922,61.035,3.906,0
1486223121.705,-54.688,32.227,39.062,47.363,26.855,0
1486223121.709,-9.766,33.203,33.691,41.992,34.180,0
1486223121.713,96.680,33.203,37.598,54.688,-22.949,0
1486223121.717,116.699,32.227,44.434,66.895,13.184,0
1486223121.721,34.668,26.855,48.828,56.152,25.879,0
1486223121.725,-61.035,24.902,37.598,53.223,69.336,0
1486223121.729,-31.738,26.367,33.203,49.316,52.246,0
1486223121.732,89.844,27.832,37.109,62.012,8.301,0
1486223121.736,126.465,28.320,31.250,76.660,44.434,0
1486223121.740,54.199,34.668,31.250,63.477,34.668,0
1486223121.744,-45.410,32.227,37.598,50.293,38.574,0
1486223121.748,-31.738,29.785,34.668,45.898,50.781,0
1486223121.752,85.449,26.855,44.922,58.105,-20.508,0
1486223121.756,129.883,25.391,47.363,74.707,15.625,0
1486223121.760,68.359,28.320,34.668,67.383,50.781,0
1486223121.764,-32.715,27.832,29.297,53.711,43.457,0
1486223121.768,-39.551,27.832,33.691,46.875,43.945,0
1486223121.772,75.195,30.273,38.086,51.758,-18.066,0
1486223121.775,137.695,32.715,34.668,75.195,13.184,0
1486223121.779,83.984,23.926,30.273,74.219,35.645,0
1486223121.783,-10.742,29.297,31.738,62.988,28.809,0
1486223121.787,-34.668,26.367,39.062,59.570,65.918,0
1486223121.791,62.500,16.113,43.945,56.152,-17.090,0
1486223121.795,138.672,31.250,37.598,75.684,-18.066,0
1486223121.799,100.098,30.762,41.992,78.613,35.645,0
1486223121.803,-5.371,24.902,56.152,63.965,55.176,0
1486223121.807,-52.734,33.203,42.969,53.711,118.652,0
1486223121.811,38.086,27.344,31.738,49.316,48.828,0
1486223121.815,126.465,28.320,35.156,70.801,0.000,0
1486223121.818,91.797,31.250,37.598,72.266,48.828,0
1486223121.822,-13.672,29.785,40.527,51.270,54.199,0
1486223121.826,-65.430,26.367,42.480,50.293,81.055,0
1486223121.830,13.672,25.391,34.668,47.363,27.832,0
1486223121.834,112.305,25.879,43.945,64.453,-3.906,0
1486223121.838,101.562,28.320,46.387,73.242,69.336,0
1486223121.842,8.789,36.621,32.227,56.641,44.434,0
1486223121.846,-51.270,35.156,41.504,55.664,52.246,0
1486223121.850,11.230,26.367,40.039,49.805,38.086,0
1486223121.854,113.770,32.227,36.621,58.594,0.000,0
1486223121.857,113.770,34.180,37.109,68.848,52.246,0
1486223121.861,17.578,31.738,27.832,51.758,79.590,0
1486223121.865,-52.246,34.668,34.668,43.945,103.027,0
1486223121.869,1.465,32.227,35.645,43.945,59.082,0
1486223121.873,101.074,27.832,34.668,50.293,0.000,0
1486223121.877,123.047,34.180,47.852,67.871,39.551,0
1486223121.881,41.504,36.621,41.992,58.594,88.379,0
1486223121.885,-49.316,32.715,36.621,44.922,96.191,0
1486223121.889,-11.230,34.668,36.133,44.434,66.895,0
1486223121.893,107.422,37.109,38.574,56.641,17.090,0
1486223121.897,131.836,35.645,39.062,69.336,26.367,0
1486223121.900,46.387,32.715,30.273,51.270,9.766,0
1486223121.904,-51.270,32.715,31.250,40.039,58.594,0
1486223121.908,-36.133,31.738,34.180,43.457,101.074,0
1486223121.912,74.219,29.297,37.598,44.922,33.691,0
1486223121.916,114.258,22.461,35.156,57.129,59.570,0
1486223121.920,54.688,30.762,42.969,58.105,67.383,0
1486223121.924,-41.504,31.738,44.434,48.340,65.430,0
1486223121.928,-43.457,24.902,39.551,50.293,86.426,0
1486223121.932,67.871,31.250,50.781,61.035,14.648,0
1486223121.936,125.488,32.227,45.410,75.195,2.930,0
1486223121.940,76.172,37.109,30.273,73.730,16.113,0
1486223121.943,-24.414,37.109,37.109,55.664,36.133,0
1486223121.947,-42.480,28.320,48.340,53.223,83.496,0
1486223121.951,62.500,27.832,46.387,60.059,1.953,0
1486223121.955,124.023,28.809,37.109,73.730,9.766,0
1486223121.959,82.520,29.297,38.086,75.195,75.684,0
1486223121.963,-10.742,29.297,44.434,55.664,49.316,0
1486223121.967,-45.898,38.086,47.852,53.223,76.172,0
1486223121.971,53.223,34.668,43.457,57.617,79.102,0
1486223121.975,136.230,26.367,32.715,68.359,19.043,0
1486223121.979,103.516,29.785,32.715,74.707,23.438,0
1486223121.982,4.395,32.227,45.898,68.848,57.617,0
1486223121.986,-48.828,31.738,50.293,67.871,97.168,0
1486223121.990,34.180,28.320,40.039,61.523,48.828,0
1486223121.994,133.789,31.250,46.875,78.613,9.277,0
1486223121.998,105.469,32.227,46.387,77.637,50.293,0
1486223122.002,0.000,29.785,24.902,52.246,53.223,0
1486223122.006,-52.246,30.762,36.133,53.223,82.520,0
1486223122.010,19.043,24.902,39.062,47.363,52.246,0
1486223122.014,118.652,24.414,23.438,58.105,-25.879,0
1486223122.018,121.582,28.320,38.574,72.754,38.086,0
1486223122.022,23.438,21.484,45.410,59.570,50.781,0
1486223122.025,-59.570,21.973,35.645,52.246,64.941,0
1486223122.029,0.977,28.320,35.645,61.523,59.082,0
1486223122.033,115.234,23.438,49.316,75.195,-16.602,0
1486223122.037,123.535,18.066,43.945,77.637,3.418,0
1486223122.041,28.320,23.438,30.762,61.035,59.082,0
1486223122.045,-43.457,32.715,42.480,63.477,99.609,0
1486223122.049,-7.324,25.879,37.109,64.453,50.293,0
1486223122.053,93.750,23.438,21.484,60.547,17.090,0
1486223122.057,125.000,32.227,34.180,72.754,62.012,0
1486223122.061,41.992,32.227,42.480,60.547,53.711,0
1486223122.064,-50.781,24.902,36.621,53.223,62.988,0
1486223122.068,-31.250,23.438,40.039,53.711,59.082,0
1486223122.072,83.008,26.367,46.387,58.105,-24.414,0
1486223122.076,131.348,20.508,36.621,78.125,-9.277,0
1486223122.080,68.359,25.879,41.016,78.125,10.254,0
1486223122.084,-34.180,28.809,44.922,60.059,42.969,0
1486223122.088,-35.645,30.762,41.504,54.688,101.074,0
1486223122.092,78.613,31.250,36.133,69.336,58.105,0
1486223122.096,124.512,22.461,29.785,77.637,38.574,0
1486223122.100,63.965,23.926,31.738,64.941,60.059,0
1486223122.104,-29.297,25.879,41.016,53.223,98.633,0
1486223122.107,-41.992,21.973,44.922,52.246,74.707,0
1486223122.111,66.895,26.855,43.457,57.129,-26.367,0
1486223122.115,129.883,29.297,47.852,73.730,11.719,0
1486223122.119,76.172,20.508,41.016,67.871,41.504,0
1486223122.123,-20.508,24.414,34.180,54.199,37.109,0
1486223122.127,-54.688,29.785,34.180,48.340,98.145,0
1486223122.131,46.387,23.438,33.691,47.852,40.527,0
1486223122.135,130.859,26.367,41.992,68.848,3.906,0
1486223122.139,104.004,31.250,45.410,78.613,45.410,0
1486223122.143,3.906,29.785,31.250,60.059,64.941,0
1486223122.147,-46.875,33.203,32.715,55.664,84.473,0
1486223122.150,38.086,28.320,41.016,59.082,37.109,1
1486223122.154,123.535,19.043,32.715,62.988,0.977,0
1486223122.158,113.281,27.344,41.016,74.219,32.715,0
1486223122.162,22.949,32.715,44.922,61.523,30.762,0
1486223122.166,-51.270,27.832,25.391,44.922,63.477,0
1486223122.170,13.672,24.902,24.414,45.898,12.695,0
1486223122.174,120.117,27.832,37.109,64.941,-51.270,0
1486223122.178,116.699,32.227,32.715,70.801,0.000,0
1486223122.182,19.531,30.273,34.180,55.664,15.137,0
1486223122.186,-52.246,24.902,35.156,48.340,65.430,0
1486223122.189,12.695,30.273,30.273,48.828,51.270,0
1486223122.193,113.281,31.738,33.691,56.152,0.977,0
1486223122.197,112.305,28.320,34.180,61.523,47.363,0
1486223122.201,31.738,30.762,32.227,52.246,94.238,0
1486223122.205,-48.340,29.785,36.621,42.969,114.746,0
1486223122.209,-10.254,25.391,31.250,36.621,96.680,0
1486223122.213,96.680,23.926,20.996,41.992,32.227,0
1486223122.217,114.258,25.879,33.691,56.152,42.480,0
1486223122.221,37.598,26.855,39.062,50.781,62.012,0
1486223122.225,-52.246,28.809,40.527,50.293,75.195,0
1486223122.229,-26.367,28.320,42.480,50.781,68.848,0
1486223122.232,88.379,29.785,34.180,52.246,0.000,0
1486223122.236,129.883,33.691,36.621,70.801,13.672,0
1486223122.240,58.594,32.715,37.598,58.594,21.973,0
1486223122.244,-50.781,25.879,27.344,44.434,43.945,0
1486223122.248,-36.621,28.320,32.227,50.781,26.367,0
1486223122.252,77.637,32.715,37.109,54.199,-61.523,0
1486223122.256,110.352,23.438,33.691,65.430,22.949,0
1486223122.260,52.246,22.461,35.645,57.617,59.570,0
1486223122.264,-37.109,30.762,43.945,46.875,15.625,0
1486223122.268,-50.781,31.250,36.133,38.574,68.848,0
1486223122.271,60.059,31.738,29.297,41.992,-15.625,0
1486223122.275,130.859,35.645,44.922,62.500,-36.133,0
1486223122.279,79.590,34.668,34.668,53.711,58.594,0
1486223122.283,-29.297,26.367,22.949,40.039,73.242,0
1486223122.287,-58.105,31.738,34.668,41.016,80.566,0
1486223122.291,48.340,34.180,46.875,46.387,21.973,0
1486223122.295,122.070,29.297,43.945,63.477,-8.301,0
1486223122.299,87.891,32.715,46.875,67.383,64.941,0
1486223122.303,-13.672,31.738,50.781,49.316,70.801,0
1486223122.307,-62.012,28.320,37.109,44.434,85.449,0
1486223122.311,38.086,24.902,39.551,49.805,1.465,0
1486223122.314,123.535,22.949,37.598,61.035,-41.504,0
1486223122.318,101.074,31.250,30.273,69.336,17.090,0
1486223122.322,7.812,31.738,29.785,59.082,32.715,0
1486223122.326,-59.082,27.832,29.785,48.340,64.941,0
1486223122.330,14.648,34.180,40.039,42.969,36.621,0
1486223122.334,122.559,32.227,47.852,58.105,1.465,0
1486223122.338,108.887,28.320,48.340,58.105,26.367,0
1486223122.342,9.277,33.203,39.062,43.457,47.363,0
1486223122.346,-60.059,33.691,37.598,49.805,78.613,0
1486223122.350,-1.465,26.855,40.039,46.875,20.996,0
1486223122.354,105.957,24.414,35.645,53.223,-34.180,0
1486223122.357,111.328,26.367,29.785,62.012,36.621,0
1486223122.361,22.949,28.320,28.809,51.270,47.363,0
1486223122.365,-50.293,33.203,43.945,53.223,55.664,0
1486223122.369,-9.277,31.738,40.039,52.246,50.781,0
1486223122.373,96.680,28.809,28.809,56.641,-18.555,0
1486223122.377,121.582,28.809,29.297,68.359,49.805,0
1486223122.381,45.410,33.203,42.969,61.035,83.496,0
1486223122.385,-45.898,26.855,44.922,48.340,72.266,0
1486223122.389,-25.879,22.949,28.809,42.480,79.102,0
1486223122.393,93.262,29.785,27.832,56.641,-0.488,0
1486223122.396,130.859,29.785,29.297,73.242,21.973,0
1486223122.400,61.035,29.297,44.922,70.801,52.246,0
1486223122.404,-37.109,29.297,48.340,61.035,30.273,0
1486223122.408,-33.203,21.973,28.809,48.828,53.223,0
1486223122.412,79.102,22.949,28.320,51.270,-0.488,0
1486223122.416,127.930,25.391,42.969,74.219,5.859,0
1486223122.420,70.312,22.461,42.969,73.242,66.406,0
1486223122.424,-30.762,26.367,29.297,57.617,115.723,0
1486223122.428,-42.480,26.367,33.691,53.711,91.309,0
1486223122.432,70.801,29.297,35.645,57.129,15.137,0
1486223122.436,142.578,38.574,37.598,74.707,31.738,0
1486223122.439,88.379,28.809,44.922,72.266,32.227,0
1486223122.443,-19.043,28.809,41.992,66.895,84.961,0
1486223122.447,-48.340,34.668,37.598,62.500,139.160,0
1486223122.451,48.828,25.879,31.738,49.316,32.227,0
1486223122.455,138.184,23.438,33.691,67.871,22.461,0
1486223122.459,98.633,25.391,31.738,71.289,66.895,0
1486223122.463,-17.090,29.785,28.809,55.664,43.457,0
1486223122.467,-61.035,30.273,31.250,44.434,67.871,0
1486223122.471,36.621,26.855,41.016,45.898,14.160,0
1486223122.475,124.023,28.320,41.504,66.895,-15.625,0
1486223122.479,93.750,27.832,34.668,69.336,20.508,0
1486223122.482,-4.883,27.832,42.480,60.547,20.996,0
1486223122.486,-64.453,30.762,49.316,53.223,41.992,0
1486223122.490,18.066,30.762,32.715,46.387,30.762,0
1486223122.494,118.652,26.367,29.785,63.965,-3.906,0
1486223122.498,101.562,30.762,37.109,65.430,40.039,0
1486223122.502,0.000,31.738,34.180,44.922,25.391,0
1486223122.506,-66.406,24.902,34.668,46.387,73.242,0
1486223122.510,2.441,28.320,34.180,44.434,58.105,0
1486223122.514,106.934,31.250,32.227,55.664,-17.090,0
1486223122.518,113.770,33.203,40.039,69.336,43.457,0
1486223122.521,35.156,34.668,45.410,59.570,70.312,0
1486223122.525,-39.062,32.227,41.504,51.758,68.359,0
1486223122.529,-3.418,29.785,33.203,45.898,32.715,0
1486223122.533,113.770,32.715,29.297,62.988,-11.719,0
1486223122.537,142.578,33.691,28.320,76.660,28.320,0
1486223122.541,62.988,33.691,36.621,66.406,62.988,0
1486223122.545,-32.227,30.273,43.457,60.547,67.871,0
1486223122.549,-20.996,25.879,24.414,50.293,44.434,0
1486223122.553,93.750,35.645,36.133,60.547,-19.043,0
1486223122.557,125.000,34.668,53.223,76.172,11.719,0
1486223122.561,44.434,29.785,41.504,64.453,31.738,0
1486223122.564,-45.898,32.227,44.922,57.129,78.125,0
1486223122.568,-31.738,32.227,40.527,52.246,102.539,0
1486223122.572,80.078,28.809,33.691,57.129,-21.484,0
1486223122.576,130.859,32.227,43.457,77.148,22.949,0
1486223122.580,74.219,33.691,49.316,73.242,69.824,0
1486223122.584,-33.691,28.320,39.062,50.293,23.926,0
1486223122.588,-41.992,28.809,35.645,45.410,59.082,0
1486223122.592,72.754,25.391,37.598,58.594,28.320,0
1486223122.596,129.395,32.715,43.945,75.195,18.066,0
1486223122.600,76.172,32.227,48.340,72.754,58.594,0
1486223122.603,-26.855,22.949,41.504,55.664,74.219,0
1486223122.607,-44.922,29.785,41.504,52.246,85.449,0
1486223122.611,60.059,24.414,36.621,49.805,19.043,0
1486223122.615,131.836,21.973,29.785,65.918,-14.648,0
1486223122.619,89.844,24.902,29.297,66.406,18.066,0
1486223122.623,-11.230,25.879,44.434,56.152,39.551,0
1486223122.627,-44.922,33.203,51.758,59.082,73.730,0
1486223122.631,46.387,27.344,32.227,50.781,46.875,0
1486223122.635,124.023,17.578,36.133,60.059,24.414,0
1486223122.639,102.051,21.484,50.293,70.312,67.871,0
1486223122.643,2.441,29.785,46.875,52.246,35.645,0
1486223122.646,-57.129,31.250,42.969,45.410,50.781,0
1486223122.650,28.809,29.785,39.062,48.828,23.438,0
1486223122.654,122.559,20.508,39.551,64.453,-19.043,0
1486223122.658,117.188,25.391,44.434,78.613,46.387,0
1486223122.662,26.367,31.250,50.293,64.941,46.875,0
1486223122.666,-46.387,23.926,42.480,56.641,81.055,0
1486223122.670,23.438,26.367,28.320,56.641,27.832,0
1486223122.674,132.812,30.273,42.969,77.637,-28.320,0
1486223122.678,126.953,32.715,54.688,84.961,51.758,0
1486223122.682,27.832,26.855,41.016,59.082,46.875,0
1486223122.686,-52.246,23.926,38.574,50.293,42.969,0
1486223122.689,-0.488,25.879,33.203,48.828,45.898,0
1486223122.693,106.934,20.996,33.203,56.641,-60.059,0
1486223122.697,125.488,28.320,41.992,71.289,-30.273,0
1486223122.701,49.316,37.109,36.621,64.453,19.043,0
1486223122.705,-44.434,33.203,35.156,52.734,43.945,1
1486223122.709,-15.625,29.785,44.434,46.875,58.594,0
1486223122.713,99.609,25.879,39.062,55.664,-21.484,0
1486223122.717,129.883,26.855,30.273,68.848,18.066,0
1486223122.721,50.781,25.879,33.691,57.617,69.824,0
1486223122.725,-40.039,29.297,30.762,55.176,81.055,0
1486223122.728,-20.996,28.320,31.738,55.176,58.105,0
1486223122.732,89.844,24.414,40.527,56.152,-42.480,0
1486223122.736,134.277,29.297,41.016,71.777,-15.137,0
1486223122.740,71.289,31.738,38.086,60.547,55.176,0
1486223122.744,-33.203,35.156,43.945,47.363,79.590,0
1486223122.748,-39.062,24.414,40.039,43.457,89.844,0
1486223122.752,74.219,17.090,39.062,48.828,19.531,0
1486223122.756,127.441,25.391,37.109,68.359,20.020,0
1486223122.760,74.707,27.832,30.762,67.383,56.641,0
1486223122.764,-22.949,27.832,39.551,58.105,40.527,0
1486223122.768,-39.551,30.273,50.781,60.547,36.621,0
1486223122.771,63.965,29.785,32.227,56.152,-7.812,0
1486223122.775,140.137,37.109,30.273,69.824,5.859,0
1486223122.779,102.051,38.086,46.387,71.289,32.715,0
1486223122.783,-6.836,24.414,48.828,50.293,8.789,0
1486223122.787,-47.852,27.832,41.992,43.457,67.871,0
1486223122.791,44.434,26.855,29.297,41.992,62.500,0
1486223122.795,117.676,23.926,30.273,53.711,1.465,0
1486223122.799,94.238,33.691,41.016,66.406,28.320,0
1486223122.803,0.977,30.273,40.039,59.082,20.996,0
1486223122.807,-59.570,30.762,44.922,54.688,34.668,0
1486223122.810,22.949,32.715,44.922,54.688,14.160,0
1486223122.814,121.094,29.785,35.645,65.918,0.977,0
1486223122.818,100.098,25.391,41.016,65.918,36.133,0
1486223122.822,-1.465,24.414,36.621,40.039,49.316,0
1486223122.826,-58.594,23.926,40.527,40.039,89.844,0
1486223122.830,3.418,20.508,39.062,33.691,59.082,0
1486223122.834,103.027,22.949,32.227,42.480,13.184,0
1486223122.838,101.562,25.391,36.621,60.547,8.301,0
1486223122.842,7.812,26.855,39.062,47.852,37.598,0
1486223122.846,-58.594,30.762,39.062,41.992,92.285,0
1486223122.850,-12.695,30.762,29.785,30.273,81.543,0
1486223122.853,84.473,26.367,28.320,39.062,2.441,0
1486223122.857,107.422,24.902,28.320,57.617,-2.441,0
1486223122.861,21.973,25.879,30.273,42.480,53.223,0
1486223122.865,-65.918,29.785,39.551,35.645,95.703,0
1486223122.869,-19.531,31.250,37.598,33.691,56.641,0
1486223122.873,85.938,23.438,31.738,31.738,-13.184,0
1486223122.877,109.375,22.949,33.203,47.363,35.156,0
1486223122.881,37.109,32.227,30.762,40.039,65.430,0
1486223122.885,-56.152,31.250,32.715,35.645,72.754,0
1486223122.889,-35.156,29.297,41.016,39.062,65.430,0
1486223122.893,83.008,31.250,38.086,47.363,-10.254,0
1486223122.896,120.117,31.250,37.598,60.059,14.648,0
1486223122.900,50.781,31.738,36.133,44.922,50.293,0
1486223122.904,-43.945,25.391,26.855,41.504,81.055,0
1486223122.908,-43.945,25.879,37.109,41.992,64.941,0
1486223122.912,71.289,30.273,47.363,44.434,-36.133,0
1486223122.916,127.930,30.273,27.832,61.035,19.531,0
1486223122.920,74.219,33.691,31.250,60.059,46.875,0
1486223122.924,-21.484,36.133,49.316,53.223,65.430,0
1486223122.928,-40.527,34.668,51.270,48.340,108.398,0
1486223122.932,67.871,32.715,44.922,43.945,14.160,0
1486223122.935,137.695,30.273,46.875,64.453,-22.461,0
1486223122.939,93.262,32.715,38.086,73.242,2.441,0
1486223122.943,-12.695,30.762,36.621,58.105,31.738,0
1486223122.947,-48.340,24.414,30.762,46.387,81.055,0
1486223122.951,56.641,30.273,23.438,47.363,24.902,0
1486223122.955,133.789,30.273,40.527,66.895,5.859,0
1486223122.959,98.145,29.785,39.062,75.195,25.391,0
1486223122.963,0.488,34.180,34.668,62.988,13.184,0
1486223122.967,-55.664,27.344,35.645,48.828,51.270,0
1486223122.971,26.367,27.344,45.410,46.875,12.695,0
1486223122.975,122.070,30.762,42.969,62.012,-3.418,0
1486223122.978,99.121,24.414,28.320,67.871,28.320,0
1486223122.982,1.953,24.414,35.156,58.105,56.152,0
1486223122.986,-57.617,28.320,38.574,50.781,80.078,0
1486223122.990,19.531,30.273,44.434,55.664,50.293,0
1486223122.994,116.699,29.297,37.598,64.941,16.113,0
1486223122.998,104.004,26.367,21.484,66.895,42.969,0
1486223123.002,14.160,34.180,36.621,56.641,68.359,0
1486223123.006,-58.105,36.133,47.852,48.340,82.520,0
1486223123.010,-1.465,29.785,48.828,48.828,72.266,0
1486223123.014,101.074,25.391,42.480,56.641,35.645,0
1486223123.018,113.770,22.949,33.203,64.453,39.062,0
1486223123.021,27.832,26.855,34.668,48.340,28.809,0
1486223123.025,-59.082,29.785,35.645,41.016,38.574,0
1486223123.029,-17.090,28.809,41.992,51.270,57.129,0
1486223123.033,95.215,24.902,39.062,56.152,38.086,0
1486223123.037,119.141,28.320,35.645,63.477,66.895,0
1486223123.041,35.645,31.250,43.457,51.758,64.941,0
1486223123.045,-53.711,29.785,42.969,40.527,68.359,0
1486223123.049,-26.367,30.273,47.852,47.852,54.688,0
1486223123.053,89.355,27.344,47.852,52.246,-28.809,0
1486223123.057,139.648,24.902,32.227,60.547,25.391,0
1486223123.060,65.918,34.668,33.691,60.547,76.660,0
1486223123.064,-38.086,37.109,40.039,46.875,84.961,0
1486223123.068,-29.785,31.738,44.434,47.363,65.430,0
1486223123.072,78.125,29.785,42.969,58.594,6.836,0
1486223123.076,127.930,26.367,31.738,64.941,24.414,0
1486223123.080,73.242,27.832,40.527,65.430,46.875,0
1486223123.084,-32.227,25.391,45.898,53.711,60.547,0
1486223123.088,-46.875,22.461,34.668,45.898,48.340,0
1486223123.092,59.570,19.043,33.691,47.363,-26.855,0
1486223123.096,133.301,20.508,45.898,65.430,0.488,0
1486223123.100,89.844,25.879,45.410,66.406,47.363,0
1486223123.103,-17.090,31.738,42.480,48.828,59.082,0
1486223123.107,-50.781,28.320,31.250,39.551,60.547,0
1486223123.111,38.574,21.973,25.391,38.086,14.160,0
1486223123.115,118.164,27.344,35.645,61.035,20.020,0
1486223123.119,90.332,28.320,39.551,60.059,60.059,0
1486223123.123,-7.812,26.855,37.109,39.551,41.992,0
1486223123.127,-57.617,30.762,36.621,40.039,32.227,0
1486223123.131,40.039,33.691,38.086,48.340,-7.812,0
1486223123.135,130.859,37.598,38.086,66.895,-27.344,0
1486223123.139,97.168,32.227,33.691,65.918,54.199,0
1486223123.142,-2.441,28.809,36.621,48.340,53.223,0
1486223123.146,-64.453,29.785,34.668,40.527,42.480,0
1486223123.150,11.230,29.297,32.227,41.992,1.953,0
1486223123.154,123.535,33.203,38.086,61.035,-28.320,0
1486223123.158,106.445,32.227,35.156,59.570,37.109,0
1486223123.162,10.742,28.809,43.457,50.781,53.223,0
1486223123.166,-55.664,30.762,45.410,47.363,77.148,0
1486223123.170,-4.883,28.809,32.227,40.527,57.129,0
1486223123.174,104.980,28.809,31.250,53.223,-10.742,0
1486223123.178,115.234,31.738,29.297,55.664,41.504,0
1486223123.182,22.461,26.855,25.391,41.016,71.289,0
1486223123.185,-60.059,30.273,41.504,39.062,82.520,0
1486223123.189,-18.555,25.879,42.480,30.762,40.039,0
1486223123.193,93.262,21.484,30.762,38.574,-20.020,0
1486223123.197,118.652,23.926,35.645,55.664,17.090,0
1486223123.201,36.621,22.461,41.992,40.527,27.832,0
1486223123.205,-53.711,25.879,41.016,30.762,55.176,0
1486223123.209,-33.203,27.344,30.273,32.715,56.152,0
1486223123.213,80.566,26.367,33.691,38.574,2.441,0
1486223123.217,113.770,24.414,26.855,42.969,52.246,0
1486223123.221,47.852,20.996,25.879,41.992,56.641,0
1486223123.225,-39.551,18.555,41.504,36.621,51.758,0
1486223123.228,-34.668,21.484,45.898,35.156,70.801,0
1486223123.232,67.383,24.414,47.852,40.527,-16.602,0
1486223123.236,123.535,27.344,43.945,55.664,-22.461,0
1486223123.240,67.383,30.273,36.133,54.199,27.344,0
1486223123.244,-46.875,22.461,34.180,38.574,35.645,0
1486223123.248,-41.016,30.273,43.457,45.898,65.430,0
1486223123.252,81.055,30.762,51.270,59.570,-3.906,0
1486223123.256,135.254,22.461,39.551,66.406,-15.137,0
1486223123.260,85.449,32.715,31.250,59.570,34.668,0
1486223123.264,-6.836,29.297,42.969,53.711,44.922,0
1486223123.267,-42.480,22.949,43.945,49.316,54.199,0
1486223123.271,56.152,30.273,36.621,47.852,-2.441,0
1486223123.275,144.043,30.762,41.504,68.359,19.043,0
1486223123.279,110.352,28.320,38.574,68.359,92.773,0
1486223123.283,3.906,27.344,37.598,60.547,64.941,1
1486223123.287,-48.340,33.203,43.945,63.965,78.613,0
1486223123.291,40.527,31.738,37.598,58.594,37.598,0
1486223123.295,133.301,23.926,38.574,75.195,-17.578,0
1486223123.299,106.445,27.344,42.969,85.938,19.043,0
1486223123.303,-2.441,28.320,43.457,62.988,39.062,0
1486223123.307,-54.199,26.367,44.434,52.734,87.891,0
1486223123.310,27.832,23.926,39.551,51.758,63.477,0
1486223123.314,114.746,26.367,37.109,64.453,12.695,0
1486223123.318,103.027,26.367,38.574,70.801,69.824,0
1486223123.322,20.020,28.809,31.738,64.941,82.520,0
1486223123.326,-53.223,34.180,38.574,62.012,120.117,0
1486223123.330,3.418,24.414,38.574,54.688,98.633,0
1486223123.334,111.328,23.926,35.156,71.777,52.246,0
1486223123.338,113.770,22.461,42.480,79.102,115.723,0
1486223123.342,35.645,23.926,44.434,63.477,96.680,0
1486223123.346,-44.434,35.645,38.574,62.500,101.074,0
1486223123.350,-12.207,30.273,31.250,55.664,101.074,0
1486223123.353,94.238,25.391,32.715,58.594,35.156,0
1486223123.357,113.770,27.832,32.715,69.336,42.969,0
1486223123.361,34.668,26.855,30.273,55.664,74.707,0
1486223123.365,-52.246,24.902,41.504,48.828,121.094,0
1486223123.369,-18.555,29.785,43.945,55.664,111.816,0
1486223123.373,92.285,25.391,31.738,58.594,15.625,0
1486223123.377,117.676,23.926,39.062,69.336,44.434,0
1486223123.381,43.457,25.391,37.109,56.152,73.242,0
1486223123.385,-45.410,27.344,34.180,43.945,19.531,0
1486223123.389,-35.156,31.738,33.203,48.340,11.230,0
1486223123.392,83.008,26.367,32.715,57.617,-38.574,0
1486223123.396,130.371,22.461,29.785,71.777,-18.555,0
1486223123.400,68.848,33.691,31.738,69.336,24.902,0
1486223123.404,-33.203,32.227,47.363,62.988,67.383,0
1486223123.408,-42.480,20.508,44.434,56.152,90.332,0
1486223123.412,73.242,31.250,41.016,59.570,-26.367,0
1486223123.416,127.930,32.227,35.645,75.684,-8.301,0
1486223123.420,74.707,24.902,31.250,73.730,49.316,0
1486223123.424,-19.043,29.297,41.016,65.430,49.316,0
1486223123.428,-46.875,30.273,34.180,57.617,99.609,0
1486223123.432,54.688,27.832,24.414,50.293,39.062,0
1486223123.435,127.930,26.855,27.832,68.848,0.488,0
1486223123.439,98.145,31.738,41.016,73.730,39.062,0
1486223123.443,-0.488,33.691,48.828,68.359,51.758,0
1486223123.447,-54.688,30.762,44.434,59.570,102.539,0
1486223123.451,26.367,21.484,40.039,43.945,34.668,0
1486223123.455,113.770,22.949,30.762,58.105,18.066,0
1486223123.459,91.309,29.297,31.738,65.430,65.430,0
1486223123.463,0.488,32.227,37.109,56.152,74.707,0
1486223123.467,-53.711,31.738,31.250,49.316,110.840,0
1486223123.471,23.438,31.738,32.227,49.316,65.918,0
1486223123.474,124.512,36.621,40.039,71.777,33.691,0
1486223123.478,111.816,28.320,27.344,72.754,72.754,0
1486223123.482,5.371,25.391,20.020,41.016,39.062,0
1486223123.486,-65.918,29.297,35.645,34.180,45.410,0
1486223123.490,9.766,32.715,35.156,42.480,62.988,0
1486223123.494,112.305,30.762,37.109,58.594,6.348,0
1486223123.498,111.328,24.414,34.180,65.918,59.082,0
1486223123.502,22.949,22.949,24.902,46.387,73.730,0
1486223123.506,-60.059,27.344,27.344,45.898,73.730,0
1486223123.510,-12.695,27.344,35.645,46.875,55.664,0
1486223123.514,100.098,27.832,33.203,58.105,38.574,0
1486223123.517,120.117,27.832,23.438,70.801,68.359,0
1486223123.521,45.410,31.738,32.715,67.383,9.766,0
1486223123.525,-43.945,31.250,33.691,57.129,50.293,0
1486223123.529,-18.555,20.508,34.668,52.734,112.793,0
1486223123.533,92.773,20.020,39.062,64.941,33.691,0
1486223123.537,129.395,24.902,33.203,81.055,48.340,0
1486223123.541,62.012,32.715,42.969,80.078,82.031,0
1486223123.545,-36.133,35.156,52.734,68.359,89.355,0
1486223123.549,-28.320,24.414,32.715,53.711,83.984,0
1486223123.553,81.543,21.484,25.391,55.176,29.785,0
1486223123.557,124.512,23.926,28.809,70.801,50.293,0
1486223123.560,66.406,24.414,24.902,65.430,69.824,0
1486223123.564,-33.691,26.855,24.902,51.270,99.609,0
1486223123.568,-42.969,28.809,33.203,49.805,106.934,0
1486223123.572,66.406,26.855,46.387,58.105,23.438,0
1486223123.576,120.117,23.926,45.410,71.777,31.738,0
1486223123.580,71.777,31.250,33.691,67.383,49.805,0
1486223123.584,-24.902,28.809,41.016,57.129,60.547,0
1486223123.588,-48.828,21.973,45.410,56.641,58.594,0
1486223123.592,57.129,28.320,35.645,51.270,-1.953,0
1486223123.596,119.629,27.832,22.949,55.664,24.414,0
1486223123.599,78.125,32.227,30.762,60.059,44.922,0
1486223123.603,-15.137,34.180,48.340,54.688,39.551,0
1486223123.607,-58.105,29.297,47.852,49.805,60.059,0
1486223123.611,27.832,24.414,34.668,46.875,14.160,0
1486223123.615,116.211,22.461,24.902,62.012,-2.930,0
1486223123.619,93.262,30.273,32.227,69.336,32.715,0
1486223123.623,-3.906,33.691,50.781,63.477,37.109,0
1486223123.627,-60.547,23.438,41.504,57.617,82.031,0
1486223123.631,16.602,23.438,26.855,54.199,26.855,0
1486223123.635,119.629,31.738,41.016,68.359,-13.184,0
1486223123.639,109.863,24.902,39.551,70.312,49.805,0
1486223123.642,16.113,24.902,39.062,58.105,5.371,0
1486223123.646,-58.105,25.879,43.945,51.270,15.625,0
1486223123.650,8.789,25.391,29.297,47.363,30.762,0
1486223123.654,113.770,26.367,24.414,59.082,-17.578,0
1486223123.658,117.188,25.879,32.715,63.965,27.344,0
1486223123.662,30.273,30.762,31.250,54.688,56.152,0
1486223123.666,-53.223,32.227,32.227,51.270,103.027,0
1486223123.670,-5.371,26.855,37.598,52.734,104.004,0
1486223123.674,107.910,26.367,41.504,66.406,-2.930,0
1486223123.678,133.789,28.320,41.992,81.543,10.254,0
1486223123.681,43.945,27.344,38.574,65.918,34.180,0
1486223123.685,-44.434,29.785,47.363,54.199,30.273,0
1486223123.689,-8.301,32.227,47.363,50.781,14.160,0
1486223123.693,98.633,25.879,38.086,57.129,-42.480,0
1486223123.697,125.977,20.020,31.738,70.801,3.906,0
1486223123.701,50.781,25.391,27.832,59.082,43.457,0
1486223123.705,-44.434,27.344,31.738,50.781,70.312,0
1486223123.709,-28.320,33.691,40.039,54.688,54.688,0
1486223123.713,86.426,33.203,43.457,54.199,4.395,0
1486223123.717,131.348,23.926,38.086,69.336,34.668,0
1486223123.721,68.848,27.832,35.156,66.895,44.922,0
1486223123.724,-34.668,29.297,40.527,49.316,29.297,0
1486223123.728,-39.551,26.855,40.039,46.875,40.527,0
1486223123.732,79.102,33.203,36.133,55.664,1.465,0
1486223123.736,136.719,32.227,40.039,70.312,26.855,0
1486223123.740,77.637,28.809,32.227,69.824,51.270,0
1486223123.744,-30.762,32.715,18.555,60.059,83.496,0
1486223123.748,-47.852,32.227,23.438,59.082,102.539,0
1486223123.752,70.801,30.273,35.645,59.082,15.137,0
1486223123.756,135.254,30.762,29.785,67.383,16.602,0
1486223123.760,87.891,32.227,22.949,69.824,42.480,0
1486223123.764,-10.742,34.180,36.133,63.477,43.457,0
1486223123.767,-48.340,34.180,42.480,63.965,69.824,0
1486223123.771,48.340,28.320,41.504,55.176,-19.043,0
1486223123.775,131.348,27.344,38.574,67.383,-30.273,0
1486223123.779,98.145,27.832,26.855,70.801,34.668,0
1486223123.783,-1.465,31.250,29.297,55.176,53.711,0
1486223123.787,-60.547,26.855,35.645,48.340,65.918,0
1486223123.791,27.832,24.902,33.203,46.875,6.836,0
1486223123.795,118.652,29.297,30.273,55.664,-25.391,0
1486223123.799,93.262,24.414,31.250,54.688,17.090,0
1486223123.803,10.742,27.344,37.109,45.410,56.641,0
1486223123.806,-52.246,33.203,48.828,43.457,81.055,0
1486223123.810,10.742,27.832,48.828,41.016,74.707,0
1486223123.814,113.281,24.902,30.762,50.781,39.551,0
1486223123.818,111.816,26.367,21.484,58.594,44.922,0
1486223123.822,21.973,27.832,32.715,47.852,30.273,0
1486223123.826,-51.758,28.809,52.246,48.340,49.316,0
1486223123.830,-9.766,24.902,43.457,40.039,46.387,1
1486223123.834,101.074,25.879,22.461,43.945,-4.883,0
1486223123.838,120.605,27.832,30.762,62.988,16.113,0
1486223123.842,32.227,29.785,48.828,53.711,18.555,0
1486223123.846,-50.781,32.227,49.316,51.270,81.055,0
1486223123.849,-17.090,27.344,42.480,48.828,89.355,0
1486223123.853,92.285,24.902,30.273,54.688,-0.977,0
1486223123.857,118.164,23.926,27.832,67.871,3.418,0
1486223123.861,43.945,25.879,40.527,55.664,18.555,0
1486223123.865,-49.805,27.832,45.898,39.062,96.680,0
1486223123.869,-33.203,27.832,47.852,40.527,160.645,0
1486223123.873,69.824,23.438,41.016,42.969,17.578,0
1486223123.877,110.352,24.414,32.227,55.176,7.324,0
1486223123.881,45.898,29.297,40.039,50.781,72.266,0
1486223123.885,-62.500,22.461,41.504,35.156,79.590,0
1486223123.889,-58.105,24.902,43.945,40.527,63.965,0
1486223123.892,66.895,26.855,49.805,50.293,-32.227,0
1486223123.896,116.699,27.344,32.227,59.570,17.578,0
1486223123.900,62.988,26.855,31.738,51.270,75.195,0
1486223123.904,-27.832,22.949,34.180,43.945,55.664,0
1486223123.908,-46.875,25.879,28.320,45.410,68.359,0
1486223123.912,61.035,29.785,39.551,47.852,2.441,0
1486223123.916,119.629,26.367,31.738,53.223,31.738,0
1486223123.920,74.707,26.855,27.832,50.781,67.871,0
1486223123.924,-25.879,36.133,36.621,44.922,35.645,0
1486223123.928,-63.477,30.273,33.203,38.574,35.645,0
1486223123.931,36.133,28.320,33.691,37.109,-11.230,0
1486223123.935,112.793,31.738,36.133,53.711,-44.922,0
1486223123.939,85.449,24.414,45.410,60.059,38.086,0
1486223123.943,-3.906,28.809,51.758,56.152,93.750,0
1486223123.947,-56.641,32.715,31.738,48.828,89.355,0
1486223123.951,21.973,25.391,25.391,39.551,15.137,0
1486223123.955,125.000,27.832,39.551,63.965,-9.766,0
1486223123.959,118.652,33.691,43.457,83.496,38.574,0
1486223123.963,12.207,31.250,36.621,60.547,36.133,0
1486223123.967,-51.270,25.879,39.062,59.570,91.797,0
1486223123.971,25.391,33.691,39.551,62.988,50.293,0
1486223123.974,120.605,42.480,30.762,67.871,-26.855,0
1486223123.978,120.117,34.180,41.016,74.707,10.254,0
1486223123.982,24.902,29.297,42.480,55.176,54.688,0
1486223123.986,-55.664,28.809,40.039,45.898,94.238,0
1486223123.990,2.930,28.320,44.434,44.922,51.758,0
1486223123.994,109.375,24.902,27.832,55.176,3.906,0
1486223123.998,127.441,24.414,30.762,70.312,25.391,0
1486223124.002,50.293,34.668,48.828,63.965,10.742,0
1486223124.006,-33.691,31.738,48.828,56.152,79.590,0
1486223124.010,4.395,28.809,43.457,53.711,87.402,0
1486223124.013,103.027,35.156,51.270,59.082,13.184,0
1486223124.017,123.535,32.227,43.945,74.707,69.336,0
1486223124.021,49.805,29.297,24.414,68.359,75.684,0
1486223124.025,-43.945,29.297,27.344,52.246,90.820,0
1486223124.029,-26.855,27.832,42.480,47.852,77.148,0
1486223124.033,81.543,26.855,40.527,55.664,-4.883,0
1486223124.037,131.836,35.156,49.316,74.219,65.918,0
1486223124.041,65.918,35.645,55.664,62.988,62.500,0
1486223124.045,-29.297,35.156,43.945,52.734,66.406,0
1486223124.049,-24.414,33.203,39.551,48.828,101.562,0
1486223124.053,76.172,30.762,27.832,48.340,12.695,0
1486223124.056,124.512,31.738,22.949,65.430,44.434,0
1486223124.060,72.266,31.738,33.691,56.152,45.410,0
1486223124.064,-33.691,26.367,35.156,46.875,25.391,0
1486223124.068,-40.527,28.320,46.387,54.199,54.199,0
1486223124.072,73.242,35.645,61.035,65.430,17.578,0
1486223124.076,128.418,24.902,40.039,70.312,-2.441,0
1486223124.080,90.820,29.297,30.762,64.941,2.441,0
1486223124.084,-5.859,31.738,44.434,62.500,14.648,0
1486223124.088,-47.852,22.461,33.203,52.246,52.734,0
1486223124.092,46.387,28.320,29.297,53.711,23.926,0
1486223124.096,125.000,30.273,31.250,69.336,22.949,0
1486223124.099,93.262,21.973,28.320,70.312,63.477,0
1486223124.103,-0.977,31.250,48.828,64.453,53.711,0
1486223124.107,-48.340,33.691,62.500,53.223,47.852,0
1486223124.111,31.738,20.508,53.223,52.246,-2.930,0
1486223124.115,120.605,23.926,42.480,68.359,-16.602,0
1486223124.119,95.703,26.855,34.180,69.824,51.270,0
1486223124.123,4.395,23.926,31.738,61.523,49.316,0
1486223124.127,-55.176,26.367,44.434,59.082,75.195,0
1486223124.131,18.066,26.855,42.480,51.758,28.809,0
1486223124.135,120.605,31.250,31.250,65.430,-19.531,0
1486223124.138,110.840,33.203,41.504,74.707,42.969,0
1486223124.142,22.949,26.367,41.992,59.082,42.969,0
1486223124.146,-49.316,25.391,29.297,52.246,77.637,0
1486223124.150,-1.953,24.414,34.180,53.223,73.242,0
1486223124.154,105.957,24.902,41.992,62.012,28.809,0
1486223124.158,118.652,32.715,35.645,69.824,50.293,0
1486223124.162,35.645,32.227,36.621,58.105,31.250,0
1486223124.166,-46.875,35.645,43.945,59.082,62.500,0
1486223124.170,-8.301,41.016,44.922,64.453,50.781,0
1486223124.174,100.586,27.832,31.738,59.082,-17.578,0
1486223124.178,125.488,24.902,33.691,69.824,11.719,0
1486223124.181,47.852,29.297,45.410,68.359,16.113,0
1486223124.185,-44.922,28.809,40.039,56.152,41.016,0
1486223124.189,-27.344,25.879,36.621,51.758,47.852,0
1486223124.193,92.285,26.855,34.180,55.176,5.859,0
1486223124.197,134.766,32.715,30.762,64.453,17.578,0
1486223124.201,60.547,32.715,40.527,54.688,35.156,0
1486223124.205,-35.645,30.762,53.223,44.434,86.426,0
1486223124.209,-33.691,29.297,41.992,44.434,86.426,0
1486223124.213,75.684,19.531,30.762,52.734,-0.488,0
1486223124.217,134.766,15.137,37.109,70.312,42.969,0
1486223124.221,79.590,24.414,40.039,66.895,72.754,0
1486223124.224,-31.250,28.320,36.133,45.898,77.148,0
1486223124.228,-44.434,27.832,41.504,49.316,101.562,0
1486223124.232,65.430,31.738,34.668,57.129,33.691,0
1486223124.236,131.836,30.762,32.715,67.383,33.203,0
1486223124.240,81.055,27.344,41.504,61.523,69.336,0
1486223124.244,-26.367,29.297,39.062,49.316,47.852,0
1486223124.248,-54.199,26.855,36.133,50.781,60.547,0
1486223124.252,41.016,16.113,29.785,45.898,10.742,0
1486223124.256,122.070,22.461,41.016,65.918,5.371,0
1486223124.260,83.984,30.762,45.410,69.336,46.387,0
1486223124.263,-11.230,31.738,37.109,51.758,34.668,0
1486223124.267,-53.711,27.344,44.434,49.316,71.777,0
1486223124.271,33.203,23.438,48.340,52.246,33.691,0
1486223124.275,125.000,27.832,33.203,66.895,12.207,0
1486223124.279,97.168,28.809,37.598,70.801,45.898,0
1486223124.283,0.977,26.855,41.016,52.246,59.082,0
1486223124.287,-55.176,26.367,42.480,51.270,74.707,0
1486223124.291,13.672,24.414,43.945,52.734,41.504,0
1486223124.295,110.352,21.973,38.086,59.570,-2.441,0
1486223124.299,109.375,28.320,42.480,73.242,14.648,0
1486223124.303,21.973,29.297,43.457,61.523,54.199,0
1486223124.306,-50.293,26.855,42.969,49.805,91.797,0
1486223124.310,8.301,31.250,51.270,60.547,31.738,0
1486223124.314,109.863,36.621,42.480,66.895,-23.438,0
1486223124.318,116.211,36.621,31.738,69.336,25.391,0
1486223124.322,36.621,29.297,33.203,63.965,35.645,0
1486223124.326,-49.805,24.902,36.621,53.223,31.250,0
1486223124.330,-15.625,27.344,42.969,51.270,14.648,0
1486223124.334,94.727,24.902,40.527,56.152,-4.395,0
1486223124.338,123.535,23.926,33.691,64.453,4.395,0
1486223124.342,48.340,33.691,33.691,60.059,16.602,0
1486223124.345,-42.480,34.668,46.387,56.641,79.102,0
1486223124.349,-26.367,23.438,44.922,44.922,79.102,0
1486223124.353,85.938,33.203,35.156,42.969,-28.320,0
1486223124.357,127.441,36.133,47.363,67.383,-43.457,0
1486223124.361,50.293,20.020,35.156,53.223,4.395,0
1486223124.365,-39.551,28.320,27.832,41.016,64.453,0
1486223124.369,-30.762,26.367,39.551,47.852,17.090,0
1486223124.373,74.707,21.484,35.156,43.945,-75.684,0
1486223124.377,126.953,25.879,41.992,61.035,-30.273,0
1486223124.381,61.035,25.879,34.668,53.223,36.133,0
