timestamps,TP9,AF7,AF8,TP10,Right AUX,Marker0
134948.515,24.414,38.574,41.992,13.184,63.965,0
134948.518,30.273,32.715,32.715,20.996,32.227,0
134948.522,37.598,21.973,23.438,28.320,-19.531,0
134948.526,22.461,26.367,15.625,19.043,-1.465,0
134948.530,10.254,29.297,17.090,6.836,49.805,0
134948.534,13.672,18.555,5.859,11.230,45.898,0
134948.538,8.301,9.277,16.602,14.160,9.277,0
134948.542,0.488,9.277,30.762,1.953,3.906,0
134948.546,9.766,21.484,23.926,6.836,16.602,0
134948.550,14.160,32.715,14.648,20.020,55.176,0
134948.554,11.230,27.832,-0.488,23.438,62.012,0
134948.557,18.555,24.414,9.766,23.926,55.664,0
134948.559,25.391,24.902,36.133,23.926,50.293,0
134948.563,23.926,22.461,33.691,27.832,67.871,0
134948.567,19.043,12.695,25.879,32.227,97.168,0
134948.571,14.160,14.160,13.184,25.391,91.797,0
134948.575,12.695,34.180,-5.371,15.625,38.086,0
134948.579,23.926,31.250,15.137,21.484,6.836,0
134948.583,35.645,27.344,42.969,29.297,17.090,2
134948.587,25.391,31.738,50.781,21.973,31.738,0
134948.591,17.578,31.250,48.828,16.113,28.320,0
134948.595,30.762,34.668,40.039,25.391,8.301,0
134948.599,32.715,35.156,29.785,35.156,0.000,0
134948.602,27.344,30.762,27.344,34.180,45.410,0
134948.604,20.996,27.344,25.879,25.391,33.203,0
134948.608,18.066,26.855,24.414,22.461,2.441,0
134948.612,23.438,23.438,26.367,27.344,45.898,0
134948.616,21.973,31.250,24.902,27.832,74.219,0
134948.620,20.508,40.039,24.902,21.973,41.016,0
134948.624,26.367,37.109,26.855,18.555,1.953,0
134948.628,36.621,32.227,28.320,32.715,25.879,0
134948.632,38.086,36.621,23.926,38.086,63.965,0
134948.636,31.738,43.457,21.973,27.344,46.875,0
134948.640,26.855,38.086,23.926,20.508,-6.348,0
134948.644,32.227,26.367,25.391,28.320,-0.977,0
134948.647,39.551,30.762,24.414,36.133,38.086,0
134948.649,40.039,35.156,26.855,27.832,29.297,0
134948.653,35.156,20.508,24.414,21.973,0.977,0
134948.657,35.156,21.973,21.484,31.738,24.414,0
134948.661,34.180,24.902,27.344,43.457,63.477,0
134948.665,13.184,27.832,21.973,34.180,46.387,0
134948.669,0.000,23.926,23.926,17.090,10.254,0
134948.673,1.465,16.602,29.297,16.113,-6.348,0
134948.677,12.695,25.391,21.973,29.785,40.039,0
134948.681,20.996,30.273,21.973,33.203,27.832,0
134948.685,20.508,24.902,33.691,23.926,-11.230,0
134948.689,30.762,15.137,20.020,27.832,-29.297,0
134948.692,35.156,7.812,-11.719,31.738,-51.758,0
134948.696,31.738,17.090,8.789,31.738,6.836,0
134948.700,26.367,30.273,46.875,27.832,7.812,0
134948.704,13.672,30.273,46.387,13.184,-31.250,0
134948.707,9.766,25.879,35.645,9.766,-29.785,0
134948.711,21.973,22.461,41.504,22.461,-20.020,0
134948.715,28.320,22.461,39.551,30.762,-7.812,0
134948.719,19.043,26.367,23.926,19.531,-14.648,0
134948.723,26.855,26.367,27.344,22.461,-35.645,0
134948.727,29.785,26.367,32.715,28.320,-13.672,0
134948.731,18.066,7.324,20.996,20.508,33.203,0
134948.735,21.973,-4.883,16.602,20.020,25.879,0
134948.739,33.203,20.996,23.438,26.855,30.273,0
134948.739,33.691,23.926,26.855,35.645,46.387,0
134948.743,22.949,12.207,29.297,32.227,34.180,0
134948.747,14.160,35.645,37.598,20.020,3.906,0
134948.751,11.230,38.086,37.598,15.625,-3.906,0
134948.755,16.602,17.578,31.250,20.996,27.344,0
134948.759,20.020,21.973,35.645,32.227,72.266,0
134948.763,15.137,23.926,42.480,34.668,61.035,0
134948.767,10.742,22.949,34.180,23.438,18.066,0
134948.771,14.160,35.645,28.320,25.391,28.320,0
134948.775,16.113,30.762,29.785,33.203,75.684,0
134948.779,19.531,29.785,34.180,30.273,51.270,0
134948.782,24.902,31.250,31.250,28.320,-27.344,0
134948.785,20.508,23.926,12.207,22.461,-17.578,0
134948.789,22.949,30.273,13.672,28.320,58.594,0
134948.793,24.902,20.996,31.250,31.738,68.359,0
134948.796,16.113,5.371,37.598,14.648,65.918,0
134948.800,16.602,12.207,25.879,8.789,52.246,0
134948.804,24.414,23.926,16.113,20.020,41.016,0
134948.808,25.879,29.297,27.832,28.320,67.383,0
134948.812,21.484,30.273,24.414,18.555,27.832,0
134948.816,25.879,25.391,15.137,17.090,-7.324,0
134948.820,36.621,23.926,27.344,31.738,44.922,0
134948.824,42.480,24.902,35.156,38.574,69.824,0
134948.828,34.180,25.879,27.344,33.691,31.250,0
134948.829,29.785,28.809,20.996,28.320,22.949,0
134948.833,36.133,30.762,22.461,31.738,31.738,0
134948.837,38.574,26.367,25.391,38.574,34.668,0
134948.841,34.180,27.344,32.715,32.715,22.949,0
134948.845,25.391,30.273,3.418,15.625,-0.977,0
134948.849,23.926,25.879,-37.109,8.789,-10.742,0
134948.853,29.297,25.391,3.418,17.578,22.461,0
134948.857,23.926,28.809,54.199,16.113,85.449,0
134948.861,16.602,16.113,53.711,-0.488,71.289,0
134948.865,20.996,-1.465,53.711,-1.465,-14.160,0
134948.869,21.484,26.367,47.363,11.230,18.066,0
134948.872,21.484,53.223,30.762,21.973,66.406,0
134948.876,26.855,47.852,20.996,24.414,27.344,0
134948.880,19.531,41.992,18.066,21.973,4.395,0
134948.884,26.855,37.598,19.531,27.344,17.578,0
134948.887,36.133,22.949,16.113,32.715,58.594,0
134948.891,25.391,28.809,5.859,28.320,76.660,0
134948.895,17.578,37.598,5.371,16.602,41.016,0
134948.899,21.484,32.715,-2.441,16.113,-15.137,0
134948.903,29.785,33.691,12.695,23.926,7.324,0
134948.907,12.207,21.973,34.668,7.812,27.832,0
134948.911,4.395,6.836,34.668,-8.789,-30.762,0
134948.915,14.648,-0.977,33.203,-4.883,-35.156,0
134948.919,26.367,12.695,29.297,9.766,-16.602,0
134948.936,35.645,32.715,23.926,20.996,0.977,0
134948.940,30.273,32.227,13.672,13.672,0.977,0
134948.944,30.762,25.391,16.113,11.230,-34.668,0
134948.947,41.992,36.621,30.273,29.297,5.371,0
134948.951,40.527,52.734,20.020,28.320,25.391,0
134948.955,20.508,53.711,0.488,6.348,-36.621,0
134948.959,6.836,35.156,0.977,-10.742,-29.785,0
134948.963,13.672,23.438,15.625,-2.930,-26.855,0
134948.967,23.438,26.367,29.297,19.531,1.465,0
134948.971,26.367,30.762,30.273,25.391,50.781,0
134948.975,25.391,29.785,22.461,22.949,8.789,0
134948.979,32.227,28.320,17.578,27.344,-14.648,0
134948.979,36.621,26.855,23.926,40.039,26.367,0
134948.983,32.715,14.160,26.855,42.480,31.738,0
134948.987,28.320,17.578,26.367,31.738,-27.344,0
134948.991,28.809,38.574,28.809,25.391,-48.340,0
134948.995,32.227,50.781,21.973,31.738,11.230,0
134948.999,21.484,45.410,18.555,27.344,24.902,0
134949.003,10.742,38.574,30.273,8.301,-0.977,0
134949.007,11.719,32.715,41.016,2.441,7.324,0
134949.011,21.973,28.809,45.898,15.137,16.113,0
134949.015,29.297,26.367,38.574,23.926,-7.812,0
134949.018,24.414,17.090,21.973,17.090,15.137,0
134949.022,23.438,11.719,19.531,16.602,21.484,0
134949.025,29.785,23.438,25.391,26.855,21.484,0
134949.028,33.203,27.344,17.090,34.180,57.617,0
134949.032,20.996,29.297,10.254,21.973,66.895,0
134949.036,1.953,38.574,18.066,4.883,46.875,0
134949.040,4.395,31.250,31.738,5.371,15.137,2
134949.044,15.625,23.438,36.621,18.066,35.156,0
134949.048,19.531,25.879,12.695,26.367,45.898,0
134949.052,21.973,20.020,-23.438,26.367,-4.883,0
134949.056,20.020,5.371,-3.418,19.531,-41.992,0
134949.060,24.414,9.766,45.898,20.996,-7.812,0
134949.064,37.598,32.227,53.223,23.926,60.059,0
134949.067,30.273,42.480,52.246,16.602,16.113,0
134949.069,15.625,38.574,54.199,7.812,-27.832,0
134949.073,21.484,21.484,37.598,10.742,5.371,0
134949.077,29.785,14.648,25.391,25.391,56.641,0
134949.081,32.227,31.250,24.414,33.691,42.969,0
134949.085,21.484,30.762,24.902,22.461,-38.574,0
134949.089,10.742,16.602,20.020,8.301,-24.902,0
134949.093,20.996,15.625,12.207,18.066,3.418,0
134949.097,21.973,1.953,15.137,21.973,-1.465,0
134949.101,18.555,-18.555,32.227,17.090,-37.598,0
134949.105,24.902,16.602,29.297,21.973,-20.020,0
134949.108,23.438,48.340,21.484,24.902,46.387,0
134949.112,18.066,43.945,29.785,29.785,81.543,0
134949.114,8.301,41.992,37.109,17.090,90.332,0
134949.118,11.230,36.133,31.738,8.789,70.801,0
134949.122,34.668,34.180,8.301,28.320,47.852,0
134949.126,35.156,28.809,4.883,28.320,90.820,0
134949.130,20.996,22.461,28.320,16.602,76.172,0
134949.134,24.902,25.879,33.203,11.230,10.254,0
134949.138,36.133,27.832,33.203,17.090,8.789,0
134949.142,38.574,28.320,29.785,30.273,13.672,0
134949.146,34.668,37.109,28.320,22.461,67.383,0
134949.150,27.832,40.527,30.762,13.672,73.730,0
134949.153,35.156,33.203,35.645,28.320,43.457,0
134949.157,47.363,33.691,35.645,44.922,69.336,0
134949.161,35.645,34.668,26.367,39.062,75.195,0
134949.165,20.020,27.344,26.367,24.902,37.109,0
134949.169,20.996,26.855,30.273,19.531,2.930,0
134949.173,34.180,36.133,36.133,28.320,21.973,0
134949.176,26.367,26.855,28.809,35.645,71.777,0
134949.180,19.043,27.344,25.391,32.715,61.523,0
134949.184,29.297,46.875,24.902,30.762,16.113,0
134949.188,26.367,41.504,14.160,27.344,29.297,0
134949.192,16.113,20.508,22.461,20.996,49.805,0
134949.196,11.719,15.625,38.086,15.625,63.965,0
134949.200,14.160,13.672,42.480,14.160,22.461,0
134949.204,24.902,15.137,39.551,23.926,1.953,0
134949.204,33.691,15.137,41.992,37.598,36.133,0
134949.208,47.363,38.574,44.434,52.246,47.852,0
134949.212,41.016,43.945,19.531,44.434,21.484,0
134949.216,22.461,21.973,11.719,19.531,-35.645,0
134949.220,28.809,23.438,36.621,26.855,-29.297,0
134949.224,25.879,23.926,32.715,29.785,8.789,0
134949.228,14.648,21.973,21.973,12.695,-39.551,0
134949.232,20.508,17.090,36.133,11.719,-38.574,0
134949.236,22.949,22.461,32.715,26.367,27.344,0
134949.240,12.207,28.320,12.695,30.762,53.223,0
134949.244,11.719,25.391,24.902,20.508,26.367,0
134949.247,21.973,32.227,35.645,19.043,14.160,0
134949.264,28.809,36.133,35.156,26.855,30.762,0
134949.268,28.809,30.273,34.180,34.180,20.020,0
134949.272,24.902,14.160,31.738,31.250,38.574,0
134949.276,21.484,13.672,25.391,21.973,39.551,0
134949.280,30.762,37.598,9.766,31.250,27.832,0
134949.284,43.457,47.852,20.508,44.434,51.270,0
134949.288,24.902,30.273,31.250,27.344,37.598,0
134949.292,8.301,20.996,32.227,4.395,-2.930,0
134949.296,17.578,27.832,29.297,12.207,4.395,0
134949.300,31.250,26.367,28.320,32.715,47.363,0
134949.304,25.879,25.391,39.062,34.668,63.965,0
134949.307,16.602,28.320,35.156,19.043,33.691,0
134949.309,20.996,22.461,21.484,12.207,34.180,0
134949.313,27.344,33.691,20.996,25.391,42.969,0
134949.317,24.902,33.203,18.066,29.785,77.637,0
134949.321,18.555,30.762,24.414,21.973,76.660,0
134949.325,13.184,30.762,31.250,20.020,41.504,0
134949.329,18.555,20.996,26.367,18.066,54.688,0
134949.333,26.855,25.879,23.926,14.160,71.289,0
134949.337,10.742,26.367,21.973,9.277,80.566,0
134949.341,7.324,25.391,20.996,10.254,81.055,0
134949.345,27.832,37.109,20.508,24.902,38.574,0
134949.349,35.645,42.480,24.414,39.551,61.523,0
134949.352,26.367,34.668,34.180,33.691,78.125,0
134949.354,16.602,28.809,29.785,7.812,30.762,0
134949.358,26.855,27.832,12.695,2.441,18.555,0
134949.362,29.785,28.809,15.137,20.020,31.250,0
134949.366,25.879,23.926,34.668,26.367,49.316,0
134949.370,26.855,27.832,42.480,24.414,29.785,0
134949.374,37.598,46.875,20.996,37.598,-12.207,0
134949.378,45.410,40.527,-4.883,43.945,-27.344,0
134949.382,18.555,21.484,13.184,29.297,27.832,0
134949.386,9.766,23.438,48.340,21.484,28.320,0
134949.390,17.090,20.020,57.129,20.996,-31.738,0
134949.393,23.926,25.391,46.875,32.715,-0.977,0
134949.397,31.738,39.062,31.738,44.922,46.387,0
134949.399,29.785,35.156,26.367,35.156,44.922,0
134949.403,22.949,30.762,34.180,22.461,39.062,0
134949.407,16.602,21.484,39.062,23.438,33.691,0
134949.411,15.137,11.230,25.879,28.320,65.918,0
134949.415,20.996,19.043,24.414,31.738,63.965,0
134949.419,21.973,29.297,37.598,29.785,-16.113,0
134949.423,16.113,37.109,21.484,24.414,-18.066,0
134949.427,26.855,33.691,13.672,30.273,42.969,0
134949.431,28.320,32.227,21.484,34.668,42.969,0
134949.435,13.672,32.227,29.297,20.508,40.039,0
134949.438,19.531,32.715,48.828,20.996,21.973,0
134949.442,28.320,26.367,45.410,33.203,23.438,0
134949.445,16.602,19.531,25.879,26.367,83.984,0
134949.448,10.742,23.438,26.855,18.555,78.125,1
134949.452,23.438,22.461,33.691,20.020,42.969,0
134949.456,41.504,32.715,31.250,32.715,30.273,0
134949.460,48.340,41.504,26.367,42.969,47.363,0
134949.464,35.645,31.250,26.367,37.109,47.363,0
134949.468,33.203,29.785,23.438,33.203,31.738,0
134949.472,41.504,42.969,21.973,41.992,7.812,0
134949.476,26.367,34.668,20.508,41.016,-26.855,0
134949.480,20.020,24.414,27.832,33.691,0.000,0
134949.484,21.973,33.691,41.504,30.762,1.465,0
134949.487,20.020,30.273,36.133,28.809,-8.301,0
134949.489,40.039,34.668,26.855,39.062,44.434,0
134949.493,45.410,35.156,31.738,43.457,58.594,0
134949.497,25.879,19.531,28.809,24.414,-0.977,0
134949.501,29.785,21.484,28.809,18.066,-30.762,0
134949.505,51.270,32.227,36.621,35.156,-5.371,0
134949.509,43.945,33.691,28.809,41.992,-7.812,0
134949.513,25.879,26.855,23.926,32.227,-19.043,0
134949.517,23.438,24.902,29.297,22.949,-26.855,0
134949.521,23.438,24.902,27.832,25.391,-21.484,0
134949.525,28.809,21.973,26.855,38.574,34.180,0
134949.529,25.391,29.297,29.297,39.062,27.344,0
134949.532,23.926,24.902,34.668,31.738,-8.301,0
134949.535,33.203,30.762,36.621,37.598,4.883,0
134949.538,38.574,52.734,29.297,48.340,25.391,0
134949.542,31.250,41.992,24.414,41.992,48.828,0
134949.546,16.602,20.020,26.855,22.461,22.949,0
134949.550,18.555,26.367,23.926,19.531,-10.742,0
134949.554,32.227,28.809,20.508,29.785,18.066,0
134949.558,30.273,19.531,22.949,30.273,34.668,0
134949.562,16.113,25.879,25.879,16.602,4.395,0
134949.566,5.859,29.785,24.902,8.789,-22.461,0
134949.570,20.996,31.250,25.879,24.414,11.230,0
134949.574,35.156,30.273,22.461,35.156,55.664,0
134949.577,31.250,27.832,18.066,32.227,-7.324,0
134949.581,30.762,30.762,31.250,28.320,-24.414,0
134949.585,33.203,28.320,41.504,26.855,4.883,0
134949.589,32.227,30.273,39.062,33.203,27.832,0
134949.593,26.855,33.203,36.621,29.785,42.969,0
134949.596,23.926,32.715,40.527,22.949,23.926,0
134949.600,26.367,25.879,40.039,25.391,26.367,0
134949.604,32.227,13.672,21.484,29.785,25.879,0
134949.608,29.297,25.879,3.906,28.320,12.207,0
134949.612,24.414,41.504,13.184,20.020,4.883,0
134949.616,31.250,41.992,34.180,20.508,0.000,0
134949.620,45.898,40.039,43.457,31.738,-1.953,0
134949.624,53.223,41.016,48.828,39.062,51.758,0
134949.640,41.016,37.598,48.340,29.297,34.668,0
134949.644,34.668,27.832,41.504,18.066,-5.859,0
134949.648,34.180,26.855,36.133,22.461,12.695,0
134949.652,29.785,28.809,28.320,32.227,49.805,0
134949.656,29.297,30.762,19.043,28.320,62.988,0
134949.660,34.668,29.785,15.625,20.020,8.301,0
134949.663,41.992,25.391,25.391,23.438,-20.996,0
134949.667,37.598,23.438,34.668,28.809,27.832,0
134949.671,34.668,27.344,40.527,35.156,30.762,0
134949.675,39.062,33.203,37.109,31.738,-32.227,0
134949.679,35.645,26.367,27.832,24.902,-51.758,0
134949.683,31.250,24.414,27.344,36.133,-6.836,0
134949.685,29.297,17.578,22.461,37.598,9.277,0
134949.689,25.391,10.742,16.113,21.973,-11.230,0
134949.693,20.020,33.691,20.508,14.160,19.043,0
134949.697,22.461,45.410,21.484,19.043,22.461,0
134949.701,22.949,27.344,25.879,20.996,54.199,0
134949.705,24.414,20.996,31.250,17.578,71.289,0
134949.709,21.973,27.832,10.742,12.695,10.742,0
134949.712,21.973,32.715,6.348,11.719,22.949,0
134949.716,46.875,37.598,26.367,22.461,111.328,0
134949.720,35.645,32.227,30.762,20.996,101.074,0
134949.724,16.602,26.367,34.668,13.184,40.527,0
134949.728,25.391,27.832,28.809,18.555,29.785,0
134949.730,34.668,25.391,16.602,30.762,58.594,0
134949.733,45.898,26.855,28.809,39.551,74.707,0
134949.737,43.457,20.996,42.969,22.949,41.016,0
134949.741,41.504,16.602,46.387,18.555,36.621,0
134949.745,42.969,14.648,47.852,33.691,48.340,0
134949.749,42.969,18.066,41.504,42.480,85.938,0
134949.753,29.785,26.367,37.109,33.691,44.434,0
134949.757,19.043,24.414,37.598,17.578,19.531,0
134949.761,27.832,24.414,35.645,22.461,23.926,0
134949.765,34.180,30.273,32.227,35.645,8.789,0
134949.769,26.855,30.273,18.555,32.227,28.320,0
134949.773,26.855,24.414,13.672,21.484,0.488,0
134949.774,39.062,17.090,18.066,21.973,-2.930,0
134949.778,38.574,22.949,24.414,27.832,30.762,0
134949.782,23.926,36.621,31.738,20.508,54.688,0
134949.786,19.531,40.039,28.320,3.418,30.273,0
134949.790,24.414,35.156,22.949,1.465,3.906,0
134949.794,28.809,25.391,21.484,17.578,37.109,0
134949.798,31.250,28.809,23.926,20.508,58.594,0
134949.802,20.020,32.715,24.414,10.742,62.012,0
134949.806,21.973,26.855,18.066,11.719,11.230,0
134949.810,28.809,22.949,12.207,21.484,21.973,0
134949.814,26.855,24.414,21.484,32.715,88.867,0
134949.817,28.809,31.250,19.043,30.762,43.945,0
134949.819,27.344,33.203,7.812,21.973,13.184,0
134949.823,32.227,23.438,9.766,24.902,1.953,0
134949.827,36.621,25.879,17.090,34.180,-2.930,0
134949.831,29.785,39.062,36.133,30.762,13.184,0
134949.835,23.438,41.016,47.852,25.391,-33.691,0
134949.839,22.949,27.832,37.598,20.508,-46.875,0
134949.843,30.762,26.367,25.391,19.043,7.324,0
134949.847,26.367,33.691,18.555,19.043,24.902,0
134949.851,13.184,34.180,22.949,15.137,-12.207,0
134949.855,24.902,38.574,31.250,18.555,-20.508,0
134949.859,36.621,38.086,28.320,22.461,2.441,0
134949.862,29.785,20.508,12.695,18.555,27.344,0
134949.865,24.414,21.484,0.000,12.207,15.137,0
134949.868,30.762,40.039,7.812,13.184,-5.371,0
134949.872,38.086,36.133,24.902,26.367,-4.395,0
134949.876,38.086,31.738,33.203,35.156,34.180,0
134949.880,27.344,30.762,32.715,22.949,21.973,0
134949.884,21.973,29.297,30.762,13.184,-44.434,0
134949.888,24.902,26.855,25.879,18.555,-16.113,0
134949.892,26.855,28.809,24.902,27.832,-1.953,0
134949.896,25.391,34.668,31.250,29.785,-55.176,0
134949.900,26.367,27.344,35.645,25.879,-34.668,0
134949.904,33.203,25.879,32.227,33.691,1.465,0
134949.908,39.551,39.551,23.926,38.574,14.160,0
134949.910,35.645,42.969,21.973,30.273,13.672,0
134949.913,27.832,36.621,28.320,18.555,-2.930,0
134949.917,20.508,27.344,31.738,20.020,-13.672,0
134949.921,24.902,26.367,25.391,28.809,-0.488,0
134949.925,23.926,21.973,17.578,24.902,26.855,0
134949.929,9.277,17.578,19.531,11.719,24.414,0
134949.933,6.836,21.973,25.879,6.348,5.859,0
134949.937,20.996,22.461,26.367,18.066,-2.930,2
134949.941,20.508,20.020,14.648,20.996,43.945,0
134949.945,15.625,26.367,21.484,15.625,74.707,0
134949.949,20.996,23.438,39.062,18.066,43.945,0
134949.952,28.809,23.926,29.785,27.832,23.926,0
134949.955,37.109,35.645,18.066,39.551,50.293,0
134949.958,35.645,33.203,20.508,40.039,52.734,0
134949.962,23.438,24.414,24.902,24.902,7.324,0
134949.966,25.879,33.203,39.062,22.949,-2.930,0
134949.970,32.227,44.434,37.598,38.574,42.480,0
134949.974,24.414,43.945,20.996,33.691,50.293,0
134949.978,17.578,37.109,21.973,14.648,-31.738,0
134949.982,11.230,28.809,24.414,6.836,-60.547,0
134949.986,17.578,25.879,24.902,17.090,5.859,0
134949.990,26.855,20.020,19.531,28.320,29.297,0
134949.994,26.367,15.137,21.484,22.949,-7.812,0
134949.997,15.625,25.879,28.320,11.230,-15.625,0
134949.999,22.949,36.133,24.414,18.066,21.973,0
134950.003,32.227,34.668,22.949,35.156,33.691,0
134950.007,26.855,34.668,26.855,31.250,20.996,0
134950.011,20.996,36.621,32.227,20.508,10.742,0
134950.015,27.832,31.250,37.109,30.762,26.367,0
134950.019,31.250,33.203,34.180,41.016,35.645,0
134950.023,17.090,20.508,21.973,29.297,5.371,0
134950.027,14.648,17.090,21.484,21.484,5.859,0
134950.031,21.973,30.273,29.297,22.949,28.809,0
134950.035,29.297,35.156,32.227,27.344,37.598,0
134950.038,29.297,30.273,29.785,25.879,55.176,0
134950.042,20.508,18.066,25.879,13.672,42.480,0
134950.059,20.996,26.855,24.902,16.602,12.695,0
134950.063,36.133,40.527,32.227,34.668,33.203,0
134950.067,41.992,40.527,26.367,45.410,63.477,0
134950.071,20.996,34.180,18.066,35.645,57.129,0
134950.075,9.277,25.879,32.715,20.020,53.223,0
134950.079,18.555,25.391,34.668,22.949,50.293,0
134950.083,24.414,26.855,26.367,34.180,56.152,0
134950.087,20.508,23.926,34.180,30.273,57.617,0
134950.091,13.672,18.555,38.086,21.484,46.387,0
134950.095,25.391,14.648,32.227,28.320,36.621,0
134950.098,27.832,15.137,29.785,34.668,32.227,0
134950.102,17.578,15.625,33.203,30.762,48.828,0
134950.105,15.137,24.414,40.039,19.531,45.410,0
134950.109,9.277,29.297,31.738,10.254,57.129,0
134950.113,8.789,29.297,22.949,16.113,93.750,0
134950.117,12.695,30.273,26.855,17.578,58.594,0
134950.121,6.348,28.320,26.367,3.906,-2.441,0
134950.124,12.207,26.367,20.020,0.000,-22.949,0
134950.128,24.414,27.832,24.414,13.672,-10.742,0
134950.132,28.809,24.902,32.227,23.926,30.273,0
134950.136,17.578,18.555,32.227,16.113,0.000,0
134950.140,16.113,20.508,29.297,16.113,-44.434,0
134950.144,27.832,15.625,24.902,24.902,0.977,0
134950.148,27.832,26.367,28.320,29.297,32.715,0
134950.150,22.461,37.598,33.691,20.508,5.859,0
134950.154,10.254,32.715,27.832,9.766,-23.926,0
134950.158,13.184,36.133,24.902,14.648,-9.277,0
134950.162,22.461,32.227,25.879,26.367,20.508,0
134950.166,21.973,22.461,28.320,27.344,35.156,0
134950.170,18.555,22.949,34.180,20.508,17.578,0
134950.174,15.137,38.086,23.926,23.438,-5.859,0
134950.177,25.391,37.109,15.625,34.180,28.320,0
134950.181,24.414,23.438,26.855,31.738,46.875,0
134950.185,8.789,28.809,30.762,13.672,45.898,0
134950.189,5.859,35.645,27.832,3.418,-1.953,0
134950.193,12.695,28.809,21.973,10.742,13.184,0
134950.194,18.066,21.973,24.414,19.043,38.086,0
134950.198,8.301,22.461,28.320,11.230,5.371,0
134950.202,2.441,22.949,31.738,5.859,-11.230,0
134950.206,16.113,14.160,32.715,13.184,0.977,0
134950.210,30.762,14.160,33.203,32.715,41.504,0
134950.214,34.180,23.926,36.621,35.645,12.207,0
134950.218,27.344,32.227,31.250,20.508,-5.371,0
134950.222,25.879,35.156,23.926,20.996,31.738,0
134950.226,27.832,30.273,21.973,27.832,42.969,0
134950.230,32.227,31.250,27.344,29.785,65.430,0
134950.234,28.809,35.156,32.715,26.855,60.059,0
134950.237,31.738,35.645,29.785,29.297,19.531,0
134950.239,47.852,35.156,26.367,43.945,49.316,0
134950.243,46.875,26.367,33.203,44.922,65.918,0
134950.247,38.086,14.648,46.875,33.691,27.832,0
134950.251,35.156,21.973,51.270,31.738,-4.883,0
134950.255,35.156,32.227,43.457,29.297,0.488,0
134950.259,34.180,24.414,35.156,30.273,40.039,0
134950.263,36.133,24.902,36.621,37.109,13.184,0
134950.267,37.598,31.738,31.250,36.133,-60.547,0
134950.271,30.273,31.250,21.973,32.227,-12.207,0
134950.275,37.109,27.832,21.973,38.574,61.035,0
134950.279,38.086,16.602,31.738,41.504,29.785,0
134950.282,28.320,23.926,39.062,29.297,7.324,0
134950.285,38.086,35.645,39.062,28.320,14.648,0
134950.289,37.598,21.973,37.109,36.133,43.457,0
134950.293,25.879,23.438,36.133,34.668,45.898,0
134950.297,20.996,38.574,35.156,22.949,8.301,0
134950.301,24.902,38.574,33.203,21.484,-10.254,0
134950.305,25.879,38.574,26.367,31.250,12.695,0
134950.309,27.832,35.645,21.484,35.645,50.293,0
134950.312,20.996,35.645,29.785,28.320,14.648,0
134950.316,13.184,31.738,40.527,18.555,-20.508,0
134950.320,23.926,19.043,39.551,22.949,13.184,0
134950.324,32.715,19.531,41.504,39.551,27.344,0
134950.328,38.574,30.762,51.270,41.016,7.324,0
134950.329,29.297,19.531,42.480,25.879,-5.371,0
134950.333,24.902,4.395,26.367,24.414,41.016,0
134950.337,37.109,13.184,25.391,41.992,71.777,0
134950.341,35.156,19.531,28.320,44.434,55.664,0
134950.345,22.461,26.855,18.066,31.250,42.969,0
134950.349,23.438,41.504,17.090,27.344,43.945,0
134950.353,28.809,43.945,34.180,30.762,54.199,0
134950.357,20.020,36.133,45.898,20.508,41.504,0
134950.361,15.137,30.273,41.504,7.324,27.344,0
134950.365,15.625,25.391,35.156,11.719,-2.930,0
134950.369,25.879,23.926,28.320,25.879,24.414,0
134950.372,24.902,19.043,24.414,25.879,85.449,0
134950.375,25.879,25.879,39.062,25.391,82.031,0
134950.378,40.527,35.156,50.293,34.668,40.527,0
134950.382,28.809,21.484,28.320,23.438,35.645,0
134950.386,24.902,13.184,8.301,19.531,55.664,0
134950.390,26.367,19.043,21.973,18.066,47.852,0
134950.394,19.043,20.996,38.574,14.160,1.465,0
134950.398,22.461,19.043,28.320,17.578,-16.602,2
134950.402,33.203,19.531,15.625,27.832,32.227,0
134950.406,42.480,27.344,30.273,44.922,48.340,0
134950.410,35.645,37.109,30.273,37.109,-9.277,0
134950.414,33.691,41.504,12.207,25.391,-37.109,0
134950.418,33.691,39.062,17.578,32.715,14.160,0
134950.435,27.832,41.016,35.156,36.621,47.363,0
134950.438,26.855,36.133,35.645,31.738,20.020,0
134950.442,19.043,11.719,23.926,18.066,-21.484,0
134950.446,12.207,14.160,28.320,19.531,13.184,0
134950.450,11.230,23.926,33.691,23.926,28.809,0
134950.454,24.414,23.926,41.016,30.273,-12.207,0
134950.458,16.113,25.879,37.598,24.902,-35.156,0
134950.462,3.418,22.949,17.090,8.789,-3.418,0
134950.466,19.043,31.738,25.879,26.367,25.391,0
134950.470,13.672,25.879,30.273,22.949,-20.508,0
134950.474,8.301,17.578,19.043,0.488,-49.805,0
134950.478,19.043,18.066,22.949,8.789,-17.578,0
134950.480,23.438,28.320,24.902,22.949,27.344,0
134950.483,25.391,35.645,20.020,21.973,64.941,0
134950.487,24.902,31.738,21.484,14.160,62.500,0
134950.491,27.344,34.180,23.438,20.020,38.574,0
134950.495,30.762,28.320,8.301,23.438,70.801,0
134950.499,29.785,29.297,20.996,26.855,75.195,0
134950.503,22.461,32.227,45.898,26.367,66.406,0
134950.507,19.531,39.551,33.203,15.625,69.824,0
134950.511,29.297,27.832,20.996,25.879,55.664,0
134950.515,29.297,7.324,22.949,39.551,37.598,0
134950.519,22.949,39.551,35.156,36.133,38.086,0
134950.522,17.578,46.875,41.504,26.367,32.715,0
134950.524,23.438,33.691,49.316,30.273,27.344,0
134950.528,26.367,39.551,43.945,39.062,58.594,0
134950.532,21.973,20.508,32.715,33.203,65.430,0
134950.536,17.578,17.090,30.762,24.414,8.301,0
134950.540,16.113,37.598,34.180,26.367,-12.207,0
134950.544,23.438,38.574,36.133,34.180,9.766,0
134950.548,29.297,46.875,39.551,39.062,21.484,0
134950.552,29.297,48.340,44.434,34.180,8.789,0
134950.556,27.832,27.344,34.180,24.902,-4.395,0
134950.560,26.367,19.531,27.832,26.855,17.578,0
134950.563,30.762,30.762,28.809,38.574,29.785,0
134950.567,31.738,40.039,28.320,38.574,9.277,0
134950.570,32.715,38.574,25.879,32.715,-14.648,0
134950.574,44.922,39.551,34.668,40.039,14.648,0
134950.578,48.828,34.668,38.086,48.340,47.363,0
134950.582,34.668,22.461,20.508,35.645,19.043,0
134950.585,28.320,20.020,9.277,25.391,2.441,0
134950.589,33.203,17.090,22.461,28.809,22.461,0
134950.593,30.762,23.438,43.457,28.809,79.102,0
134950.597,20.508,20.508,40.039,19.043,83.496,0
134950.601,20.996,18.066,32.227,14.648,31.738,0
134950.605,40.527,27.344,29.785,30.273,27.832,0
134950.609,49.316,33.203,26.855,45.410,45.898,0
134950.613,40.527,30.762,23.438,40.039,72.754,0
134950.615,30.762,20.020,28.809,19.043,56.641,0
134950.619,23.926,16.113,24.902,14.648,10.254,0
134950.623,25.391,21.484,21.973,23.438,17.578,0
134950.627,26.367,17.578,24.902,26.855,64.941,0
134950.631,20.020,20.020,23.926,24.902,63.965,0
134950.634,16.113,24.414,20.508,15.625,-29.297,0
134950.638,22.949,24.414,15.137,20.996,-36.133,0
134950.642,30.273,20.996,13.184,29.785,32.227,0
134950.646,23.926,18.555,15.625,22.461,5.371,0
134950.650,12.695,20.996,20.020,9.766,-9.766,0
134950.654,18.066,23.926,28.320,12.207,-20.996,0
134950.658,22.949,33.691,38.086,22.461,18.066,0
134950.660,19.531,29.297,30.273,20.020,46.387,0
134950.664,10.742,20.020,19.531,7.812,24.902,0
134950.668,14.160,17.578,22.949,7.324,-11.230,0
134950.672,23.926,21.484,25.879,13.184,-18.066,0
134950.676,24.414,33.203,27.832,14.160,20.020,0
134950.680,28.320,39.551,41.016,14.160,-0.488,0
134950.683,22.461,34.668,29.297,9.277,-21.484,0
134950.687,22.461,25.879,-3.906,14.648,-29.297,0
134950.691,31.250,21.484,7.812,27.344,2.930,0
134950.695,12.695,20.996,31.738,14.648,26.855,0
134950.699,4.395,25.391,43.457,0.977,-11.719,0
134950.703,15.625,28.809,41.504,10.254,-9.766,0
134950.704,14.648,23.438,29.297,15.625,58.105,0
134950.708,15.625,21.484,31.738,13.184,78.125,0
134950.712,14.160,19.531,25.879,7.324,27.344,0
134950.716,17.578,22.949,20.996,9.277,0.488,0
134950.720,27.832,36.133,27.832,27.832,45.898,0
134950.724,30.273,32.227,31.250,37.109,41.016,0
134950.728,22.949,17.090,27.344,24.414,-25.879,0
134950.732,20.996,21.973,31.250,23.926,-42.480,0
134950.736,32.227,29.785,36.621,40.039,42.480,0
134950.740,40.039,30.762,38.086,51.270,82.520,0
134950.743,25.391,28.320,32.227,39.551,56.152,0
134950.747,11.719,29.785,18.555,17.578,38.086,0
134950.751,22.949,39.551,23.926,27.344,83.984,0
134950.755,28.320,36.621,33.203,34.668,101.562,0
134950.759,21.484,25.879,34.180,23.926,37.109,0
134950.762,22.461,23.438,34.668,16.602,3.418,0
134950.766,26.367,32.227,31.738,15.625,27.832,0
134950.770,25.391,35.156,33.203,23.926,48.828,0
134950.774,17.090,25.879,29.297,18.555,16.113,0
134950.778,11.719,16.602,22.949,8.301,17.578,0
134950.782,22.461,16.113,26.367,15.137,40.039,0
134950.786,33.203,33.203,22.461,27.344,66.406,0
134950.790,21.973,36.133,17.578,22.461,71.289,0
134950.794,15.137,22.461,12.695,14.160,18.066,0
134950.809,31.250,32.715,24.902,33.203,14.648,0
134950.813,31.738,28.809,41.992,41.992,61.523,0
134950.817,16.113,10.254,30.762,30.273,77.148,0
134950.821,6.348,24.902,19.043,15.137,55.664,0
134950.825,9.277,20.508,19.043,7.324,9.277,0
134950.829,15.137,0.488,22.949,14.160,-32.227,0
134950.833,10.254,24.414,14.648,18.555,-18.555,0
134950.837,8.301,50.781,9.766,12.695,-21.484,0
134950.841,10.742,47.852,21.973,8.301,-38.086,0
134950.845,17.090,35.156,35.156,14.160,0.000,0
134950.849,28.320,25.391,42.480,27.832,49.316,0
134950.852,26.855,27.344,31.738,22.461,63.965,0
134950.855,17.090,24.414,21.973,11.230,5.371,0
134950.858,24.902,25.879,23.926,19.043,-37.598,0
134950.862,32.227,26.855,24.902,30.762,17.090,0
134950.866,25.391,29.297,27.344,31.250,50.293,0
134950.870,21.484,29.785,30.762,19.043,33.691,0
134950.874,20.020,18.555,34.180,16.113,5.859,0
134950.878,33.691,19.043,36.133,32.715,10.254,0
134950.882,42.969,31.738,33.203,40.039,35.156,0
134950.886,30.762,30.762,24.414,24.902,-6.348,0
134950.890,25.391,22.461,19.043,12.207,-22.461,0
134950.894,37.598,36.621,11.719,22.949,40.039,0
134950.897,54.199,49.805,20.020,40.527,65.918,0
134950.899,40.527,38.574,32.715,30.762,31.250,0
134950.903,19.531,25.391,25.879,4.883,-0.488,2
134950.907,20.020,20.996,20.020,0.977,13.672,0
134950.911,21.973,17.578,19.043,17.090,45.410,0
134950.915,21.484,25.879,15.625,17.090,40.527,0
134950.919,12.695,19.043,21.973,5.859,8.301,0
134950.923,15.137,14.160,35.156,13.184,32.227,0
134950.927,25.879,27.832,37.598,29.297,56.152,0
134950.931,19.531,32.715,37.598,33.203,-14.648,0
134950.935,12.695,28.320,35.156,25.879,-75.684,0
134950.939,15.137,22.461,28.809,24.902,-25.879,0
134950.942,20.020,27.344,22.949,30.762,17.090,0
134950.945,26.855,28.809,30.273,36.621,56.152,0
134950.948,30.762,26.367,34.668,31.250,34.668,0
134950.952,34.668,41.016,31.250,26.855,-32.715,0
134950.956,37.598,40.039,27.832,28.320,-8.789,0
134950.960,30.762,21.973,22.461,26.367,53.711,0
134950.964,24.902,24.902,21.484,21.973,52.246,0
134950.968,27.344,20.020,21.484,16.602,29.297,0
134950.972,42.480,20.996,25.391,29.785,2.441,0
134950.976,52.246,38.086,31.250,43.945,0.000,0
134950.980,42.969,37.109,30.273,35.645,60.547,0
134950.984,33.203,35.156,21.484,20.020,38.086,0
134950.987,32.715,43.457,28.809,16.602,-25.879,0
134950.989,30.273,42.969,35.645,31.250,15.137,0
134950.993,28.320,38.086,31.738,35.156,75.684,0
134950.997,24.902,30.762,26.367,20.508,52.734,0
134951.001,22.949,22.949,21.973,15.137,27.832,0
134951.005,25.879,15.137,22.949,23.926,62.500,0
134951.009,27.832,20.020,22.949,36.133,81.543,0
134951.013,24.414,31.738,31.250,36.133,46.387,0
134951.017,21.484,29.297,40.039,31.250,-38.574,0
134951.021,28.320,21.484,34.668,34.180,-51.758,0
134951.025,37.109,17.090,23.438,44.434,39.551,0
134951.028,31.250,21.973,20.508,38.086,43.457,0
134951.032,15.625,29.785,25.391,18.555,-22.949,0
134951.034,13.184,31.250,25.391,19.043,-38.086,0
134951.038,14.648,32.715,26.855,23.926,27.832,0
134951.042,10.742,31.738,24.902,16.602,51.758,0
134951.046,14.160,35.645,26.855,13.184,-0.488,0
134951.050,24.414,35.156,35.645,18.555,6.348,0
134951.054,22.949,25.879,33.203,21.484,52.246,0
134951.058,20.020,24.902,21.973,16.113,48.828,0
134951.062,16.113,34.180,20.508,7.324,-0.977,0
134951.066,18.066,34.180,24.414,5.371,-17.090,0
134951.070,30.273,29.785,21.484,11.719,20.996,0
134951.074,30.762,30.273,27.832,17.578,65.430,0
134951.077,23.438,28.809,37.109,14.160,37.598,0
134951.080,26.367,28.809,38.574,7.812,5.371,0
134951.084,29.297,28.809,34.668,14.160,33.691,0
134951.088,29.785,27.832,31.738,30.762,61.523,0
134951.092,26.367,24.902,32.227,29.785,81.543,0
134951.096,18.555,18.555,32.715,17.578,69.824,0
134951.100,17.578,11.230,35.645,21.973,57.617,0
134951.104,20.996,15.625,32.227,30.273,47.363,0
134951.107,16.602,32.715,31.250,26.367,49.316,0
134951.111,9.277,36.621,36.133,15.625,52.734,0
134951.115,13.672,37.109,36.621,14.160,32.227,0
134951.119,18.555,29.297,32.227,24.902,55.664,0
134951.123,10.742,19.531,29.297,26.855,80.078,0
134951.124,0.488,27.832,33.203,19.531,34.180,0
134951.128,-4.395,31.250,27.832,9.766,-24.902,0
134951.132,2.441,18.555,26.367,18.555,25.391,0
134951.136,12.695,15.137,32.227,36.133,79.102,0
134951.140,9.277,26.367,32.227,27.832,46.387,0
134951.144,-3.906,31.250,33.691,8.789,12.695,0
134951.148,1.465,26.367,35.156,14.648,-12.695,0
134951.152,11.719,12.207,35.156,28.809,53.711,0
134951.156,17.578,14.648,38.574,28.320,90.820,0
134951.160,21.973,35.645,42.969,21.973,7.812,0
134951.164,22.949,38.086,37.109,19.531,3.418,0
134951.167,31.738,27.344,26.367,29.297,45.898,0
134951.184,31.738,31.738,19.043,25.879,60.059,0
134951.188,18.066,38.086,22.461,11.719,49.316,0
134951.192,15.137,35.156,27.832,13.184,7.324,0
134951.196,27.344,33.203,23.926,22.949,28.809,0
134951.200,26.367,31.738,27.344,30.762,40.039,0
134951.204,13.672,35.645,25.391,23.438,12.207,0
134951.208,9.766,34.668,23.926,11.719,-12.207,0
134951.212,18.066,29.785,29.297,19.531,3.906,0
134951.216,27.344,23.926,28.809,31.738,56.641,0
134951.220,20.508,32.227,35.156,24.414,13.672,0
134951.223,15.137,51.758,43.457,15.625,-27.832,0
134951.227,20.020,47.363,34.668,18.555,-9.766,0
134951.229,17.578,35.156,18.555,22.461,1.465,0
134951.233,9.766,34.180,16.602,20.020,-6.348,0
134951.237,7.812,39.551,23.926,11.719,-33.691,0
134951.241,11.719,33.691,23.926,11.719,-9.277,0
134951.245,19.043,16.113,20.508,22.949,32.227,0
134951.249,20.508,27.832,23.926,28.320,62.500,0
134951.253,15.137,40.527,25.879,17.090,75.195,0
134951.257,17.090,33.691,20.508,10.742,45.410,0
134951.261,23.926,37.109,21.973,23.438,30.762,0
134951.265,24.902,42.480,25.391,25.391,43.945,0
134951.268,17.090,32.227,22.461,19.531,46.387,0
134951.272,18.066,25.879,20.996,20.020,22.461,0
134951.275,28.809,30.762,21.484,22.949,49.805,0
134951.279,30.762,24.902,22.949,25.391,95.215,0
134951.282,20.996,14.160,24.414,20.020,71.289,0
134951.286,20.020,16.602,23.438,12.695,27.832,0
134951.290,29.297,27.832,25.879,18.066,57.129,0
134951.294,34.180,36.621,24.902,32.715,81.543,0
134951.298,30.273,37.109,21.484,32.227,75.684,0
134951.302,34.180,38.574,22.461,26.855,53.711,0
134951.306,39.062,30.762,23.926,32.227,12.695,0
134951.310,36.133,20.020,15.625,39.551,46.875,0
134951.314,22.461,20.020,22.461,32.715,88.867,0
134951.318,3.906,17.578,30.762,13.184,49.316,0
134951.319,15.625,30.273,27.832,16.113,39.551,2
134951.323,28.320,33.203,27.832,28.320,55.664,0
134951.327,24.902,21.484,23.438,30.762,65.430,0
134951.331,14.648,22.949,20.996,21.484,51.270,0
134951.335,8.301,23.438,21.973,8.301,29.785,0
134951.339,23.438,17.578,26.855,20.020,22.461,0
134951.343,34.180,27.344,32.227,34.668,11.719,0
134951.347,28.320,25.879,27.344,28.809,28.320,0
134951.351,21.973,20.996,22.949,16.602,12.207,0
134951.355,24.902,36.621,21.973,12.207,14.648,0
134951.358,42.480,41.016,19.043,24.414,54.688,0
134951.362,38.086,34.668,18.555,28.320,37.109,0
134951.364,26.855,29.785,23.438,16.113,25.391,0
134951.368,29.785,25.391,29.297,20.996,18.066,0
134951.372,44.434,19.043,29.785,40.039,28.809,0
134951.376,52.734,13.184,27.344,48.340,69.824,0
134951.380,41.992,29.785,26.367,35.645,37.598,0
134951.384,36.621,48.340,28.809,27.344,-6.348,0
134951.388,31.250,45.898,30.762,38.574,34.668,0
134951.392,18.555,35.156,27.832,41.992,55.176,0
134951.396,16.602,30.273,23.926,19.531,52.734,0
134951.400,20.020,32.227,20.508,7.812,60.547,0
134951.404,20.508,28.320,21.484,26.367,72.754,0
134951.407,32.227,19.531,25.391,32.227,93.262,0
134951.409,35.645,21.973,31.738,22.461,84.961,0
134951.413,20.508,29.297,30.273,20.508,47.363,0
134951.417,22.949,31.738,24.902,17.090,9.766,0
134951.421,36.621,30.273,20.996,22.461,19.043,0
134951.425,27.344,31.250,16.602,37.598,47.363,0
134951.429,32.227,35.156,18.555,35.645,23.438,0
134951.433,34.180,28.320,31.738,22.949,-14.648,0
134951.437,36.621,18.066,46.875,28.809,-13.672,0
134951.441,46.875,22.461,44.922,47.852,42.969,0
134951.445,22.461,33.691,29.297,25.879,29.785,0
134951.448,14.648,31.738,18.555,0.000,-37.109,0
134951.452,14.160,22.949,21.973,10.254,-29.297,0
134951.456,12.695,20.508,25.879,20.020,32.227,0
134951.460,16.602,25.391,32.227,21.973,22.461,0
134951.464,-0.977,22.949,38.574,16.113,-16.113,0
134951.467,9.277,21.973,40.039,20.508,50.293,0
134951.471,25.391,21.484,41.504,41.504,87.402,0
134951.475,21.484,16.113,36.133,45.410,62.500,0
134951.479,16.113,14.160,29.297,34.668,13.672,0
134951.483,26.367,9.277,30.762,26.855,-7.812,0
134951.487,40.039,22.461,32.227,34.668,58.105,0
134951.491,40.527,41.504,40.527,37.109,55.664,0
134951.495,35.645,37.598,45.410,22.949,0.000,0
134951.499,27.832,27.344,36.621,19.531,-6.836,0
134951.515,26.855,23.926,29.785,25.879,19.531,0
134951.518,35.645,28.809,44.922,46.387,22.949,0
134951.522,39.551,28.320,53.223,45.898,-4.883,0
134951.526,21.973,23.926,34.668,11.719,-8.789,0
134951.530,29.297,23.926,26.367,20.508,20.996,0
134951.534,46.387,21.484,31.738,47.363,58.105,0
134951.538,31.250,24.414,36.133,29.785,32.715,0
134951.542,12.695,28.809,23.438,5.371,17.578,0
134951.546,13.672,28.809,7.812,13.672,24.902,0
134951.550,30.273,23.438,9.766,32.715,30.762,0
134951.554,38.574,23.926,29.297,32.715,64.941,0
134951.558,27.832,33.203,29.297,21.973,47.852,0
134951.560,28.320,37.598,19.043,35.645,4.395,0
134951.563,56.641,41.504,36.621,61.523,14.160,0
134951.567,34.180,16.113,26.367,36.133,62.012,0
134951.571,7.324,6.836,12.695,6.348,46.875,0
134951.575,28.809,35.645,35.645,22.949,3.906,0
134951.579,27.832,23.438,42.969,42.969,-11.719,0
134951.583,14.648,3.418,27.832,22.461,-4.395,0
134951.587,15.625,32.715,12.695,-7.324,5.859,0
134951.591,7.324,32.227,5.371,-14.160,2.441,0
134951.595,1.953,13.184,4.883,-8.301,-7.324,0
134951.599,10.742,17.090,9.277,6.348,22.461,0
134951.602,21.973,24.414,15.625,14.160,60.547,0
134951.604,26.367,27.832,23.438,6.836,30.273,0
134951.608,32.715,30.273,26.855,14.160,37.598,0
134951.612,47.852,36.621,25.391,43.945,85.449,0
134951.616,45.898,37.598,27.344,43.945,96.680,0
134951.620,34.668,30.273,33.203,19.531,40.527,0
134951.624,36.133,29.785,36.621,23.926,10.254,0
134951.628,42.480,25.879,36.621,32.715,50.293,0
134951.632,44.434,22.461,36.133,33.691,59.570,0
134951.636,42.969,37.109,37.598,34.668,32.227,0
134951.640,26.855,33.691,34.180,20.508,12.207,0
134951.644,22.949,24.414,34.668,21.973,58.594,0
134951.647,35.156,29.297,32.715,34.668,71.777,0
134951.649,28.809,21.973,23.926,28.320,31.250,0
134951.653,21.973,19.531,24.902,15.137,-4.395,0
134951.657,34.668,32.715,28.320,18.066,24.414,0
134951.661,44.922,34.668,26.855,30.762,125.977,0
134951.665,34.668,26.855,24.902,23.926,144.531,0
134951.669,29.297,31.738,27.344,17.578,85.938,0
134951.673,35.645,35.156,34.180,24.414,78.125,0
134951.677,30.762,22.949,32.227,23.926,113.281,0
134951.681,35.645,25.391,38.574,32.715,90.332,0
134951.685,40.527,29.785,41.016,33.203,29.785,0
134951.689,24.902,17.090,20.020,11.719,22.461,0
134951.692,23.438,28.320,17.090,16.113,38.086,0
134951.694,37.109,43.457,25.391,35.156,47.852,0
134951.698,29.785,26.855,14.648,16.602,40.039,0
134951.702,23.926,16.602,14.160,4.395,72.266,0
134951.706,26.367,18.066,28.809,13.184,84.473,0
134951.710,22.949,20.020,26.855,21.973,67.383,0
134951.714,29.785,22.461,24.902,29.297,28.809,0
134951.718,19.531,18.066,20.020,11.719,-23.438,0
134951.722,11.230,18.066,24.414,6.836,19.043,0
134951.726,14.160,22.949,37.598,19.531,55.664,0
134951.730,6.836,23.926,32.715,14.160,51.270,0
134951.734,3.906,19.531,30.762,8.789,32.715,0
134951.737,22.949,21.973,36.621,23.926,9.766,0
134951.739,38.574,29.785,39.062,43.945,-10.742,0
134951.743,26.367,24.414,32.227,32.227,18.066,0
134951.747,8.301,33.203,21.484,6.836,2.441,0
134951.751,10.254,35.645,19.531,2.441,-28.320,0
134951.755,14.160,25.879,17.090,10.254,20.020,1
134951.759,13.672,20.020,14.160,20.508,67.383,0
134951.763,10.742,21.973,25.879,14.648,87.891,0
134951.767,10.742,30.762,34.180,3.418,19.531,0
134951.771,20.996,28.809,28.320,8.301,-22.949,0
134951.775,29.297,28.320,27.344,22.461,43.945,0
134951.779,19.043,25.391,26.855,13.184,22.949,0
134951.782,19.531,21.973,26.855,7.812,-40.527,0
134951.784,33.203,25.391,30.273,21.973,-34.668,0
134951.788,38.086,24.414,25.391,40.039,31.738,0
134951.792,31.738,22.461,18.066,40.039,43.945,0
134951.796,20.996,30.762,29.297,29.297,6.836,0
134951.800,25.391,27.344,41.016,28.809,16.602,0
134951.804,49.805,27.832,37.109,48.340,40.039,0
134951.808,48.828,37.109,23.926,52.734,31.738,0
134951.812,11.230,38.574,18.066,17.090,-5.371,0
134951.816,1.953,31.250,24.414,-1.465,14.648,0
134951.820,20.996,23.438,25.391,14.160,65.918,0
134951.824,20.020,28.320,26.367,15.625,62.500,0
134951.827,16.113,33.203,35.156,6.836,42.480,0
134951.829,19.531,32.227,37.109,2.441,13.184,0
134951.833,22.461,26.367,32.227,6.836,-8.301,0
134951.837,25.879,27.344,31.250,20.508,30.273,0
134951.841,15.137,25.879,31.250,23.438,1.465,0
134951.845,8.789,18.066,28.809,20.996,-41.016,0
134951.849,16.113,21.973,29.297,29.785,0.977,0
134951.853,25.879,31.250,22.461,43.945,27.832,0
134951.857,23.438,27.832,21.484,46.387,56.152,0
134951.861,14.648,24.902,28.320,33.691,28.809,0
134951.865,14.160,28.320,30.273,27.344,-16.113,0
134951.868,15.625,25.391,28.320,31.738,14.160,0
134951.872,16.113,22.461,25.879,36.133,17.090,0
134951.874,18.555,20.508,26.855,33.203,-2.441,0
134951.878,24.902,26.855,28.320,24.414,-3.906,0
134951.882,26.367,35.645,30.273,25.391,37.109,0
134951.886,39.551,44.922,35.645,37.598,66.406,0
134951.890,37.598,44.434,30.273,33.203,34.180,0
134951.894,20.020,29.785,22.461,12.207,12.207,0
134951.898,20.508,27.832,26.855,12.695,18.555,0
134951.902,27.344,37.109,29.785,28.809,31.738,0
134951.906,26.367,33.691,31.738,31.250,40.527,0
134951.910,15.625,31.738,28.809,15.625,29.297,0
134951.913,22.461,30.273,26.855,18.066,35.645,0
134951.917,37.109,17.090,25.391,30.762,47.852,0
134951.922,34.180,24.414,25.879,29.785,45.410,0
134951.925,26.367,42.969,30.273,21.973,17.090,0
134951.929,24.414,41.504,24.902,18.555,8.789,0
134951.933,31.250,36.133,20.508,27.832,28.809,0
134951.937,30.273,34.668,16.113,35.156,36.133,0
134951.941,23.438,27.344,20.508,26.855,-1.953,0
134951.945,29.297,24.902,32.715,25.879,-26.367,0
134951.949,38.086,24.414,37.598,39.062,21.973,0
134951.953,33.691,17.578,35.645,37.109,45.410,0
134951.957,20.020,29.297,34.180,22.461,26.367,0
134951.961,16.113,38.574,32.715,11.719,-12.695,0
134951.965,26.367,39.551,27.832,16.113,5.371,0
134951.980,28.809,39.062,24.414,25.391,66.895,0
134951.984,21.973,33.203,24.902,21.973,83.984,0
134951.988,23.438,35.156,28.809,13.672,20.996,0
134951.992,24.902,25.391,34.668,15.137,7.324,0
134951.995,25.879,12.207,35.156,25.391,40.527,0
134951.999,24.902,22.949,32.227,29.297,20.996,0
134952.003,16.602,31.250,31.738,21.973,5.859,0
134952.007,14.160,23.438,32.227,18.555,-25.879,0
134952.011,16.113,20.020,29.297,25.879,-31.738,0
134952.015,21.484,24.414,28.809,33.691,31.250,0
134952.019,19.531,28.320,29.785,24.902,41.992,0
134952.023,20.996,33.691,28.809,12.695,-9.277,0
134952.025,29.785,29.297,30.762,16.113,-8.301,0
134952.029,32.227,10.742,33.691,24.902,49.805,0
134952.033,28.320,23.926,32.227,23.926,73.730,0
134952.037,14.648,37.109,32.227,12.695,30.273,0
134952.041,16.113,34.668,34.668,12.695,-0.977,0
134952.045,24.414,26.855,33.691,27.344,0.977,0
134952.049,19.531,14.648,36.133,33.203,31.738,0
134952.052,9.277,23.926,34.180,18.555,10.742,0
134952.056,13.672,36.621,25.879,16.602,-24.414,0
134952.060,27.344,34.668,22.949,34.180,-1.953,0
134952.064,32.227,29.297,32.715,43.457,33.203,0
134952.068,30.273,30.273,36.621,39.062,43.457,0
134952.069,25.391,32.227,25.879,28.320,8.301,0
134952.073,25.879,28.320,29.785,31.738,21.973,0
134952.077,27.344,25.391,32.227,33.691,73.730,0
134952.081,21.973,26.855,24.902,21.484,41.016,0
134952.085,17.578,26.367,30.762,14.648,-7.324,0
134952.089,19.531,23.438,29.785,19.043,7.812,0
134952.093,24.902,20.996,26.855,34.668,61.035,0
134952.097,22.461,25.879,27.832,32.227,43.945,0
134952.101,19.531,27.344,24.902,13.184,-29.785,0
134952.105,25.391,20.996,24.414,17.578,-13.672,0
134952.109,26.855,26.367,21.484,30.762,61.035,0
134952.112,22.949,32.227,20.508,28.809,21.484,0
134952.114,23.926,31.250,30.273,21.484,-22.461,0
134952.118,31.738,33.203,37.109,23.438,-11.230,0
134952.122,37.598,28.809,27.832,28.809,11.230,0
134952.126,32.715,28.320,19.043,27.344,27.344,0
134952.130,29.297,37.109,21.973,20.020,-15.625,0
134952.134,31.738,36.133,24.902,17.090,-47.852,0
134952.138,34.668,31.250,12.207,23.438,-20.020,0
134952.142,36.133,34.180,9.277,31.250,5.371,0
134952.146,32.715,40.039,27.344,28.809,-3.906,0
134952.150,27.344,34.180,34.180,21.973,-58.105,0
134952.154,30.762,29.297,29.297,23.926,-40.527,0
134952.157,34.180,28.809,23.438,31.738,14.648,0
134952.161,24.902,26.367,19.531,24.414,12.207,0
134952.165,28.320,26.855,21.973,22.461,41.504,0
134952.169,37.598,28.320,21.484,25.879,43.945,0
134952.172,33.691,31.738,20.020,24.414,32.227,0
134952.176,30.273,34.180,31.250,24.902,44.434,0
134952.180,34.180,39.062,40.039,20.996,20.020,0
134952.184,29.785,35.645,37.598,19.043,-17.578,0
134952.188,24.414,19.531,31.738,23.438,-4.395,0
134952.192,24.414,19.531,29.297,25.391,66.895,0
134952.196,22.949,22.949,31.250,19.043,67.383,0
134952.200,22.949,22.461,34.180,16.113,8.789,0
134952.204,29.785,40.039,30.273,29.297,19.531,0
134952.205,30.762,41.992,27.832,35.645,69.336,0
134952.209,20.020,33.691,36.621,24.902,59.570,0
134952.212,17.090,33.203,33.691,15.625,3.418,0
134952.216,26.367,27.832,29.785,24.414,2.930,0
134952.220,33.691,28.320,28.809,43.457,50.781,0
134952.224,24.414,28.809,27.832,34.668,41.992,0
134952.228,18.066,22.461,34.180,13.184,-9.766,0
134952.232,32.227,27.344,37.598,20.996,-12.695,0
134952.236,36.133,24.902,29.297,26.855,61.035,0
134952.240,31.250,28.320,26.367,24.414,105.469,0
134952.244,24.902,36.133,28.809,16.602,28.320,0
134952.248,19.043,33.203,21.484,4.395,13.672,1
134952.264,20.996,37.109,16.113,11.230,41.504,0
134952.268,14.160,31.738,19.531,20.020,55.664,0
134952.272,14.160,24.902,21.484,12.695,66.406,0
134952.276,20.996,30.762,22.949,7.324,53.711,0
134952.280,20.996,19.043,18.066,12.207,66.895,0
134952.284,32.227,22.461,19.043,25.391,66.406,0
134952.288,32.715,41.016,28.809,24.902,53.711,0
134952.292,14.160,31.250,23.926,9.277,27.832,0
134952.296,14.160,26.367,19.531,11.719,-2.930,0
134952.300,22.461,31.738,18.066,23.926,30.273,0
134952.304,25.391,30.762,21.484,26.367,56.641,0
134952.307,25.879,24.414,27.344,18.555,29.297,0
134952.309,24.902,21.484,25.391,18.066,2.441,0
134952.313,27.832,20.508,21.484,26.367,-16.602,0
134952.317,29.785,20.996,23.926,34.180,20.508,0
134952.321,22.949,28.320,32.227,30.273,10.742,0
134952.325,17.578,34.180,36.621,25.391,-30.273,0
134952.329,22.461,37.598,33.691,35.156,-25.879,0
134952.333,22.461,31.738,24.414,43.945,-15.137,0
134952.337,20.020,22.461,29.785,40.527,2.930,0
134952.341,16.602,24.414,34.668,28.809,10.254,0
134952.345,18.066,27.344,26.855,25.879,-0.977,0
134952.349,25.879,24.902,31.250,37.598,26.367,0
134952.352,40.527,32.715,42.969,49.316,47.363,0
134952.354,34.668,43.457,40.527,38.086,11.719,0
134952.358,21.973,39.062,22.949,24.414,-23.438,0
134952.362,19.043,25.391,6.836,25.391,41.992,0
134952.366,16.113,15.137,17.578,22.461,91.797,0
134952.370,14.160,19.531,31.738,20.020,38.574,0
134952.374,20.508,23.438,35.645,27.344,-5.371,0
134952.378,33.691,27.832,38.086,39.062,31.738,0
134952.382,37.109,30.273,41.992,45.898,62.012,0
134952.386,30.273,35.645,44.922,40.039,29.297,0
134952.390,25.879,45.898,45.410,33.691,0.488,0
134952.393,24.902,41.992,35.645,33.691,25.391,0
134952.397,23.438,37.598,30.273,37.109,81.055,0
134952.399,21.484,31.250,33.691,30.762,59.570,0
134952.403,18.066,30.273,31.250,21.484,-4.395,0
134952.407,26.855,38.574,29.297,27.344,7.324,0
134952.411,31.250,39.062,33.203,34.180,62.988,0
134952.415,23.926,39.062,36.621,27.832,59.570,0
134952.419,23.438,38.574,31.738,19.531,-4.883,0
134952.423,35.156,35.156,30.762,28.809,-22.461,0
134952.427,37.598,24.902,34.668,41.504,19.043,0
134952.431,28.809,33.203,37.598,40.527,8.789,0
134952.435,19.531,38.086,38.086,23.438,-12.695,0
134952.438,18.555,25.391,30.273,11.230,14.160,0
134952.442,22.949,26.367,30.273,23.438,52.734,0
134952.445,23.926,25.391,35.156,30.762,93.750,0
134952.449,18.555,28.320,35.645,20.020,79.102,0
134952.453,20.996,35.645,36.133,20.996,32.227,0
134952.457,33.203,34.668,34.668,32.715,18.066,0
134952.460,34.668,30.762,34.668,35.645,17.090,0
134952.464,35.156,27.832,33.691,29.297,-8.301,0
134952.468,31.250,24.902,28.320,19.531,-35.156,0
134952.472,27.832,30.762,24.414,20.020,11.230,0
134952.476,34.180,37.109,30.762,31.738,51.270,0
134952.480,30.762,34.180,34.668,32.715,33.203,0
134952.484,19.531,35.156,32.715,21.484,15.625,0
134952.488,20.508,36.621,33.203,23.926,24.414,0
134952.489,29.297,32.715,34.668,34.668,60.059,0
134952.493,31.250,28.809,40.039,34.668,86.914,0
134952.497,20.020,29.785,36.133,20.020,52.734,0
134952.501,14.648,26.855,24.414,9.766,3.418,0
134952.505,24.414,24.414,21.484,19.531,7.324,0
134952.509,35.156,27.832,25.879,28.809,34.180,0
134952.513,29.297,24.902,29.297,20.020,23.926,0
134952.517,18.555,24.902,24.414,6.836,-7.812,0
134952.521,28.809,31.250,23.438,12.695,4.395,0
134952.525,30.762,27.832,22.949,20.996,49.805,0
134952.529,22.949,28.809,23.926,20.020,14.160,0
134952.532,21.973,30.762,25.391,16.602,-29.785,0
134952.534,29.297,27.832,28.320,26.855,0.488,0
134952.538,32.715,36.621,24.414,40.527,44.922,0
134952.542,26.855,40.527,20.508,36.133,54.199,0
134952.546,19.043,34.668,18.555,23.926,42.969,0
134952.550,24.414,33.203,28.320,25.879,20.508,0
134952.554,23.438,28.809,39.062,28.320,5.371,0
134952.558,15.137,22.461,31.250,18.066,-0.977,0
134952.562,8.789,20.996,27.832,6.348,-18.066,0
134952.566,7.812,26.855,25.879,0.977,-33.203,0
134952.570,21.973,36.621,26.367,18.066,17.090,0
134952.573,25.879,25.391,28.809,29.297,51.758,0
134952.577,27.344,19.043,31.250,23.438,-4.395,0
134952.579,33.203,39.062,32.715,25.391,-5.859,0
134952.583,28.809,41.992,26.367,29.785,36.621,0
134952.587,26.367,32.227,20.020,30.273,44.922,0
134952.591,21.973,31.250,21.484,21.484,42.480,0
134952.595,11.230,30.273,24.414,15.137,23.926,0
134952.599,22.949,29.297,26.367,26.367,5.371,0
134952.603,34.668,29.785,21.484,38.086,35.156,0
134952.607,29.297,24.414,22.949,31.250,42.480,0
134952.611,24.902,26.855,35.156,20.508,4.883,0
134952.615,26.367,30.273,33.691,17.090,-12.207,0
134952.619,33.203,27.832,27.344,25.391,59.082,0
134952.622,28.809,25.391,28.320,28.809,70.312,0
134952.626,19.043,30.762,28.320,14.648,34.668,0
134952.630,28.320,37.598,26.367,12.695,30.273,0
134952.634,37.109,32.227,29.297,29.297,9.766,0
134952.638,31.250,28.320,30.762,41.016,46.875,0
134952.641,27.344,32.715,26.367,36.621,40.039,0
134952.645,21.973,29.297,28.320,24.902,12.695,0
134952.649,29.297,24.902,32.227,30.273,0.488,0
134952.653,39.062,23.926,32.227,40.527,20.508,0
134952.657,34.668,28.809,32.227,35.645,39.062,0
134952.661,25.879,35.645,33.203,28.809,10.254,0
134952.665,22.949,31.738,30.762,26.367,17.090,0
134952.669,24.902,21.484,30.273,32.227,62.988,0
134952.685,23.438,21.484,29.297,34.180,80.078,0
134952.688,18.066,17.090,29.297,22.461,60.059,0
134952.692,20.996,16.602,32.227,17.090,54.199,0
134952.696,32.715,23.926,33.691,33.203,75.195,0
134952.700,30.273,34.668,30.762,36.133,93.750,1
134952.704,19.531,42.480,26.367,20.996,62.988,0
134952.708,24.902,37.109,26.367,20.508,17.090,0
134952.712,37.598,36.621,29.785,34.180,70.801,0
134952.716,38.574,41.016,32.715,38.086,98.145,0
134952.720,31.250,37.109,30.273,25.391,28.809,0
134952.724,25.879,32.715,28.320,19.043,11.719,0
134952.728,27.832,29.785,31.250,25.879,43.945,0
134952.729,26.855,24.902,32.227,33.691,46.387,0
134952.733,24.902,24.902,30.762,35.645,47.363,0
134952.737,23.926,26.855,36.621,29.785,48.828,0
134952.741,27.832,25.879,37.109,31.250,38.086,0
134952.745,35.156,21.973,29.297,43.457,48.828,0
134952.749,28.320,20.996,20.508,35.156,49.316,0
134952.753,15.625,25.391,17.578,11.230,27.832,0
134952.757,14.648,23.438,23.438,6.836,0.000,0
134952.761,26.855,21.484,29.785,21.973,-1.953,0
134952.765,28.809,29.297,33.691,26.855,-3.906,0
134952.768,18.555,36.133,34.668,16.113,-10.254,0
134952.772,18.555,34.668,35.645,13.184,4.883,0
134952.774,25.391,27.344,29.297,22.461,-4.883,0
134952.778,27.832,26.855,24.414,27.344,40.039,0
134952.782,19.531,32.227,21.973,20.020,89.844,0
134952.786,14.160,34.668,21.484,12.207,60.547,0
134952.790,22.461,35.645,20.996,13.672,30.273,0
134952.794,28.809,29.785,25.879,25.879,50.781,0
134952.798,24.414,20.508,37.109,28.809,51.758,0
134952.802,14.648,21.973,36.133,13.184,22.461,0
134952.806,14.160,32.715,28.320,9.766,-16.113,0
134952.810,20.508,33.203,24.902,23.438,20.508,0
134952.814,21.973,28.809,22.949,24.902,93.262,0
134952.817,13.184,27.344,19.531,13.184,45.410,0
134952.819,10.742,23.926,26.367,9.277,13.184,0
134952.823,17.578,17.578,28.809,16.602,58.594,0
134952.827,16.602,20.508,28.809,21.973,70.801,0
134952.831,11.230,32.227,28.320,11.719,48.828,0
134952.835,11.230,30.273,27.344,3.418,26.367,0
134952.839,14.160,29.297,27.344,4.395,24.902,0
134952.843,20.020,35.645,23.438,11.230,53.223,0
134952.847,19.531,31.738,25.879,15.137,54.688,0
134952.851,12.207,22.461,26.855,3.418,-25.879,0
134952.855,16.602,21.973,19.043,2.930,-15.137,0
134952.858,25.391,22.949,20.508,20.020,55.176,0
134952.862,29.785,18.555,31.250,26.367,48.828,0
134952.865,19.043,19.043,36.621,17.090,35.156,0
134952.869,8.301,27.344,32.715,6.348,9.277,0
134952.873,13.672,28.809,28.809,16.113,19.531,0
134952.877,13.672,22.949,28.320,21.973,52.734,0
134952.880,7.812,23.438,27.344,14.160,6.836,0
134952.884,10.254,26.855,30.273,12.207,-18.066,0
134952.888,19.531,27.344,27.832,21.484,40.527,0
134952.892,20.508,27.344,25.391,25.879,59.570,0
134952.896,17.090,22.461,25.391,14.160,42.969,0
134952.900,17.578,21.484,28.809,7.812,33.691,0
134952.904,27.344,33.203,34.180,20.508,33.691,0
134952.908,39.551,40.039,36.133,40.527,57.617,0
134952.910,31.250,32.227,27.344,34.180,33.203,0
134952.914,24.414,30.273,21.973,19.043,-8.789,0
134952.917,33.203,31.250,21.484,23.438,-32.715,0
134952.921,38.086,28.320,26.855,36.621,6.348,0
134952.925,39.551,21.973,35.645,37.109,40.039,0
134952.929,35.645,20.508,37.109,26.367,-3.418,0
134952.933,36.621,23.438,37.109,28.809,-23.926,0
134952.937,37.109,19.043,33.691,35.645,-8.789,0
134952.941,30.762,27.344,34.180,35.645,35.645,0
134952.945,20.996,23.926,36.621,28.320,49.316,0
134952.949,11.719,22.461,31.738,16.602,-15.137,0
134952.953,15.137,33.203,27.344,22.949,-4.395,0
134952.955,18.555,31.738,33.691,36.621,60.547,0
134952.958,11.230,29.297,39.062,27.344,49.805,0
134952.962,9.766,29.297,38.086,18.066,-4.883,0
134952.966,21.484,28.809,41.504,32.227,-16.113,0
134952.970,28.809,25.391,41.992,40.039,15.137,0
134952.974,23.926,27.832,38.086,33.691,20.508,0
134952.978,22.949,26.855,28.809,24.902,-16.602,0
134952.982,27.344,21.973,19.043,20.996,-51.758,0
134952.986,28.809,26.367,22.949,27.344,25.879,0
134952.990,25.879,32.715,30.762,25.879,60.547,0
134952.994,22.461,32.227,34.668,18.066,6.836,0
134952.998,27.344,27.832,37.109,20.508,0.488,0
134952.999,34.668,23.438,35.156,25.879,11.230,0
134953.003,37.109,23.438,37.598,32.227,18.555,0
134953.007,29.297,26.855,39.551,26.367,-4.883,0
134953.011,21.973,25.391,36.621,14.160,-2.441,0
134953.015,23.438,22.461,34.180,20.508,23.438,0
134953.019,26.367,32.715,29.785,34.180,67.871,0
134953.023,20.020,38.574,24.414,29.785,67.383,0
134953.027,10.254,25.391,25.391,14.648,11.719,0
134953.031,9.277,20.020,27.344,15.625,27.832,0
134953.035,12.207,25.391,28.809,30.762,54.688,0
134953.038,9.766,23.926,35.645,35.645,54.199,0
134953.042,2.441,29.297,39.062,24.902,39.062,0
134953.059,2.930,34.668,33.203,19.531,43.945,0
134953.063,12.695,31.738,24.902,25.391,58.594,0
134953.067,19.531,27.344,17.578,25.391,27.344,0
134953.071,20.996,25.391,17.090,18.555,-18.066,0
134953.075,21.973,26.367,23.438,17.578,4.395,0
134953.079,28.320,27.344,31.738,24.902,8.301,0
134953.083,34.180,27.832,30.762,30.762,5.371,0
134953.087,26.855,25.879,20.996,17.090,26.855,0
134953.091,21.484,32.227,16.113,0.000,10.254,0
134953.095,29.785,39.551,19.043,7.812,21.973,0
134953.099,33.203,39.062,21.973,17.578,58.594,0
134953.102,30.273,40.527,25.391,14.648,67.871,0
134953.104,22.949,35.156,27.832,11.719,26.855,0
134953.108,23.926,24.414,28.320,15.137,23.438,0
134953.112,29.297,30.762,27.832,22.949,82.520,0
134953.116,26.855,39.551,26.855,26.855,92.773,0
134953.120,18.066,30.762,30.273,21.484,38.086,0
134953.124,18.555,26.855,29.297,20.020,-4.883,0
134953.128,24.902,34.668,22.949,32.227,31.738,0
134953.132,20.020,27.832,26.855,35.645,56.641,0
134953.136,8.789,21.973,27.832,22.461,26.855,0
134953.140,12.207,36.133,26.367,17.090,3.906,0
134953.144,21.484,40.527,24.414,26.367,65.918,0
134953.147,18.555,35.645,23.438,29.297,92.285,0
134953.150,15.625,34.180,26.367,19.531,17.090,0
134953.153,18.555,32.715,23.438,12.695,7.324,0
134953.157,27.344,32.227,23.438,17.578,47.363,1
134953.161,28.320,30.762,25.391,21.484,57.617,0
134953.165,23.926,29.297,27.344,17.090,38.574,0
134953.169,20.508,22.461,23.438,9.277,7.812,0
134953.173,23.926,22.461,17.578,13.184,17.090,0
134953.177,30.762,21.973,19.531,29.785,77.148,0
134953.181,25.391,17.578,24.414,31.738,71.289,0
134953.185,18.066,23.438,22.461,18.066,54.688,0
134953.189,23.926,32.227,25.391,20.020,57.617,0
134953.193,29.785,33.203,34.668,31.738,59.082,0
134953.194,26.367,25.391,40.039,36.133,62.500,0
134953.198,23.926,24.414,29.785,29.297,21.484,0
134953.202,18.066,23.438,18.066,18.555,-1.465,0
134953.206,20.996,24.902,18.066,22.461,15.625,0
134953.210,27.832,31.738,25.879,33.203,29.297,0
134953.214,25.879,37.109,35.645,25.879,26.367,0
134953.218,19.043,32.715,35.156,10.254,11.230,0
134953.222,18.555,25.391,30.762,11.719,19.531,0
134953.226,23.438,25.879,32.227,20.996,49.316,0
134953.230,14.648,12.695,30.762,13.672,56.152,0
134953.234,14.160,18.066,24.414,5.371,25.879,0
134953.237,31.738,39.062,27.832,19.043,-10.254,0
134953.239,27.832,41.504,27.832,21.973,33.691,0
134953.243,15.625,27.832,18.066,9.766,65.430,0
134953.247,21.484,26.367,22.949,8.789,20.996,0
134953.251,24.414,33.691,30.762,14.160,26.367,0
134953.255,26.367,30.762,27.344,23.926,40.527,0
134953.259,29.785,32.227,30.273,38.086,26.855,0
134953.263,22.461,33.691,27.832,33.691,22.949,0
134953.267,25.391,27.832,22.949,26.367,-15.625,0
134953.271,37.598,18.066,18.555,33.203,-38.574,0
134953.275,39.062,22.461,14.648,39.062,4.395,0
134953.278,31.250,33.203,21.973,30.762,-0.977,0
134953.282,30.273,36.621,27.832,23.438,-9.766,0
134953.284,41.992,36.621,28.809,32.227,21.973,0
134953.288,45.898,34.668,30.762,43.945,40.039,0
134953.292,38.574,36.621,31.250,44.434,53.223,0
134953.296,25.391,35.156,21.973,25.391,15.137,0
134953.300,20.020,27.832,23.926,22.461,-13.672,0
134953.304,23.438,16.602,25.391,34.180,12.207,0
134953.308,9.766,22.949,18.555,27.344,22.461,0
134953.312,-2.930,35.645,23.438,10.742,-18.066,0
134953.316,4.883,36.133,32.715,5.371,-15.137,0
134953.320,18.555,35.156,39.062,17.090,11.230,0
134953.323,24.902,31.738,37.598,30.273,35.645,0
134953.327,21.973,29.297,32.715,23.926,36.133,0
134953.331,30.273,30.273,30.273,15.137,18.066,0
134953.335,44.434,37.598,27.832,25.391,31.250,0
134953.339,42.969,34.180,29.297,33.691,30.273,0
134953.342,41.992,29.297,37.109,34.180,16.113,0
134953.346,40.527,38.574,35.645,24.414,10.254,0
134953.350,32.715,39.551,24.902,16.113,25.879,0
134953.354,34.180,32.715,21.973,24.414,43.457,0
134953.358,33.203,30.273,26.855,23.926,25.879,0
134953.362,23.926,34.180,27.344,11.230,50.293,0
134953.366,29.297,30.273,26.855,15.137,74.707,0
134953.370,35.645,20.996,28.809,30.273,71.777,0
134953.374,31.250,23.926,27.832,29.297,89.355,0
134953.374,24.414,35.156,27.832,19.043,61.523,0
134953.378,23.926,39.551,30.273,19.531,23.438,0
134953.382,30.273,30.273,29.297,25.879,32.227,0
134953.386,24.414,24.414,25.879,30.762,65.918,0
134953.390,21.973,21.484,25.391,25.391,39.062,0
134953.394,29.297,28.320,30.762,22.949,-8.789,0
134953.398,32.715,38.574,36.621,29.785,-20.508,0
134953.402,27.832,31.250,33.203,28.320,23.926,0
134953.406,19.043,22.461,24.414,21.484,36.621,0
134953.410,18.555,20.996,13.184,15.137,-16.113,0
134953.414,17.578,26.367,11.719,17.090,6.348,0
134953.417,19.043,21.973,21.484,22.461,90.820,0
134953.434,23.926,20.996,30.273,23.926,98.145,0
134953.438,16.602,29.785,29.785,17.090,26.855,0
134953.442,12.695,35.645,26.855,9.766,-17.090,0
134953.446,27.344,30.762,26.855,23.926,25.391,0
134953.450,32.715,21.973,20.020,31.738,66.406,0
134953.454,27.832,21.973,21.484,21.484,38.574,0
134953.458,29.297,22.949,33.691,25.879,3.418,0
134953.462,32.227,23.926,32.227,35.645,17.090,0
134953.466,39.551,30.762,26.367,38.574,62.012,0
134953.470,26.855,28.320,25.879,23.926,12.695,0
134953.473,7.324,16.602,20.020,2.930,-45.410,0
134953.477,22.949,23.438,24.414,13.672,39.551,0
134953.480,35.645,27.832,27.832,27.832,83.496,0
134953.483,22.949,20.508,17.090,19.043,25.879,0
134953.487,16.113,28.809,8.789,8.301,-5.371,0
134953.491,27.832,38.086,14.648,12.695,-27.344,0
134953.495,35.645,32.227,23.926,25.879,-22.461,0
134953.499,35.645,30.762,28.809,27.344,23.926,0
134953.503,35.156,36.133,37.109,21.973,-0.977,0
134953.507,38.574,32.715,29.785,20.020,16.113,0
134953.511,46.875,27.832,19.531,27.832,62.500,0
134953.515,47.363,33.203,28.809,35.156,29.785,0
134953.519,37.598,35.156,29.297,26.855,9.277,0
134953.522,28.320,28.809,21.973,10.742,8.789,0
134953.525,24.902,29.297,21.973,9.766,29.785,0
134953.528,22.949,32.227,22.949,19.043,81.543,0
134953.532,14.160,33.203,25.879,16.113,80.566,0
134953.536,9.277,31.738,24.902,14.648,27.344,0
134953.540,16.602,21.973,18.066,21.484,13.184,0
134953.544,25.391,22.949,22.461,30.762,43.457,0
134953.548,22.461,33.203,26.367,28.809,54.688,0
134953.552,14.648,24.414,27.832,19.043,21.484,0
134953.556,15.625,19.531,23.926,17.578,-23.926,0
134953.560,25.879,28.809,20.996,27.344,2.441,0
134953.564,27.832,32.227,28.320,29.297,70.312,0
134953.567,20.508,24.414,27.832,15.625,47.852,0
134953.569,18.066,22.949,22.949,14.160,20.996,1
134953.573,21.973,24.902,23.438,21.484,31.738,0
134953.577,22.949,23.926,21.484,25.391,41.992,0
134953.581,17.090,26.855,20.508,21.484,2.441,0
134953.585,14.648,23.926,23.438,16.113,-24.902,0
134953.589,21.484,20.996,25.879,23.438,-3.418,0
134953.593,22.949,22.461,26.855,30.762,32.715,0
134953.597,13.184,28.320,27.344,21.973,29.785,0
134953.601,10.254,26.367,31.250,11.719,-19.043,0
134953.605,14.648,19.531,30.273,15.137,-22.949,0
134953.608,14.648,20.020,25.879,23.438,17.090,0
134953.612,8.789,20.020,24.414,19.043,35.156,0
134953.614,5.371,24.902,26.367,10.254,12.695,0
134953.618,11.230,34.668,29.297,13.672,21.484,0
134953.622,17.578,33.691,25.391,22.949,61.035,0
134953.626,18.555,33.203,27.832,29.785,71.289,0
134953.630,19.043,34.668,36.133,19.531,17.578,0
134953.634,21.484,30.762,33.203,12.207,-10.254,0
134953.638,33.203,20.996,27.344,27.832,19.043,0
134953.642,30.762,11.719,24.902,29.297,18.555,0
134953.646,17.090,14.648,24.902,12.695,-18.555,0
134953.650,20.508,22.461,22.949,11.230,-40.527,0
134953.653,35.156,37.598,23.926,30.273,-18.555,0
134953.657,34.668,48.828,23.926,38.086,37.598,0
134953.659,16.602,39.551,19.043,20.508,17.578,0
134953.663,3.418,30.273,29.785,9.277,-22.949,0
134953.667,7.324,23.926,34.668,16.113,0.000,0
134953.671,16.602,20.020,31.738,29.297,56.641,0
134953.675,5.859,19.043,31.738,26.855,46.387,0
134953.679,-4.395,23.926,30.762,17.090,-29.785,0
134953.683,0.488,21.973,29.297,18.555,-20.996,0
134953.687,15.625,15.625,31.738,32.227,2.441,0
134953.691,17.578,19.531,36.133,33.203,36.621,0
134953.695,10.742,27.344,32.715,20.996,42.480,0
134953.699,19.531,30.273,28.809,19.531,-3.906,0
134953.702,27.344,29.785,27.832,27.832,14.160,0
134953.704,28.320,29.297,26.367,36.133,65.918,0
134953.708,25.391,30.273,27.832,25.391,75.684,0
134953.712,22.949,29.297,31.250,18.555,34.668,0
134953.716,32.715,23.438,32.227,25.879,49.316,0
134953.720,35.645,22.461,30.762,25.879,73.242,0
134953.724,25.391,27.344,27.832,14.648,46.875,0
134953.728,20.020,28.320,27.344,1.953,-18.555,0
134953.732,24.414,27.832,27.344,3.906,-53.223,0
134953.736,28.809,31.738,26.367,14.160,9.277,0
134953.740,26.855,30.273,25.391,15.625,40.527,0
134953.743,23.926,31.738,24.902,7.812,17.090,0
134953.747,27.344,34.180,21.973,9.766,23.926,0
134953.750,35.156,32.715,20.508,22.949,67.383,0
134953.754,32.227,34.668,28.320,27.344,106.934,0
134953.758,20.996,29.785,32.715,17.090,105.957,0
134953.762,18.066,24.902,25.879,8.301,54.199,0
134953.766,23.926,32.227,20.996,14.160,33.203,0
134953.769,31.250,35.645,20.020,24.414,41.504,0
134953.773,22.949,34.668,20.996,16.602,22.461,0
134953.777,15.137,17.578,23.926,6.348,11.230,0
134953.781,23.438,21.973,27.344,17.578,18.066,0
134953.785,27.344,47.852,22.461,29.297,10.254,0
134953.789,24.902,41.016,18.555,21.973,5.371,0
134953.793,25.879,37.598,24.902,14.648,17.578,0
134953.796,26.855,37.598,24.902,16.113,9.277,0
134953.800,32.715,28.320,25.879,22.461,8.301,0
134953.804,30.273,29.297,25.391,24.414,11.230,0
134953.808,18.066,32.227,18.066,13.184,-15.625,0
134953.812,20.996,29.297,22.949,12.207,-2.441,0
134953.816,34.668,31.250,26.367,29.297,-8.789,0
134953.819,34.180,29.785,24.902,33.691,-0.977,0
134953.823,22.461,30.762,25.391,22.461,38.086,0
134953.827,14.648,28.320,22.949,12.695,-14.648,0
134953.831,19.043,20.508,25.879,18.066,-0.977,0
134953.835,32.227,20.996,30.762,37.109,59.082,0
134953.839,23.926,25.391,29.297,26.855,66.406,0
134953.855,10.742,26.855,24.902,-1.465,23.438,0
134953.858,15.625,27.344,22.949,-3.906,2.441,0
134953.862,18.066,23.926,24.414,10.254,36.621,0
134953.866,19.043,25.879,24.902,17.090,47.852,0
134953.870,15.625,33.203,28.809,10.742,21.973,0
134953.874,20.996,35.156,31.250,15.625,0.000,0
134953.878,35.156,35.156,27.344,31.250,22.461,0
134953.882,32.715,34.668,23.926,32.715,63.965,0
134953.886,22.949,34.668,29.297,22.461,56.152,0
134953.890,23.438,34.668,37.109,20.020,12.207,0
134953.894,27.344,30.762,35.156,25.391,-2.930,0
134953.898,30.273,22.949,31.250,29.785,67.383,0
134953.900,28.809,25.391,29.297,25.391,62.500,0
134953.903,30.762,33.691,30.762,19.531,5.371,0
134953.907,35.645,35.156,34.668,28.320,22.949,0
134953.911,35.156,36.133,36.133,38.086,16.602,0
134953.915,27.832,34.668,33.203,30.762,2.930,0
134953.919,21.973,30.273,29.297,22.461,-10.742,0
134953.923,31.738,27.344,32.715,35.156,-53.223,0
134953.927,44.434,32.227,28.320,50.293,-26.855,0
134953.931,38.086,43.945,21.484,35.645,21.484,0
134953.935,29.785,44.922,26.855,18.066,8.301,0
134953.939,28.809,42.480,28.809,15.137,-5.371,0
134953.943,31.250,43.457,23.926,23.438,20.508,0
134953.944,30.273,40.527,20.996,32.227,51.758,0
134953.948,21.973,39.062,21.484,24.414,17.090,0
134953.952,23.926,34.668,23.438,22.461,1.465,0
134953.956,32.715,29.785,26.367,31.250,52.246,0
134953.960,30.762,26.367,26.855,34.180,62.012,0
134953.964,24.414,25.879,24.902,25.391,12.207,0
134953.968,19.531,29.785,24.414,20.996,-2.441,0
134953.972,24.414,27.832,19.043,27.344,35.156,0
134953.976,30.762,21.973,16.113,37.598,60.547,0
134953.980,30.273,16.113,19.043,33.691,53.223,0
134953.984,26.855,22.461,21.973,21.484,25.391,0
134953.987,30.273,30.273,28.809,27.832,12.695,0
134953.989,37.598,25.879,33.691,44.922,20.508,0
134953.993,32.715,25.391,34.180,41.504,29.785,0
134953.997,20.996,29.297,36.133,22.949,-13.672,0
134954.001,20.020,27.832,33.691,17.090,-6.836,0
134954.005,28.809,22.461,26.855,27.832,50.781,0
134954.009,28.809,25.879,25.391,30.273,64.941,0
134954.013,16.113,33.203,26.855,14.648,63.965,0
134954.017,16.113,32.227,24.902,9.766,7.812,0
134954.021,21.484,30.762,21.973,16.113,5.371,0
134954.025,25.391,29.297,30.273,27.832,41.016,0
134954.029,23.438,27.832,33.203,25.391,19.531,0
134954.032,20.996,30.762,22.949,13.184,-15.625,0
134954.036,28.809,28.809,16.602,19.531,-23.438,0
134954.040,39.551,26.855,28.320,30.762,20.996,0
134954.044,33.203,25.391,32.227,25.879,36.133,0
134954.047,27.344,29.785,27.344,15.625,-7.812,0
134954.051,33.203,26.855,26.367,15.137,-6.836,0
134954.055,32.715,21.484,24.902,22.461,18.555,0
134954.059,30.273,26.367,25.879,28.320,16.602,0
134954.063,27.344,28.320,25.391,21.973,-0.488,0
134954.067,26.367,33.203,26.855,20.020,32.715,1
134954.071,29.297,27.344,26.367,31.250,49.805,0
134954.075,28.320,22.949,29.297,35.645,83.984,0
134954.079,21.484,28.809,33.203,24.902,45.410,0
134954.080,19.043,24.902,32.715,20.508,1.953,0
134954.083,26.855,23.438,30.762,29.297,47.363,0
134954.087,30.273,31.250,31.250,32.715,58.594,0
134954.091,18.555,33.203,31.738,20.508,41.016,0
134954.095,13.184,29.785,25.391,13.184,15.137,0
134954.099,30.762,23.926,27.344,23.926,17.578,0
134954.103,33.203,19.531,29.785,30.762,48.828,0
134954.107,20.020,23.438,22.461,20.508,37.598,0
134954.111,20.996,29.785,26.367,10.742,40.527,0
134954.115,30.273,27.832,32.715,17.578,72.754,0
134954.119,35.156,29.785,25.391,30.273,55.176,0
134954.123,26.367,30.762,19.531,30.762,38.574,0
134954.124,18.555,33.203,23.438,20.996,20.996,0
134954.128,22.461,37.109,26.855,19.531,-8.301,0
134954.132,32.227,37.598,23.926,30.762,17.090,0
134954.136,26.855,40.039,24.414,31.738,30.762,0
134954.140,17.578,34.668,31.250,23.926,20.020,0
134954.144,18.555,33.203,39.062,20.508,4.883,0
134954.148,23.926,36.621,39.062,26.855,2.930,0
134954.152,27.832,34.180,35.645,36.621,45.410,0
134954.156,16.113,27.344,26.855,26.367,75.195,0
134954.160,11.719,24.902,20.508,11.719,45.410,0
134954.164,20.996,27.344,20.508,15.625,-7.324,0
134954.167,25.879,28.320,17.578,27.832,32.227,0
134954.185,26.855,29.785,25.391,28.809,55.664,0
134954.188,25.879,25.879,34.668,24.414,0.977,0
134954.192,26.855,23.438,35.645,27.832,-17.090,0
134954.196,34.668,32.715,31.738,37.598,29.785,0
134954.200,35.156,39.551,30.273,42.480,41.016,0
134954.204,25.391,39.551,32.715,33.203,-4.883,0
134954.208,23.926,38.086,35.645,21.484,-4.395,0
134954.212,29.785,38.086,37.109,30.273,42.480,0
134954.216,26.367,39.551,36.133,41.504,52.246,0
134954.220,17.578,35.156,38.574,30.273,26.855,0
134954.224,18.555,25.879,40.527,21.484,13.672,0
134954.227,26.855,28.320,36.133,27.344,27.832,0
134954.230,20.996,32.715,34.668,33.203,65.918,0
134954.234,9.277,26.367,37.598,29.297,80.566,0
134954.238,11.230,29.297,36.621,22.461,85.938,0
134954.241,21.973,30.273,35.156,25.391,70.801,0
134954.245,28.809,21.484,26.855,38.086,72.754,0
134954.249,26.367,29.297,28.320,40.039,88.867,0
134954.253,22.949,42.480,42.480,26.855,47.852,0
134954.257,26.855,41.992,41.992,22.461,13.184,0
134954.261,36.133,35.645,30.762,30.273,60.547,0
134954.265,36.621,34.668,28.320,29.297,63.965,0
134954.269,26.855,37.109,36.133,22.949,20.508,0
134954.273,19.043,30.273,37.109,17.578,20.020,0
134954.275,27.832,37.598,35.645,24.414,20.020,0
134954.279,28.320,31.738,20.996,32.227,2.441,0
134954.283,8.301,22.461,10.742,10.254,-8.789,0
134954.286,-0.977,27.832,22.461,-2.930,0.000,0
134954.290,11.230,27.344,22.949,11.230,3.906,0
134954.294,22.461,32.227,15.137,28.320,-0.488,0
134954.298,13.672,34.668,26.855,25.879,8.789,0
134954.302,10.254,26.855,38.086,15.137,18.066,0
134954.306,19.043,25.879,38.574,15.137,0.977,0
134954.310,20.508,34.180,36.133,20.020,6.836,0
134954.314,16.113,39.062,30.762,20.020,46.387,0
134954.318,12.695,36.621,30.273,12.695,23.438,0
134954.320,15.137,29.785,32.227,7.324,-0.488,0
134954.324,22.461,26.367,36.621,18.066,27.832,0
134954.328,20.020,28.320,32.715,25.391,66.406,0
134954.332,7.324,28.320,30.762,13.184,58.105,0
134954.336,11.230,28.320,32.715,5.371,23.926,0
134954.339,21.973,26.367,25.391,15.137,23.438,0
134954.343,21.484,29.785,24.414,24.414,22.949,0
134954.347,18.555,29.785,27.344,19.531,14.648,0
134954.351,18.066,17.090,29.297,15.625,-4.883,0
134954.355,20.020,20.508,29.297,22.461,27.832,0
134954.359,26.367,39.062,37.598,35.645,74.707,0
134954.363,19.043,34.668,37.109,28.809,72.266,0
134954.365,3.418,21.484,25.391,7.812,47.363,0
134954.368,8.789,21.973,22.949,9.277,60.059,0
134954.372,17.578,21.973,20.020,18.555,114.746,0
134954.376,20.996,24.414,20.020,22.461,97.656,0
134954.380,22.949,26.367,23.926,16.113,34.180,0
134954.384,26.855,28.809,23.438,12.207,16.602,0
134954.388,35.645,31.250,21.484,22.949,15.625,0
134954.392,39.551,30.273,29.785,31.250,3.906,0
134954.396,34.180,28.809,30.273,22.461,-27.344,0
134954.400,25.391,27.832,28.320,9.766,-11.719,0
134954.404,29.297,26.367,28.320,15.625,8.301,0
134954.408,32.715,25.879,24.902,23.926,23.926,0
134954.409,27.832,28.809,26.855,20.020,61.035,0
134954.413,27.344,25.879,31.250,14.160,27.832,0
134954.417,31.250,22.461,33.691,17.578,6.836,0
134954.421,34.180,26.367,31.738,29.785,84.961,0
134954.425,29.297,28.320,31.738,28.809,66.895,0
134954.429,22.949,27.832,32.715,16.113,-16.602,0
134954.433,25.879,19.043,27.832,15.625,-0.488,0
134954.437,26.855,15.625,24.902,23.438,38.574,0
134954.441,19.043,20.996,21.973,22.949,55.664,0
134954.445,6.348,16.113,14.648,10.254,48.340,0
134954.449,7.812,13.184,19.043,6.348,7.324,0
134954.452,25.391,28.320,28.320,26.855,14.160,0
134954.455,28.809,25.879,34.668,31.738,98.633,0
134954.458,13.672,12.695,35.645,5.859,106.445,0
134954.462,6.348,25.879,26.367,-6.836,36.621,0
134954.466,15.137,28.320,19.043,1.465,8.789,0
134954.470,24.414,28.320,15.137,9.766,50.293,0
134954.474,24.902,34.668,21.973,10.254,43.945,0
134954.478,21.973,31.250,22.461,4.395,-39.551,0
134954.482,22.461,27.344,10.254,5.371,-34.668,0
134954.486,29.297,26.855,15.137,15.625,23.926,0
134954.490,21.484,21.973,25.391,16.602,28.809,0
134954.494,10.254,19.531,25.879,11.719,40.039,0
134954.497,13.672,19.043,26.367,15.137,0.977,0
134954.502,16.113,15.137,26.367,25.879,-6.836,0
134954.505,10.254,12.695,26.855,28.809,-2.441,0
134954.509,0.977,19.043,20.020,18.555,-33.203,0
134954.513,3.906,27.344,19.531,18.066,-11.230,0
134954.517,9.277,25.879,32.227,24.902,-3.418,0
134954.521,7.324,23.926,33.203,27.344,21.973,0
134954.525,8.301,26.855,34.668,24.902,0.977,0
134954.529,13.672,27.832,31.250,15.137,-45.410,0
134954.533,20.020,20.020,26.367,15.137,-30.762,0
134954.537,30.762,20.020,28.809,27.344,0.977,0
134954.541,31.738,26.855,24.414,27.344,25.391,2
134954.545,30.273,33.203,28.320,19.531,6.348,0
134954.560,38.574,40.039,36.133,24.414,-13.184,0
134954.563,44.434,34.180,32.715,33.691,-20.996,0
134954.567,35.645,25.391,28.320,33.691,0.000,0
134954.571,20.996,30.273,20.508,20.508,-20.508,0
134954.575,19.043,29.297,19.043,14.648,-14.160,0
134954.579,26.367,25.391,26.855,26.855,28.809,0
134954.583,24.414,27.344,31.250,31.738,30.273,0
134954.587,18.555,28.320,26.367,23.926,24.414,0
134954.591,21.484,28.809,23.438,14.648,6.348,0
134954.595,25.879,31.738,33.203,15.625,-3.418,0
134954.599,28.320,37.598,39.551,26.367,38.086,0
134954.603,23.926,31.738,28.809,21.973,23.438,0
134954.605,21.973,27.344,21.973,11.230,-38.574,0
134954.608,30.762,31.738,28.809,18.066,-31.250,0
134954.612,29.785,31.738,29.297,27.832,12.695,0
134954.616,18.555,28.809,27.344,22.461,-13.184,0
134954.620,12.695,24.414,28.809,11.230,-44.434,0
134954.624,16.113,25.391,31.250,13.184,-61.523,0
134954.628,22.461,14.648,36.621,25.391,-28.320,0
134954.632,23.926,15.137,38.574,33.691,14.160,0
134954.636,24.902,35.645,33.691,29.785,18.555,0
134954.640,23.926,32.715,19.043,20.020,-16.602,0
134954.644,21.973,20.996,14.160,21.484,3.906,0
134954.648,28.809,27.832,30.762,23.438,98.633,0
134954.649,34.180,34.668,40.527,20.508,82.031,0
134954.653,37.598,34.180,38.086,17.578,16.602,0
134954.657,43.945,34.180,38.574,23.926,22.949,0
134954.661,44.922,31.738,39.062,35.645,74.707,0
134954.665,40.527,26.855,30.762,27.832,75.684,0
134954.669,32.227,33.203,29.785,17.090,6.348,0
134954.673,32.227,31.738,30.762,21.484,2.930,0
134954.677,39.062,27.344,29.297,34.668,37.109,0
134954.681,36.133,32.715,33.203,35.645,7.812,0
134954.685,24.414,28.809,34.180,20.996,-36.133,0
134954.688,24.902,22.949,32.715,18.555,0.000,0
134954.692,33.203,23.926,33.691,33.203,47.852,0
134954.695,28.320,22.949,35.156,36.621,44.434,0
134954.698,20.996,20.020,33.203,24.414,17.090,0
134954.702,20.996,17.578,29.297,19.531,22.949,0
134954.706,27.832,23.438,22.949,28.809,24.414,0
134954.710,35.156,35.156,24.414,40.527,38.086,0
134954.714,24.902,34.668,25.391,27.832,41.992,0
134954.718,16.113,24.902,22.949,8.789,15.625,0
134954.722,26.367,28.320,25.391,18.555,6.836,0
134954.726,24.414,36.133,22.461,31.250,43.457,0
134954.730,14.648,31.250,18.066,22.949,76.172,0
134954.734,14.160,25.879,20.996,11.230,68.359,0
134954.737,17.090,18.066,22.461,13.672,41.016,0
134954.740,19.043,16.113,23.438,23.926,65.918,0
134954.744,17.578,26.855,26.367,24.414,100.098,0
134954.748,14.648,30.273,25.879,15.625,36.133,0
134954.752,17.578,31.250,23.438,14.648,-6.836,0
134954.756,23.438,31.738,31.738,26.367,32.227,0
134954.760,23.926,28.809,40.039,32.227,58.105,0
134954.764,16.602,27.344,33.203,23.438,59.570,0
134954.767,21.484,31.738,20.508,20.508,-2.930,0
134954.771,29.297,27.344,19.531,27.832,-12.207,0
134954.775,24.902,23.438,34.668,35.156,93.750,0
134954.779,15.625,25.879,41.016,27.832,65.918,0
134954.783,14.160,25.879,38.086,24.414,9.277,0
134954.785,24.902,29.785,37.598,39.062,25.391,0
134954.788,20.020,25.391,26.367,40.527,47.363,0
134954.792,11.719,23.926,17.578,27.832,29.785,0
134954.796,8.789,27.344,26.855,16.602,21.484,0
134954.800,14.160,20.996,34.180,20.508,40.039,0
134954.804,21.484,21.973,33.203,31.250,11.719,0
134954.808,16.113,27.832,35.156,29.297,-2.441,0
134954.812,13.672,28.320,26.367,18.555,-35.156,0
134954.816,20.020,29.297,16.602,17.578,-42.480,0
134954.820,24.414,30.273,14.648,28.320,-3.418,0
134954.824,20.508,24.414,20.508,27.344,14.648,0
134954.828,11.719,19.531,33.203,15.625,13.672,0
134954.829,15.137,23.926,32.715,5.859,-13.184,0
134954.833,26.855,31.738,30.273,15.625,-2.441,0
134954.837,24.902,34.668,30.762,27.344,28.809,0
134954.841,15.137,30.273,26.855,16.113,15.137,0
134954.845,15.137,27.344,22.949,9.277,2.441,0
134954.849,24.414,33.691,26.855,17.090,14.648,0
134954.853,32.715,40.039,32.715,26.855,39.551,0
134954.857,28.320,36.621,30.762,24.902,21.973,0
134954.861,20.996,33.203,25.879,16.602,18.555,0
134954.865,21.973,32.227,23.926,14.648,49.316,0
134954.869,27.832,26.855,24.414,21.973,89.844,0
134954.872,24.414,28.809,21.484,24.414,100.098,0
134954.875,20.020,39.551,20.020,24.414,88.379,0
134954.879,28.320,43.945,23.926,26.855,40.039,0
134954.883,38.086,37.598,25.879,31.738,62.012,0
134954.887,40.527,32.227,34.668,39.551,115.234,0
134954.891,29.785,30.273,31.738,31.250,41.504,0
134954.895,21.973,26.855,20.020,20.996,-17.090,0
134954.899,21.973,27.344,17.578,26.367,-21.973,0
134954.902,25.879,28.809,25.391,35.645,45.898,0
134954.906,23.926,31.250,30.762,31.738,41.504,0
134954.910,16.113,34.668,28.809,18.555,-52.246,0
134954.914,23.438,33.691,28.809,21.973,-42.480,0
134954.918,30.762,33.203,24.414,33.691,12.695,0
134954.935,26.367,32.715,25.879,29.297,64.453,0
134954.938,27.832,34.180,26.855,18.555,28.809,0
134954.942,32.227,37.109,31.250,23.926,-17.578,0
134954.946,40.039,36.133,39.551,37.109,42.969,0
134954.950,40.527,38.574,37.109,40.039,95.703,0
134954.954,25.391,36.621,34.180,24.414,50.293,0
134954.958,26.855,32.227,35.156,21.484,-27.344,1
134954.962,34.180,35.645,34.668,33.691,-16.113,0
134954.966,31.738,35.156,33.691,35.645,16.113,0
134954.970,18.555,31.738,28.809,21.484,1.953,0
134954.974,11.719,24.414,23.926,11.230,-18.555,0
134954.978,24.902,28.320,25.879,24.414,-6.348,0
134954.979,34.668,40.527,33.691,37.109,48.828,0
134954.983,23.438,31.738,32.715,20.508,38.086,0
134954.987,20.996,18.066,28.809,11.719,-2.930,0
134954.991,30.273,31.250,36.621,20.996,22.949,0
134954.995,28.809,34.180,41.992,28.320,42.480,0
134954.999,23.438,30.273,37.598,26.367,8.789,0
134955.003,18.555,40.039,34.668,12.695,-13.672,0
134955.007,18.555,38.574,33.203,7.324,-4.395,0
134955.011,29.297,36.621,19.531,20.020,-2.930,0
134955.015,32.715,38.574,17.090,29.785,-11.230,0
134955.018,25.879,33.203,25.879,17.578,-3.906,0
134955.022,30.762,32.715,37.598,16.113,16.113,0
134955.025,41.992,33.691,40.527,34.668,26.855,0
134955.028,37.598,21.973,30.273,37.109,19.043,0
134955.032,21.973,22.461,25.879,19.043,9.766,0
134955.036,15.137,32.227,23.926,13.184,20.508,0
134955.040,22.949,38.086,22.461,21.484,40.527,0
134955.044,27.344,41.016,25.879,29.785,58.105,0
134955.048,22.949,38.574,30.762,27.344,53.711,0
134955.052,19.531,36.133,29.785,14.160,13.184,0
134955.056,25.879,33.691,22.461,18.066,-33.203,0
134955.060,35.156,37.598,24.414,34.668,17.090,0
134955.064,23.926,34.668,28.320,28.320,86.914,0
134955.068,15.137,20.020,28.320,13.672,61.035,0
134955.069,21.484,23.438,25.391,18.555,33.203,0
134955.073,22.949,41.504,21.484,28.320,67.871,0
134955.077,24.902,43.945,19.043,30.762,98.145,0
134955.081,20.508,39.062,21.973,24.414,79.590,0
134955.085,23.438,41.992,26.367,21.484,53.223,0
134955.089,39.551,47.852,32.715,35.645,40.039,0
134955.093,41.016,40.039,39.551,44.922,91.797,0
134955.097,24.414,26.855,29.297,27.344,76.660,0
134955.101,18.066,29.785,26.367,15.137,-11.719,0
134955.105,24.414,28.809,24.902,24.414,23.926,0
134955.108,22.949,26.367,20.508,33.203,90.820,0
134955.112,15.625,26.367,22.949,27.832,58.594,0
134955.115,14.160,24.902,27.344,19.043,35.156,0
134955.118,18.066,23.438,29.297,19.043,44.922,0
134955.122,23.438,22.949,30.273,28.809,67.871,0
134955.126,28.320,28.809,34.180,33.203,38.086,0
134955.130,18.555,34.180,28.320,19.043,-19.043,0
134955.134,14.648,27.344,22.461,8.789,-40.039,0
134955.138,22.949,23.438,28.320,22.949,-22.461,0
134955.142,17.578,21.973,26.367,30.273,-8.789,0
134955.146,7.324,20.996,27.344,19.531,-15.625,0
134955.150,10.254,27.832,44.434,18.066,-19.043,0
134955.154,17.578,31.738,46.387,28.809,-8.789,0
134955.157,16.113,30.273,38.574,34.180,12.207,0
134955.160,12.207,32.715,34.180,24.902,32.227,0
134955.164,15.625,35.645,28.809,18.066,14.648,0
134955.168,25.879,31.738,25.391,25.879,12.207,0
134955.171,23.438,23.926,30.273,33.203,64.941,0
134955.175,16.602,21.973,36.133,26.367,86.914,0
134955.179,18.066,31.250,35.156,20.020,52.246,0
134955.183,23.926,40.527,35.156,24.902,10.254,0
134955.187,26.367,42.969,31.250,28.809,30.762,0
134955.191,20.996,38.574,32.715,27.832,95.215,0
134955.195,15.625,34.180,34.180,21.973,61.523,0
134955.199,18.066,29.785,28.809,20.996,4.883,0
134955.203,25.879,29.785,25.879,32.227,18.066,0
134955.207,30.762,33.691,20.508,41.504,47.852,0
134955.210,29.785,35.156,22.461,37.598,61.523,0
134955.214,20.020,39.551,36.133,29.785,35.645,0
134955.218,15.625,37.109,26.855,26.367,36.621,0
134955.222,15.137,32.715,13.672,26.855,37.109,0
134955.226,9.766,33.203,26.855,22.949,1.953,0
134955.230,7.812,30.762,32.227,12.695,-34.180,0
134955.234,20.020,32.227,31.250,19.043,-75.684,0
134955.238,28.320,33.203,31.250,28.809,-23.438,0
134955.242,18.066,28.320,27.832,19.043,-6.348,0
134955.246,12.695,27.832,22.461,8.789,-55.664,0
134955.250,20.508,24.902,20.996,12.695,-44.434,0
134955.250,30.273,23.926,29.297,23.438,24.902,0
134955.253,31.738,25.879,35.156,24.902,44.434,0
134955.257,25.879,26.367,34.180,18.555,-12.207,0
134955.261,32.715,32.715,27.832,20.020,-54.688,0
134955.265,39.551,33.203,27.832,31.738,6.836,0
134955.269,34.180,27.344,35.645,37.109,33.203,0
134955.273,21.973,26.855,31.738,25.879,-34.180,0
134955.277,15.625,27.344,29.785,15.137,-15.625,0
134955.281,20.996,28.809,30.273,20.020,32.715,0
134955.285,27.832,18.066,21.973,32.227,62.012,0
134955.289,23.926,17.578,13.184,27.832,63.965,0
134955.292,17.090,34.668,21.484,15.137,28.320,0
134955.310,28.320,43.945,27.832,20.508,14.160,0
134955.313,36.621,45.898,20.508,34.668,32.227,0
134955.317,29.297,34.180,18.066,30.273,39.551,0
134955.321,19.043,30.762,22.461,13.184,17.090,0
134955.325,21.973,34.180,23.438,10.742,10.254,0
134955.329,32.715,24.902,29.297,23.926,-12.207,0
134955.333,33.203,17.578,33.691,26.855,22.461,0
134955.337,28.809,24.902,28.809,15.625,30.273,0
134955.341,29.785,33.203,20.508,11.230,-28.320,0
134955.345,32.715,30.273,15.137,15.625,-18.066,0
134955.349,35.645,24.414,21.484,23.926,20.508,0
134955.353,27.832,23.438,28.320,19.043,41.992,0
134955.354,22.461,26.367,28.320,10.742,24.902,0
134955.358,32.227,28.809,25.391,19.531,40.527,0
134955.362,34.668,31.738,21.484,30.273,60.059,0
134955.366,23.438,26.855,20.508,22.461,59.570,0
134955.370,20.020,22.949,22.461,11.719,58.105,0
134955.374,26.367,28.320,23.438,19.043,38.574,0
134955.378,34.668,31.738,24.902,32.715,45.410,0
134955.382,33.203,30.273,26.367,31.250,73.242,0
134955.386,33.203,29.785,30.762,22.949,84.961,0
134955.390,33.203,25.879,28.320,19.043,24.414,0
134955.394,33.203,19.043,23.926,22.949,36.621,0
134955.397,30.762,13.184,27.344,21.484,68.848,0
134955.400,20.508,21.484,26.855,11.719,0.000,0
134955.403,21.484,34.668,26.855,14.160,-36.621,0
134955.407,30.273,32.227,28.809,26.367,12.695,0
134955.411,26.855,30.762,30.273,35.156,66.895,0
134955.415,19.043,25.879,32.715,26.855,66.895,0
134955.419,16.113,21.973,31.250,16.113,34.668,0
134955.423,19.531,25.879,26.367,20.996,41.504,0
134955.427,24.902,29.297,20.996,34.668,78.125,0
134955.431,17.090,31.250,25.879,31.250,40.527,0
134955.435,7.812,30.273,32.715,17.090,-36.133,0
134955.439,13.672,26.855,30.273,20.020,-27.344,0
134955.443,22.949,23.926,30.273,34.180,15.137,1
134955.445,23.438,25.879,29.785,39.062,42.969,0
134955.448,17.090,27.832,28.809,27.832,37.598,0
134955.452,20.508,27.832,33.691,29.297,1.465,0
134955.456,26.855,24.414,27.832,32.227,39.062,0
134955.460,27.344,24.902,23.926,31.250,91.309,0
134955.464,22.461,25.391,28.809,25.391,52.734,0
134955.468,16.113,19.531,23.926,14.648,18.555,0
134955.472,22.461,16.113,22.461,22.949,29.297,0
134955.476,27.344,16.602,20.996,34.180,55.176,0
134955.480,20.020,21.973,21.484,31.738,39.551,0
134955.484,19.043,28.809,29.785,28.320,-11.719,0
134955.488,22.949,29.785,24.902,28.320,-5.371,0
134955.490,21.484,24.902,21.484,28.809,48.340,0
134955.493,18.555,25.879,28.809,27.832,80.566,0
134955.497,11.230,29.297,32.227,20.508,35.156,0
134955.501,5.371,28.320,24.902,15.625,-6.348,0
134955.505,10.742,22.461,22.949,26.367,10.254,0
134955.509,14.648,25.879,31.738,33.691,10.254,0
134955.513,9.277,31.738,35.645,22.461,3.906,0
134955.517,9.766,29.785,33.691,16.602,13.184,0
134955.521,21.484,30.273,28.809,26.367,30.273,0
134955.525,24.902,24.414,20.996,30.762,85.449,0
134955.529,17.090,20.020,21.484,20.508,67.383,0
134955.533,18.555,26.367,27.344,13.672,-9.277,0
134955.534,28.320,28.809,23.438,19.043,31.738,0
134955.538,34.668,29.297,19.043,26.855,75.684,0
134955.542,26.367,32.227,24.414,20.020,47.363,0
134955.546,15.625,33.691,27.344,8.301,20.020,0
134955.550,24.414,29.297,27.344,15.137,14.648,0
134955.554,29.297,26.367,29.297,26.855,49.805,0
134955.558,18.555,25.879,29.785,22.461,32.715,0
134955.562,11.719,26.367,28.320,11.230,-31.250,0
134955.566,12.695,27.832,25.391,11.230,-25.879,0
134955.570,20.020,27.832,21.973,19.043,40.039,0
134955.574,20.020,24.414,23.926,19.043,40.039,0
134955.577,14.648,21.973,21.973,14.648,-1.465,0
134955.579,12.695,24.902,16.113,10.254,20.020,0
134955.583,14.648,24.414,18.555,13.184,46.875,0
134955.587,19.043,20.996,22.461,22.949,33.203,0
134955.591,14.648,22.461,26.855,14.160,8.789,0
134955.595,11.719,28.320,25.391,5.371,-20.508,0
134955.599,13.672,29.785,16.602,8.301,-5.371,0
134955.603,18.555,27.344,23.926,15.137,21.973,0
134955.607,23.438,31.250,35.156,15.625,19.531,0
134955.611,22.461,36.133,34.668,5.859,2.930,0
134955.615,25.879,28.809,27.832,10.742,8.789,0
134955.619,30.762,20.996,16.602,21.973,48.340,0
134955.622,24.414,18.555,11.719,19.531,89.844,0
134955.625,20.020,18.066,12.695,12.207,76.660,0
134955.629,20.508,26.367,13.184,11.230,3.418,0
134955.633,25.391,28.320,21.973,22.461,27.344,0
134955.636,26.367,28.320,35.645,30.273,61.523,0
134955.640,20.020,32.227,39.551,24.414,28.320,0
134955.644,18.555,33.203,36.621,22.949,23.438,0
134955.648,22.461,33.203,29.297,29.297,52.246,0
134955.652,22.461,30.762,24.414,33.203,49.316,0
134955.656,20.020,25.879,25.879,27.344,25.391,0
134955.660,19.043,27.832,26.367,19.531,38.574,0
134955.664,26.367,32.715,25.879,24.902,39.551,0
134955.668,33.691,28.320,24.414,32.715,60.059,0
134955.671,31.738,24.902,22.949,37.109,69.336,0
134955.675,28.320,31.250,20.508,27.832,-15.137,0
134955.679,25.391,28.320,23.438,15.625,-49.316,0
134955.683,24.902,29.785,29.297,19.531,-10.742,0
134955.687,28.320,39.551,30.273,20.020,-3.906,0
134955.690,20.508,40.039,28.320,11.719,-35.645,0
134955.694,15.625,36.621,24.414,10.742,-24.414,0
134955.698,25.391,35.156,24.414,24.414,25.391,0
134955.702,26.367,34.180,27.832,34.180,64.453,0
134955.706,16.113,29.297,27.832,27.832,14.648,0
134955.710,17.578,26.367,27.832,22.461,-25.879,0
134955.714,27.344,26.367,26.855,30.273,41.016,0
134955.730,30.762,27.832,29.297,40.039,78.613,0
134955.734,23.438,27.832,33.691,36.621,67.871,0
134955.737,14.160,27.832,34.180,25.391,61.523,0
134955.741,19.043,27.344,35.156,29.297,52.734,0
134955.745,28.320,26.367,38.086,42.969,39.062,0
134955.749,26.855,28.320,36.621,39.062,4.883,0
134955.753,20.508,25.879,30.762,26.367,-16.602,0
134955.757,24.414,25.879,26.855,27.344,6.348,0
134955.761,34.668,31.738,25.879,37.598,28.320,0
134955.765,38.574,27.832,26.855,42.480,11.719,0
134955.769,35.156,22.949,31.250,36.133,-20.996,0
134955.773,34.668,35.645,32.227,33.203,-15.137,0
134955.774,42.480,40.527,29.785,40.527,-4.395,0
134955.778,44.922,37.598,31.738,43.945,-2.930,0
134955.782,35.645,35.645,32.227,29.785,11.230,0
134955.786,29.297,30.273,29.297,19.531,13.184,0
134955.790,31.738,31.738,30.273,27.832,-25.879,0
134955.794,38.086,34.180,31.250,37.109,-13.184,0
134955.798,34.180,26.855,31.250,33.691,12.695,0
134955.802,24.902,22.461,27.832,24.414,-28.320,0
134955.806,29.785,38.086,24.414,27.832,-27.344,0
134955.810,34.180,46.387,27.832,38.086,-1.953,0
134955.813,28.809,39.551,33.203,35.156,15.625,0
134955.817,22.461,41.504,32.227,22.461,6.836,0
134955.820,28.809,40.039,32.227,21.484,9.766,0
134955.823,32.227,29.297,32.715,31.738,67.871,0
134955.827,27.344,27.344,25.879,34.668,101.562,0
134955.831,27.832,35.645,23.438,26.855,64.941,0
134955.835,28.809,33.203,24.414,20.020,22.461,0
134955.839,33.691,28.809,27.832,25.879,37.598,0
134955.843,32.227,29.785,28.809,29.785,78.613,0
134955.847,22.461,35.645,21.973,20.996,71.289,0
134955.851,21.973,40.527,24.414,12.695,-3.906,0
134955.855,25.879,34.180,34.180,18.066,14.160,0
134955.859,31.250,35.645,34.668,31.738,101.074,0
134955.863,29.297,38.086,33.691,28.809,61.035,0
134955.864,15.625,31.738,35.156,20.020,11.719,0
134955.868,16.602,29.297,33.203,24.414,57.129,0
134955.872,23.438,28.809,28.809,30.273,90.820,0
134955.876,20.508,21.484,28.320,29.785,63.965,0
134955.880,16.113,11.719,20.020,21.484,21.484,0
134955.884,19.043,28.809,18.555,21.484,-5.371,0
134955.888,28.809,41.016,27.344,36.133,47.852,0
134955.892,36.133,39.062,18.066,42.480,90.332,0
134955.896,32.227,36.621,8.789,31.250,42.480,0
134955.900,23.926,26.367,26.367,19.043,16.113,0
134955.904,25.879,27.344,41.504,23.926,35.156,0
134955.907,28.320,29.297,30.762,32.715,55.176,0
134955.911,25.391,30.273,25.391,25.391,10.742,0
134955.915,26.367,34.668,31.738,18.555,4.883,0
134955.919,33.691,36.621,27.344,22.949,41.016,0
134955.923,36.133,34.668,28.809,33.203,53.711,0
134955.926,31.738,29.297,36.621,29.785,39.062,0
134955.930,23.438,24.414,33.691,15.625,0.488,0
134955.934,24.902,24.902,31.738,15.625,-17.578,0
134955.938,29.297,28.320,32.227,26.367,13.184,0
134955.942,27.832,26.367,27.832,29.785,32.715,0
134955.946,22.949,24.902,27.344,20.508,-7.812,2
134955.950,25.391,29.297,31.250,20.996,-27.832,0
134955.954,29.785,30.273,25.391,32.227,1.465,0
134955.955,23.438,27.344,24.414,24.414,23.926,0
134955.958,16.602,24.414,35.645,12.695,25.879,0
134955.962,18.066,23.438,35.645,14.648,-26.855,0
134955.966,24.414,27.344,33.203,25.391,-27.344,0
134955.970,26.367,31.738,30.762,37.109,52.734,0
134955.974,23.926,29.297,26.367,35.156,41.016,0
134955.978,18.066,29.297,34.180,24.902,-7.324,0
134955.982,19.043,33.691,38.086,24.902,1.953,0
134955.986,23.438,30.273,30.273,31.738,32.715,0
134955.990,17.090,23.438,25.879,27.344,7.324,0
134955.994,15.137,23.926,27.344,16.602,-11.719,0
134955.998,18.555,22.461,33.691,20.020,18.066,0
134955.999,20.508,24.414,34.668,29.297,43.945,0
134956.003,18.066,31.738,34.668,35.156,58.105,0
134956.007,11.719,27.832,36.133,25.879,33.203,0
134956.011,10.254,28.809,36.621,8.789,12.695,0
134956.015,17.578,22.461,37.109,15.137,46.387,0
134956.019,21.973,10.742,35.156,25.879,61.035,0
134956.023,9.277,26.855,32.715,22.461,6.836,0
134956.027,8.789,40.527,26.855,8.301,-9.766,0
134956.031,20.996,31.250,25.879,11.230,77.637,0
134956.035,25.879,27.832,22.461,25.879,116.211,0
134956.039,25.879,35.645,14.648,19.043,72.266,0
134956.042,22.949,32.715,20.508,12.695,31.738,0
134956.059,30.762,34.668,32.715,21.973,0.977,0
134956.063,36.621,39.062,32.227,27.344,14.160,0
134956.067,27.344,31.738,23.926,21.973,26.855,0
134956.071,23.438,29.297,18.555,13.184,19.531,0
134956.075,28.320,30.762,20.996,16.602,29.297,0
134956.079,30.273,32.227,25.879,26.855,57.129,0
134956.083,27.344,31.250,29.297,28.809,64.941,0
134956.087,24.902,29.297,31.250,23.438,16.113,0
134956.091,25.391,35.645,29.785,18.555,10.254,0
134956.095,32.227,40.039,28.809,27.344,20.020,0
134956.098,33.203,38.574,26.367,37.598,33.691,0
134956.102,27.832,34.668,24.902,28.809,32.227,0
134956.105,30.762,31.250,21.484,17.090,3.418,0
134956.109,36.133,31.250,14.160,26.855,20.996,0
134956.113,38.086,34.180,15.625,42.480,45.898,0
134956.117,30.273,30.273,27.832,34.668,35.645,0
134956.120,16.602,24.902,37.598,16.113,54.199,0
134956.124,19.531,31.738,39.062,19.531,41.992,0
134956.128,29.785,40.527,37.598,35.156,-1.465,0
134956.132,25.879,40.039,39.062,37.109,1.465,0
134956.136,22.461,35.645,39.062,31.250,-13.672,0
134956.140,21.973,32.715,39.062,29.297,-59.082,0
134956.144,24.414,34.668,37.598,39.551,4.883,0
134956.148,28.320,34.668,32.715,41.992,40.039,0
134956.150,19.531,30.273,27.832,24.902,16.113,0
134956.154,16.113,31.250,26.855,16.602,25.879,0
134956.158,31.250,34.668,26.367,25.391,44.922,0
134956.162,33.203,38.574,22.949,31.738,95.215,0
134956.165,22.461,36.621,22.949,29.785,54.688,0
134956.169,23.926,34.180,26.855,29.785,-9.277,0
134956.173,34.180,33.691,24.902,27.344,4.395,0
134956.177,39.551,30.273,20.996,31.250,40.527,0
134956.181,28.320,30.273,20.996,26.367,25.879,0
134956.185,18.066,34.668,16.602,12.695,4.395,0
134956.189,22.949,37.598,14.648,17.578,12.207,0
134956.193,28.320,30.762,20.996,29.785,16.113,0
134956.195,21.484,25.391,25.879,24.902,19.043,0
134956.198,16.602,32.715,22.949,9.766,35.156,0
134956.202,20.020,33.691,20.996,7.812,57.129,0
134956.206,25.391,28.320,24.902,20.996,58.105,0
134956.210,27.344,29.785,22.461,22.461,26.855,0
134956.214,20.996,27.344,19.531,13.672,-9.277,0
134956.218,21.484,28.320,22.461,16.113,-22.949,0
134956.222,31.250,34.180,15.137,22.461,7.812,0
134956.226,34.180,29.785,4.395,24.414,35.156,0
134956.230,29.297,28.809,15.137,20.508,48.828,0
134956.234,29.785,34.668,33.691,17.578,41.016,0
134956.237,35.156,36.133,38.086,21.973,47.852,0
134956.239,35.156,30.762,27.832,28.320,63.965,0
134956.243,28.320,24.902,13.184,28.320,27.832,0
134956.247,24.902,33.691,17.090,19.531,-10.742,0
134956.251,27.344,36.133,25.879,18.555,11.719,0
134956.255,33.691,31.738,29.297,26.367,85.449,0
134956.259,32.715,35.156,35.645,26.367,106.934,0
134956.263,25.879,33.203,35.156,14.648,31.738,0
134956.267,25.391,31.250,26.855,12.207,-29.785,0
134956.271,26.855,29.297,18.066,19.531,-9.277,0
134956.275,21.973,27.832,16.602,17.090,39.551,0
134956.279,18.555,29.785,28.320,8.789,42.969,0
134956.282,17.578,30.762,33.691,4.395,9.766,0
134956.284,23.926,28.809,27.832,10.254,18.066,0
134956.288,38.574,27.832,25.879,21.484,79.590,0
134956.292,33.203,32.227,26.367,20.996,70.801,0
134956.296,23.926,26.855,23.926,18.066,27.832,0
134956.300,27.832,24.902,21.484,20.020,25.391,0
134956.304,33.691,32.227,20.996,28.320,44.434,0
134956.308,29.785,34.668,19.531,25.879,41.504,0
134956.312,20.996,31.250,19.531,13.672,2.441,0
134956.316,24.902,31.738,23.926,18.555,-27.344,0
134956.320,29.297,31.250,23.438,30.762,30.273,0
134956.324,34.180,30.273,24.902,32.715,85.938,0
134956.327,27.832,29.785,23.926,24.902,51.270,0
134956.330,19.531,28.320,19.043,25.879,43.457,0
134956.333,29.785,28.320,22.461,41.016,70.801,0
134956.337,31.250,22.949,21.973,35.645,80.566,0
134956.341,20.996,20.020,29.785,21.484,51.270,0
134956.345,18.066,20.020,38.574,16.602,37.598,0
134956.349,25.391,20.996,36.621,22.949,28.809,0
134956.353,29.297,29.785,29.785,31.250,38.086,0
134956.357,23.926,33.203,26.367,22.949,62.012,0
134956.361,19.043,30.762,25.879,10.254,42.480,0
134956.365,21.973,29.297,24.414,14.160,31.250,0
134956.369,25.879,29.785,22.949,25.391,76.660,0
134956.372,21.484,29.297,24.414,26.855,75.195,0
134956.376,17.578,30.273,27.344,18.066,41.016,0
134956.380,21.484,28.809,24.414,13.672,23.926,2
134956.384,27.344,24.414,19.531,30.762,-6.836,0
134956.388,19.043,27.344,17.578,30.762,44.922,0
134956.391,11.230,30.273,7.812,13.184,69.336,0
134956.395,15.137,27.344,14.648,14.160,24.902,0
134956.399,25.879,27.832,34.668,25.391,0.977,0
134956.403,31.250,28.809,37.598,35.645,19.531,0
134956.407,21.484,25.391,32.715,27.832,64.453,0
134956.411,16.113,22.949,31.250,13.184,32.227,0
134956.415,19.043,19.043,27.832,17.578,7.324,0
134956.419,23.926,20.020,21.973,30.762,25.879,0
134956.435,22.949,27.344,26.855,30.273,46.875,0
134956.438,22.461,24.414,31.738,35.645,6.836,0
134956.442,22.461,24.902,24.902,36.621,-5.371,0
134956.446,18.555,32.715,20.020,22.949,53.223,0
134956.450,14.160,37.598,25.879,19.043,81.543,0
134956.454,4.395,35.645,29.297,7.812,41.504,0
134956.458,0.488,29.785,27.344,0.488,7.324,0
134956.462,11.230,25.879,24.902,16.113,25.879,0
134956.466,23.926,23.926,26.367,32.227,42.969,0
134956.470,23.438,26.367,28.809,25.391,35.156,0
134956.474,16.602,26.855,29.297,18.555,34.668,0
134956.478,24.414,27.344,27.344,29.297,62.988,0
134956.480,29.785,30.273,24.414,36.621,76.660,0
134956.483,26.367,29.785,22.461,29.785,70.801,0
134956.487,24.902,27.344,23.438,24.414,28.809,0
134956.491,32.227,29.297,23.438,29.297,10.742,0
134956.495,39.062,30.273,24.414,38.086,41.016,0
134956.499,30.273,30.762,28.809,36.621,28.320,0
134956.503,22.949,35.156,29.785,25.391,1.953,0
134956.507,31.250,36.133,28.809,28.320,-2.441,0
134956.511,36.621,34.180,28.320,41.504,36.133,0
134956.515,29.297,33.691,28.320,39.551,9.277,0
134956.519,23.438,31.738,28.809,24.902,-22.461,0
134956.523,26.367,28.320,26.855,24.902,3.418,0
134956.525,35.156,31.250,25.391,35.156,14.160,0
134956.528,35.156,28.809,20.996,36.621,35.156,0
134956.532,30.762,24.414,20.020,26.367,38.086,0
134956.536,28.320,29.785,24.414,17.578,-21.484,0
134956.540,25.879,31.250,24.414,23.438,-33.691,0
134956.544,26.367,28.320,26.855,34.180,13.672,0
134956.548,25.879,31.250,10.742,32.227,29.785,0
134956.552,27.832,30.762,1.953,28.809,-5.859,0
134956.556,28.320,26.367,23.926,30.762,-46.387,0
134956.560,28.809,25.879,39.551,38.086,-13.672,0
134956.564,32.227,24.902,43.945,37.598,15.625,0
134956.568,32.227,32.227,41.504,25.391,-10.254,0
134956.570,32.715,37.598,35.156,26.855,-11.230,0
134956.574,36.133,35.645,33.691,37.598,2.930,0
134956.578,31.250,30.762,35.156,37.598,49.805,0
134956.582,24.902,28.809,34.180,31.250,50.293,0
134956.586,31.738,31.250,22.949,28.809,-6.836,0
134956.590,38.086,29.785,17.578,33.691,11.719,0
134956.593,32.715,27.344,24.414,35.156,73.730,0
134956.597,24.414,28.809,24.902,27.344,75.195,0
134956.601,21.973,32.227,26.855,21.973,37.598,0
134956.605,31.738,30.762,23.926,30.762,40.527,0
134956.609,32.227,29.785,20.996,38.086,81.543,0
134956.613,20.996,27.344,26.855,25.391,71.289,0
134956.616,16.602,26.855,26.855,9.766,4.883,0
134956.620,22.461,32.227,22.461,12.695,0.977,0
134956.624,28.320,35.156,24.414,25.391,63.965,0
134956.628,22.949,35.156,26.367,25.879,51.270,0
134956.631,18.555,29.785,20.996,14.648,8.301,0
134956.635,24.414,28.320,17.578,15.137,2.930,0
134956.639,30.762,34.180,19.043,25.391,37.598,0
134956.643,25.391,35.156,19.531,21.973,51.270,0
134956.647,12.695,29.785,19.043,13.184,16.113,0
134956.651,18.066,28.320,20.996,12.695,13.184,0
134956.655,25.879,28.320,21.484,22.461,9.277,0
134956.659,21.484,26.855,22.949,34.180,35.645,0
134956.659,20.508,30.762,22.949,27.344,81.055,0
134956.663,20.020,30.762,23.438,15.137,47.852,0
134956.667,22.949,25.879,24.414,20.508,5.859,0
134956.671,27.832,24.902,23.926,30.273,33.691,0
134956.675,22.949,30.273,22.949,24.414,51.270,0
134956.679,18.555,32.227,22.461,15.137,13.184,0
134956.683,25.879,30.273,23.438,20.020,-18.066,0
134956.687,33.691,29.785,21.484,33.203,-22.949,0
134956.691,32.227,27.344,22.949,29.297,-41.992,0
134956.695,28.809,32.715,24.414,17.090,-51.758,0
134956.699,32.715,34.180,24.902,18.555,-15.137,0
134956.702,33.203,24.414,25.879,28.320,34.180,0
134956.705,31.250,29.297,26.367,34.180,39.551,0
134956.708,25.391,41.504,28.809,24.414,37.598,0
134956.712,20.508,40.039,32.227,9.277,15.137,0
134956.716,29.785,36.621,32.227,13.184,23.438,0
134956.720,31.738,37.109,31.738,26.855,97.168,0
134956.724,26.855,35.645,33.203,23.438,99.121,0
134956.728,22.461,32.715,29.297,13.184,24.902,0
134956.732,21.484,30.762,23.926,15.137,13.672,0
134956.736,30.762,34.668,24.902,28.320,52.246,0
134956.740,31.738,36.133,28.320,31.250,41.504,0
134956.744,27.344,30.273,24.414,21.484,-37.598,0
134956.747,32.227,31.250,21.973,21.973,-54.199,0
134956.749,33.691,38.086,33.691,31.738,15.137,0
134956.753,23.926,39.062,40.039,36.621,60.547,0
134956.757,19.531,34.180,36.621,23.926,40.527,0
134956.761,22.949,29.785,32.227,17.578,16.602,0
134956.765,28.809,27.832,35.645,31.250,33.691,0
134956.769,24.902,27.344,35.156,32.715,37.598,0
134956.773,14.648,30.273,31.250,16.113,26.855,0
134956.777,8.789,30.273,30.273,5.371,31.738,0
134956.781,11.230,26.855,24.414,13.672,66.406,0
134956.785,14.160,30.762,24.414,24.414,88.867,0
134956.788,8.789,30.762,23.926,18.555,45.410,0
134956.792,11.230,35.156,28.809,14.648,15.137,0
134956.810,20.020,39.062,33.203,22.949,21.484,0
134956.813,24.902,31.250,23.926,28.809,37.598,0
134956.817,21.484,29.785,27.832,23.438,7.812,0
134956.821,15.625,28.809,36.621,10.742,-37.598,0
134956.825,22.949,26.855,28.809,9.277,-23.438,1
134956.829,26.855,32.227,24.414,19.043,14.648,0
134956.833,21.484,34.668,26.855,21.973,32.227,0
134956.837,17.090,30.273,29.297,11.230,43.945,0
134956.841,17.090,28.320,32.715,8.789,26.855,0
134956.845,22.949,31.738,36.133,22.949,13.184,0
134956.849,23.438,33.691,35.645,33.203,45.410,0
134956.853,18.555,30.273,32.227,25.879,36.133,0
134956.854,14.648,29.785,28.809,18.066,-36.133,0
134956.858,14.648,34.668,26.367,21.973,-1.465,0
134956.862,21.484,37.109,23.926,28.809,41.504,0
134956.866,19.531,35.645,20.508,22.949,31.250,0
134956.870,14.648,37.109,23.438,11.719,36.133,0
134956.874,23.438,36.621,28.809,13.672,15.625,0
134956.878,34.180,34.668,27.344,27.344,49.316,0
134956.882,26.855,35.156,22.949,26.367,45.898,0
134956.886,20.020,31.250,27.832,14.648,-10.254,0
134956.890,27.344,31.250,33.203,17.090,-13.672,0
134956.894,30.762,35.645,28.809,25.391,38.574,0
134956.897,26.855,37.109,29.297,24.902,89.355,0
134956.900,23.438,37.598,35.645,15.625,42.969,0
134956.903,25.391,36.133,36.133,14.160,11.719,0
134956.907,28.809,32.715,25.879,21.484,55.664,0
134956.911,27.832,32.227,20.996,25.879,45.410,0
134956.915,22.949,31.250,29.297,18.555,-18.066,0
134956.919,20.508,31.250,35.156,8.301,-46.875,0
134956.923,27.344,34.180,35.156,17.090,-10.254,0
134956.927,33.691,38.086,36.133,31.738,30.762,0
134956.931,28.320,38.086,37.598,26.367,10.254,0
134956.935,21.973,34.668,34.180,17.090,-34.180,0
134956.939,23.926,33.203,26.855,20.508,2.930,0
134956.942,33.203,33.691,27.344,33.203,69.336,0
134956.945,34.180,34.668,33.203,36.621,37.109,0
134956.948,21.973,32.227,32.715,22.949,-10.254,0
134956.952,19.531,32.715,23.438,13.184,11.719,0
134956.956,26.367,33.203,18.066,21.484,53.711,0
134956.960,33.203,33.691,26.367,29.297,55.176,0
134956.964,29.297,35.645,31.250,20.508,43.945,0
134956.968,24.902,31.250,26.855,14.648,48.828,0
134956.972,27.344,23.926,25.879,19.043,70.312,0
134956.976,27.344,26.855,26.855,24.414,58.594,0
134956.980,24.414,34.180,24.414,19.531,16.602,0
134956.984,20.996,35.645,23.438,12.207,-14.160,0
134956.988,27.832,34.180,22.949,17.090,-21.484,0
134956.990,30.762,31.738,20.996,29.297,17.578,0
134956.994,24.902,25.879,19.531,29.297,20.996,0
134956.998,27.832,26.367,20.996,18.066,7.324,0
134957.002,32.227,26.367,25.879,20.020,11.230,0
134957.006,39.551,27.344,25.391,34.668,16.602,0
134957.010,34.668,31.250,25.391,36.133,21.484,0
134957.013,23.438,33.203,31.738,25.879,15.137,0
134957.017,30.273,36.621,35.645,28.320,-12.695,0
134957.021,31.250,28.320,31.250,36.133,-25.879,0
134957.025,23.438,20.996,23.438,35.156,-0.977,0
134957.029,14.648,23.926,22.949,26.855,11.719,0
134957.033,15.625,25.879,25.391,20.020,18.066,0
134957.034,23.926,25.391,19.531,22.461,56.152,0
134957.038,30.762,24.902,15.625,30.273,84.473,0
134957.042,28.809,26.855,20.996,25.391,36.133,0
134957.046,21.973,29.297,27.344,16.602,0.000,0
134957.050,28.809,31.738,30.273,20.996,13.672,0
134957.054,35.645,31.738,29.297,36.621,41.504,0
134957.058,22.949,26.855,24.902,28.809,46.387,0
134957.062,5.371,25.391,18.555,9.766,6.836,0
134957.066,12.207,23.438,17.578,13.672,18.555,0
134957.070,21.973,25.391,21.973,27.344,68.359,0
134957.073,21.973,30.273,23.438,32.715,46.387,0
134957.077,19.531,30.762,27.344,26.367,-6.348,0
134957.081,17.578,26.367,27.344,24.414,-19.531,0
134957.085,28.809,28.320,30.762,37.109,35.645,0
134957.089,30.762,30.762,36.621,44.434,64.453,0
134957.093,21.973,27.832,32.715,33.203,38.574,0
134957.096,22.949,28.809,32.715,25.879,5.859,0
134957.100,28.320,29.785,30.273,32.715,-17.090,0
134957.104,32.227,31.738,28.809,48.340,10.742,0
134957.108,26.367,36.621,29.297,40.527,15.137,0
134957.112,18.066,37.598,26.855,20.020,20.996,0
134957.116,25.391,29.297,27.344,22.949,59.570,0
134957.120,32.715,27.832,29.297,34.668,105.469,0
134957.124,30.762,34.668,27.344,34.180,124.023,0
134957.125,26.855,34.180,25.391,27.832,73.730,0
134957.128,38.086,38.086,25.879,31.738,30.273,0
134957.132,46.875,39.062,17.578,40.039,62.500,0
134957.136,36.133,32.227,1.465,37.598,86.914,0
134957.140,29.297,29.785,11.719,30.762,80.566,0
134957.144,28.320,26.367,39.551,26.367,47.363,0
134957.148,33.691,27.344,50.293,32.715,13.184,0
134957.152,33.691,23.438,43.457,38.086,32.227,0
134957.156,20.996,22.949,33.203,31.738,62.012,0
134957.160,26.367,29.297,33.203,27.832,31.250,0
134957.164,35.156,33.691,30.273,28.320,-6.348,0
134957.168,34.668,31.250,25.391,33.691,31.738,0
134957.185,33.203,23.926,26.855,31.738,24.902,0
134957.188,26.855,22.461,26.367,21.973,-66.406,0
134957.192,31.250,33.203,22.461,24.414,-73.242,0
134957.196,39.062,36.621,23.438,31.738,-10.254,0
134957.200,37.109,32.227,24.414,31.738,37.109,0
134957.204,28.809,29.297,23.438,21.484,20.020,0
134957.208,33.691,34.668,24.902,19.043,-30.762,0
134957.212,40.039,26.367,25.879,32.227,15.625,0
134957.216,34.180,18.066,17.090,39.062,66.406,0
134957.220,25.879,33.691,10.254,28.809,45.898,0
134957.224,22.461,36.621,26.367,24.414,43.945,0
134957.227,26.855,34.668,38.574,33.691,55.664,0
134957.230,32.715,35.156,38.086,38.086,51.758,0
134957.233,25.391,29.785,31.738,28.809,28.320,0
134957.237,21.973,27.344,29.785,25.391,0.000,0
134957.241,31.250,24.902,30.762,31.738,7.324,0
134957.245,35.156,27.832,22.461,29.297,33.691,0
134957.249,28.809,36.621,17.578,23.438,25.879,0
134957.253,24.414,30.273,24.902,16.113,4.395,0
134957.257,25.391,21.973,27.832,17.578,7.324,1
134957.261,32.227,33.203,23.926,30.762,14.160,0
134957.265,28.809,33.691,20.996,24.414,42.480,0
134957.269,14.160,20.508,24.414,8.301,62.012,0
134957.273,17.578,23.438,31.738,13.184,54.199,0
134957.274,25.391,26.855,31.738,21.973,54.688,0
134957.278,22.949,23.926,30.762,21.484,60.547,0
134957.282,21.484,29.785,20.996,21.973,36.133,0
134957.286,29.297,38.086,9.277,27.344,0.000,0
134957.290,34.180,34.668,25.391,29.297,18.555,0
134957.294,24.902,29.297,43.457,27.344,58.105,0
134957.298,22.949,28.809,44.434,21.973,86.426,0
134957.302,25.879,28.320,41.992,17.090,73.242,0
134957.306,26.855,29.297,36.621,17.578,31.738,0
134957.310,36.133,28.809,34.668,28.809,60.059,0
134957.314,32.715,29.297,35.156,35.156,91.797,0
134957.317,20.996,34.180,31.738,20.996,52.734,0
134957.320,22.949,34.668,31.250,11.719,20.508,0
134957.323,29.297,25.879,33.691,23.926,44.434,0
134957.327,31.738,20.996,34.180,34.668,60.547,0
134957.331,22.461,28.320,27.344,23.926,33.691,0
134957.335,15.137,31.738,19.531,12.695,-6.348,0
134957.339,25.879,28.320,20.996,21.973,-12.207,0
134957.343,23.926,28.809,25.879,29.297,30.273,0
134957.347,10.742,29.297,20.996,19.531,20.508,0
134957.351,15.137,25.391,15.137,15.137,-20.020,0
134957.355,27.832,27.832,20.508,22.461,-9.766,0
134957.359,30.762,24.902,24.902,32.227,20.508,0
134957.363,29.297,26.367,25.391,33.691,16.602,0
134957.365,27.832,32.227,30.273,27.344,-32.227,0
134957.368,29.297,27.832,35.156,29.297,-20.020,0
134957.372,36.133,31.738,31.250,38.574,40.039,0
134957.376,34.668,38.086,25.879,35.645,22.949,0
134957.380,24.902,38.086,21.973,23.926,-4.883,0
134957.384,25.879,35.156,21.484,23.438,13.672,0
134957.388,37.109,34.180,25.879,38.086,55.176,0
134957.392,36.133,35.156,31.250,44.922,46.875,0
134957.396,24.414,28.320,27.832,29.297,31.738,0
134957.400,20.996,23.926,20.996,23.926,32.715,0
134957.404,29.785,25.879,21.484,34.180,34.668,0
134957.407,37.598,25.391,22.461,41.504,71.777,0
134957.409,37.109,28.809,29.297,34.180,48.828,0
134957.413,33.203,26.855,30.762,23.438,1.953,0
134957.417,32.715,28.320,26.367,31.250,-12.695,0
134957.421,33.203,38.086,26.367,36.133,13.672,0
134957.425,25.391,36.133,26.855,22.949,46.875,0
134957.429,20.508,29.297,29.297,17.578,10.742,0
134957.433,24.414,27.344,27.344,22.949,19.531,0
134957.437,28.320,32.715,18.555,32.227,48.340,0
134957.441,23.926,32.715,21.973,29.297,38.574,0
134957.445,20.020,24.414,34.180,22.461,34.668,0
134957.449,28.320,25.391,24.902,23.926,10.254,0
134957.452,29.785,27.832,19.043,31.738,35.645,0
134957.455,21.484,30.762,31.738,34.180,88.867,0
134957.459,13.672,31.250,38.086,17.578,62.012,0
134957.463,14.160,24.902,37.598,14.160,5.371,0
134957.467,22.949,24.902,34.668,26.367,22.461,0
134957.471,25.879,25.879,33.203,31.738,67.871,0
134957.475,24.414,26.367,38.574,27.832,30.762,0
134957.479,25.391,30.273,38.574,20.508,10.742,0
134957.482,32.715,32.227,28.809,21.973,61.523,0
134957.486,37.598,30.762,26.367,28.809,113.281,0
134957.490,29.785,24.414,28.320,23.438,103.027,0
134957.494,25.879,24.414,23.438,11.719,55.176,0
134957.498,30.273,31.738,17.578,13.672,43.945,0
134957.499,33.691,35.645,22.949,24.902,94.238,0
134957.503,31.250,40.039,31.250,29.297,69.824,0
134957.507,19.043,37.109,27.832,19.043,21.484,0
134957.511,19.531,33.203,25.879,14.160,-0.488,0
134957.515,23.926,27.832,29.785,20.020,4.883,0
134957.519,21.973,23.926,27.344,20.020,29.785,0
134957.523,15.625,30.762,21.973,7.812,-8.789,0
134957.527,13.184,33.203,20.508,0.488,-16.113,0
134957.531,26.855,32.715,19.043,14.648,7.324,0
134957.535,32.227,32.715,18.555,24.902,15.625,0
134957.539,21.484,30.762,23.926,14.648,15.137,0
134957.542,20.508,33.691,27.832,13.184,23.926,0
134957.546,29.785,32.715,25.879,20.020,54.199,0
134957.550,28.320,25.391,21.484,25.879,71.777,0
134957.554,20.508,31.250,20.996,24.902,61.035,0
134957.558,18.555,36.133,24.902,16.602,6.348,0
134957.561,24.414,31.738,26.855,19.043,-0.977,0
134957.565,34.668,28.809,31.250,35.645,12.207,0
134957.569,34.180,29.297,27.832,41.992,20.020,0
134957.573,25.391,32.227,21.973,23.438,32.715,0
134957.577,17.090,32.715,26.367,9.277,6.348,0
134957.581,24.414,31.738,27.832,15.625,-8.301,0
134957.585,26.855,32.715,29.297,21.484,-4.395,0
134957.589,15.137,32.227,27.832,14.648,12.695,0
134957.605,25.391,34.668,23.926,15.625,-21.484,0
134957.608,32.227,33.691,27.832,25.879,-7.324,0
134957.612,24.902,32.715,29.297,32.715,26.855,0
134957.616,21.973,31.738,25.879,26.367,28.809,0
134957.620,20.996,31.738,30.273,18.066,-13.672,0
134957.624,22.949,28.320,34.180,20.996,-51.758,0
134957.628,24.902,28.320,31.250,28.809,-5.371,0
134957.632,23.438,31.250,32.715,25.879,-5.371,0
134957.636,16.602,28.809,32.715,14.160,-42.480,0
134957.640,20.508,32.227,28.809,18.555,-26.367,0
134957.644,29.785,35.645,29.297,30.273,34.668,0
134957.648,25.879,36.621,31.250,27.344,94.238,0
134957.649,20.508,35.156,30.762,21.484,68.848,0
134957.653,23.438,30.762,25.879,19.531,22.949,0
134957.657,30.273,29.297,22.461,28.809,48.340,0
134957.661,31.738,36.133,30.762,39.062,51.758,0
134957.665,24.902,37.109,37.109,32.227,24.902,0
134957.669,20.996,34.668,35.156,23.926,18.066,0
134957.673,27.344,33.203,22.461,29.297,32.227,0
134957.677,35.645,31.250,19.531,38.086,50.781,0
134957.681,35.645,31.250,35.156,35.156,21.973,0
134957.685,23.926,33.691,37.598,24.414,-35.156,0
134957.688,20.020,32.227,35.156,28.809,18.555,0
134957.692,33.203,26.855,34.668,41.992,75.195,0
134957.694,34.180,24.902,32.227,37.109,30.273,0
134957.698,22.461,33.691,33.203,25.391,0.977,0
134957.702,22.461,38.574,25.879,21.973,2.930,1
134957.706,24.902,31.738,19.043,27.832,21.973,0
134957.710,26.367,29.785,24.414,32.227,52.734,0
134957.714,22.461,36.621,29.297,20.508,18.066,0
134957.718,26.855,39.062,31.738,20.020,-15.137,0
134957.722,36.133,32.227,28.809,31.738,15.137,0
134957.726,30.273,30.762,25.391,35.156,16.602,0
134957.730,18.555,32.227,28.320,29.785,-8.789,0
134957.734,20.020,35.645,32.227,25.879,-2.930,0
134957.737,25.391,37.109,28.809,30.762,-8.301,0
134957.739,29.297,37.598,20.020,34.180,12.695,0
134957.743,25.391,34.668,18.066,26.855,35.645,0
134957.747,22.949,38.086,18.066,19.043,38.086,0
134957.751,30.273,38.086,4.883,20.020,20.020,0
134957.755,35.156,36.621,7.812,28.809,36.621,0
134957.759,26.367,34.180,29.297,28.809,45.410,0
134957.763,17.090,28.320,36.133,16.113,-23.438,0
134957.767,18.066,31.250,37.109,15.625,-46.387,0
134957.771,24.414,36.621,39.062,25.391,-16.602,0
134957.775,24.414,40.039,39.062,33.203,32.715,0
134957.779,18.066,32.715,35.156,28.809,20.996,0
134957.782,16.602,27.344,33.691,21.484,-16.113,0
134957.786,23.438,30.273,21.973,28.809,41.016,0
134957.790,28.809,29.297,13.184,35.645,76.172,0
134957.794,24.902,27.832,20.020,26.855,57.129,0
134957.798,20.508,32.715,23.438,16.113,13.184,0
134957.801,28.809,36.133,18.555,19.531,6.348,0
134957.805,38.086,36.621,20.020,40.527,63.965,0
134957.809,27.832,33.691,28.809,39.062,57.617,0
134957.813,14.160,28.809,32.227,17.578,-3.418,0
134957.817,16.113,23.926,34.668,16.602,-19.043,0
134957.821,22.949,24.414,32.227,28.320,43.457,0
134957.825,21.484,30.762,24.902,34.180,69.824,0
134957.829,14.648,32.227,22.949,26.855,14.160,0
134957.830,18.555,34.180,24.902,20.996,-25.391,0
134957.834,29.785,34.668,21.484,35.645,32.715,0
134957.838,33.691,33.691,22.949,42.969,85.938,0
134957.842,29.297,30.762,32.715,36.621,37.109,0
134957.846,24.414,27.832,31.738,35.645,13.672,0
134957.850,28.809,28.320,30.273,38.086,29.297,0
134957.854,31.738,29.297,35.156,42.480,49.805,0
134957.857,29.785,32.227,38.574,38.574,19.043,0
134957.861,22.949,32.715,33.203,26.367,-11.230,0
134957.865,29.297,32.227,31.250,26.367,9.277,0
134957.869,42.969,36.133,32.227,41.992,32.227,0
134957.873,38.086,38.574,25.391,39.062,22.461,0
134957.875,27.832,40.039,24.414,25.879,2.930,0
134957.879,35.156,43.457,34.180,28.320,6.348,0
134957.883,43.945,38.086,36.133,36.621,19.043,0
134957.887,36.621,29.785,30.762,38.086,53.223,0
134957.890,28.809,28.809,30.273,31.250,36.621,0
134957.894,28.809,33.203,25.391,26.855,9.766,0
134957.898,29.785,36.621,23.926,26.367,22.461,0
134957.902,20.996,39.062,29.297,20.020,33.691,0
134957.906,8.301,39.551,34.180,9.766,54.199,0
134957.910,17.578,34.180,36.133,10.742,1.953,0
134957.914,37.598,35.645,28.809,23.438,0.000,0
134957.918,35.645,37.109,23.438,31.738,65.918,0
134957.935,27.344,35.645,21.484,23.438,65.918,0
134957.939,25.879,32.715,23.438,15.625,-1.465,0
134957.943,29.297,30.273,24.414,21.973,-9.277,0
134957.947,32.227,35.156,25.879,31.738,72.266,0
134957.951,31.250,38.086,36.621,36.621,80.078,0
134957.955,30.762,38.574,38.574,31.738,-8.301,0
134957.959,26.367,32.715,31.250,21.973,-29.785,0
134957.963,22.949,25.391,27.344,27.344,27.832,0
134957.966,21.973,25.879,27.344,35.156,46.387,0
134957.970,12.695,24.902,28.320,25.879,17.578,0
134957.974,3.906,21.973,21.484,19.531,-4.395,0
134957.978,13.672,25.391,19.531,28.809,28.320,0
134957.980,21.973,29.297,24.902,36.133,69.824,0
134957.984,18.066,29.785,26.855,24.902,45.410,0
134957.987,18.066,28.320,27.832,16.602,34.668,0
134957.991,23.926,28.320,29.785,23.926,67.871,0
134957.995,28.809,35.156,27.344,31.738,73.730,0
134957.999,24.414,38.086,21.484,28.809,23.438,0
134958.003,20.020,35.156,23.438,17.578,-41.992,0
134958.007,26.855,33.691,30.273,17.578,-21.484,0
134958.011,28.809,31.738,31.738,32.227,12.207,0
134958.015,21.484,31.738,31.250,33.691,-4.395,0
134958.019,15.625,32.715,29.297,20.996,-28.809,0
134958.023,20.508,35.156,24.414,17.578,2.441,0
134958.024,27.832,33.691,21.973,27.832,23.438,0
134958.028,25.391,34.668,25.879,28.320,22.461,0
134958.032,20.508,41.504,18.555,21.484,42.480,0
134958.036,20.508,41.992,-4.395,21.973,34.180,0
134958.040,24.414,36.133,8.301,31.250,32.227,0
134958.044,27.832,31.250,38.086,37.598,47.363,0
134958.048,22.949,31.250,50.781,27.832,19.043,0
134958.052,19.531,33.691,53.223,18.555,-20.508,0
134958.056,30.273,41.016,47.852,25.879,-37.109,0
134958.060,32.227,37.109,39.551,34.180,7.812,0
134958.064,21.973,29.297,32.227,27.344,32.227,0
134958.067,20.996,31.250,34.668,16.602,22.949,0
134958.069,30.273,34.668,35.645,20.508,21.973,0
134958.073,35.156,31.250,25.879,30.273,72.266,0
134958.077,27.832,27.344,23.926,25.391,96.191,0
134958.081,19.531,31.250,30.273,17.578,15.137,0
134958.085,25.391,35.156,34.180,19.043,-3.418,0
134958.089,40.039,42.969,36.621,25.391,41.504,0
134958.093,44.922,40.527,31.738,24.902,62.012,0
134958.097,30.762,31.738,23.926,11.719,60.059,0
134958.101,24.414,31.250,23.438,7.812,21.973,0
134958.105,32.227,32.227,17.090,16.113,23.438,0
134958.109,34.180,32.227,11.719,29.785,111.816,0
134958.112,29.785,33.203,16.602,29.785,67.871,0
134958.114,23.438,30.762,18.555,21.973,-24.414,0
134958.118,21.973,27.832,26.367,28.809,11.230,0
134958.122,27.344,28.809,39.551,40.527,52.246,0
134958.126,23.926,31.738,40.527,41.016,43.457,0
134958.130,11.719,30.762,37.598,28.809,23.438,0
134958.134,14.648,24.902,36.621,25.879,35.156,0
134958.138,25.391,24.902,30.762,34.668,68.848,0
134958.142,20.508,29.785,18.555,33.203,21.484,0
134958.146,15.137,30.273,17.578,26.367,-32.715,0
134958.150,22.949,26.367,30.762,26.855,-19.531,0
134958.153,25.879,21.484,34.668,27.344,-2.930,0
134958.157,23.438,28.809,31.738,23.438,30.762,0
134958.159,20.996,35.156,29.297,11.719,40.527,0
134958.163,21.484,33.691,28.320,1.953,13.672,0
134958.167,27.832,32.227,20.508,11.719,-9.277,0
134958.171,36.621,31.738,18.066,22.461,7.812,0
134958.175,37.109,35.645,27.344,22.461,-7.812,0
134958.179,22.949,26.855,22.949,9.277,-37.109,0
134958.183,22.461,20.996,21.484,9.277,1.953,0
134958.187,30.273,23.926,22.461,22.461,27.832,0
134958.191,29.785,25.391,19.531,21.484,51.270,0
134958.195,24.902,29.297,22.949,17.090,42.480,2
134958.199,24.414,34.180,24.902,17.578,4.883,0
134958.202,27.832,35.156,25.879,30.762,23.438,0
134958.204,29.785,25.391,31.250,36.621,33.691,0
134958.208,23.438,23.438,31.738,24.902,7.324,0
134958.212,15.625,27.832,27.344,18.066,17.090,0
134958.216,25.391,27.344,25.879,23.926,41.016,0
134958.220,29.785,29.297,25.879,24.902,60.547,0
134958.224,23.438,30.762,29.297,18.555,55.176,0
134958.228,21.484,28.320,35.156,17.090,15.625,0
134958.232,24.414,30.273,32.227,24.902,-4.883,0
134958.236,26.367,34.180,25.879,34.180,48.340,0
134958.240,19.043,30.273,27.344,31.738,56.641,0
134958.243,17.090,33.203,29.297,25.391,18.555,0
134958.247,22.949,34.668,23.438,22.949,35.645,0
134958.251,28.320,29.297,18.066,27.344,58.105,0
134958.255,23.438,25.879,24.414,25.879,35.156,0
134958.259,12.207,26.855,29.785,14.648,-11.719,0
134958.263,16.602,32.227,22.949,14.648,-16.602,0
134958.267,29.785,33.691,21.973,26.855,30.762,0
134958.271,27.832,38.574,26.367,29.785,60.547,0
