timestamps,TP9,AF7,AF8,TP10,Right AUX,Marker0
134542.794,64.453,47.363,-28.809,51.758,62.500,0
134542.798,48.340,37.598,-22.949,48.340,78.613,0
134542.802,12.695,27.344,32.715,13.184,23.438,0
134542.806,19.531,31.250,65.918,7.812,-18.066,0
134542.809,42.480,34.668,67.383,35.645,49.316,0
134542.813,42.969,29.785,55.176,45.410,72.266,0
134542.817,24.902,14.648,53.711,32.227,36.133,0
134542.821,38.086,26.367,59.082,38.574,-3.906,0
134542.825,63.477,40.527,35.156,47.363,-24.902,0
134542.829,54.199,38.574,24.414,40.527,58.105,0
134542.833,16.602,39.551,28.809,12.207,25.879,0
134542.837,12.695,42.480,22.949,5.371,-60.547,0
134542.839,36.133,37.109,17.578,31.738,-1.953,0
134542.842,45.898,35.645,19.531,47.363,69.336,0
134542.846,29.297,43.945,27.832,36.621,52.246,0
134542.850,24.414,48.828,36.621,26.367,-13.672,0
134542.854,39.551,41.016,32.715,33.691,-13.184,0
134542.858,58.594,37.598,20.508,55.176,64.941,0
134542.862,56.641,39.062,27.832,57.129,70.312,0
134542.866,16.602,30.273,39.062,19.043,-28.320,0
134542.870,7.324,27.344,39.551,6.348,-27.832,0
134542.874,45.410,31.250,32.715,32.715,70.312,0
134542.878,56.641,24.902,24.902,47.852,124.023,0
134542.881,30.273,20.020,36.621,32.227,53.711,0
134542.883,24.902,41.992,48.340,24.902,-29.785,0
134542.887,42.969,50.293,37.109,45.410,22.461,0
134542.891,59.570,41.504,32.227,58.594,65.430,0
134542.895,43.945,41.992,23.438,42.480,33.691,0
134542.899,18.555,31.250,16.602,20.508,-14.160,0
134542.903,33.203,21.973,34.180,31.250,-27.344,0
134542.907,47.363,28.809,42.969,45.410,7.812,0
134542.911,32.227,38.574,46.875,31.738,13.672,0
134542.915,15.137,35.156,42.969,13.672,-36.133,0
134542.919,30.762,22.949,37.109,24.414,-38.086,0
134542.922,52.734,38.086,33.691,45.410,6.836,0
134542.926,39.062,42.480,33.203,47.852,11.719,0
134542.928,16.602,38.086,41.504,29.297,7.324,0
134542.932,21.973,44.922,40.039,27.344,0.488,0
134542.936,56.152,42.480,35.645,51.758,14.160,0
134542.940,54.688,34.668,35.156,50.781,59.082,0
134542.944,21.484,31.738,31.738,28.809,49.316,0
134542.948,17.578,36.621,24.414,22.461,-18.555,0
134542.952,47.852,44.434,21.973,34.180,-4.883,0
134542.956,65.918,41.016,22.461,42.969,58.594,0
134542.960,29.297,37.598,34.180,30.762,50.781,0
134542.964,-0.977,32.715,40.039,13.184,-13.672,0
134542.968,28.809,26.855,37.109,23.926,6.836,0
134542.971,49.316,31.250,36.621,46.387,92.773,0
134542.975,43.457,33.203,34.180,41.992,77.637,0
134542.979,15.625,31.738,31.738,22.949,13.184,0
134542.983,12.207,34.668,30.273,26.855,-20.996,0
134542.987,41.992,36.621,31.250,44.434,18.555,0
134542.991,37.109,39.062,31.738,48.828,61.523,0
134542.995,17.578,45.410,27.832,32.227,14.160,0
134542.999,30.273,47.363,25.879,24.414,-17.578,0
134543.002,50.293,40.039,26.367,40.527,40.527,0
134543.006,42.969,38.574,29.785,52.246,83.496,0
134543.010,17.090,44.434,30.762,39.062,13.184,0
134543.014,3.906,40.039,28.320,25.391,-44.434,0
134543.018,33.203,31.738,31.738,43.457,-2.441,0
134543.034,52.246,31.250,35.156,61.523,45.898,0
134543.038,40.527,41.016,33.203,50.781,34.668,0
134543.041,39.551,30.762,31.738,25.879,-14.648,0
134543.045,53.711,12.695,43.457,37.109,-0.488,0
134543.049,70.312,41.504,47.852,70.312,59.082,0
134543.053,58.594,61.035,37.598,59.082,54.199,0
134543.057,6.836,47.363,30.273,15.625,0.977,0
134543.061,-3.906,46.387,34.180,2.930,9.277,0
134543.065,34.180,46.387,37.109,24.902,41.504,0
134543.069,49.805,40.527,35.156,36.621,54.688,0
134543.073,17.090,41.992,13.184,24.902,40.527,0
134543.077,11.719,35.645,3.418,20.020,14.160,0
134543.078,42.969,28.320,22.949,36.133,47.363,0
134543.082,47.363,27.832,35.645,46.875,80.566,0
134543.086,22.461,22.949,46.387,28.320,57.617,0
134543.090,6.836,27.832,49.316,9.766,3.906,0
134543.094,41.992,29.785,43.945,28.809,11.230,0
134543.098,61.523,11.719,39.062,53.223,55.176,0
134543.102,39.062,29.785,45.898,47.363,52.734,0
134543.106,20.996,47.363,41.016,24.902,40.039,0
134543.110,33.691,35.156,24.902,27.344,22.949,0
134543.114,63.477,41.016,25.391,50.293,57.129,0
134543.117,44.434,44.922,32.227,45.410,111.816,0
134543.121,5.371,40.527,35.645,18.066,11.230,0
134543.123,4.883,36.133,38.086,7.812,-71.777,0
134543.127,28.320,33.691,40.039,28.809,-25.391,0
134543.131,36.621,39.062,37.109,40.527,9.766,0
134543.135,13.672,39.062,31.250,21.973,-14.160,0
134543.139,3.418,33.203,29.785,9.766,-67.383,0
134543.143,21.484,27.832,26.367,30.762,-27.344,0
134543.147,28.320,26.855,20.508,46.875,46.875,0
134543.151,7.324,33.203,25.391,26.855,30.273,0
134543.155,-1.465,33.203,34.668,4.883,-52.246,0
134543.159,17.578,33.691,31.738,24.902,-40.527,0
134543.162,27.832,34.668,16.113,55.176,47.852,0
134543.166,18.066,42.969,11.230,52.246,28.320,0
134543.168,-5.371,44.434,26.855,23.926,-0.977,0
134543.172,0.488,38.086,38.574,18.066,2.441,0
134543.176,30.273,41.016,41.504,40.039,38.574,0
134543.180,32.715,36.621,42.480,42.480,54.688,0
134543.184,5.859,37.598,36.133,21.973,37.598,0
134543.188,3.418,42.480,31.738,17.090,15.137,0
134543.192,33.691,37.109,33.203,38.086,45.410,0
134543.196,42.480,40.039,35.645,49.316,17.090,0
134543.200,7.324,41.016,32.715,27.832,-46.875,0
134543.204,-3.906,39.062,27.344,17.578,0.000,0
134543.207,21.973,41.504,24.414,44.434,35.645,0
134543.211,30.762,40.039,25.391,59.570,66.406,0
134543.215,19.043,37.109,28.809,35.645,38.086,0
134543.219,4.883,27.344,32.715,17.090,-14.648,0
134543.223,21.484,32.715,31.250,29.785,-8.789,0
134543.226,47.363,41.992,30.762,45.898,59.082,0
134543.230,32.715,46.387,32.715,35.645,48.828,0
134543.234,12.207,47.852,30.273,19.043,-17.090,0
134543.238,26.367,45.410,31.250,22.949,-20.020,0
134543.242,48.340,42.480,34.180,40.527,-1.953,2
134543.246,47.852,41.992,32.715,41.992,21.484,0
134543.250,22.949,28.320,30.762,21.484,17.090,0
134543.254,20.996,32.715,35.156,22.461,-38.086,0
134543.258,55.176,49.805,35.645,46.387,14.648,0
134543.258,50.293,33.203,26.367,51.758,96.680,0
134543.262,17.090,31.738,23.926,34.180,37.109,0
134543.266,17.578,43.457,29.297,19.531,-44.434,0
134543.270,41.016,34.668,35.156,29.297,-33.691,0
134543.274,58.105,31.250,35.645,42.480,62.988,0
134543.278,38.574,36.133,38.574,32.715,59.082,0
134543.282,33.691,34.668,37.598,18.555,-26.367,0
134543.286,42.969,35.645,41.504,32.227,-50.293,0
134543.290,38.086,27.832,39.551,47.852,19.531,0
134543.294,36.133,22.949,32.715,36.621,36.133,0
134543.298,18.555,29.785,34.668,18.066,-45.898,0
134543.301,14.648,31.738,34.668,20.996,-56.641,0
134543.304,41.992,41.016,35.645,44.434,15.625,0
134543.307,45.898,45.898,34.668,47.363,68.359,0
134543.311,11.719,41.992,27.832,23.438,28.809,0
134543.315,12.695,45.410,36.133,16.602,-34.180,0
134543.319,50.293,48.828,49.316,42.480,14.160,0
134543.323,67.383,42.969,48.340,54.199,30.762,0
134543.327,41.992,35.156,39.551,25.391,-36.133,0
134543.331,16.602,35.156,34.668,11.719,-53.223,0
134543.335,32.715,37.109,32.715,32.715,-15.625,0
134543.339,68.359,41.992,35.156,55.176,33.203,0
134543.343,58.105,42.480,32.227,37.598,48.340,0
134543.347,22.949,27.832,26.855,13.672,5.371,0
134543.363,35.645,30.273,27.344,22.949,1.465,0
134543.367,58.594,43.457,29.785,36.621,45.898,0
134543.371,37.109,38.086,31.250,26.855,41.992,0
134543.375,5.859,32.715,34.180,4.395,9.766,0
134543.379,13.672,35.645,41.016,13.184,-7.812,0
134543.383,42.480,38.086,35.645,41.992,15.137,0
134543.387,38.574,36.621,31.738,45.410,21.484,0
134543.391,14.648,37.109,32.227,27.344,-20.020,0
134543.395,24.414,38.086,29.785,22.461,-64.453,0
134543.399,38.574,36.621,29.297,38.086,-44.922,0
134543.402,43.945,39.551,26.855,53.223,36.621,0
134543.406,26.367,40.039,27.344,35.645,45.410,0
134543.409,4.883,37.598,28.809,16.602,9.277,0
134543.413,44.434,41.992,35.156,34.180,39.062,0
134543.417,64.941,42.969,37.598,49.316,76.172,0
134543.421,32.715,45.898,32.227,31.250,61.523,0
134543.424,10.742,48.828,33.691,11.230,-11.230,0
134543.428,31.738,49.316,38.086,24.902,-33.203,0
134543.432,55.664,41.992,38.086,48.340,36.621,0
134543.436,42.969,35.645,30.762,37.598,75.195,0
134543.440,20.508,39.062,26.367,11.719,57.617,0
134543.444,30.762,37.598,27.832,10.742,12.695,0
134543.448,47.363,40.039,25.879,31.738,47.852,0
134543.452,49.805,41.992,25.879,38.574,123.047,0
134543.453,34.180,39.062,37.598,28.809,77.148,0
134543.457,18.555,40.039,40.039,23.438,21.484,0
134543.461,35.645,29.297,31.738,31.738,64.453,0
134543.465,47.852,26.367,25.879,39.062,121.582,0
134543.469,36.621,34.668,27.344,31.738,75.195,0
134543.473,17.578,38.086,21.973,24.414,-13.184,0
134543.477,32.227,37.598,17.090,29.785,-47.363,0
134543.481,66.406,33.691,20.996,48.828,33.203,0
134543.485,59.570,33.691,29.297,46.387,55.664,0
134543.489,24.902,28.320,36.133,20.020,-11.230,0
134543.492,8.301,23.926,33.691,6.348,1.953,0
134543.496,25.879,25.391,25.879,22.461,68.359,0
134543.499,30.273,34.180,23.438,25.879,86.914,0
134543.502,7.812,41.992,21.973,7.812,1.465,0
134543.506,16.113,46.387,21.973,13.184,-43.945,0
134543.510,43.945,46.875,34.180,36.133,-5.371,0
134543.514,52.246,43.457,42.480,39.551,18.555,0
134543.518,25.879,39.062,41.504,20.508,11.230,0
134543.522,11.719,37.598,37.109,13.672,-18.555,0
134543.526,44.922,34.668,34.180,34.180,0.488,0
134543.530,67.383,36.133,30.762,43.457,33.203,0
134543.534,47.363,42.480,29.785,24.414,31.738,0
134543.538,16.602,41.992,29.785,4.883,22.949,0
134543.542,24.902,39.062,29.785,13.672,26.855,0
134543.543,56.641,33.691,30.273,28.320,78.613,0
134543.547,45.410,30.273,33.691,22.461,79.102,0
134543.551,9.277,32.227,32.227,4.395,36.133,0
134543.555,16.602,33.691,30.762,6.348,9.277,0
134543.559,49.316,38.086,36.133,31.250,69.336,0
134543.563,48.828,38.086,34.180,35.645,123.535,0
134543.567,25.391,33.203,32.715,12.695,57.617,0
134543.571,27.344,32.227,30.762,8.301,-44.922,0
134543.575,47.363,29.297,28.320,25.391,-8.301,0
134543.579,56.152,29.297,33.691,38.086,61.035,0
134543.583,41.016,31.738,38.574,26.367,24.902,0
134543.586,14.648,35.156,38.574,11.719,-16.113,0
134543.588,23.438,34.668,37.598,28.809,6.836,0
134543.592,49.805,30.762,36.133,47.363,94.727,0
134543.596,31.738,28.809,33.691,31.738,76.660,0
134543.600,11.719,35.156,34.668,12.695,25.879,0
134543.604,31.250,40.039,30.762,20.508,62.012,0
134543.608,49.316,32.227,27.344,38.574,100.098,0
134543.612,32.227,29.297,27.344,37.109,82.520,0
134543.616,19.531,29.297,25.391,20.020,22.949,0
134543.620,28.809,28.320,20.508,13.184,0.977,0
134543.624,41.504,34.180,24.414,30.762,86.426,0
134543.627,48.340,39.551,35.645,45.898,125.977,0
134543.631,27.832,40.039,37.598,28.320,57.129,0
134543.633,24.902,35.156,37.109,22.461,12.695,0
134543.637,45.898,29.297,35.156,41.992,75.195,0
134543.641,51.270,29.297,32.715,50.781,120.605,0
134543.645,33.203,37.598,33.203,37.598,47.363,0
134543.649,17.090,34.180,27.832,20.508,-13.184,0
134543.653,35.645,21.484,22.461,30.273,43.945,0
134543.657,56.641,34.668,29.297,47.852,69.336,0
134543.661,38.574,47.852,33.691,35.645,33.203,0
134543.665,15.625,41.504,34.180,17.578,-9.277,0
134543.669,24.902,36.133,35.645,22.461,-7.324,0
134543.673,54.199,40.527,32.715,46.875,70.312,0
134543.676,54.688,41.992,34.668,51.758,122.070,2
134543.680,30.273,40.039,41.992,28.320,76.172,0
134543.684,29.785,41.016,37.598,26.367,58.105,0
134543.688,59.082,39.551,29.297,48.340,63.477,0
134543.691,66.895,27.832,30.762,57.617,92.285,0
134543.695,38.086,26.855,33.691,35.645,86.914,0
134543.699,25.879,49.805,36.621,20.508,41.992,0
134543.703,37.598,50.781,32.715,33.691,64.453,0
134543.707,45.410,38.086,24.414,48.340,110.840,0
134543.711,26.367,35.645,19.043,32.715,102.051,0
134543.715,11.719,26.367,23.438,7.324,26.367,0
134543.719,31.738,25.391,37.109,19.531,15.625,0
134543.723,47.852,26.367,39.062,39.551,51.270,0
134543.739,39.062,26.367,38.574,35.645,67.383,0
134543.742,22.949,29.785,36.133,20.996,19.531,0
134543.746,23.926,16.113,21.484,22.461,-11.230,0
134543.750,52.734,23.438,8.301,39.551,82.520,0
134543.754,50.781,42.480,22.949,42.480,122.070,0
134543.758,15.625,41.992,42.969,20.020,63.477,0
134543.762,20.508,43.457,43.457,13.672,0.977,0
134543.766,48.340,40.527,37.598,34.668,64.453,0
134543.770,57.129,39.551,41.992,43.945,126.953,0
134543.774,39.551,41.992,47.852,30.762,67.383,0
134543.778,27.344,40.039,43.945,17.090,24.414,0
134543.782,49.805,37.598,38.086,27.832,61.523,0
134543.783,59.570,39.551,35.645,48.340,114.258,0
134543.787,29.785,39.062,32.715,37.598,72.266,0
134543.791,8.301,38.086,28.320,14.160,41.016,0
134543.795,26.367,33.691,32.227,21.484,56.641,0
134543.799,53.711,31.738,36.133,44.922,81.543,0
134543.803,37.598,41.016,36.621,41.992,110.352,0
134543.807,9.766,43.457,43.945,22.949,35.156,0
134543.811,17.090,42.480,46.387,24.414,12.207,0
134543.815,36.621,31.250,38.086,40.039,97.656,0
134543.819,26.367,20.020,30.762,40.039,77.637,0
134543.822,-1.465,31.738,29.785,16.602,11.719,0
134543.826,-1.465,42.969,34.668,6.836,12.207,0
134543.829,28.809,40.527,36.133,24.902,3.418,0
134543.832,43.457,35.645,31.738,31.738,26.855,0
134543.836,18.066,36.621,30.273,15.137,29.785,0
134543.840,11.230,38.574,35.156,6.836,-12.695,0
134543.844,35.156,41.504,41.504,27.344,7.812,0
134543.848,38.574,32.227,41.504,40.527,48.340,0
134543.852,22.461,22.461,34.180,22.949,18.555,0
134543.856,3.906,34.668,26.367,4.395,-51.270,0
134543.860,16.602,43.457,26.855,18.555,-68.848,0
134543.864,46.875,38.574,37.109,45.410,-1.953,0
134543.868,29.785,32.715,35.156,38.086,63.965,0
134543.872,3.906,35.645,25.391,14.160,46.387,0
134543.874,9.277,41.016,28.809,15.625,4.395,0
134543.877,28.809,41.016,31.250,40.527,14.160,0
134543.881,34.180,41.016,29.297,44.434,43.457,0
134543.885,6.348,43.945,36.133,20.020,7.324,0
134543.889,2.930,40.039,47.363,15.625,-26.855,0
134543.893,30.762,36.133,46.387,32.715,5.371,0
134543.897,38.086,34.668,40.527,39.551,58.594,0
134543.901,17.578,28.320,39.551,25.391,43.457,0
134543.905,7.324,31.738,41.504,11.719,-46.387,0
134543.909,23.926,43.457,41.504,24.414,-29.785,0
134543.913,39.551,47.363,34.668,47.363,68.848,0
134543.917,26.855,47.852,31.738,39.062,93.262,0
134543.920,8.789,40.039,33.691,15.137,24.414,0
134543.924,23.438,43.945,37.109,24.902,0.000,0
134543.928,48.340,52.246,36.133,46.387,58.105,0
134543.931,41.016,44.434,31.250,42.969,55.176,0
134543.935,13.184,40.039,32.227,20.996,-25.879,0
134543.939,20.508,38.574,37.598,16.602,-40.527,0
134543.943,50.781,32.227,38.086,37.598,26.855,0
134543.947,45.898,29.785,31.250,46.875,42.480,0
134543.951,6.836,33.203,28.809,22.461,-3.418,0
134543.955,-2.930,33.203,28.809,6.348,29.297,0
134543.959,26.855,33.203,28.809,25.879,65.430,0
134543.963,32.715,36.621,30.762,36.621,74.219,0
134543.964,16.113,36.621,29.785,21.973,75.684,0
134543.967,17.090,33.203,25.391,7.324,22.461,0
134543.971,44.922,30.762,21.973,20.508,22.461,0
134543.975,52.246,30.762,25.879,40.039,97.656,0
134543.979,21.484,28.809,32.715,36.621,97.656,0
134543.983,0.977,26.855,34.180,17.578,-14.648,0
134543.987,21.973,30.762,31.250,17.578,-33.203,0
134543.991,46.875,27.832,30.762,41.016,15.625,0
134543.995,43.457,32.715,32.715,40.527,61.035,0
134543.999,24.414,48.340,32.227,17.578,32.227,0
134544.003,20.996,46.875,20.996,14.160,-11.230,0
134544.006,45.898,37.109,22.461,34.180,45.410,0
134544.008,54.688,36.133,33.203,40.039,88.867,0
134544.012,35.645,43.457,36.621,22.461,39.551,0
134544.016,23.926,48.340,44.434,17.090,-27.344,0
134544.020,36.621,48.340,45.898,38.086,4.883,0
134544.024,41.016,38.574,37.109,52.734,84.473,0
134544.028,23.438,35.156,36.621,44.922,80.078,0
134544.032,19.043,39.062,45.898,33.691,-7.324,0
134544.036,33.203,31.738,44.922,30.762,-57.129,0
134544.040,41.016,20.996,33.203,34.180,20.996,0
134544.044,20.508,33.691,27.344,25.879,65.430,0
134544.048,2.441,48.340,21.973,9.277,5.371,0
134544.051,24.414,52.246,19.043,14.160,-60.547,0
134544.053,46.387,49.805,26.855,32.715,-4.883,0
134544.057,30.273,41.016,36.621,28.809,47.852,0
134544.061,10.254,40.527,38.086,11.719,-21.973,0
134544.065,8.301,40.527,31.738,6.348,-61.035,0
134544.069,28.809,37.598,24.902,26.367,-3.418,0
134544.073,42.480,33.691,35.156,45.898,29.297,0
134544.077,24.414,28.320,45.898,25.391,-2.930,0
134544.081,13.672,40.039,45.410,16.602,-46.875,0
134544.085,38.086,44.434,39.062,36.621,11.230,0
134544.089,51.758,25.391,27.832,40.039,80.078,0
134544.093,25.391,34.180,24.902,25.879,38.574,0
134544.096,4.395,48.828,33.691,15.625,-6.836,0
134544.114,16.113,38.574,31.738,20.996,28.320,2
134544.117,40.527,31.738,17.578,33.203,62.012,0
134544.121,35.156,36.621,21.973,28.809,54.688,0
134544.125,9.277,33.691,28.809,6.836,38.086,0
134544.129,19.531,33.691,26.367,3.418,16.113,0
134544.133,50.293,42.969,29.785,35.645,44.434,0
134544.137,45.410,39.062,28.320,42.969,61.035,0
134544.141,16.602,28.809,24.414,13.672,34.180,0
134544.145,14.160,27.344,22.949,9.277,13.672,0
134544.149,43.457,34.668,21.484,30.762,47.363,0
134544.153,59.082,34.668,21.484,44.922,71.777,0
134544.156,24.902,31.250,24.414,32.227,66.895,0
134544.158,5.371,32.715,28.809,16.602,20.996,0
134544.162,30.273,43.457,31.738,29.785,-5.859,0
134544.166,45.898,47.852,20.020,47.363,31.738,0
134544.170,32.227,36.133,14.160,38.086,32.227,0
134544.174,6.836,32.715,26.855,12.207,-40.527,0
134544.178,13.672,38.086,32.715,12.207,-47.852,0
134544.182,35.156,42.480,27.832,38.086,52.734,0
134544.186,32.715,41.504,14.648,37.598,95.215,0
134544.190,11.230,26.855,24.414,17.090,7.324,0
134544.194,20.508,25.879,43.945,14.160,-49.805,0
134544.198,42.480,44.922,39.062,23.926,13.672,0
134544.201,42.969,59.570,44.434,44.922,65.430,0
134544.204,28.320,57.617,50.293,37.598,5.859,0
134544.207,3.906,29.297,30.762,7.324,-31.250,0
134544.211,19.043,14.648,20.996,9.277,18.066,0
134544.215,36.133,19.043,23.926,19.531,76.172,0
134544.219,16.113,24.414,30.273,12.695,31.250,0
134544.223,5.859,24.902,27.344,4.883,-39.062,0
134544.227,26.855,22.461,21.973,19.531,-11.719,0
134544.231,53.223,28.320,24.902,40.527,26.367,0
134544.235,40.039,33.691,30.762,36.133,5.859,0
134544.239,2.930,32.227,35.156,10.742,-60.059,0
134544.243,17.578,37.109,40.527,15.625,-27.832,0
134544.247,51.758,40.039,37.598,44.434,65.918,0
134544.248,42.969,40.039,25.879,35.645,79.102,0
134544.252,16.113,42.480,28.320,10.742,46.387,0
134544.256,16.602,36.133,26.367,7.324,13.672,0
134544.260,41.504,31.250,15.625,32.227,38.086,0
134544.264,43.945,35.645,17.578,38.574,43.945,0
134544.268,7.324,27.832,23.438,13.184,18.555,0
134544.272,6.348,22.949,26.367,6.836,-10.742,0
134544.276,40.039,22.461,32.227,32.227,-14.648,0
134544.280,45.410,23.438,33.203,44.434,10.742,0
134544.284,26.855,33.691,25.879,23.926,-5.371,0
134544.287,10.254,38.574,20.508,7.812,-4.883,0
134544.291,31.250,38.574,26.855,20.508,34.180,0
134544.294,66.406,34.668,28.809,40.527,133.301,0
134544.297,50.781,35.156,31.250,33.691,121.094,0
134544.301,13.672,39.551,42.969,16.113,28.809,0
134544.305,22.949,35.156,39.062,18.066,-2.930,0
134544.309,53.711,28.809,36.133,38.086,11.719,0
134544.313,52.734,28.320,34.180,37.598,48.828,0
134544.317,21.484,22.949,28.809,16.602,-0.488,0
134544.321,10.254,19.043,26.367,12.207,-47.363,0
134544.325,33.691,23.438,17.578,26.367,0.488,0
134544.329,46.875,30.762,19.043,39.551,49.805,0
134544.333,22.461,31.738,27.832,27.832,28.320,0
134544.336,16.113,32.715,23.926,10.742,-36.133,0
134544.338,32.227,26.855,15.137,19.531,2.441,0
134544.342,38.086,21.973,16.602,38.086,96.191,0
134544.346,23.926,25.391,20.996,25.391,95.703,0
134544.350,11.719,25.391,21.973,2.441,18.066,0
134544.354,27.344,29.297,18.555,14.160,21.484,0
134544.358,52.246,26.855,13.184,37.598,92.285,0
134544.362,48.340,24.902,20.508,39.062,111.816,0
134544.366,21.973,37.109,24.414,16.113,44.922,0
134544.370,27.344,41.504,19.531,10.254,-11.230,0
134544.374,52.734,30.273,20.996,31.250,46.875,0
134544.377,51.758,29.297,29.785,40.039,62.012,0
134544.381,27.344,33.203,35.645,24.902,16.602,0
134544.385,19.043,26.367,28.320,15.625,-10.742,0
134544.389,37.598,26.367,19.043,32.227,35.645,0
134544.393,47.363,22.461,24.414,46.387,62.988,0
134544.396,29.297,19.043,27.832,30.273,35.156,0
134544.400,20.020,30.762,26.367,10.742,9.766,0
134544.404,38.574,37.598,24.414,22.949,44.922,0
134544.408,57.129,38.574,25.391,45.898,66.406,0
134544.412,38.086,43.457,25.879,37.109,2.930,0
134544.416,15.137,41.016,25.391,20.020,20.996,0
134544.420,31.250,32.715,18.066,23.438,44.922,0
134544.424,55.176,30.273,18.066,37.109,70.312,0
134544.428,45.410,39.062,30.762,38.086,79.590,0
134544.429,20.996,44.922,34.668,19.531,29.785,0
134544.433,26.855,39.551,30.273,16.602,1.465,0
134544.437,48.828,33.203,22.949,32.227,25.391,0
134544.441,57.129,29.297,22.949,39.062,82.520,0
134544.445,27.832,31.250,23.926,19.531,30.762,0
134544.449,10.742,29.785,22.461,4.883,-34.668,0
134544.453,28.809,28.320,21.973,29.297,29.785,0
134544.456,34.180,33.203,18.066,42.969,113.770,0
134544.460,20.020,27.832,15.625,23.926,118.164,0
134544.464,11.719,28.809,23.926,11.719,61.523,0
134544.468,35.156,34.668,34.180,20.020,76.172,0
134544.472,64.941,38.086,35.156,38.086,123.535,0
134544.473,54.688,37.598,30.273,28.320,106.445,0
134544.477,21.484,34.180,28.320,8.789,34.668,0
134544.481,29.785,34.180,22.461,19.531,1.465,0
134544.485,52.734,30.762,21.484,38.086,72.754,0
134544.489,40.527,26.855,23.438,34.180,116.699,0
134544.493,18.066,29.297,25.391,16.602,30.762,0
134544.497,15.625,34.668,28.809,11.719,-13.184,0
134544.501,36.133,35.156,21.484,27.344,62.500,0
134544.505,38.574,34.668,23.926,39.551,75.684,0
134544.509,6.836,33.691,33.203,18.555,14.160,0
134544.513,-0.488,31.738,38.574,2.441,12.207,0
134544.516,25.879,31.250,38.574,19.531,54.688,0
134544.534,36.621,27.344,29.785,33.691,96.191,0
134544.537,18.555,23.438,29.297,25.879,66.406,0
134544.541,8.789,28.809,33.691,11.230,17.578,0
134544.545,31.250,39.062,36.133,18.555,39.062,0
134544.549,50.293,39.551,38.086,43.457,86.426,0
134544.553,37.109,39.062,35.645,38.086,71.777,0
134544.557,22.461,40.527,32.715,14.648,10.254,0
134544.561,27.344,38.574,31.250,15.137,6.348,2
134544.565,37.598,33.203,28.320,34.668,80.078,0
134544.569,38.574,34.180,30.273,42.480,90.820,0
134544.573,12.695,37.598,26.367,23.926,27.344,0
134544.577,5.371,38.574,24.902,18.555,-11.230,0
134544.579,20.996,38.574,30.273,34.180,-13.672,0
134544.582,30.762,34.668,33.691,36.621,40.039,0
134544.586,19.531,40.527,33.203,22.949,56.152,0
134544.590,13.184,39.551,34.180,14.160,29.785,0
134544.594,32.227,29.785,36.621,26.855,29.785,0
134544.598,49.316,33.203,27.832,44.922,61.035,0
134544.602,35.156,37.109,22.461,31.738,82.031,0
134544.606,19.043,43.945,28.809,16.602,37.598,0
134544.610,24.414,43.945,33.203,23.438,37.109,0
134544.614,41.992,31.738,29.297,31.250,86.914,0
134544.618,36.621,32.715,28.809,26.367,124.023,0
134544.622,6.348,38.574,32.227,6.836,55.664,0
134544.623,15.137,38.574,29.297,9.766,-12.207,0
134544.627,48.828,36.133,25.391,31.738,57.129,0
134544.631,44.434,40.039,24.902,32.715,103.516,0
134544.635,21.973,43.457,25.879,20.996,52.734,0
134544.639,18.555,39.551,19.531,19.043,5.371,0
134544.643,38.574,36.621,12.695,31.738,16.602,0
134544.647,57.129,42.480,28.809,40.527,59.082,0
134544.651,30.762,47.852,41.016,25.879,17.578,0
134544.655,2.441,41.504,37.109,0.977,-45.410,0
134544.659,16.602,34.180,35.156,3.418,-18.555,0
134544.663,40.039,32.227,37.109,24.902,65.430,0
134544.666,29.297,37.598,39.062,22.949,66.895,0
134544.668,3.906,40.527,35.645,7.812,-3.906,0
134544.672,12.695,39.551,22.949,15.625,23.926,0
134544.676,40.527,37.598,21.484,41.504,89.844,0
134544.680,38.086,32.715,29.785,45.410,45.410,0
134544.684,3.906,29.297,34.180,21.484,-30.762,0
134544.688,-2.930,25.879,45.898,15.137,-19.531,0
134544.692,25.391,21.484,44.922,35.156,65.430,0
134544.696,26.367,20.996,34.180,31.738,104.492,0
134544.700,0.000,24.414,32.715,10.254,42.969,0
134544.704,-3.418,28.809,27.344,10.254,10.254,0
134544.708,21.484,31.250,21.973,25.879,47.852,0
134544.711,30.762,30.273,32.715,30.762,80.078,0
134544.714,6.348,32.715,43.945,14.648,11.719,0
134544.717,-9.277,36.621,46.387,0.488,-75.684,0
134544.721,11.719,32.715,43.945,11.719,-51.758,0
134544.725,35.156,26.855,44.922,28.809,28.809,0
134544.729,19.043,26.367,41.016,25.879,52.734,0
134544.733,-5.859,31.738,38.086,10.254,16.602,0
134544.737,4.395,35.156,41.992,16.602,15.625,0
134544.741,24.414,31.738,35.645,31.738,-17.090,0
134544.745,14.648,28.809,27.344,26.855,-36.621,0
134544.749,-5.371,25.391,27.344,12.695,-8.301,0
134544.753,-8.301,22.461,26.855,7.324,-24.414,0
134544.757,14.648,25.391,38.086,27.832,10.742,0
134544.759,30.273,35.645,44.434,45.898,97.168,0
134544.763,3.418,29.785,29.297,26.367,45.410,0
134544.767,-8.301,17.090,33.203,9.766,-31.738,0
134544.771,8.789,20.508,33.203,27.832,13.184,0
134544.775,19.043,31.738,16.602,49.805,75.195,0
134544.778,2.930,35.156,21.484,32.227,41.504,0
134544.782,-16.113,34.180,34.668,4.883,-38.574,0
134544.786,0.977,36.621,36.133,8.301,-59.570,0
134544.790,21.973,33.203,34.668,27.832,26.855,0
134544.794,13.184,33.203,36.621,28.320,41.016,0
134544.798,-9.766,34.180,38.086,7.812,-45.410,0
134544.802,-4.395,29.297,35.645,5.859,-37.109,0
134544.804,22.949,31.738,32.227,29.297,41.504,0
134544.808,24.414,31.250,28.809,40.039,106.445,0
134544.812,-0.488,28.320,27.832,19.043,59.082,0
134544.816,-0.977,28.809,34.668,13.672,-22.949,0
134544.820,31.250,28.320,43.457,49.316,34.180,0
134544.824,37.109,33.203,43.945,57.129,101.562,0
134544.827,4.395,45.410,34.668,16.113,42.480,0
134544.831,-2.930,54.199,28.320,3.418,-11.230,0
134544.835,20.508,45.410,30.273,21.973,18.066,0
134544.839,25.391,37.598,34.180,38.086,46.387,0
134544.843,14.160,37.109,39.551,39.551,33.691,0
134544.847,3.906,35.645,35.156,25.391,-2.930,0
134544.850,21.973,36.133,29.785,29.785,-7.324,0
134544.854,50.781,37.598,32.715,50.781,65.918,0
134544.858,50.781,39.551,33.203,47.852,98.633,0
134544.862,33.203,47.363,29.297,29.785,44.434,0
134544.866,31.738,47.363,31.250,22.949,-6.836,0
134544.870,44.434,41.992,34.668,36.621,12.207,0
134544.874,41.016,39.551,31.250,42.969,26.855,0
134544.878,20.020,32.227,28.809,20.020,-19.043,0
134544.882,13.672,30.762,22.461,8.301,-60.059,0
134544.886,32.715,31.738,18.555,21.484,-43.457,0
134544.890,41.992,30.273,26.855,28.320,5.371,0
134544.893,23.438,35.645,33.203,18.555,-15.137,0
134544.909,12.695,42.480,33.203,2.441,-48.828,0
134544.912,26.855,32.715,32.715,18.066,-11.230,0
134544.916,49.805,20.508,33.691,53.711,34.180,0
134544.920,35.645,29.785,30.762,32.715,9.277,0
134544.924,-0.977,38.574,23.438,-5.859,-63.477,0
134544.928,11.230,37.598,20.508,3.418,-110.352,0
134544.932,35.156,39.062,24.414,26.855,-17.578,0
134544.936,22.949,37.598,29.785,26.855,38.574,0
134544.940,0.000,34.180,31.738,13.184,-31.250,0
134544.944,8.789,35.645,30.762,17.090,-53.711,0
134544.948,40.527,32.715,28.320,36.621,-14.160,0
134544.951,49.316,31.738,27.832,40.039,38.574,0
134544.953,31.250,33.203,29.785,24.902,51.758,0
134544.957,21.973,32.715,28.320,16.113,38.574,0
134544.961,44.434,41.992,20.508,28.320,43.945,0
134544.965,59.082,43.945,18.555,40.527,62.500,0
134544.969,43.945,39.062,26.855,27.832,27.344,0
134544.973,23.926,39.551,33.203,10.742,-7.812,0
134544.977,31.250,41.992,30.762,20.508,34.180,0
134544.981,54.688,39.551,18.066,40.039,110.840,0
134544.985,40.527,38.086,7.324,31.738,73.730,0
134544.989,14.160,43.945,20.020,11.230,-32.227,0
134544.993,25.879,48.340,25.391,14.648,-12.695,0
134544.996,51.270,39.062,21.484,32.715,43.945,0
134544.999,43.457,33.691,36.133,30.762,34.180,0
134545.003,17.578,35.645,44.922,11.230,-2.441,0
134545.007,20.020,32.715,43.945,7.812,-15.625,0
134545.010,47.363,34.668,41.992,30.273,11.719,0
134545.014,54.688,43.457,38.086,44.434,31.738,0
134545.018,25.391,37.598,31.250,27.344,16.113,0
134545.022,14.648,37.598,31.738,15.625,-24.414,0
134545.026,39.062,43.457,32.227,33.691,16.602,0
134545.030,50.781,36.133,24.902,45.898,48.340,0
134545.034,25.879,33.203,30.762,32.227,19.043,0
134545.038,6.836,31.738,41.016,15.625,22.949,0
134545.042,23.438,29.785,40.039,22.461,17.090,0
134545.043,45.410,33.203,33.691,36.133,52.734,2
134545.047,40.039,35.156,30.273,27.344,90.332,0
134545.051,13.672,37.598,22.461,10.254,72.754,0
134545.055,20.020,42.969,5.859,15.625,69.824,0
134545.059,50.293,38.574,7.812,31.738,103.027,0
134545.063,42.480,33.203,31.738,26.855,92.773,0
134545.067,14.648,37.598,54.199,9.277,51.758,0
134545.071,13.672,36.133,56.152,8.789,21.484,0
134545.075,33.691,34.180,45.898,25.391,54.688,0
134545.079,39.551,38.574,45.410,32.227,106.934,0
134545.082,18.555,40.527,51.270,14.648,76.172,0
134545.086,4.883,40.527,44.434,-0.488,32.227,0
134545.090,25.879,41.016,38.574,14.160,40.039,0
134545.094,41.992,41.504,25.879,31.738,124.512,0
134545.098,25.879,37.109,12.207,25.879,111.816,0
134545.101,10.254,39.062,24.902,13.672,24.902,0
134545.105,20.996,41.504,35.645,17.578,26.367,0
134545.109,37.598,32.227,37.109,29.297,92.285,0
134545.113,30.762,30.762,36.621,23.438,85.449,0
134545.117,6.836,34.668,41.992,2.441,16.602,0
134545.121,9.277,30.273,38.574,0.977,-14.648,0
134545.125,37.598,29.785,28.320,17.578,61.035,0
134545.129,42.969,33.203,23.926,19.043,102.051,0
134545.133,17.090,34.180,20.996,-0.977,35.645,0
134545.134,12.207,36.133,21.973,-6.836,-9.277,0
134545.137,42.480,38.574,18.555,16.113,41.016,0
134545.141,58.105,40.039,20.996,35.156,91.309,0
134545.145,30.273,41.016,29.297,20.020,61.523,0
134545.149,6.836,42.480,32.227,0.488,3.418,0
134545.153,25.879,34.180,31.250,11.719,1.465,0
134545.157,48.340,30.762,26.367,33.203,56.152,0
134545.161,31.738,37.598,23.926,24.414,57.129,0
134545.165,0.000,35.645,23.438,-0.977,5.859,0
134545.169,8.789,36.621,21.484,1.465,-6.348,0
134545.173,32.715,35.156,23.438,22.461,42.480,0
134545.176,30.762,30.273,23.926,23.926,91.309,0
134545.178,15.137,30.762,22.949,11.230,43.945,0
134545.182,17.578,29.297,24.902,9.277,25.391,0
134545.186,30.273,21.484,28.809,19.043,71.289,0
134545.190,33.203,17.578,30.273,28.320,103.027,0
134545.194,18.555,21.484,23.926,19.531,43.457,0
134545.198,7.812,18.066,15.625,4.883,-13.184,0
134545.202,35.645,14.648,22.949,23.926,-3.906,0
134545.206,48.828,27.344,32.715,39.062,51.758,0
134545.210,21.484,29.785,39.062,20.508,43.457,0
134545.214,5.371,23.438,40.527,7.812,-34.180,0
134545.218,25.391,27.344,40.039,17.578,-20.020,0
134545.221,50.781,30.762,37.109,36.133,21.973,0
134545.224,36.133,37.109,32.715,36.621,30.762,0
134545.227,4.395,40.527,31.250,17.090,-32.715,0
134545.231,9.766,31.250,29.297,14.160,-65.430,0
134545.235,30.762,24.414,30.273,31.738,54.199,0
134545.239,26.367,24.414,30.762,36.133,93.750,0
134545.243,3.418,22.949,33.203,17.090,-7.812,0
134545.247,1.953,20.508,38.086,12.207,-25.879,0
134545.251,26.855,21.484,35.156,27.832,43.457,0
134545.255,31.738,23.438,25.391,33.203,74.707,0
134545.259,5.859,23.438,26.367,17.578,4.395,0
134545.263,-4.883,18.066,34.180,4.395,-21.484,0
134545.267,20.508,19.043,34.180,20.508,20.996,0
134545.283,41.016,24.902,32.227,40.039,48.340,0
134545.287,20.508,22.461,30.762,25.879,50.781,0
134545.291,-4.395,17.578,31.738,5.859,-6.836,0
134545.295,11.719,19.531,33.691,17.090,7.324,0
134545.299,37.109,23.438,33.203,36.621,81.055,0
134545.303,27.344,23.926,36.133,32.227,96.680,0
134545.307,7.324,23.926,30.762,10.254,49.316,0
134545.311,19.043,30.273,19.531,10.742,27.344,0
134545.315,41.504,30.273,18.066,32.227,67.871,0
134545.319,34.668,32.227,27.344,34.668,66.895,0
134545.322,15.137,39.551,38.086,17.090,1.465,0
134545.326,12.695,32.227,41.016,7.812,0.488,0
134545.328,32.715,24.902,32.715,29.297,29.297,0
134545.332,44.434,26.367,25.391,43.945,22.461,0
134545.336,22.949,28.320,29.297,21.484,0.488,0
134545.340,7.812,31.250,38.574,7.324,-29.297,0
134545.344,28.320,32.715,39.551,18.555,-3.418,0
134545.348,44.922,33.203,31.738,35.645,61.523,0
134545.352,27.832,35.156,25.391,27.832,60.547,0
134545.356,10.254,33.691,22.949,8.301,28.809,0
134545.360,31.738,35.645,23.438,13.184,22.461,0
134545.364,44.922,36.133,22.461,31.738,86.914,0
134545.367,24.414,37.109,24.902,29.297,127.441,0
134545.371,3.906,39.551,26.367,10.254,65.430,0
134545.373,11.230,39.551,26.367,7.324,6.836,0
134545.377,42.969,37.109,23.438,33.691,57.617,0
134545.381,47.363,34.668,18.555,41.504,116.211,0
134545.385,20.508,36.133,20.996,15.137,44.434,0
134545.389,12.695,37.109,20.996,6.348,-29.785,0
134545.393,36.133,35.645,20.020,29.297,-28.320,0
134545.397,40.527,29.785,21.484,42.969,31.250,0
134545.401,19.531,30.762,21.484,24.902,19.043,0
134545.405,6.836,36.133,26.367,13.184,-63.965,0
134545.409,16.113,37.598,17.090,29.785,-40.527,0
134545.413,30.273,32.715,10.254,47.363,50.293,0
134545.416,14.648,27.344,26.367,35.156,35.645,0
134545.418,-6.348,34.668,39.062,12.207,-47.363,0
134545.422,8.301,41.016,38.086,17.578,-41.504,0
134545.426,33.203,35.156,33.203,38.086,25.879,0
134545.430,29.297,29.785,35.645,36.133,39.062,0
134545.434,-1.465,31.738,37.109,14.160,-51.270,0
134545.438,-9.766,33.203,35.645,9.766,-97.168,0
134545.442,17.090,29.297,34.180,28.320,18.066,0
134545.446,20.996,33.691,25.391,34.180,56.641,0
134545.450,-9.766,41.504,20.020,15.625,-29.785,0
134545.454,-16.602,35.645,22.461,10.254,-24.902,0
134545.458,15.625,31.250,23.926,36.621,66.406,0
134545.461,23.438,40.527,26.367,44.922,110.352,0
134545.463,-4.883,46.875,25.879,19.043,45.898,2
134545.467,-19.043,44.922,22.949,-0.488,-23.926,0
134545.471,-5.859,36.621,26.367,9.277,-5.859,0
134545.475,6.836,28.809,30.273,31.250,33.691,0
134545.479,4.395,32.227,30.762,28.809,28.320,0
134545.483,-10.742,34.668,31.250,7.324,4.395,0
134545.487,-4.395,35.156,25.391,7.812,2.930,0
134545.491,17.090,35.156,12.695,26.855,38.574,0
134545.495,19.531,37.598,15.625,23.926,74.219,0
134545.499,-6.348,39.551,31.738,4.395,45.898,0
134545.502,-18.066,33.203,35.156,0.488,3.418,0
134545.506,5.371,34.180,34.180,19.043,17.090,0
134545.508,15.137,39.062,30.273,30.273,68.359,0
134545.512,-8.301,34.180,23.438,15.625,83.496,0
134545.516,-21.973,29.785,26.855,2.441,53.711,0
134545.520,12.695,29.785,25.391,16.113,55.176,0
134545.524,34.180,36.621,20.020,27.832,79.590,0
134545.528,10.254,36.621,29.297,18.066,55.176,0
134545.532,-11.230,32.227,39.062,3.418,6.836,0
134545.536,-0.977,30.762,36.133,5.371,3.418,0
134545.540,21.973,30.273,29.297,20.996,56.641,0
134545.544,16.602,30.273,28.809,21.973,40.527,0
134545.547,-2.930,31.738,34.668,2.930,-24.902,0
134545.551,3.418,31.250,38.574,-0.977,-14.160,0
134545.555,25.391,24.414,33.203,19.531,50.781,0
134545.559,38.086,23.926,28.809,29.785,78.613,0
134545.563,20.020,28.809,30.762,9.766,26.855,0
134545.566,0.488,23.926,30.273,0.488,-10.254,0
134545.570,20.508,20.996,27.344,20.996,35.645,0
134545.574,34.180,24.414,27.832,31.250,88.379,0
134545.578,16.113,31.250,32.227,17.578,45.898,0
134545.582,-1.465,32.715,33.203,2.930,0.000,0
134545.586,20.508,27.832,29.785,16.602,53.223,0
134545.590,42.969,31.738,30.762,36.621,95.215,0
134545.594,28.809,28.809,24.414,22.949,54.688,0
134545.598,9.277,26.855,19.531,4.883,0.977,0
134545.599,23.438,25.391,31.738,15.137,8.789,0
134545.602,45.898,19.531,35.156,35.156,48.340,0
134545.606,34.668,21.973,34.180,32.227,68.848,0
134545.610,19.043,24.902,36.621,16.602,10.254,0
134545.614,20.020,24.414,36.621,18.066,11.230,0
134545.618,37.109,25.879,35.645,35.156,53.711,0
134545.622,41.992,32.227,36.133,40.039,79.590,0
134545.626,20.996,34.180,31.250,17.090,76.660,0
134545.630,13.672,33.691,25.391,0.488,60.059,0
134545.634,40.039,32.715,24.414,19.531,50.293,0
134545.638,54.199,26.367,19.043,37.598,56.641,0
134545.641,32.227,25.391,17.090,24.414,87.891,0
134545.659,14.160,29.297,22.949,7.324,31.738,0
134545.663,33.691,35.645,30.762,20.996,35.156,0
134545.667,51.758,32.715,30.762,40.527,127.930,0
134545.671,32.227,25.391,29.297,33.203,93.750,0
134545.675,13.672,25.879,34.668,11.719,6.836,0
134545.679,29.785,28.320,31.250,9.277,-6.836,0
134545.682,52.734,33.691,22.461,26.367,49.316,0
134545.686,49.805,33.203,20.996,29.297,81.543,0
134545.690,16.113,26.367,18.066,7.324,32.227,0
134545.694,8.301,27.832,17.090,2.441,-35.645,0
134545.698,40.039,28.809,20.020,20.996,26.367,0
134545.702,44.434,26.855,18.555,25.879,104.004,0
134545.703,24.902,26.367,20.020,12.695,43.945,0
134545.707,20.508,25.391,13.672,6.836,-17.578,0
134545.711,39.551,26.367,1.465,23.926,24.902,0
134545.715,53.711,24.414,15.625,35.156,84.961,0
134545.719,33.691,32.715,33.203,23.438,40.527,0
134545.723,11.230,38.086,28.809,8.301,-32.227,0
134545.727,25.879,27.344,26.367,12.695,-14.160,0
134545.731,48.828,21.484,27.344,33.203,86.426,0
134545.735,37.109,22.461,27.832,30.273,123.535,0
134545.739,13.672,25.391,28.809,8.789,32.715,0
134545.743,25.391,27.344,28.320,12.695,35.156,0
134545.746,50.293,28.809,31.250,36.621,127.930,0
134545.748,41.504,33.203,25.879,40.527,147.461,0
134545.752,18.555,38.086,21.484,19.043,114.746,0
134545.756,23.926,39.551,25.391,9.766,84.961,0
134545.760,48.828,34.180,20.508,28.320,106.445,0
134545.764,51.758,34.180,20.508,37.598,109.863,0
134545.768,28.320,39.551,27.832,23.926,40.039,0
134545.772,17.578,37.109,25.879,10.742,-24.902,0
134545.776,40.039,31.738,22.949,20.020,-3.418,0
134545.780,54.688,28.809,26.367,36.133,51.270,0
134545.784,37.598,31.738,35.156,29.297,67.383,0
134545.788,20.020,34.668,36.133,14.648,44.434,0
134545.791,32.227,28.320,30.762,18.555,27.344,0
134545.794,52.734,29.297,30.762,37.598,40.527,0
134545.798,40.527,34.668,32.715,37.109,74.219,0
134545.802,11.230,31.250,30.762,17.578,26.855,0
134545.806,23.926,29.785,26.855,15.137,-29.297,0
134545.810,45.410,26.367,22.461,34.180,30.762,0
134545.814,40.039,29.297,20.996,43.945,83.008,0
134545.818,14.160,30.273,26.367,23.926,51.270,0
134545.821,1.953,22.461,30.273,9.766,-7.324,0
134545.825,27.832,23.926,26.855,26.367,18.066,0
134545.829,38.574,29.297,25.391,38.086,90.332,0
134545.833,17.090,32.715,32.227,27.832,32.715,0
134545.837,4.883,36.133,32.227,20.996,-33.691,0
134545.839,26.855,27.832,27.344,25.879,8.789,0
134545.842,43.945,23.926,22.949,36.621,80.566,0
134545.846,25.879,28.320,25.391,31.250,53.223,0
134545.850,7.324,24.414,34.180,13.184,7.812,0
134545.854,17.578,23.926,29.785,16.602,25.391,0
134545.858,42.480,30.762,24.902,36.621,60.547,0
134545.862,38.574,32.227,19.043,32.227,85.938,0
134545.866,12.207,28.320,16.602,10.742,16.113,0
134545.870,15.137,33.203,25.391,13.184,-31.738,0
134545.874,42.969,40.527,32.715,32.715,91.309,0
134545.878,42.480,44.434,30.273,32.715,88.867,0
134545.881,13.672,42.480,28.320,16.113,-37.109,0
134545.883,4.883,34.180,28.320,9.277,-70.312,0
134545.887,27.832,37.109,29.785,26.855,-15.137,0
134545.891,34.668,39.551,29.297,38.086,75.684,0
134545.895,8.301,34.180,21.484,17.090,81.543,0
134545.899,-1.953,33.691,20.508,4.395,16.602,0
134545.903,21.484,36.621,24.414,21.484,29.785,0
134545.907,36.621,37.598,19.043,33.691,64.453,1
134545.911,22.949,37.598,24.902,22.461,3.418,0
134545.915,3.906,41.992,35.156,4.395,4.395,0
134545.919,19.043,43.457,33.691,12.695,21.484,0
134545.923,44.922,33.691,29.297,32.227,48.828,0
134545.926,35.156,27.832,26.367,29.297,70.312,0
134545.929,15.137,27.344,27.344,10.742,36.133,0
134545.932,15.625,35.645,27.344,5.859,41.504,0
134545.936,31.250,39.062,26.367,23.438,45.410,0
134545.940,42.480,39.062,20.996,34.668,60.547,0
134545.944,22.949,41.992,18.066,19.531,40.527,0
134545.948,11.719,38.574,23.926,8.301,-4.883,0
134545.952,39.062,37.109,28.809,24.902,-2.441,0
134545.956,52.734,35.645,31.250,38.574,35.645,0
134545.960,30.273,36.621,27.344,21.973,42.480,0
134545.964,15.625,38.574,24.902,8.301,-12.207,0
134545.968,35.645,34.668,23.438,17.090,-31.250,0
134545.972,47.852,24.902,17.090,33.691,11.719,0
134545.988,36.621,22.949,12.207,36.133,41.504,0
134545.992,19.043,27.832,17.090,22.461,14.648,0
134545.996,28.320,26.855,25.391,19.043,13.184,0
134546.000,57.617,28.320,31.738,33.691,64.453,0
134546.004,50.781,34.668,38.574,37.109,72.754,0
134546.008,17.578,33.691,46.875,15.137,-17.090,0
134546.012,20.508,34.668,40.039,9.766,-69.336,0
134546.016,48.828,41.992,29.297,31.738,-9.766,0
134546.020,49.805,39.551,20.996,41.504,32.715,0
134546.024,26.855,34.180,12.695,22.461,2.441,0
134546.028,17.090,33.203,20.996,7.324,-41.992,0
134546.031,39.062,28.809,25.391,20.020,-9.766,0
134546.033,60.059,27.344,23.926,38.574,34.180,0
134546.037,36.133,26.855,31.738,29.297,-13.672,0
134546.041,6.836,32.227,37.598,6.836,-83.496,0
134546.045,19.531,32.715,35.156,16.602,-21.484,0
134546.049,41.504,29.297,33.203,40.527,88.867,0
134546.053,34.180,34.180,30.762,33.203,101.074,0
134546.057,8.301,36.621,33.203,10.742,35.645,0
134546.061,13.672,38.086,29.785,13.184,8.301,0
134546.065,41.504,31.250,19.043,36.621,62.012,0
134546.069,35.156,24.414,18.555,35.156,48.340,0
134546.072,6.348,25.879,20.508,10.742,-2.930,0
134546.076,9.766,29.785,17.090,9.277,-12.207,0
134546.079,39.062,30.762,12.695,33.203,14.160,0
134546.083,46.875,27.832,20.508,41.504,69.336,0
134546.087,18.066,30.762,25.391,21.973,72.754,0
134546.090,0.977,32.715,24.414,7.324,-15.137,0
134546.094,24.414,32.227,26.367,20.996,-0.488,0
134546.098,45.410,38.574,24.414,43.945,56.641,0
134546.102,24.414,34.668,23.926,38.086,45.410,0
134546.106,-0.488,23.438,28.320,13.184,20.996,0
134546.110,16.602,27.344,27.832,16.602,-3.418,0
134546.114,41.016,34.180,22.949,33.203,19.531,0
134546.118,29.785,35.645,22.461,28.809,51.758,0
134546.122,5.371,35.156,28.809,10.254,11.230,0
134546.124,4.395,29.785,25.879,6.836,-28.320,0
134546.128,30.273,30.273,19.531,28.809,-33.691,0
134546.131,35.645,34.180,19.531,36.133,30.762,0
134546.135,7.812,33.203,22.949,16.602,48.828,0
134546.139,3.906,29.297,26.855,9.766,-47.363,0
134546.143,29.785,34.180,26.855,29.297,-17.578,0
134546.147,44.922,38.086,26.367,41.992,67.871,0
134546.151,28.809,36.621,28.809,24.902,51.758,0
134546.155,-1.953,33.203,29.785,-0.977,-11.719,0
134546.159,9.277,30.273,25.879,6.836,18.555,0
134546.163,35.156,32.715,23.438,31.738,156.250,0
134546.167,21.973,34.180,23.438,23.926,92.773,0
134546.168,0.977,39.062,25.879,3.418,-32.715,0
134546.172,17.090,39.551,23.438,12.695,-15.137,0
134546.176,40.039,34.180,17.090,38.086,62.500,0
134546.180,30.273,35.156,23.438,37.598,77.148,0
134546.184,6.836,28.320,30.762,17.090,4.883,0
134546.188,7.324,23.926,34.180,16.113,-28.320,0
134546.192,30.273,30.762,32.715,33.203,6.348,0
134546.196,34.668,31.738,29.297,39.062,14.648,0
134546.200,9.277,35.156,28.320,19.043,12.695,0
134546.204,-1.465,39.551,25.879,6.348,-24.902,0
134546.208,23.926,33.203,24.414,26.367,-1.953,0
134546.211,37.109,27.344,23.926,39.062,35.156,0
134546.213,14.160,30.273,20.996,20.996,19.043,0
134546.217,-5.371,31.738,23.438,4.395,-14.160,0
134546.221,12.207,28.809,28.809,19.043,-44.922,0
134546.225,36.133,26.367,24.902,39.551,25.391,0
134546.229,22.949,18.066,23.438,29.785,28.809,0
134546.233,-2.930,20.996,20.020,10.254,-56.641,0
134546.237,9.277,23.926,13.672,17.090,-76.660,0
134546.241,35.645,26.367,20.508,38.086,-20.508,0
134546.245,31.250,33.203,27.344,38.574,47.852,0
134546.249,7.324,30.273,26.367,16.113,46.875,0
134546.252,3.906,28.809,23.926,8.789,-26.367,0
134546.256,25.391,28.809,15.137,25.879,15.625,0
134546.260,36.133,33.203,5.859,39.062,101.074,0
134546.264,11.719,37.598,18.555,22.461,63.477,0
134546.268,-4.395,31.738,35.156,4.883,-1.465,0
134546.272,16.602,28.809,39.551,18.066,-9.277,0
134546.275,31.250,29.785,37.109,29.297,49.316,0
134546.279,17.578,28.809,34.180,18.555,43.945,0
134546.283,3.418,33.691,35.645,6.348,-44.922,0
134546.287,18.066,34.668,34.180,16.602,-61.035,0
134546.291,41.016,30.273,25.879,37.109,19.531,0
134546.295,33.691,31.738,27.344,35.156,28.809,0
134546.299,19.531,34.668,33.203,18.066,-32.227,0
134546.303,32.715,35.645,30.273,21.973,-32.715,0
134546.304,51.270,32.227,21.973,37.598,30.762,0
134546.307,45.410,29.297,20.996,38.086,83.496,0
134546.311,20.996,28.809,25.879,18.555,10.742,0
134546.315,13.184,24.414,26.367,7.324,-42.480,0
134546.319,32.715,23.926,25.391,28.809,30.762,0
134546.323,46.875,29.785,27.344,45.410,99.121,0
134546.327,26.367,32.227,29.297,26.367,63.477,0
134546.331,11.230,31.250,30.273,7.812,-27.344,0
134546.335,31.738,32.227,28.320,20.508,-0.488,0
134546.339,52.246,33.691,23.438,38.086,82.031,0
134546.343,33.691,34.668,20.996,22.461,89.355,0
134546.347,6.348,36.621,22.461,3.906,46.387,0
134546.364,17.578,28.320,21.484,10.254,54.688,0
134546.367,37.598,24.414,20.020,27.344,108.398,1
134546.371,30.273,28.320,20.508,25.879,111.328,0
134546.375,8.301,31.738,22.461,7.324,67.871,0
134546.379,6.836,32.715,23.926,2.930,25.391,0
134546.383,28.809,30.273,23.438,22.461,31.738,0
134546.387,36.133,32.227,26.855,33.691,65.918,0
134546.391,15.137,36.621,24.414,16.113,47.852,0
134546.395,12.207,34.668,24.414,6.836,-1.953,0
134546.399,39.551,31.250,29.297,30.762,-2.441,0
134546.403,46.387,33.203,23.926,44.922,71.777,0
134546.406,18.555,30.273,20.508,24.902,124.023,0
134546.409,0.000,31.250,20.020,5.859,88.379,0
134546.412,23.438,34.180,23.438,18.066,56.641,0
134546.416,49.805,36.621,28.320,41.016,97.168,0
134546.420,36.133,40.039,29.785,31.738,105.957,0
134546.424,19.531,39.062,34.668,16.113,18.066,0
134546.428,33.203,35.645,31.250,19.531,-0.977,0
134546.432,50.781,28.320,19.043,34.668,58.594,0
134546.436,51.270,31.738,21.484,38.086,60.059,0
134546.440,33.203,46.875,26.855,22.461,-5.859,0
134546.444,28.320,46.387,16.602,15.625,-108.398,0
134546.448,44.922,35.156,14.648,30.762,-82.031,0
134546.451,41.992,32.227,27.832,35.645,38.086,0
134546.453,22.461,34.668,32.227,20.020,12.695,0
134546.457,16.113,36.133,30.273,9.766,-18.066,0
134546.461,37.109,37.598,32.715,20.996,22.949,0
134546.465,49.805,38.574,32.715,39.062,61.035,0
134546.469,28.809,41.016,31.250,28.320,52.734,0
134546.473,9.766,38.574,28.809,9.766,1.953,0
134546.477,29.297,30.762,28.809,26.367,13.184,0
134546.481,46.875,31.738,27.344,43.945,74.707,0
134546.485,29.785,37.109,25.391,31.250,71.289,0
134546.489,6.348,32.227,23.926,8.301,-12.207,0
134546.493,12.207,30.273,20.020,10.742,0.977,0
134546.496,41.992,34.668,26.367,39.062,69.336,0
134546.498,44.922,36.133,34.180,43.945,94.238,0
134546.502,15.625,36.133,28.809,16.602,72.266,0
134546.506,17.578,35.645,23.438,6.348,19.043,0
134546.510,39.062,35.156,23.438,21.973,34.180,0
134546.514,32.227,36.133,24.414,27.832,45.410,0
134546.518,9.277,33.691,24.902,12.695,-13.184,0
134546.522,-0.488,30.273,25.879,1.465,-56.152,0
134546.526,21.484,34.180,25.879,16.113,-38.086,0
134546.530,42.480,37.598,25.879,34.668,-7.812,0
134546.534,25.879,34.668,26.367,23.926,1.465,0
134546.537,5.371,32.715,29.297,7.812,0.000,0
134546.541,24.414,37.109,29.785,18.555,28.320,0
134546.544,48.340,40.039,27.832,40.039,73.242,0
134546.548,33.203,36.133,25.391,36.621,112.793,0
134546.551,10.254,36.133,24.414,14.160,72.266,0
134546.555,22.949,38.574,32.227,18.066,-0.488,0
134546.559,41.016,44.434,33.691,44.922,38.574,0
134546.563,33.691,47.363,29.297,44.434,75.195,0
134546.567,14.160,42.480,34.180,20.508,28.320,0
134546.571,15.625,42.969,36.133,12.695,4.883,0
134546.575,40.039,41.504,25.391,31.250,6.836,0
134546.579,42.969,39.062,20.508,42.480,44.434,0
134546.583,19.043,40.039,26.855,24.414,34.180,0
134546.587,7.324,36.621,32.227,13.672,-16.113,0
134546.589,26.367,35.156,33.691,26.855,6.348,0
134546.593,42.480,35.645,34.180,38.086,60.059,0
134546.597,27.344,39.062,30.762,29.785,51.270,0
134546.601,1.953,40.527,27.344,13.672,-16.602,0
134546.605,14.160,35.645,30.273,20.020,-12.207,0
134546.608,44.434,32.715,39.062,41.016,48.828,0
134546.612,41.016,34.668,41.504,41.992,52.246,0
134546.616,18.066,42.969,39.551,25.879,-13.184,0
134546.620,15.137,49.316,35.645,20.508,-22.461,0
134546.624,40.527,43.457,33.203,40.039,45.898,0
134546.628,44.922,38.086,39.062,45.898,62.988,0
134546.632,15.625,39.062,38.574,27.832,-5.859,0
134546.634,9.766,40.039,28.809,20.996,-43.457,0
134546.638,35.645,45.410,29.785,30.762,29.297,0
134546.642,39.062,43.457,40.039,39.551,77.637,0
134546.646,7.324,28.809,41.992,20.020,62.500,0
134546.650,-6.348,26.367,37.109,2.441,-7.812,0
134546.654,18.555,34.180,31.250,16.602,1.465,0
134546.657,37.109,35.645,33.691,35.156,70.312,0
134546.661,20.508,32.715,34.180,26.367,35.645,0
134546.665,0.977,34.668,33.203,7.812,-9.766,0
134546.669,12.207,38.086,31.738,13.672,-5.371,0
134546.673,35.156,32.227,26.855,30.762,13.672,0
134546.677,34.668,31.250,30.273,31.250,33.691,0
134546.678,7.812,38.086,34.668,11.230,22.461,0
134546.682,3.418,36.133,29.785,7.324,-19.043,0
134546.686,32.715,37.109,28.809,30.273,-4.395,0
134546.690,39.062,36.133,30.762,47.363,30.273,0
134546.694,10.254,27.832,28.809,26.367,-1.953,0
134546.698,-3.906,26.367,25.879,4.395,-73.730,0
134546.702,23.926,38.574,26.367,19.531,-81.543,0
134546.706,43.457,48.340,30.762,33.203,18.555,0
134546.710,19.531,42.480,32.715,20.020,49.316,0
134546.714,-5.371,40.527,36.133,5.859,-54.688,0
134546.717,11.230,45.898,28.320,20.020,-48.340,0
134546.721,34.668,44.922,21.484,38.086,39.062,0
134546.725,29.297,38.574,30.273,30.762,29.785,0
134546.729,9.277,35.645,29.297,11.230,-22.461,0
134546.733,19.531,35.645,25.391,12.695,-28.809,0
134546.737,42.969,34.668,28.320,30.762,50.293,0
134546.740,33.691,34.668,25.391,29.785,47.363,0
134546.744,1.953,34.668,22.949,5.859,-28.809,0
134546.748,4.395,35.645,28.320,3.906,-65.430,0
134546.752,36.621,39.551,31.250,26.855,2.441,0
134546.756,43.945,37.598,28.809,36.133,82.520,0
134546.760,17.578,40.527,32.227,20.508,29.297,0
134546.764,8.301,42.969,39.551,15.137,6.348,0
134546.768,30.762,36.621,33.691,36.133,45.898,0
134546.784,42.969,35.645,23.438,48.340,67.383,0
134546.787,29.297,35.645,24.902,32.227,55.664,0
134546.791,14.648,38.086,30.273,14.648,1.465,0
134546.795,28.320,38.086,26.855,23.438,-6.836,0
134546.799,47.852,22.461,22.949,42.480,59.570,0
134546.803,30.762,21.484,24.902,34.180,44.434,0
134546.807,7.324,41.992,28.320,11.719,-17.578,0
134546.811,17.090,48.828,34.180,13.184,31.738,0
134546.815,41.504,47.852,40.039,32.227,71.289,0
134546.819,43.945,49.316,41.016,36.621,54.199,0
134546.823,20.508,49.805,40.039,20.996,-9.277,0
134546.827,5.859,39.062,34.180,8.789,-48.340,0
134546.829,31.250,31.738,28.809,25.391,-22.949,0
134546.832,47.852,32.715,27.832,41.016,47.852,0
134546.836,23.926,37.109,32.227,24.902,38.086,0
134546.840,9.277,38.574,32.715,10.742,-17.090,0
134546.844,31.738,39.551,29.297,22.461,8.789,0
134546.848,53.711,45.410,24.414,37.598,68.848,0
134546.852,39.062,48.340,22.949,28.809,40.527,0
134546.856,15.625,44.434,25.391,12.207,-11.230,0
134546.860,25.391,44.922,26.855,19.531,14.648,1
134546.864,46.387,41.504,24.414,39.551,45.898,0
134546.868,42.480,37.109,19.043,37.598,78.613,0
134546.872,20.996,36.133,16.113,19.043,32.715,0
134546.873,21.484,32.715,18.555,16.113,-12.695,0
134546.877,46.875,32.227,26.855,42.480,48.828,0
134546.881,50.293,28.809,31.738,45.898,113.281,0
134546.885,22.461,29.297,31.250,15.625,68.359,0
134546.889,7.324,32.227,32.715,2.930,29.785,0
134546.893,29.297,31.738,27.832,18.555,78.125,0
134546.897,43.945,31.250,23.926,33.691,128.906,0
134546.901,23.926,30.762,26.367,23.926,90.820,0
134546.905,6.836,31.738,30.762,8.301,-13.672,0
134546.909,23.926,32.227,29.785,20.996,-5.859,0
134546.913,45.410,25.391,21.973,39.062,87.891,0
134546.916,30.273,20.508,21.484,27.344,105.469,0
134546.918,9.277,29.297,25.879,9.277,24.902,0
134546.922,29.297,29.785,25.391,16.602,3.906,0
134546.926,59.082,25.879,25.391,41.504,92.285,0
134546.930,50.293,28.320,30.762,41.992,118.652,0
134546.934,25.391,29.297,31.250,16.113,30.762,0
134546.938,22.949,28.320,26.367,14.648,-3.906,0
134546.942,41.504,29.297,23.926,35.156,59.570,0
134546.946,47.363,31.738,24.902,39.551,85.938,0
134546.950,23.926,30.273,26.367,22.949,21.973,0
134546.954,11.230,25.879,25.879,11.719,29.785,0
134546.958,36.133,24.414,21.484,26.855,75.195,0
134546.961,52.246,23.926,17.090,37.598,79.590,0
134546.965,33.203,25.391,22.949,24.902,63.965,0
134546.969,21.973,27.344,31.250,10.254,-29.785,0
134546.973,36.621,17.578,31.738,19.531,-21.484,0
134546.977,50.293,15.625,26.367,40.527,68.848,0
134546.980,41.504,29.297,22.461,35.156,62.988,0
134546.984,15.137,37.109,17.090,13.184,16.113,0
134546.988,20.020,41.992,18.555,15.137,15.625,0
134546.992,46.875,41.504,22.461,36.133,48.828,0
134546.996,39.551,40.039,21.484,38.086,59.082,0
134547.000,16.602,38.086,24.902,17.090,23.438,0
134547.004,17.578,36.133,23.438,12.695,-5.371,0
134547.008,36.621,34.180,18.555,33.691,23.926,0
134547.009,42.969,31.738,20.508,44.434,41.992,0
134547.012,17.578,28.809,26.855,24.902,32.715,0
134547.016,1.953,29.297,26.855,4.395,-47.852,0
134547.020,28.809,31.250,22.949,15.625,-63.965,0
134547.024,49.805,29.785,26.855,38.086,19.531,0
134547.028,31.250,33.691,29.785,27.344,42.969,0
134547.032,10.254,32.715,27.344,2.441,-22.949,0
134547.036,27.832,32.715,23.926,4.883,-48.340,0
134547.040,48.828,37.109,17.090,21.973,56.152,0
134547.044,34.668,35.156,21.484,25.391,114.258,0
134547.048,13.184,31.250,26.855,11.719,70.801,0
134547.052,20.508,29.297,17.090,13.672,29.785,0
134547.054,43.457,23.926,17.090,34.180,64.453,0
134547.057,39.062,21.484,26.367,33.203,94.238,0
134547.061,9.277,25.879,25.879,9.766,41.992,0
134547.065,4.883,23.926,22.461,3.906,-3.418,0
134547.069,34.180,19.531,25.879,25.879,41.504,0
134547.073,40.527,20.020,26.367,38.086,60.547,0
134547.077,20.020,25.391,27.832,23.926,9.277,0
134547.081,12.207,26.855,36.133,15.625,-48.340,0
134547.085,24.414,22.461,41.992,26.855,-23.438,0
134547.089,42.969,21.973,39.062,42.480,16.113,0
134547.093,32.227,28.320,31.738,35.645,20.020,0
134547.096,8.301,32.227,24.902,10.742,-1.465,0
134547.098,16.602,29.785,20.020,9.766,-14.648,0
134547.102,42.969,29.785,22.461,33.203,31.738,0
134547.106,37.598,33.203,26.367,33.203,59.570,0
134547.110,5.859,31.250,26.855,9.277,26.855,0
134547.114,11.230,31.250,26.367,10.742,9.766,0
134547.118,40.527,34.180,24.902,35.645,42.969,0
134547.122,36.621,40.039,24.414,36.133,53.711,0
134547.126,11.719,40.527,29.297,14.648,26.367,0
134547.130,9.277,31.738,34.180,7.812,0.000,0
134547.134,28.809,27.832,23.926,26.367,3.906,0
134547.137,41.504,32.227,15.137,37.109,11.719,0
134547.141,21.484,33.691,19.043,22.461,32.715,0
134547.158,-3.906,33.691,23.438,9.277,4.883,0
134547.162,17.578,34.180,20.508,20.508,2.930,0
134547.166,40.039,35.645,22.461,41.016,50.781,0
134547.170,25.879,38.086,32.227,36.621,48.828,0
134547.174,6.348,36.133,37.109,12.695,13.672,0
134547.178,16.602,37.109,31.250,15.137,-24.902,0
134547.182,43.457,35.156,26.367,36.621,35.645,0
134547.186,35.156,33.691,23.926,30.762,110.352,0
134547.190,5.859,36.621,21.484,8.789,63.965,0
134547.194,12.207,38.574,24.414,8.301,4.883,0
134547.198,41.016,41.504,25.391,26.855,54.688,0
134547.201,41.504,41.016,23.438,33.691,111.328,0
134547.203,15.137,39.062,20.996,18.555,62.988,0
134547.207,7.324,39.551,23.926,9.766,-9.277,0
134547.211,31.738,40.527,27.832,25.391,13.672,0
134547.215,44.434,41.016,30.273,41.992,109.863,0
134547.219,17.090,40.039,30.273,28.320,110.840,0
134547.223,1.953,34.180,27.832,14.160,31.738,0
134547.227,19.043,29.297,28.809,23.926,22.949,0
134547.231,25.879,26.855,28.320,32.227,79.102,0
134547.235,12.695,30.273,32.715,23.438,57.129,0
134547.239,-2.930,33.203,34.180,6.348,-27.344,0
134547.243,13.184,31.738,31.250,9.766,13.672,0
134547.246,41.504,34.180,30.762,30.273,85.449,0
134547.249,37.109,41.016,27.832,32.227,66.895,0
134547.252,3.418,42.480,26.855,9.766,0.000,0
134547.256,-2.441,38.086,25.879,5.371,-54.199,0
134547.260,30.273,32.227,20.996,27.832,-17.578,0
134547.264,37.598,24.902,24.902,39.062,14.648,1
134547.268,18.555,30.273,33.203,21.973,-16.602,0
134547.272,4.883,35.156,30.273,6.836,-42.969,0
134547.276,17.578,35.645,31.250,20.996,-3.906,0
134547.280,42.480,41.992,34.180,40.527,18.066,0
134547.284,26.367,41.016,29.297,26.855,-6.836,0
134547.288,0.488,38.574,27.344,1.953,-20.508,0
134547.292,13.672,42.480,26.855,12.207,-3.906,0
134547.293,36.133,42.969,26.855,36.621,59.570,0
134547.297,25.879,35.645,26.367,29.785,67.871,0
134547.301,0.000,31.250,28.320,5.859,3.418,0
134547.305,7.324,32.715,33.203,8.789,-33.203,0
134547.309,36.621,33.203,29.785,33.691,14.648,0
134547.313,36.621,36.133,28.809,37.109,66.895,0
134547.317,13.672,37.109,33.691,15.625,44.922,0
134547.321,10.742,34.668,37.598,11.230,-6.348,0
134547.325,31.250,36.621,32.227,29.297,-37.598,0
134547.329,43.945,36.133,28.320,39.551,43.457,0
134547.333,25.391,39.062,28.809,24.414,71.289,0
134547.336,10.254,44.922,28.809,4.883,-2.441,0
134547.339,28.809,40.039,30.273,11.719,8.301,0
134547.342,48.828,35.156,29.785,30.762,49.316,0
134547.346,30.762,31.738,27.832,25.879,47.363,0
134547.350,4.883,26.367,29.785,4.883,10.254,0
134547.354,20.508,26.855,31.250,8.301,7.324,0
134547.358,40.039,32.227,28.809,30.273,76.172,0
134547.362,26.367,38.574,30.762,32.715,80.078,0
134547.366,6.836,40.527,37.598,15.137,13.672,0
134547.370,14.160,41.992,35.645,11.719,-20.020,0
134547.374,41.992,44.434,32.227,33.203,53.223,0
134547.378,42.969,43.457,33.691,42.480,105.469,0
134547.381,17.578,41.016,38.086,24.902,45.410,0
134547.383,12.695,42.480,40.527,11.719,16.602,0
134547.387,31.738,37.598,33.203,28.809,55.664,0
134547.391,39.062,29.297,23.438,42.969,92.773,0
134547.395,14.160,32.715,27.344,20.508,85.449,0
134547.399,-1.953,34.180,35.156,4.883,28.320,0
134547.403,26.855,35.156,35.645,21.973,37.109,0
134547.407,43.945,34.668,31.250,37.598,72.754,0
134547.411,19.531,30.762,26.855,27.832,37.109,0
134547.415,-2.441,29.785,18.555,7.812,21.973,0
134547.419,10.254,30.762,16.113,10.742,39.551,0
134547.422,36.133,31.250,22.949,32.227,97.168,0
134547.426,37.598,29.297,29.297,35.645,114.258,0
134547.430,10.742,25.391,33.203,15.137,64.941,0
134547.434,5.859,26.855,28.320,14.160,52.734,0
134547.438,37.109,33.203,22.949,39.062,40.039,0
134547.442,48.828,31.738,24.902,47.363,54.199,0
134547.446,27.344,31.738,29.785,27.832,38.574,0
134547.450,15.137,38.574,32.715,20.020,-26.855,0
134547.454,33.203,38.086,34.180,33.203,-3.906,0
134547.458,42.480,35.645,33.203,39.062,93.750,0
134547.461,23.926,34.668,25.391,26.367,99.121,0
134547.465,10.254,34.180,19.043,9.277,15.137,0
134547.469,24.902,42.480,17.578,19.531,1.953,0
134547.473,51.758,42.969,24.902,42.969,41.504,0
134547.474,48.828,29.297,35.645,39.551,52.734,0
134547.478,19.043,27.832,38.086,13.672,39.551,0
134547.482,22.949,33.691,35.645,13.672,28.809,0
134547.486,50.781,35.645,34.668,36.133,32.227,0
134547.489,41.504,35.156,36.621,37.598,32.227,0
134547.493,14.648,33.691,37.109,20.996,-9.766,0
134547.497,13.672,31.738,33.203,15.137,-41.016,0
134547.501,35.645,32.715,27.832,33.691,16.113,0
134547.505,45.898,36.133,30.273,47.363,74.219,0
134547.509,26.367,35.156,36.621,29.785,35.645,0
134547.513,10.254,35.645,36.133,18.555,-26.367,0
134547.517,27.832,33.203,33.203,32.715,12.207,0
134547.534,40.039,27.344,32.715,40.039,69.336,0
134547.538,22.461,29.297,32.227,23.926,18.555,0
134547.541,8.789,28.809,37.109,8.301,-39.062,0
134547.545,28.809,28.809,39.551,14.648,-12.695,0
134547.549,50.293,34.668,37.598,33.691,51.270,0
134547.553,29.785,31.738,33.203,28.320,93.262,0
134547.557,6.348,30.273,27.832,6.836,71.289,0
134547.561,17.090,31.250,28.809,13.672,36.621,0
134547.565,41.992,33.203,32.227,35.645,65.430,0
134547.569,40.039,36.621,28.320,38.574,19.531,0
134547.573,15.625,40.039,29.297,20.508,-42.480,0
134547.577,9.766,34.668,33.691,9.277,-52.734,0
134547.578,31.738,29.297,32.227,27.344,-26.367,0
134547.582,39.062,30.762,33.203,37.598,33.203,0
134547.586,17.578,31.738,29.785,18.066,27.832,0
134547.590,8.789,33.691,26.367,5.859,3.906,0
134547.594,29.785,34.668,29.297,19.531,11.719,0
134547.598,43.457,32.715,30.273,37.109,49.805,0
134547.602,27.344,29.785,31.250,25.879,68.848,0
134547.606,8.789,26.855,32.715,7.812,17.578,0
134547.610,18.066,30.273,32.715,16.602,-26.855,0
134547.614,43.457,36.621,27.344,38.086,-21.973,0
134547.618,42.969,36.133,27.344,40.039,38.086,0
134547.621,23.926,34.668,31.250,19.043,26.855,0
134547.623,27.344,33.203,29.297,12.207,7.324,0
134547.627,51.758,36.621,29.785,35.645,93.262,0
134547.631,56.641,39.551,17.578,43.945,137.695,0
134547.635,33.203,33.203,12.695,19.043,78.125,0
134547.639,23.438,26.367,33.203,11.719,-8.301,0
134547.643,41.504,24.902,42.969,39.062,15.625,0
134547.647,51.758,27.832,40.527,52.246,87.891,0
134547.651,24.902,29.297,39.062,36.621,37.109,0
134547.655,0.488,28.809,39.551,22.461,-43.945,0
134547.659,16.602,29.785,37.109,31.738,-19.531,0
134547.662,37.109,30.273,34.180,50.293,77.637,0
134547.666,28.320,29.785,33.203,46.387,93.750,0
134547.670,7.812,30.762,36.133,27.344,27.832,0
134547.674,22.949,36.133,32.715,33.691,28.320,0
134547.678,49.805,40.039,24.902,50.781,71.777,0
134547.681,43.945,38.086,31.250,43.457,104.492,0
134547.685,22.949,37.109,38.086,24.902,59.082,0
134547.689,22.461,38.574,29.785,21.484,0.488,0
134547.693,39.551,37.109,24.414,28.320,36.621,0
134547.697,41.992,36.133,27.832,32.227,60.059,0
134547.701,20.020,39.062,29.785,17.578,18.555,0
134547.705,9.277,37.109,26.367,0.977,-5.371,0
134547.709,34.668,33.691,27.344,16.602,62.988,0
134547.713,50.293,38.086,25.879,38.574,104.492,0
134547.714,33.203,38.086,25.391,30.762,79.590,0
134547.717,13.672,39.551,31.738,13.672,40.527,0
134547.721,23.438,44.434,30.762,21.973,-7.324,0
134547.725,43.457,43.945,29.785,37.598,24.902,0
134547.729,32.227,43.457,32.715,30.273,41.504,0
134547.733,11.719,40.039,33.203,13.184,-26.367,0
134547.737,17.578,40.039,33.691,14.160,-56.152,0
134547.741,41.992,43.945,32.715,32.227,-5.371,1
134547.745,41.504,42.480,29.297,35.156,63.477,0
134547.749,18.555,39.551,29.297,17.578,52.734,0
134547.753,16.602,31.738,28.320,11.230,-33.203,0
134547.757,36.621,31.738,26.367,29.297,-2.930,0
134547.759,37.598,35.645,23.926,37.598,76.660,0
134547.762,17.090,32.715,26.855,25.879,63.477,0
134547.766,10.254,33.691,38.574,16.113,14.648,0
134547.770,27.344,34.668,44.922,26.855,4.883,0
134547.774,41.016,30.273,42.480,41.504,8.789,0
134547.778,26.367,30.762,37.598,26.367,1.465,0
134547.782,8.789,39.062,31.738,11.719,-19.043,0
134547.786,26.855,35.156,29.297,23.926,-7.812,0
134547.790,51.270,27.832,27.832,37.109,80.566,0
134547.794,34.668,26.855,27.344,29.297,102.051,0
134547.798,10.254,29.297,24.902,11.719,28.809,0
134547.801,20.996,30.273,29.785,13.184,5.371,0
134547.804,49.316,28.809,38.086,32.715,54.199,0
134547.808,45.898,32.715,35.156,35.156,73.730,0
134547.812,12.695,33.691,30.762,12.207,24.902,0
134547.816,8.301,33.203,33.691,6.348,-18.555,0
134547.820,36.133,30.273,32.227,25.391,11.230,0
134547.824,47.852,31.250,28.320,37.598,18.555,0
134547.828,24.414,31.738,23.926,21.484,-41.992,0
134547.831,10.742,30.273,20.020,7.324,-43.457,0
134547.835,33.203,33.203,24.414,20.020,36.133,0
134547.839,47.363,30.762,29.785,34.668,40.039,0
134547.843,29.785,29.785,31.738,25.391,13.184,0
134547.847,10.254,32.715,35.645,6.348,8.789,0
134547.864,21.484,34.668,33.691,11.719,12.207,0
134547.867,42.969,30.273,27.832,31.738,50.293,0
134547.871,37.109,29.297,31.738,30.273,42.969,0
134547.875,20.508,35.645,33.691,12.695,5.371,0
134547.879,25.391,40.039,33.203,11.230,-39.062,0
134547.883,45.898,40.527,26.855,30.273,6.348,0
134547.887,48.828,33.691,20.996,36.621,63.477,0
134547.891,22.949,28.809,22.461,15.137,35.645,0
134547.895,10.254,28.809,24.414,4.395,7.324,0
134547.899,36.133,30.273,26.855,23.438,0.488,0
134547.903,48.340,33.203,28.809,39.062,38.574,0
134547.906,21.484,30.762,27.832,24.902,56.152,0
134547.909,5.859,33.203,33.203,8.789,2.930,0
134547.913,24.414,38.574,35.156,18.555,7.812,0
134547.917,42.480,35.156,31.250,35.156,68.359,0
134547.921,26.367,34.668,28.320,29.297,75.195,0
134547.924,0.000,37.109,23.926,8.789,14.160,0
134547.928,10.742,34.668,21.973,7.812,-18.066,0
134547.932,37.109,34.668,23.926,29.297,11.230,0
134547.936,36.621,33.691,34.180,30.273,37.598,0
134547.940,17.090,27.344,37.109,12.695,-5.371,0
134547.944,12.695,28.320,27.832,11.719,-70.312,0
134547.948,30.762,35.156,19.043,22.949,-18.066,0
134547.952,30.273,32.227,20.020,25.879,56.152,0
134547.954,12.695,26.367,26.855,14.648,28.809,0
134547.958,6.348,26.855,26.367,9.766,-17.090,0
134547.962,27.344,34.180,24.414,24.902,9.277,0
134547.966,39.062,34.180,28.809,39.062,71.289,0
134547.970,20.020,24.902,29.785,30.273,73.730,0
134547.974,6.836,27.832,27.344,15.625,9.277,0
134547.978,25.879,34.180,25.391,22.949,-1.465,0
134547.981,43.945,30.762,23.438,42.480,52.734,0
134547.985,31.250,26.367,31.738,40.527,39.551,0
134547.989,17.578,30.273,36.133,20.996,-8.789,0
134547.993,28.809,36.621,28.809,20.996,3.418,0
134547.997,57.617,36.133,27.832,41.016,98.145,0
134547.999,51.758,34.668,20.020,44.434,106.934,0
134548.003,20.508,40.527,16.113,28.320,34.668,0
134548.007,19.531,41.992,25.391,20.508,33.691,0
134548.010,44.922,35.156,26.855,38.086,59.570,0
134548.014,49.316,31.738,25.391,47.363,62.012,0
134548.018,20.996,30.762,27.832,27.832,12.207,0
134548.022,13.672,30.273,25.879,18.066,-30.762,0
134548.026,36.621,31.250,22.949,29.785,-2.441,0
134548.030,52.246,32.715,26.367,45.898,38.086,0
134548.034,36.133,31.250,27.344,36.621,43.457,0
134548.038,16.113,30.762,22.461,12.695,-2.441,0
134548.042,28.809,31.738,21.484,19.043,-2.930,0
134548.043,45.410,34.668,22.949,40.527,55.176,0
134548.047,38.086,36.621,17.090,38.086,58.594,0
134548.051,16.113,35.645,14.648,19.043,4.395,0
134548.055,17.090,29.785,22.949,16.113,-16.113,0
134548.059,35.156,27.344,26.367,36.621,61.523,0
134548.063,30.273,30.273,30.762,37.598,102.051,0
134548.067,3.906,30.273,33.203,16.113,51.758,0
134548.071,6.836,28.320,32.227,15.625,-12.695,0
134548.075,34.180,27.344,29.785,35.156,9.766,0
134548.079,41.504,28.320,27.832,43.457,76.660,0
134548.083,22.949,30.273,29.297,31.250,39.062,0
134548.086,9.277,32.715,28.320,18.066,-22.949,0
134548.088,26.367,31.738,24.414,27.832,-11.719,0
134548.092,40.039,23.926,19.531,44.434,52.246,0
134548.096,24.902,19.043,19.531,33.203,38.086,0
134548.100,8.301,23.926,29.297,15.137,-30.762,0
134548.104,22.949,27.344,35.645,23.926,-19.531,0
134548.108,46.387,30.762,33.203,43.457,58.594,0
134548.112,36.621,33.691,31.738,39.551,77.637,0
134548.116,21.973,32.227,34.668,20.996,25.391,0
134548.120,19.043,31.250,34.668,17.578,16.602,0
134548.124,28.809,30.273,31.250,33.691,72.266,0
134548.128,33.203,36.133,32.227,39.062,73.730,0
134548.131,11.719,40.039,33.203,21.973,47.852,0
134548.135,9.277,35.645,30.762,13.672,34.668,0
134548.139,36.133,34.180,23.926,32.715,48.340,0
134548.143,47.852,35.645,24.414,48.828,98.145,0
134548.147,23.926,26.855,29.785,24.414,40.039,0
134548.150,7.812,24.902,29.785,5.859,-33.203,0
134548.154,26.367,24.902,24.902,21.484,-20.508,0
134548.158,50.293,26.367,25.391,38.086,16.602,0
134548.162,33.203,32.715,29.297,27.832,0.977,0
134548.166,8.301,32.715,26.855,6.348,-34.180,0
134548.170,24.902,34.668,26.367,15.137,-22.461,0
134548.174,49.316,36.133,27.344,40.527,29.297,0
134548.178,41.016,34.180,22.461,39.551,53.223,0
134548.178,14.160,28.320,21.973,15.137,2.930,0
134548.182,11.719,21.973,20.020,11.230,-21.484,0
134548.186,37.109,24.902,19.531,32.227,50.293,0
134548.190,36.621,29.297,27.832,34.180,56.641,0
134548.194,9.277,31.250,31.250,14.160,-4.883,0
134548.198,8.789,32.715,31.738,10.254,-15.137,0
134548.202,37.109,30.762,30.762,29.297,-3.906,0
134548.206,44.434,29.785,27.344,38.086,44.922,0
134548.210,18.555,29.297,26.855,21.484,57.129,0
134548.214,1.465,38.086,32.715,5.859,-21.484,0
134548.218,21.484,41.504,38.574,17.578,-10.742,0
134548.221,40.039,29.297,33.203,31.250,36.133,1
134548.224,25.391,26.855,27.832,19.043,47.852,0
134548.228,6.836,32.715,32.715,3.418,31.250,0
134548.232,19.531,35.156,33.691,10.742,15.137,0
134548.236,47.852,32.715,31.738,33.691,71.289,0
134548.240,51.270,34.180,35.156,38.574,96.680,0
134548.244,23.926,41.504,40.527,18.555,45.898,0
134548.248,16.602,41.992,40.039,13.672,1.953,0
134548.252,41.992,35.156,39.551,35.645,74.707,0
134548.255,46.875,35.156,36.621,48.828,145.996,0
134548.259,21.973,34.180,26.367,32.715,59.570,0
134548.263,10.254,30.762,25.879,20.508,-1.465,0
134548.267,29.785,29.297,33.691,32.715,24.414,0
134548.283,42.969,25.391,32.715,41.016,49.805,0
134548.287,27.832,29.297,33.203,31.250,44.434,0
134548.291,11.719,27.832,34.668,13.184,-0.488,0
134548.295,19.043,25.879,33.691,15.625,17.578,0
134548.299,41.016,31.250,29.785,36.621,72.754,0
134548.303,37.109,37.109,24.902,34.180,46.875,0
134548.307,10.742,37.598,25.879,10.742,-41.016,0
134548.311,17.090,35.156,25.391,18.555,-32.227,0
134548.315,47.363,35.156,26.855,38.574,56.641,0
134548.319,45.410,32.715,31.738,32.715,63.477,0
134548.323,22.461,33.203,31.250,14.160,28.809,0
134548.326,20.508,37.109,22.949,5.371,7.812,0
134548.328,36.133,37.598,17.090,22.949,17.578,0
134548.332,40.039,38.086,19.043,36.133,53.711,0
134548.336,14.160,35.645,25.879,18.555,52.734,0
134548.340,0.488,29.297,26.855,7.324,-6.348,0
134548.344,20.020,32.227,26.367,21.484,-18.066,0
134548.348,35.156,38.574,30.762,33.691,48.828,0
134548.352,20.996,36.621,30.273,25.879,55.664,0
134548.356,0.000,35.156,28.809,10.742,4.395,0
134548.360,15.137,34.668,28.809,15.625,-1.953,0
134548.364,43.945,35.156,25.879,34.668,52.734,0
134548.368,31.738,32.227,24.414,32.715,74.219,0
134548.371,4.395,35.645,26.855,14.648,6.348,0
134548.373,9.277,39.062,25.879,12.207,-4.883,0
134548.377,32.715,34.668,23.926,33.691,59.570,0
134548.381,33.203,30.273,23.926,39.551,92.773,0
134548.385,6.836,27.344,28.320,19.531,62.988,0
134548.389,-0.488,31.250,30.762,8.789,-5.859,0
134548.393,22.949,30.762,26.367,27.344,31.250,0
134548.397,36.133,28.320,23.926,39.551,122.070,0
134548.401,18.066,29.297,28.809,20.020,104.980,0
134548.405,6.348,29.785,30.762,6.836,18.555,0
134548.409,21.484,27.344,25.879,20.996,28.809,0
134548.413,38.086,22.461,27.344,41.016,107.910,0
134548.416,26.367,26.855,30.273,33.691,84.961,0
134548.419,1.953,32.715,28.320,15.625,32.227,0
134548.423,16.113,33.203,24.414,24.414,40.039,0
134548.427,44.922,32.715,29.785,46.875,84.961,0
134548.431,37.598,33.691,36.621,43.457,59.082,0
134548.435,13.184,40.527,39.062,19.531,-57.617,0
134548.439,20.996,41.504,38.086,15.625,-82.520,0
134548.442,41.016,32.715,36.621,34.668,9.766,0
134548.446,35.156,31.250,33.203,38.086,64.453,0
134548.450,16.602,38.574,34.180,20.020,20.996,0
134548.454,13.184,40.039,35.645,14.648,-18.555,0
134548.458,39.551,40.527,32.227,31.250,20.996,0
134548.462,54.199,36.133,29.785,48.828,74.219,0
134548.464,35.645,34.180,30.762,41.992,76.172,0
134548.468,15.137,38.086,30.762,21.973,0.488,0
134548.472,26.367,36.621,27.344,29.297,-10.742,0
134548.476,45.410,37.109,27.344,49.805,78.125,0
134548.479,32.715,41.016,27.832,46.875,69.824,0
134548.483,14.648,43.457,17.578,24.902,5.859,0
134548.487,23.438,38.086,22.461,20.020,13.184,0
134548.491,46.875,33.203,37.598,34.668,45.898,0
134548.495,43.945,35.645,41.016,32.715,34.668,0
134548.499,20.996,36.133,41.504,15.137,7.812,0
134548.503,25.391,35.156,35.156,12.207,-20.508,0
134548.507,44.922,33.203,28.809,29.785,16.602,0
134548.508,41.504,30.273,28.809,36.621,69.336,0
134548.512,20.996,28.320,31.250,23.438,13.672,0
134548.516,13.672,31.250,33.203,18.066,-51.758,0
134548.520,32.227,33.691,35.645,33.691,-2.930,0
134548.524,43.945,32.715,34.668,50.293,83.008,0
134548.528,27.832,35.156,37.109,47.852,81.055,0
134548.532,7.812,30.273,39.062,28.809,11.230,0
134548.536,21.973,23.926,36.133,30.273,-30.273,0
134548.540,46.387,25.879,31.738,50.293,55.176,0
134548.544,37.109,24.414,25.391,39.062,98.145,0
134548.548,12.207,29.297,27.344,14.648,9.766,0
134548.551,17.578,39.551,26.855,16.602,-22.461,0
134548.554,42.969,38.086,25.879,33.203,30.762,0
134548.557,41.016,34.668,29.297,38.574,49.805,0
134548.561,16.602,39.062,28.809,17.578,6.348,0
134548.565,16.113,40.039,22.949,6.836,-12.695,0
134548.569,39.062,33.203,26.367,24.902,27.344,0
134548.573,50.781,35.645,38.574,35.645,42.480,0
134548.577,25.391,39.551,40.039,19.531,-27.832,0
134548.581,6.836,35.156,32.227,1.465,-46.387,0
134548.585,28.809,29.297,28.809,16.113,33.203,0
134548.589,42.969,30.273,26.367,38.086,107.910,0
134548.593,25.391,31.250,18.555,23.926,79.102,0
134548.596,0.488,26.855,20.508,0.000,1.953,0
134548.600,4.883,26.855,22.949,2.930,14.160,0
134548.604,26.855,30.762,21.973,21.973,40.039,0
134548.608,24.414,26.855,27.832,28.320,34.668,0
134548.612,7.324,25.879,32.227,15.137,8.789,0
134548.615,14.648,31.250,35.645,20.020,-14.160,0
134548.619,41.504,35.156,35.645,38.574,33.203,0
134548.623,41.992,30.762,31.738,36.621,36.621,0
134548.627,14.648,27.344,30.762,13.184,26.367,0
134548.631,12.207,33.203,32.715,3.906,3.418,0
134548.635,43.457,36.621,33.203,25.391,38.086,0
134548.639,50.293,35.645,31.250,38.086,100.586,0
134548.643,29.297,38.086,33.691,26.367,38.086,0
134548.659,19.531,33.691,33.691,14.648,-9.766,0
134548.662,30.273,23.926,25.391,21.973,9.766,0
134548.666,44.434,21.973,23.438,41.016,69.336,0
134548.670,29.785,25.391,27.344,31.738,68.359,0
134548.674,6.348,33.691,37.598,12.207,19.043,0
134548.678,19.531,32.227,41.504,19.043,-20.020,0
134548.682,45.410,29.297,37.598,36.621,-16.113,0
134548.686,36.133,32.227,35.156,34.180,29.297,0
134548.690,12.207,34.668,33.691,15.137,-8.301,0
134548.694,18.066,37.109,34.180,16.113,-55.176,0
134548.698,39.551,33.203,33.691,37.109,-6.348,2
134548.701,40.527,28.320,33.691,40.039,44.434,0
134548.704,17.090,29.785,29.785,20.508,19.531,0
134548.707,11.230,33.203,21.973,11.230,-39.551,0
134548.711,36.621,28.320,21.484,27.832,-22.949,0
134548.715,50.781,25.391,27.832,39.062,9.277,0
134548.719,27.344,20.508,27.832,27.832,-14.160,0
134548.723,5.371,17.578,31.738,15.137,-57.129,0
134548.727,25.879,23.926,40.527,24.902,-19.043,0
134548.731,45.898,26.855,37.598,43.457,76.172,0
134548.735,35.156,31.250,31.738,34.668,39.062,0
134548.739,18.066,35.645,31.738,11.719,-30.762,0
134548.743,23.438,35.645,29.297,10.254,20.020,0
134548.746,47.852,33.203,24.414,29.785,89.844,0
134548.749,47.363,35.645,23.926,35.645,77.148,0
134548.752,16.602,37.109,23.438,12.695,31.250,0
134548.756,11.719,36.133,23.926,5.371,24.414,0
134548.760,36.133,28.809,22.461,25.879,83.496,0
134548.764,44.434,25.391,17.578,33.203,102.051,0
134548.768,20.996,36.133,19.043,16.113,60.547,0
134548.772,9.277,43.457,20.020,5.859,25.879,0
134548.776,23.438,31.250,18.555,12.207,57.129,0
134548.780,42.969,24.414,24.414,23.926,81.055,0
134548.784,28.320,29.297,27.344,14.160,52.734,0
134548.788,3.906,29.785,23.926,3.418,16.113,0
134548.792,19.043,30.273,16.602,14.160,-25.879,0
134548.793,41.016,33.691,16.602,31.738,5.371,0
134548.797,38.086,38.574,28.320,34.180,68.359,0
134548.801,16.113,37.598,34.668,16.602,35.645,0
134548.805,23.926,39.062,39.062,17.090,8.789,0
134548.809,51.270,39.551,41.504,41.504,47.363,0
134548.813,42.480,29.785,37.598,45.898,62.988,0
134548.817,19.043,28.320,34.180,24.902,36.621,0
134548.821,16.113,28.809,32.715,14.648,-14.160,0
134548.825,37.598,26.855,26.855,31.250,2.441,0
134548.829,57.617,29.785,22.949,45.410,81.055,0
134548.833,36.621,28.809,26.367,31.738,32.227,0
134548.836,15.137,28.320,29.297,15.625,-61.035,0
134548.840,33.203,31.738,29.785,24.414,-35.156,0
134548.844,50.293,36.621,30.273,41.992,58.594,0
134548.848,34.180,36.133,35.645,31.250,70.312,0
134548.851,9.766,35.645,36.621,10.254,-28.320,0
134548.855,15.625,34.180,27.344,22.949,-25.879,0
134548.859,36.621,36.133,26.855,42.969,30.273,0
134548.863,33.691,34.668,21.973,33.691,36.621,0
134548.867,7.812,28.809,12.695,11.719,-25.879,0
134548.871,2.930,27.344,21.973,14.648,-57.129,0
134548.875,30.762,25.391,29.297,38.574,31.738,0
134548.879,40.039,30.762,25.879,44.434,86.914,0
134548.883,21.973,36.621,25.391,24.414,41.016,0
134548.884,11.719,34.180,24.414,10.254,-3.906,0
134548.888,33.203,35.156,25.391,24.414,19.531,0
134548.892,50.293,42.969,28.320,42.480,32.715,0
134548.896,24.902,39.062,23.438,26.855,-8.789,0
134548.900,5.371,28.320,20.508,6.836,-51.270,0
134548.903,29.297,33.203,22.461,20.996,-38.574,0
134548.907,52.734,38.574,21.484,43.945,-5.371,0
134548.911,32.227,26.367,27.344,35.645,-14.160,0
134548.915,0.977,25.879,30.762,14.160,-7.324,0
134548.919,11.719,38.086,21.484,14.160,1.953,0
134548.923,40.527,38.086,22.949,34.180,35.156,0
134548.927,42.969,41.016,28.809,40.039,75.684,0
134548.929,20.508,47.363,28.809,23.926,26.855,0
134548.933,15.625,40.039,30.762,17.090,-1.465,0
134548.937,41.016,31.738,27.344,39.062,30.273,0
134548.941,49.316,28.320,26.855,49.805,63.477,0
134548.945,18.555,28.809,26.367,22.949,20.020,0
134548.949,4.883,32.227,26.855,11.230,-41.992,0
134548.953,27.344,31.738,28.320,26.367,-1.465,0
134548.957,38.574,31.738,30.762,40.039,45.898,0
134548.960,16.602,29.297,27.344,23.926,65.430,0
134548.964,3.418,25.879,25.879,1.953,46.875,0
134548.968,18.066,28.809,27.832,15.137,18.555,0
134548.972,35.156,29.297,23.438,38.086,73.242,0
134548.974,25.879,21.973,25.879,30.762,88.867,0
134548.977,4.395,23.438,31.250,8.789,24.414,0
134548.981,14.160,34.180,25.879,10.742,-38.574,0
134548.985,37.598,33.691,19.043,29.785,47.363,0
134548.989,31.250,26.855,20.996,29.297,122.559,0
134548.993,6.836,29.785,26.855,8.301,55.176,0
134548.997,10.742,33.691,32.227,4.883,-21.484,0
134549.001,36.621,30.762,32.227,25.391,1.465,0
134549.005,40.039,27.832,30.273,35.156,70.312,0
134549.009,15.137,26.367,29.297,19.531,63.965,0
134549.013,-0.977,30.273,27.344,7.812,6.348,0
134549.017,19.043,31.738,28.320,25.879,-3.906,0
134549.033,37.109,29.785,34.180,45.410,37.109,0
134549.037,21.973,24.902,33.203,33.203,68.848,0
134549.041,3.418,26.367,24.414,10.742,42.969,0
134549.045,21.484,35.645,26.367,17.578,47.363,0
134549.049,44.922,35.645,32.715,38.086,102.539,0
134549.053,36.621,36.133,39.551,30.273,76.660,0
134549.057,19.043,41.992,39.551,10.254,11.719,0
134549.061,24.414,43.945,34.668,13.184,-5.859,0
134549.065,41.016,37.109,36.621,32.715,20.020,0
134549.069,37.598,35.156,35.156,32.227,52.734,0
134549.072,17.578,37.598,31.738,13.184,32.715,0
134549.076,8.789,35.156,33.203,10.742,5.371,0
134549.078,26.367,30.273,33.691,29.297,-4.395,0
134549.082,35.156,26.367,33.203,37.598,22.949,0
134549.086,17.090,32.715,34.668,27.832,31.250,0
134549.090,7.324,36.133,34.668,17.578,-5.859,0
134549.094,24.902,36.621,30.762,24.414,23.438,0
134549.098,41.016,38.574,28.320,38.574,95.703,0
134549.102,29.785,32.715,27.832,30.273,90.332,0
134549.106,13.672,30.273,27.344,11.230,18.066,0
134549.110,25.391,32.227,24.902,17.578,-11.719,0
134549.114,44.922,32.715,23.926,34.668,32.227,0
134549.117,35.156,31.250,30.273,33.203,70.312,0
134549.121,12.695,29.297,38.086,15.625,21.484,0
134549.124,17.578,32.715,36.621,10.254,-7.324,0
134549.127,42.969,33.203,29.297,30.273,30.273,0
134549.131,45.410,31.738,22.949,35.645,39.551,0
134549.135,18.066,34.180,25.391,17.090,-42.969,0
134549.139,6.348,25.391,30.762,4.395,-82.031,0
134549.143,29.785,20.020,29.785,20.996,-4.883,0
134549.147,40.039,25.391,28.809,39.062,52.734,0
134549.151,21.973,28.320,31.738,26.855,29.785,0
134549.155,12.695,32.715,35.645,11.230,-54.199,0
134549.159,32.227,33.691,35.645,25.391,-20.020,0
134549.163,50.781,28.809,29.297,46.875,94.727,0
134549.167,44.434,29.785,28.320,38.086,113.281,0
134549.169,21.484,27.832,32.227,19.043,32.715,0
134549.172,21.484,20.996,28.809,21.973,3.418,0
134549.176,45.410,25.879,28.809,41.016,67.383,0
134549.180,41.504,32.227,33.203,37.598,89.355,0
134549.184,15.137,36.621,35.156,13.184,42.969,2
134549.188,15.137,40.039,31.250,8.789,15.625,0
134549.192,41.504,36.621,28.809,29.297,55.664,0
134549.196,47.852,34.180,38.574,40.527,62.500,0
134549.200,28.320,35.645,44.922,25.391,8.301,0
134549.204,24.414,38.086,33.691,15.137,-10.742,0
134549.208,41.016,33.691,27.344,27.344,16.113,0
134549.212,50.293,26.855,28.809,41.504,48.340,0
134549.213,28.320,28.809,26.855,27.832,47.852,0
134549.217,12.207,31.738,28.320,12.207,-2.930,0
134549.221,34.180,32.227,25.879,20.996,-9.277,0
134549.225,53.711,33.203,23.438,34.668,70.312,0
134549.229,38.086,31.738,28.320,31.250,78.125,0
134549.233,14.648,34.180,34.180,14.648,13.184,0
134549.237,28.320,39.062,30.273,12.207,4.395,0
134549.241,53.711,37.109,20.508,25.879,40.039,0
134549.245,46.387,30.273,19.531,25.391,49.805,0
134549.249,20.508,32.715,22.949,6.836,11.230,0
134549.252,25.391,35.156,22.461,4.883,-32.227,0
134549.256,48.340,34.668,22.461,28.809,29.785,0
134549.258,45.410,29.297,23.926,40.039,93.262,0
134549.262,23.438,22.461,22.949,23.438,45.410,0
134549.266,11.719,28.320,22.461,13.184,-13.672,0
134549.270,29.297,39.062,24.414,29.785,-4.883,0
134549.274,44.922,36.621,23.438,40.039,51.270,0
134549.278,25.879,28.320,24.902,22.461,73.730,0
134549.282,10.254,32.227,29.297,4.883,21.973,0
134549.286,20.996,34.180,28.809,12.695,-9.766,0
134549.290,37.598,33.203,30.273,35.156,37.598,0
134549.294,32.715,36.133,30.273,36.133,61.523,0
134549.298,14.160,36.133,29.785,18.555,18.555,0
134549.301,20.508,34.180,33.203,18.066,-0.977,0
134549.305,45.898,37.109,31.250,36.133,41.016,0
134549.309,38.086,39.551,27.344,37.109,78.125,0
134549.313,4.883,31.738,26.367,14.648,-16.602,0
134549.317,3.418,32.715,27.344,8.301,-68.848,0
134549.320,28.809,39.062,27.344,29.785,32.227,0
134549.324,38.574,35.645,25.391,40.039,62.500,0
134549.328,18.555,34.180,31.250,25.879,-18.555,0
134549.332,6.348,39.551,37.109,10.254,-68.359,0
134549.336,25.879,37.598,29.785,21.973,26.367,0
134549.340,44.922,32.715,25.391,44.922,139.160,0
134549.344,36.621,33.203,30.273,36.133,113.281,0
134549.348,15.137,31.738,30.762,12.207,39.551,0
134549.349,27.344,28.320,26.367,16.113,38.574,0
134549.352,53.711,31.250,28.809,39.551,73.730,0
134549.356,39.551,37.598,31.250,39.551,80.566,0
134549.360,11.230,37.598,30.273,17.090,30.762,0
134549.364,9.766,35.645,35.156,15.625,21.484,0
134549.368,34.668,36.133,34.180,36.133,92.285,0
134549.372,35.645,36.133,33.203,43.457,81.055,0
134549.376,3.906,33.203,31.738,23.438,33.203,0
134549.380,-2.930,32.227,28.320,9.766,0.000,0
134549.384,25.879,30.762,25.391,27.344,1.465,0
134549.388,39.062,29.297,25.879,40.527,47.363,0
134549.392,18.066,33.203,27.344,24.902,30.762,0
134549.409,5.859,34.668,24.902,10.254,-18.555,0
134549.413,29.785,30.762,25.391,22.461,-19.531,0
134549.416,50.293,35.645,24.414,42.480,13.184,0
134549.420,32.227,42.969,28.809,36.133,53.223,0
134549.424,7.324,38.574,33.203,13.184,13.672,0
134549.428,15.625,31.250,32.227,14.160,-32.227,0
134549.432,43.945,27.344,36.133,37.109,38.574,0
134549.436,42.480,27.344,37.598,40.039,88.867,0
134549.440,16.602,35.156,34.180,17.578,52.734,0
134549.444,12.207,38.086,34.180,9.766,-13.672,0
134549.448,35.156,34.668,33.691,29.297,22.949,0
134549.452,39.551,37.109,32.227,40.527,79.590,0
134549.454,15.137,40.527,30.273,20.996,29.785,0
134549.457,9.277,33.203,23.926,6.836,-19.043,0
134549.461,30.762,28.320,17.090,25.391,5.371,0
134549.465,44.922,26.855,23.438,39.062,57.617,0
134549.469,26.855,30.273,30.273,25.391,23.438,0
134549.473,10.254,38.086,37.109,12.207,-46.875,0
134549.477,24.902,41.504,36.621,16.602,-28.809,0
134549.481,43.457,42.480,27.832,33.691,68.848,0
134549.485,37.598,42.969,28.809,34.180,51.270,0
134549.489,16.113,40.039,30.273,15.137,-17.090,0
134549.493,27.344,34.180,25.879,14.160,33.203,0
134549.496,58.105,28.809,27.344,38.574,66.895,0
134549.498,54.199,31.250,34.180,44.922,62.988,0
134549.502,24.902,36.133,29.785,23.926,34.180,0
134549.506,19.043,35.645,25.879,17.090,-15.137,0
134549.510,44.922,32.715,29.785,36.133,-5.371,0
134549.514,53.711,35.156,29.297,44.434,33.203,0
134549.518,25.391,38.574,25.879,23.438,-9.766,0
134549.522,12.207,37.598,27.832,7.812,-41.504,0
134549.526,32.715,36.621,30.273,20.020,28.320,0
134549.530,46.387,34.668,33.691,35.645,24.902,0
134549.534,26.855,33.203,31.738,22.461,25.391,0
134549.537,8.789,31.250,28.320,4.395,36.621,0
134549.541,22.461,31.250,31.738,18.555,6.836,0
134549.545,41.992,36.133,26.855,34.180,19.043,0
134549.549,37.598,37.598,19.531,20.508,55.176,0
134549.553,15.137,43.457,22.949,0.000,35.645,0
134549.557,18.066,42.969,32.227,7.812,-42.969,0
134549.560,35.645,27.832,30.273,30.273,9.277,0
134549.564,32.227,26.855,23.926,31.250,70.312,0
134549.568,7.812,30.762,23.926,9.766,24.414,0
134549.572,0.488,27.344,26.855,-0.977,-9.277,0
134549.576,27.344,23.926,27.832,18.555,11.230,0
134549.580,38.086,25.391,25.391,31.250,86.914,0
134549.584,16.602,25.879,26.855,10.742,38.574,0
134549.588,8.789,26.855,25.879,-8.301,-65.430,0
134549.589,26.855,32.227,21.484,5.371,-11.719,0
134549.592,38.574,30.273,19.531,22.461,94.727,0
134549.596,24.414,26.855,19.043,14.648,112.793,0
134549.600,3.418,26.367,19.531,0.000,34.668,0
134549.604,19.043,23.438,23.438,8.789,14.160,0
134549.608,44.434,25.391,24.414,31.250,55.176,0
134549.612,33.691,27.832,25.879,28.809,80.078,0
134549.616,5.371,30.273,25.879,3.906,50.293,0
134549.620,4.395,28.320,25.879,-0.488,7.324,0
134549.624,26.855,25.391,28.809,22.461,85.938,0
134549.628,25.879,22.461,24.902,26.855,116.699,0
134549.631,0.000,19.531,20.508,2.441,57.129,0
134549.634,-1.953,20.020,20.996,-6.836,45.410,0
134549.638,21.973,23.438,21.484,13.672,75.684,0
134549.641,30.762,27.344,15.137,29.297,88.867,0
134549.645,18.555,31.738,14.648,14.648,24.902,0
134549.649,5.371,32.227,20.020,3.906,-4.883,0
134549.653,22.461,32.227,25.391,19.043,35.645,0
134549.657,41.016,34.180,29.785,33.203,94.727,1
134549.661,22.949,33.691,30.762,20.020,68.848,0
134549.665,-1.953,26.367,25.391,-1.953,17.090,0
134549.669,12.207,23.438,17.090,4.883,7.324,0
134549.673,38.086,25.391,19.531,29.785,57.617,0
134549.677,26.855,27.832,24.414,29.297,100.586,0
134549.679,1.465,29.297,24.414,11.719,76.660,0
134549.682,5.371,31.738,24.414,12.207,36.133,0
134549.686,29.297,26.855,22.461,30.273,32.227,0
134549.690,37.598,26.855,24.902,38.086,24.414,0
134549.694,24.902,31.250,29.297,19.043,-32.227,0
134549.698,5.371,24.414,27.832,2.441,-70.801,0
134549.702,21.484,24.414,25.879,22.949,-39.551,0
134549.706,41.992,31.738,25.391,38.086,35.156,0
134549.710,23.926,34.180,24.414,16.602,24.414,0
134549.714,9.766,35.156,26.855,2.441,-26.855,0
134549.718,26.367,32.715,25.391,15.137,7.324,0
134549.721,46.875,28.809,16.602,36.621,74.707,0
134549.723,36.621,30.762,18.066,33.691,62.988,0
134549.727,4.883,31.250,20.996,11.230,-12.695,0
134549.731,6.836,21.973,12.207,8.301,-26.367,0
134549.735,41.992,18.555,12.695,30.273,43.457,0
134549.739,42.969,24.414,21.973,38.086,51.270,0
134549.743,12.207,33.203,30.273,20.508,-24.902,0
134549.747,11.719,36.621,30.273,15.625,-29.785,0
134549.751,40.527,32.227,23.438,36.621,10.742,0
134549.755,48.828,35.156,19.043,50.781,50.293,0
134549.759,28.809,36.621,19.043,32.227,25.391,0
134549.763,15.137,32.227,25.391,14.648,-42.480,0
134549.766,32.227,33.691,23.438,28.809,17.578,0
134549.783,50.781,37.598,20.996,47.363,73.730,0
134549.787,28.809,37.109,23.926,34.668,29.785,0
134549.791,1.465,39.062,27.344,10.254,-27.832,0
134549.795,14.648,38.086,26.367,15.625,-17.090,0
134549.799,38.574,33.203,26.367,36.133,60.547,0
134549.803,32.715,33.203,30.762,32.227,53.711,0
134549.807,12.695,35.156,27.344,15.625,-14.160,0
134549.811,22.949,40.039,22.461,17.090,-3.418,0
134549.815,46.387,43.457,21.973,35.156,72.754,0
134549.819,49.316,36.621,24.902,43.457,93.750,0
134549.823,27.344,34.180,25.391,23.926,37.598,0
134549.826,10.254,33.203,27.344,8.301,20.996,0
134549.829,34.180,30.762,24.902,22.949,45.898,0
134549.833,47.363,31.250,22.461,35.156,74.707,0
134549.837,21.973,33.203,28.809,20.508,62.500,0
134549.841,6.348,36.133,27.832,2.930,-16.602,0
134549.844,22.461,34.180,19.043,12.207,-28.320,0
134549.848,41.992,31.250,22.461,35.156,25.879,0
134549.852,34.668,35.156,29.297,31.250,34.180,0
134549.856,15.137,36.133,22.949,8.301,-21.484,0
134549.860,23.926,30.273,18.555,8.789,-20.996,0
134549.864,51.270,29.785,26.367,33.691,13.184,0
134549.868,41.016,31.250,26.855,30.273,19.531,0
134549.872,13.184,31.250,25.879,6.836,17.578,0
134549.873,13.184,30.762,23.438,2.930,0.977,0
134549.877,36.133,31.250,19.043,22.461,18.066,0
134549.881,41.016,34.668,20.508,33.203,60.059,0
134549.885,16.113,32.715,23.438,15.625,26.367,0
134549.889,7.324,30.762,26.367,5.371,-25.879,0
134549.893,32.715,27.832,28.809,27.832,31.250,0
134549.897,42.480,23.438,32.715,42.969,75.195,0
134549.901,20.508,22.461,36.133,24.414,56.641,0
134549.905,6.348,22.949,35.156,7.324,-22.461,0
134549.909,16.113,22.949,23.926,20.508,-11.719,0
134549.913,30.273,23.438,20.020,39.062,94.727,0
134549.916,22.461,25.391,26.367,31.250,54.199,0
134549.918,2.441,30.273,28.320,10.742,-12.207,0
134549.922,14.648,35.156,27.344,16.113,-15.137,0
134549.926,41.504,35.645,23.926,38.086,29.785,0
134549.930,41.016,35.645,25.879,41.016,13.672,0
134549.934,20.508,35.645,33.691,25.391,-52.734,0
134549.938,22.949,30.273,37.109,24.902,-66.895,0
134549.942,50.293,29.785,33.691,42.480,-13.184,0
134549.946,57.617,36.133,31.250,48.340,54.199,0
134549.950,29.785,39.062,31.738,31.250,28.320,0
134549.954,12.695,36.621,29.297,14.648,-1.465,0
134549.958,31.250,34.668,30.273,28.809,43.945,0
134549.961,43.457,36.621,28.320,45.410,117.676,0
134549.964,20.996,33.203,28.320,32.227,108.887,0
134549.967,-3.418,27.832,36.133,9.277,22.949,0
134549.971,14.648,33.203,34.180,20.020,36.621,0
134549.975,39.062,35.645,29.297,44.922,100.586,0
134549.979,23.438,32.715,30.273,36.621,81.055,0
134549.983,1.465,32.715,26.855,13.672,39.551,0
134549.987,14.160,29.785,25.391,16.602,15.625,0
134549.991,41.504,27.832,32.227,36.621,17.578,0
134549.995,38.086,28.809,34.668,35.645,71.777,0
134549.999,10.254,29.297,34.180,15.625,55.664,0
134550.003,11.719,32.715,32.715,12.207,2.930,0
134550.006,36.133,36.621,32.227,29.297,43.945,0
134550.010,38.574,33.691,31.738,38.086,76.172,0
134550.014,15.625,27.344,33.691,25.879,41.504,0
134550.018,3.418,26.367,34.668,10.254,1.465,0
134550.022,20.996,30.273,28.809,18.066,32.715,0
134550.025,37.109,34.180,23.926,33.203,109.863,0
134550.029,22.949,34.180,28.320,28.320,72.266,0
134550.033,11.230,34.180,32.715,12.695,-6.836,0
134550.037,22.949,35.156,29.785,13.672,23.438,0
134550.041,34.668,33.691,25.391,30.762,76.172,0
134550.045,23.926,29.297,32.715,25.391,54.199,0
134550.049,1.953,32.715,40.039,4.883,53.711,0
134550.053,11.719,37.598,33.691,7.324,63.477,0
134550.053,38.574,34.180,24.414,27.344,69.336,0
134550.057,36.621,35.645,24.902,32.715,89.844,0
134550.061,12.695,39.551,33.203,14.160,55.176,0
134550.065,9.766,37.598,34.180,5.371,33.691,0
134550.069,35.645,37.109,28.320,21.973,82.031,0
134550.073,47.363,40.527,28.809,31.738,106.445,0
134550.077,20.508,42.969,32.227,17.578,52.246,1
134550.081,4.883,41.504,33.691,3.418,-22.461,0
134550.085,28.809,32.715,32.227,16.602,-20.020,0
134550.089,46.875,28.809,27.832,35.645,33.203,0
134550.093,35.156,41.016,28.320,24.902,33.203,0
134550.096,13.672,42.969,29.785,9.277,-4.395,0
134550.098,19.531,30.762,24.902,15.625,25.391,0
134550.102,36.621,29.297,24.902,33.691,112.793,0
134550.106,29.785,30.762,25.879,35.156,131.348,0
134550.110,11.719,25.879,24.902,18.555,74.707,0
134550.114,6.348,26.367,31.250,14.648,52.734,0
134550.118,33.203,32.715,37.598,37.109,66.406,0
134550.122,43.457,33.691,36.621,45.898,72.754,0
134550.126,17.578,34.668,30.762,20.996,57.617,0
134550.130,15.625,40.527,24.902,10.742,-17.578,0
134550.134,46.387,36.621,25.391,29.785,-29.297,0
134550.138,62.012,34.180,28.809,45.410,39.551,0
134550.141,37.598,34.180,29.297,31.738,24.414,0
134550.158,17.578,35.156,28.320,15.625,-38.086,0
134550.162,36.621,37.598,31.250,28.320,-32.715,0
134550.166,55.176,41.504,31.738,43.457,27.832,0
134550.170,38.574,41.992,34.668,35.645,41.504,0
134550.174,9.766,32.715,40.039,20.020,3.418,0
134550.178,15.625,35.156,35.645,20.020,-12.695,0
134550.182,38.574,37.598,28.320,37.598,45.410,0
134550.186,35.645,28.809,27.832,41.016,78.613,0
134550.190,9.277,29.785,28.809,19.531,-1.953,0
134550.194,6.836,33.203,24.902,15.137,-40.527,0
134550.197,34.180,32.227,20.508,35.156,15.137,0
134550.201,42.969,30.762,23.438,41.992,40.039,0
134550.203,19.043,32.715,29.785,20.508,-8.301,0
134550.207,9.277,30.273,35.645,8.301,-30.273,0
134550.211,39.062,20.996,33.203,26.855,5.859,0
134550.215,58.105,25.391,30.273,43.457,83.984,0
134550.219,34.180,38.574,29.297,32.715,105.469,0
134550.223,14.160,38.086,27.344,15.137,4.883,0
134550.227,23.926,31.250,25.391,19.043,18.555,0
134550.231,34.668,25.879,26.855,36.621,94.727,0
134550.235,21.484,26.367,25.391,35.156,75.195,0
134550.239,1.465,29.785,20.996,11.230,-23.926,0
134550.242,6.348,28.320,26.367,9.277,-48.828,0
134550.246,27.344,27.832,33.691,32.715,52.246,0
134550.250,30.273,29.297,37.598,40.527,75.195,0
134550.254,10.254,31.738,38.086,21.484,-0.488,0
134550.258,8.301,31.738,37.598,10.254,-42.969,0
134550.262,32.715,24.902,31.250,29.785,12.695,0
134550.266,38.574,24.414,25.879,40.527,53.223,0
134550.270,15.625,26.367,25.391,20.020,6.348,0
134550.274,12.207,28.809,29.297,10.254,-32.715,0
134550.277,42.480,30.762,31.250,26.367,17.090,0
134550.281,55.176,33.203,31.250,38.574,55.176,0
134550.285,35.645,31.738,29.297,27.344,12.207,0
134550.289,19.531,29.297,30.762,10.742,-56.641,0
134550.293,27.344,29.785,35.156,17.090,-60.059,0
134550.294,47.363,25.391,28.809,34.668,42.969,0
134550.298,38.086,26.855,25.879,33.691,84.473,0
134550.302,5.371,27.344,32.227,17.578,36.133,0
134550.306,9.766,29.297,33.691,19.531,-5.371,0
134550.310,35.645,31.738,30.273,36.133,37.598,0
134550.314,34.668,30.273,32.227,35.156,62.988,0
134550.318,9.766,32.715,36.133,17.090,25.879,0
134550.321,8.301,34.668,36.133,7.812,-2.930,0
134550.325,37.598,28.809,35.156,25.391,4.395,0
134550.329,44.434,25.391,33.691,39.062,68.848,0
134550.333,26.367,34.180,28.809,21.973,70.801,0
134550.337,17.090,37.109,27.344,9.766,7.812,0
134550.339,29.785,28.809,27.832,22.949,0.488,0
134550.343,49.316,27.344,26.855,41.992,77.148,0
134550.347,35.645,28.809,28.320,34.668,70.801,0
134550.351,13.184,34.668,37.598,16.113,19.043,0
134550.354,22.949,38.574,38.086,19.043,-15.625,0
134550.358,41.504,32.227,32.715,34.180,26.367,0
134550.362,35.645,33.203,33.203,34.668,77.637,0
134550.366,15.137,29.785,35.645,16.113,-16.602,0
134550.370,15.625,23.926,34.180,9.766,-69.824,0
134550.374,39.551,27.832,32.227,30.273,-0.488,0
134550.378,46.387,33.203,34.668,41.504,51.758,0
134550.382,24.414,39.062,32.227,22.461,-13.672,0
134550.383,15.137,39.062,31.738,11.719,-78.125,0
134550.387,38.086,36.133,37.598,30.273,-8.301,0
134550.391,51.270,32.715,37.109,40.039,75.195,0
134550.395,33.203,33.203,37.109,23.438,38.086,0
134550.399,12.207,30.762,41.016,4.883,-24.902,0
134550.403,24.902,26.367,35.645,13.184,1.465,0
134550.407,47.363,29.297,28.320,36.621,63.477,0
134550.411,33.691,28.320,26.855,30.762,64.941,0
134550.415,9.766,28.320,26.367,9.766,14.648,0
134550.419,20.508,29.297,23.438,13.184,13.672,0
134550.423,44.434,26.367,23.926,31.738,71.777,0
134550.426,41.992,28.320,31.250,32.715,88.379,0
134550.428,12.695,29.297,34.180,13.672,38.574,0
134550.432,10.742,32.715,30.273,6.348,29.785,0
134550.436,34.180,33.691,26.855,23.926,63.477,0
134550.440,33.203,27.344,21.973,30.273,105.957,0
134550.444,12.207,28.809,24.414,12.695,61.523,0
134550.448,6.348,30.273,28.809,3.906,4.883,0
134550.452,28.320,26.367,28.809,21.973,20.508,0
134550.456,40.527,30.762,26.367,36.133,75.195,0
134550.460,21.973,34.668,21.484,21.484,66.406,0
134550.464,11.230,34.668,20.508,8.301,1.953,0
134550.467,31.738,33.203,26.367,21.484,41.016,0
134550.471,51.270,26.855,31.250,41.504,110.840,0
134550.475,45.410,28.320,29.785,35.645,94.238,0
134550.479,22.949,33.203,28.809,15.137,29.297,0
134550.483,23.438,31.738,27.832,20.996,1.953,0
134550.487,46.387,25.879,22.949,40.527,45.898,0
134550.490,43.457,33.203,18.555,42.969,85.938,0
134550.494,19.043,41.992,24.902,23.438,26.855,0
134550.498,18.066,40.039,30.273,15.625,-18.555,0
134550.502,42.969,40.527,29.297,37.109,53.711,0
134550.506,50.293,37.598,35.156,47.363,90.820,0
134550.510,25.879,33.691,38.086,29.297,22.461,0
134550.514,17.090,37.109,32.227,17.578,12.207,0
134550.518,38.086,34.668,25.879,29.785,52.246,0
134550.533,51.270,24.902,22.461,45.410,43.457,0
134550.537,32.227,22.461,27.344,40.527,11.719,0
134550.541,17.090,29.785,32.715,20.996,-5.859,0
134550.545,33.691,32.227,26.855,22.461,-3.906,0
134550.549,48.340,27.832,22.461,39.551,62.988,0
134550.553,36.621,32.715,28.320,36.621,78.613,0
134550.557,14.648,40.527,35.156,20.508,-0.977,0
134550.561,20.020,38.086,33.691,21.973,7.812,0
134550.565,40.039,29.785,28.809,40.039,74.219,0
134550.569,37.598,26.855,24.902,39.062,71.289,0
134550.573,13.184,26.367,20.508,18.555,13.672,0
134550.576,11.719,27.832,21.484,9.766,-10.254,1
134550.578,34.180,30.273,22.949,23.926,34.180,0
134550.582,34.668,32.715,21.973,30.762,78.613,0
134550.586,14.160,30.762,23.926,17.090,49.805,0
134550.590,4.883,33.203,27.344,8.301,20.996,0
134550.594,21.973,37.109,30.762,20.996,31.738,0
134550.598,37.598,24.902,33.203,38.574,65.430,0
134550.602,21.973,18.555,31.250,32.715,60.547,0
134550.606,3.906,28.809,25.879,17.578,-13.672,0
134550.610,15.625,32.227,26.855,21.484,-22.461,0
134550.614,37.109,28.809,30.762,34.668,47.363,0
134550.618,34.180,29.297,30.762,31.250,100.586,0
134550.621,14.160,34.668,30.273,15.137,54.688,0
134550.623,13.672,38.086,31.738,14.160,-19.531,0
134550.627,36.621,40.039,31.250,32.715,44.922,0
134550.631,35.156,40.527,26.367,37.109,83.984,0
134550.635,8.301,32.227,22.461,14.648,29.785,0
134550.639,2.930,23.926,26.855,3.418,9.277,0
134550.643,28.809,24.902,29.297,19.531,21.973,0
134550.647,39.062,28.809,24.902,29.297,73.242,0
134550.651,15.625,29.785,25.879,17.090,67.383,0
134550.655,1.953,29.785,28.809,6.836,-7.324,0
134550.659,23.926,34.180,30.762,23.926,0.000,0
134550.662,45.410,40.527,29.785,44.922,89.355,0
134550.666,32.715,36.133,25.391,36.133,85.938,0
134550.668,11.719,30.762,29.297,16.602,5.859,0
134550.672,26.367,30.762,30.762,21.973,-6.348,0
134550.676,48.828,27.832,27.832,42.480,59.570,0
134550.680,40.039,27.344,29.785,46.387,74.219,0
134550.684,16.113,33.691,32.227,25.391,12.695,0
134550.688,12.695,38.086,32.715,17.090,-14.648,0
134550.692,39.551,41.016,33.691,40.039,-29.785,0
134550.696,41.504,36.133,35.156,47.363,-10.254,0
134550.700,15.625,40.039,32.227,24.414,-51.270,0
134550.704,7.812,43.457,35.156,14.160,-101.074,0
134550.708,22.461,29.785,37.598,26.855,-52.246,0
134550.711,30.273,19.531,33.691,33.691,-3.906,0
134550.715,11.719,19.043,26.855,23.438,16.602,0
134550.719,-7.324,27.832,21.484,8.301,-9.766,0
134550.723,8.301,29.297,24.902,17.090,18.555,0
134550.726,33.203,24.902,29.785,40.039,65.430,0
134550.730,27.344,27.832,33.203,32.715,45.410,0
134550.734,7.324,26.367,34.668,8.789,-11.719,0
134550.738,16.602,27.832,34.180,14.160,-34.180,0
134550.742,46.387,37.109,27.832,35.645,25.391,0
134550.746,43.945,40.039,23.926,36.133,48.828,0
134550.750,18.555,35.156,24.902,15.137,13.672,0
134550.754,17.090,34.180,25.879,6.836,3.906,0
134550.758,38.086,37.109,26.855,26.367,34.668,0
134550.759,43.945,37.109,30.273,39.551,63.965,0
134550.763,20.508,35.156,32.715,21.484,83.496,0
134550.766,5.371,35.645,30.762,6.348,61.035,0
134550.770,26.367,35.645,26.855,21.973,30.762,0
134550.774,43.945,29.785,29.785,40.527,67.871,0
134550.778,25.879,23.926,39.062,34.180,74.707,0
134550.782,3.418,27.344,39.551,17.090,-10.742,0
134550.786,15.137,25.879,36.133,22.949,-28.809,0
134550.790,45.410,25.391,37.598,53.223,52.246,0
134550.794,44.434,38.574,37.598,48.340,65.430,0
134550.798,12.695,45.410,33.691,8.789,-11.230,0
134550.802,14.160,46.875,31.250,-1.465,-64.453,0
134550.804,31.250,44.922,30.762,18.066,34.180,0
134550.807,19.531,35.645,26.855,24.902,96.191,0
134550.811,0.488,34.668,24.902,5.371,-11.719,0
134550.815,4.883,36.133,26.855,-0.977,-41.992,0
134550.819,31.738,36.621,27.344,21.484,32.227,0
134550.823,43.457,35.156,32.227,40.527,32.227,0
134550.827,23.926,33.691,35.645,28.320,-29.785,0
134550.831,8.789,28.809,30.762,8.789,-72.266,0
134550.835,27.832,28.809,24.414,21.484,-23.438,0
134550.839,47.852,30.762,22.949,44.434,58.594,0
134550.843,29.785,28.320,27.832,34.180,39.062,0
134550.847,4.395,31.250,28.320,11.719,-32.227,0
134550.848,13.672,31.250,25.879,13.672,-14.648,0
134550.852,37.598,28.809,26.367,34.668,69.824,0
134550.856,32.227,29.297,22.949,35.645,83.008,0
134550.860,9.277,32.227,29.297,15.137,48.828,0
134550.864,11.719,32.715,39.551,10.742,14.648,0
134550.868,28.320,27.344,37.598,27.344,23.926,0
134550.872,28.809,28.320,32.715,34.668,42.480,0
134550.876,10.254,33.203,32.227,15.137,-7.324,0
134550.880,4.395,30.273,29.785,2.930,-11.719,0
134550.884,28.320,28.809,23.926,21.484,17.090,0
134550.888,36.621,26.855,24.414,31.250,43.457,0
134550.891,20.020,31.250,30.762,22.461,58.594,0
134550.908,8.789,40.039,29.297,12.207,-0.977,0
134550.912,18.066,29.785,22.949,13.184,-28.809,0
134550.916,38.086,26.367,27.832,31.738,46.875,0
134550.920,26.367,34.668,33.691,27.832,83.984,0
134550.924,1.953,35.156,33.691,3.906,42.969,0
134550.928,9.277,31.738,36.133,5.859,-0.977,0
134550.932,37.109,29.785,32.715,29.297,30.273,0
134550.936,38.086,29.785,28.809,29.297,83.008,0
134550.940,6.348,31.738,30.273,5.859,16.602,0
134550.944,5.859,34.180,33.203,2.930,-0.977,0
134550.947,33.691,32.715,30.762,22.949,67.383,0
134550.951,35.156,31.738,27.832,27.344,96.191,0
134550.953,14.648,35.156,28.809,8.301,51.758,0
134550.957,8.789,33.203,26.367,-3.906,-22.949,0
134550.961,31.250,27.832,22.461,12.207,6.836,0
134550.965,52.734,32.715,24.414,34.668,57.129,0
134550.969,31.250,36.621,29.297,24.414,30.273,0
134550.973,3.906,33.691,31.250,0.488,-34.668,0
134550.977,21.484,35.645,29.297,10.742,-20.020,0
134550.981,41.016,30.762,29.297,30.273,93.750,0
134550.985,25.391,26.855,34.180,20.020,81.543,0
134550.989,2.441,32.227,35.645,0.977,-27.832,0
134550.993,9.766,30.762,33.691,3.418,9.277,0
134550.996,32.227,27.344,31.738,21.484,117.676,0
134550.999,29.785,33.203,32.715,23.438,104.980,0
134551.003,9.277,36.621,35.156,3.906,34.668,0
134551.006,8.789,33.203,35.156,-2.930,14.648,0
134551.010,36.621,34.180,26.855,16.602,49.316,0
134551.014,48.828,37.109,20.020,29.297,92.285,1
134551.018,22.949,29.785,24.902,16.602,54.199,0
134551.022,5.859,24.414,30.273,3.906,-17.578,0
134551.026,25.879,28.320,27.832,22.461,18.066,0
134551.030,43.457,34.180,27.344,43.457,42.480,0
134551.034,28.320,41.016,35.645,35.156,20.996,0
134551.038,9.277,41.992,42.480,15.137,23.926,0
134551.042,23.438,40.039,39.551,22.461,47.852,0
134551.043,45.410,36.621,36.621,44.922,73.242,0
134551.047,35.156,38.574,34.668,42.480,93.750,0
134551.051,12.207,40.039,27.344,26.855,56.152,0
134551.055,20.020,26.855,26.367,23.926,12.695,0
134551.059,54.199,22.949,25.391,39.551,76.660,0
134551.063,53.711,32.227,24.902,43.945,114.258,0
134551.067,20.020,34.668,27.832,20.996,62.500,0
134551.071,20.996,34.668,28.320,17.578,-2.930,0
134551.075,46.387,40.527,29.297,40.527,13.672,0
134551.079,57.129,38.574,36.621,50.781,62.500,0
134551.083,34.668,29.297,38.086,34.668,54.688,0
134551.086,13.672,29.785,32.227,17.578,-20.020,0
134551.089,35.645,26.855,25.391,28.809,-2.930,0
134551.092,51.270,22.949,23.926,49.805,77.637,0
134551.096,26.367,26.855,29.785,40.527,57.129,0
134551.100,3.906,30.273,29.785,18.066,-8.301,0
134551.104,19.043,27.832,24.414,24.902,-15.137,0
134551.108,44.434,27.832,25.879,47.852,10.254,0
134551.112,34.668,29.297,32.227,46.387,24.902,0
134551.116,10.254,30.762,38.086,27.832,-27.344,0
134551.120,13.672,36.621,37.598,24.902,-27.832,0
134551.124,38.086,29.297,29.297,41.016,36.133,0
134551.128,41.992,24.902,27.344,43.945,50.781,0
134551.131,24.414,29.297,29.785,25.879,20.508,0
134551.133,9.766,26.855,27.344,16.602,-29.785,0
134551.137,24.414,25.879,29.297,31.738,10.742,0
134551.141,43.457,28.320,32.715,45.898,54.199,0
134551.145,27.344,32.227,28.809,32.227,23.438,0
134551.149,8.789,33.203,28.320,15.137,-0.488,0
134551.153,22.949,30.762,34.668,24.414,12.695,0
134551.157,43.457,32.227,35.645,41.016,25.879,0
134551.161,36.133,40.039,34.668,34.180,4.883,0
134551.165,13.672,34.180,32.715,13.672,-21.973,0
134551.169,19.043,26.855,32.715,11.230,4.395,0
134551.173,41.016,28.809,29.785,26.367,48.828,0
134551.176,37.598,29.297,26.367,30.273,71.777,0
134551.181,10.742,31.738,33.691,13.672,36.621,0
134551.184,5.859,29.785,35.645,5.859,-20.996,0
134551.188,38.574,27.344,35.645,30.273,1.465,0
134551.192,47.363,30.273,37.598,43.457,46.387,0
134551.196,22.461,32.227,34.668,23.926,29.785,0
134551.200,12.695,28.809,32.715,11.719,-6.348,0
134551.204,31.738,28.320,28.320,24.902,-7.812,0
134551.208,44.922,30.762,29.785,40.039,17.578,0
134551.212,30.273,32.715,37.109,31.738,26.367,0
134551.216,19.043,38.574,39.062,15.137,5.859,0
134551.220,34.180,34.668,33.203,22.949,45.410,0
134551.223,48.340,25.391,25.879,41.504,91.309,0
134551.224,39.062,29.297,26.367,30.762,90.820,0
134551.227,16.602,30.762,27.832,9.277,52.734,0
134551.231,17.578,31.738,30.273,16.113,54.688,0
134551.235,40.039,33.203,33.691,37.598,80.078,0
134551.239,37.598,30.273,30.273,35.156,63.477,0
134551.243,20.020,27.344,26.855,20.020,-7.812,0
134551.247,16.602,26.367,28.809,16.113,-82.031,0
134551.251,37.598,33.203,31.738,28.809,-7.324,0
134551.255,47.852,34.180,34.180,41.016,101.562,0
134551.259,15.625,31.250,33.203,20.508,53.223,0
134551.263,-0.977,30.273,28.809,2.441,-17.090,0
134551.267,23.926,29.785,21.973,15.625,12.695,0
134551.284,41.016,32.227,20.508,30.762,78.125,0
134551.287,22.949,30.762,24.414,20.996,59.082,0
134551.291,4.883,28.320,28.320,4.395,-5.371,0
134551.295,22.461,26.855,25.879,15.137,-9.277,0
134551.299,47.852,28.320,22.461,39.062,59.082,0
134551.303,37.109,32.715,32.227,35.156,93.262,0
134551.307,14.160,32.227,38.574,9.277,29.785,0
134551.311,24.902,33.691,29.785,12.207,-13.184,0
134551.315,43.945,33.203,25.879,34.668,54.199,0
134551.319,36.133,36.621,28.809,39.062,62.988,0
134551.323,13.672,40.527,33.203,21.973,10.254,0
134551.327,8.301,31.738,31.250,11.230,-0.488,0
134551.329,29.297,24.414,27.344,26.367,-4.395,0
134551.332,41.992,26.855,30.762,41.016,30.762,0
134551.336,23.438,32.227,36.621,31.738,6.836,0
134551.340,12.207,27.832,38.574,19.531,-26.367,0
134551.344,34.180,25.391,38.086,32.715,13.184,0
134551.348,46.875,33.203,33.203,50.781,36.621,0
134551.352,33.203,36.621,27.832,39.062,50.293,0
134551.356,16.113,29.297,27.344,17.578,20.996,0
134551.360,25.391,23.926,25.879,23.438,-13.672,0
134551.364,45.898,28.320,27.832,40.527,20.996,0
134551.368,41.504,28.809,26.367,37.598,70.312,0
134551.371,17.578,23.926,24.414,20.020,30.273,0
134551.373,15.625,24.902,31.250,17.090,-35.156,0
134551.377,42.969,28.809,31.250,38.086,30.762,0
134551.381,47.852,33.691,32.227,44.434,71.777,0
134551.385,17.090,34.180,39.551,21.973,8.789,0
134551.389,1.465,35.156,30.762,9.766,-20.020,0
134551.393,21.484,35.156,19.043,25.879,-3.418,0
134551.397,36.621,29.297,17.090,41.016,63.477,0
134551.401,21.484,30.273,21.973,23.438,98.633,0
134551.405,7.812,27.832,28.809,2.441,-23.438,0
134551.409,28.320,25.391,33.203,14.160,-27.832,0
134551.413,49.316,27.344,32.227,33.203,45.410,0
134551.416,40.039,26.855,28.320,31.738,4.883,0
134551.420,23.438,29.297,27.344,14.648,-44.434,0
134551.424,23.438,35.156,26.367,13.672,-45.898,0
134551.428,38.574,34.668,23.926,33.203,32.715,0
134551.432,35.156,31.738,23.926,31.250,51.758,0
134551.435,9.277,29.785,20.020,9.277,-0.977,1
134551.439,8.301,27.832,20.508,5.859,-7.324,0
134551.443,30.273,25.391,27.832,25.879,20.996,0
134551.447,36.133,25.879,29.297,37.109,57.617,0
134551.451,19.043,26.367,27.344,21.973,41.504,0
134551.455,14.160,30.762,30.762,8.789,22.949,0
134551.459,26.855,36.133,35.156,20.508,44.922,0
134551.463,40.039,40.039,33.691,36.621,73.730,0
134551.464,27.344,41.504,34.180,28.809,51.270,0
134551.467,4.883,31.738,29.785,8.789,-16.113,0
134551.471,25.391,31.250,21.973,20.020,0.000,0
134551.475,50.293,38.086,25.391,37.598,44.434,0
134551.479,37.598,37.109,29.785,26.367,6.836,0
134551.483,19.531,36.133,27.832,9.277,-59.570,0
134551.487,28.320,38.086,22.949,9.277,-67.871,0
134551.491,43.945,38.574,24.414,27.832,-28.320,0
134551.495,41.504,40.527,25.391,32.715,-14.160,0
134551.499,19.043,35.156,23.926,11.719,8.301,0
134551.503,9.766,36.133,27.832,5.859,4.883,0
134551.506,34.180,39.062,25.391,26.367,48.340,0
134551.508,42.480,35.156,21.484,38.574,94.727,0
134551.512,18.555,35.156,25.391,19.531,43.457,0
134551.516,4.883,35.645,28.809,3.906,-19.531,0
134551.520,33.203,33.691,25.391,21.973,-20.996,0
134551.524,49.805,34.668,22.949,40.527,43.945,0
134551.528,21.484,37.109,24.414,31.250,29.297,0
134551.532,3.418,35.156,23.926,12.207,-56.152,0
134551.536,18.555,30.762,20.996,15.625,-65.918,0
134551.540,40.527,30.273,22.461,37.598,10.254,0
134551.544,33.691,30.762,28.809,41.016,46.387,0
134551.548,11.230,33.691,28.809,23.926,21.484,0
134551.551,16.113,33.691,26.367,22.949,-2.930,0
134551.553,41.992,30.273,31.738,41.504,41.992,0
134551.557,40.527,32.227,37.109,42.480,68.359,0
134551.561,14.648,31.250,35.156,20.996,16.602,0
134551.565,11.719,29.297,31.738,11.230,-14.160,0
134551.569,38.086,28.320,26.855,24.414,42.969,0
134551.573,45.898,24.902,26.855,37.598,64.453,0
134551.577,18.066,25.879,36.133,24.902,-10.742,0
134551.581,-1.953,32.227,39.062,7.324,-50.781,0
134551.585,19.043,35.645,30.273,19.531,2.441,0
134551.589,39.062,38.086,28.809,36.621,42.969,0
134551.593,26.367,33.203,37.109,26.855,-1.465,0
134551.596,6.348,30.273,37.598,9.277,-20.996,0
134551.599,13.672,30.762,30.762,11.230,-12.207,0
134551.603,38.086,25.391,27.832,27.832,25.879,0
134551.607,34.180,26.367,28.809,29.297,63.965,0
134551.611,5.859,29.297,29.785,13.184,52.734,0
134551.615,6.836,28.320,26.367,9.277,-3.418,0
134551.619,31.738,32.227,24.414,26.855,-7.324,0
134551.623,37.109,35.156,30.273,32.715,34.668,0
134551.626,11.230,32.715,31.250,13.184,8.301,0
134551.630,-0.488,34.180,27.832,0.977,-0.977,0
134551.634,25.391,37.598,29.297,20.020,33.691,0
134551.638,37.109,31.738,32.715,36.621,86.914,0
134551.642,16.602,28.809,35.156,17.578,55.176,0
134551.645,1.953,36.621,32.715,-0.488,7.812,0
134551.649,19.531,34.668,31.250,16.602,19.531,0
134551.653,39.062,25.391,32.715,37.109,69.824,0
134551.657,26.367,28.809,31.738,26.367,116.211,0
134551.661,2.930,36.133,32.715,8.789,55.176,0
134551.664,15.137,33.203,32.227,14.648,-21.484,0
134551.668,45.898,31.738,28.320,32.715,47.363,0
134551.672,38.574,29.297,25.391,34.668,147.949,0
134551.676,12.695,32.227,27.832,15.137,96.191,0
134551.680,16.113,36.621,33.203,11.230,-17.090,0
134551.684,37.598,33.691,31.250,29.785,25.879,0
134551.688,42.969,34.180,31.250,40.039,103.027,0
134551.704,23.926,31.250,31.738,22.461,31.738,0
134551.708,5.371,26.367,25.879,2.930,-11.719,0
134551.712,23.438,26.855,20.996,15.625,40.039,0
134551.716,39.062,28.809,23.926,30.762,79.102,0
134551.720,21.484,31.738,27.832,17.578,44.922,0
134551.723,3.906,32.715,26.367,-4.883,4.395,0
134551.727,15.137,28.320,23.926,3.906,20.020,0
134551.731,36.621,27.832,25.879,29.785,86.914,0
134551.735,22.949,29.297,30.273,24.414,81.055,0
134551.739,-2.441,25.391,34.668,0.977,-8.789,0
134551.743,9.766,26.855,31.250,3.418,11.719,0
134551.747,31.738,29.297,25.879,24.902,88.867,0
134551.749,27.832,26.367,26.855,27.832,97.656,0
134551.752,7.812,27.344,24.414,8.789,72.266,0
134551.756,13.184,34.180,26.855,11.719,66.406,0
134551.760,38.086,33.691,29.297,34.668,74.219,0
134551.764,43.457,29.297,26.855,39.062,111.816,0
134551.768,21.484,31.738,36.133,25.391,92.285,0
134551.772,8.789,27.344,44.434,11.719,-3.418,0
134551.776,25.879,18.555,39.062,21.484,11.719,0
134551.780,40.527,19.043,32.227,34.668,55.176,0
134551.784,23.438,23.438,29.785,21.973,13.184,0
134551.788,-1.465,23.438,27.832,5.371,-18.555,0
134551.792,16.113,22.949,27.344,14.160,-15.625,0
134551.794,42.480,22.461,33.203,40.527,22.461,0
134551.797,27.832,22.949,32.227,34.668,46.387,0
134551.801,6.348,32.227,27.344,14.160,3.906,0
134551.805,20.020,38.086,35.156,21.973,-9.766,0
134551.809,47.363,30.273,39.062,43.945,72.754,0
134551.813,45.410,22.461,37.598,45.898,111.328,0
134551.817,15.625,21.973,39.062,20.996,71.777,0
134551.821,10.742,27.344,37.598,10.254,22.461,0
134551.825,38.574,31.250,33.203,28.809,49.316,0
134551.829,41.992,31.250,30.273,38.574,117.188,0
134551.833,16.602,35.156,33.203,21.484,77.148,0
134551.837,2.930,37.109,30.273,7.812,-12.207,0
134551.838,18.555,29.785,27.344,21.484,8.301,0
134551.842,36.621,24.414,31.738,41.992,66.406,0
134551.846,26.367,27.832,34.180,31.250,66.406,0
134551.850,8.789,32.715,38.574,10.254,-1.953,0
134551.854,19.043,30.273,39.551,15.137,-32.227,0
134551.858,41.504,29.297,37.109,34.668,47.363,0
134551.862,36.621,31.250,37.598,33.203,78.613,0
134551.866,11.719,34.180,36.133,12.207,-10.742,0
134551.870,16.602,34.180,30.762,8.789,-43.945,0
134551.874,44.434,37.109,29.785,33.691,48.828,0
134551.878,42.480,40.039,30.273,40.039,111.328,0
134551.881,17.090,34.668,29.785,16.113,77.637,0
134551.885,13.184,31.738,33.691,8.789,22.949,0
134551.889,31.738,37.598,32.715,22.461,42.969,0
134551.893,36.621,35.156,29.297,31.250,74.219,0
134551.896,13.672,30.762,33.203,17.578,50.293,0
134551.900,-1.465,37.109,41.016,4.883,11.230,0
134551.904,19.531,35.156,41.016,16.602,-4.883,0
134551.908,37.109,29.297,35.645,32.227,10.742,0
134551.912,22.461,30.762,35.645,28.809,-25.879,0
134551.916,0.977,27.832,37.109,12.207,-62.012,0
134551.920,9.277,21.484,34.180,15.625,-37.598,0
134551.924,38.574,24.414,29.785,40.527,0.977,1
134551.928,41.016,30.273,33.691,44.922,26.855,0
134551.928,20.508,29.785,38.574,24.902,6.348,0
134551.932,20.020,28.809,37.598,18.555,-20.996,0
134551.936,42.969,31.250,38.086,34.180,20.020,0
134551.940,50.781,36.133,36.133,41.016,57.617,0
134551.944,31.250,37.598,32.715,24.414,15.137,0
134551.948,20.996,36.621,35.156,9.766,-5.859,0
134551.952,37.598,32.715,34.668,24.902,25.879,0
134551.956,44.434,29.297,31.250,39.551,36.133,0
134551.960,27.344,29.297,31.250,34.180,57.129,0
134551.964,12.207,28.320,34.668,22.461,9.277,0
134551.968,27.832,29.785,32.227,25.879,-6.348,0
134551.971,49.316,30.273,29.297,41.992,66.895,0
134551.974,41.504,30.762,31.738,36.621,110.840,0
134551.977,15.625,27.344,31.250,15.137,36.133,0
134551.981,19.043,25.879,31.250,14.648,-11.230,0
134551.985,43.457,31.738,31.738,32.227,46.387,0
134551.989,42.480,30.762,29.297,29.297,65.918,0
134551.993,15.625,29.297,24.414,5.371,18.066,0
134551.997,7.324,25.391,19.043,-0.977,-26.855,0
134552.001,37.109,21.484,20.508,20.996,41.504,0
134552.005,42.480,30.273,24.414,30.273,101.562,0
134552.009,19.531,31.738,25.879,15.137,0.488,0
134552.013,7.324,27.832,26.367,6.348,-45.898,0
134552.017,24.414,28.320,28.320,20.508,-12.207,0
134552.033,39.062,23.926,32.715,40.527,26.367,0
134552.037,15.625,20.020,32.227,30.273,28.809,0
134552.041,-9.277,20.996,28.809,8.301,-45.898,0
134552.045,6.348,20.020,30.762,14.648,-34.668,0
134552.049,32.715,20.508,25.391,33.691,27.344,0
134552.053,21.484,20.996,20.508,29.297,20.508,0
134552.057,-1.465,23.926,23.438,7.324,11.719,0
134552.061,8.301,24.902,26.855,6.348,-9.766,0
134552.065,33.203,21.484,29.785,26.855,-0.488,0
134552.069,34.668,24.902,30.762,32.227,56.152,0
134552.073,14.160,26.367,30.762,16.602,48.828,0
134552.076,7.324,21.484,30.762,6.348,21.484,0
134552.078,28.809,19.531,26.367,21.484,59.082,0
134552.082,41.992,24.902,22.461,34.668,93.262,0
134552.086,21.973,26.855,32.227,20.020,72.754,0
134552.090,5.371,26.855,33.203,1.953,-0.488,0
134552.094,21.484,26.855,26.367,15.625,0.977,0
134552.098,37.109,27.344,31.250,40.527,50.781,0
134552.102,21.973,30.273,36.133,32.715,27.832,0
134552.106,1.465,23.926,36.621,12.695,-13.672,0
134552.110,16.113,20.508,32.715,19.043,-17.090,0
134552.114,41.992,27.832,33.203,36.133,27.344,0
134552.118,36.133,31.738,35.645,33.203,69.336,0
134552.121,11.719,27.832,33.203,13.184,42.969,0
134552.124,15.625,27.344,32.227,9.766,41.504,0
134552.128,39.062,31.738,30.273,29.785,83.008,0
134552.132,42.969,34.180,27.344,39.551,83.008,0
134552.136,24.902,28.809,27.832,24.414,35.645,0
134552.140,15.137,28.320,27.832,16.602,-6.348,0
134552.144,35.645,31.738,23.438,32.715,16.602,0
134552.148,52.246,30.762,25.391,46.875,82.031,0
134552.151,30.762,33.203,24.414,30.762,63.965,0
134552.155,11.230,34.180,19.043,14.160,-27.344,0
134552.159,32.227,34.668,22.461,27.344,-40.527,0
134552.163,55.664,32.715,28.809,42.969,35.156,0
134552.167,45.410,29.785,28.320,32.227,11.719,0
134552.168,23.438,33.203,30.762,11.719,-69.824,0
134552.172,28.809,38.574,31.250,13.184,-29.785,0
134552.176,54.688,33.691,23.438,31.738,63.965,0
134552.180,49.316,27.832,20.996,32.715,54.199,0
134552.184,15.137,28.320,23.926,12.207,-3.418,0
134552.188,15.137,31.250,25.879,10.742,-24.414,0
134552.192,39.062,35.156,21.973,31.738,44.434,0
134552.196,39.551,35.645,21.973,41.504,109.863,0
134552.200,14.648,27.344,26.367,24.902,67.383,0
134552.204,4.883,24.414,26.367,9.277,40.039,0
134552.208,27.832,27.832,25.391,27.832,57.617,0
134552.211,45.410,30.273,20.508,47.363,58.594,0
134552.213,27.832,29.297,20.508,30.273,28.809,0
134552.217,4.883,24.414,24.902,10.742,1.465,0
134552.221,17.578,26.367,24.414,21.484,12.207,0
134552.225,41.504,26.367,21.484,37.598,43.457,0
134552.229,28.809,21.973,22.461,31.250,53.711,0
134552.233,0.488,18.066,25.391,9.277,-13.672,0
134552.237,13.672,21.484,25.391,10.254,-43.457,0
134552.241,43.457,26.855,26.367,36.133,14.160,0
134552.245,37.598,29.785,25.879,37.109,37.598,0
134552.249,7.812,30.273,25.879,12.207,27.344,0
134552.253,5.371,27.344,27.832,9.766,6.836,0
134552.256,30.273,27.832,26.367,28.809,47.852,0
134552.258,42.969,28.320,26.367,43.945,105.469,0
134552.262,22.949,27.832,27.832,28.320,50.781,0
134552.266,5.859,32.715,29.785,14.160,-34.180,0
134552.270,28.809,28.809,31.250,31.738,4.395,0
134552.274,46.875,24.414,28.809,43.945,94.238,0
134552.278,24.414,26.855,25.879,28.809,87.891,0
134552.282,3.906,25.879,25.391,9.766,3.418,0
134552.286,17.578,23.926,27.344,19.043,-42.480,0
134552.290,37.109,22.949,24.414,38.086,38.574,0
134552.294,26.855,21.484,26.367,33.691,96.191,0
134552.298,5.859,23.438,31.738,15.625,13.672,0
134552.301,12.207,26.367,31.738,16.113,-42.969,0
134552.303,38.086,24.902,29.297,33.691,31.250,0
134552.307,44.434,31.250,31.738,41.504,81.543,0
134552.311,17.578,31.250,38.086,26.367,24.414,0
134552.315,12.695,23.926,37.109,18.066,-40.039,0
134552.319,40.039,27.344,33.691,36.621,3.418,0
134552.323,49.316,31.738,32.715,53.711,69.336,0
134552.327,23.926,28.809,35.645,34.180,23.438,0
134552.331,6.348,26.367,36.133,8.789,-24.902,0
134552.335,28.809,25.879,29.297,26.367,50.293,0
134552.339,47.852,27.344,28.320,51.270,84.961,0
134552.343,26.855,30.273,32.715,35.645,65.918,0
134552.346,5.859,30.762,38.574,14.160,37.598,0
134552.350,21.973,35.156,37.109,23.438,-1.465,0
134552.354,39.062,33.691,32.227,39.551,43.457,0
134552.358,25.391,30.273,32.227,38.574,42.969,0
134552.361,7.812,30.762,33.203,19.043,3.906,0
134552.365,13.184,32.715,31.738,12.207,45.898,0
134552.369,38.574,32.715,33.203,34.180,63.477,1
134552.373,44.922,29.785,36.133,43.457,31.250,0
134552.377,20.996,29.297,34.668,22.461,21.484,0
134552.381,11.719,31.250,32.227,11.230,-7.812,0
134552.385,34.668,34.180,29.297,27.344,28.320,0
134552.389,52.246,28.320,31.738,40.527,64.453,0
134552.393,27.832,29.297,34.180,30.273,4.883,0
134552.409,4.883,34.668,29.297,13.184,-25.391,0
134552.412,24.414,34.180,25.879,23.926,-15.137,0
134552.416,41.992,30.762,27.344,42.480,40.039,0
134552.420,28.320,33.203,34.180,32.715,67.383,0
134552.424,10.742,36.621,35.156,14.648,2.441,0
134552.428,22.461,34.180,28.320,19.531,-21.484,0
134552.432,44.922,35.645,31.738,37.109,38.086,0
134552.436,38.574,31.738,35.156,33.691,86.426,0
134552.440,20.508,28.320,30.762,15.137,30.762,0
134552.444,20.020,32.715,27.344,10.254,-9.277,0
134552.448,39.551,33.203,30.762,30.273,32.227,0
134552.452,43.945,33.203,32.227,40.039,50.293,0
134552.453,19.043,40.039,31.250,18.555,-0.488,0
134552.457,12.207,41.992,34.180,7.324,-23.926,0
134552.461,35.156,40.039,33.691,20.996,40.527,0
134552.465,46.875,39.062,25.879,32.715,75.684,0
134552.469,26.367,37.598,23.926,19.043,54.688,0
134552.473,3.418,36.133,27.344,0.977,-20.996,0
134552.477,22.949,34.180,28.320,13.672,-39.551,0
134552.481,47.852,33.691,29.785,35.156,44.922,0
134552.485,27.832,31.738,30.762,26.367,33.203,0
134552.489,0.977,30.762,29.785,5.371,-32.715,0
134552.493,11.230,32.227,30.273,10.254,-10.742,0
134552.496,37.109,29.785,28.320,31.738,69.336,0
134552.499,36.621,34.180,28.320,33.691,103.027,0
134552.502,13.672,36.621,29.785,16.602,19.043,0
134552.506,10.742,34.668,33.691,15.137,-8.301,0
134552.510,35.156,33.203,35.645,35.156,53.711,0
134552.514,39.062,30.273,33.203,39.551,65.430,0
134552.518,12.695,30.273,31.250,19.531,19.531,0
134552.522,4.395,30.762,32.227,5.371,-11.230,0
134552.526,22.461,33.691,34.668,21.484,20.996,0
134552.530,33.203,33.691,32.227,37.109,76.172,0
134552.534,19.531,31.250,33.203,25.391,70.312,0
134552.538,0.488,34.668,36.621,6.836,2.441,0
134552.541,14.648,31.738,36.621,14.648,-6.836,0
134552.544,41.992,25.391,35.645,34.180,23.438,0
134552.548,29.785,28.320,30.273,31.738,38.574,0
134552.551,6.348,33.691,27.344,14.648,25.391,0
134552.555,15.625,35.156,30.762,12.207,-30.762,0
134552.559,41.504,34.668,33.203,33.691,4.395,0
134552.563,39.062,34.180,25.879,35.645,56.641,0
134552.567,10.742,36.133,26.367,13.672,22.461,0
134552.571,3.418,39.062,34.180,6.348,-13.184,0
