timestamps,TP9,AF7,AF8,TP10,Right AUX,Marker0
135131.215,11.230,31.738,27.832,11.719,-47.852,0
135131.219,35.156,30.273,29.297,26.367,18.555,0
135131.223,48.340,32.227,35.156,36.133,85.449,0
135131.227,33.691,32.227,22.461,19.043,70.312,0
135131.231,8.301,16.602,8.789,-3.906,13.672,0
135131.234,14.160,12.207,13.184,4.883,10.742,0
135131.238,28.320,21.973,19.043,20.020,67.871,0
135131.242,20.508,27.344,30.762,19.531,79.590,0
135131.246,4.883,28.320,37.109,9.277,34.180,0
135131.250,19.043,35.156,35.156,23.926,41.992,0
135131.254,40.039,30.273,25.391,46.875,97.656,0
135131.258,37.109,14.160,21.484,41.992,107.422,0
135131.260,25.391,26.367,23.926,24.414,42.969,0
135131.264,26.367,43.945,24.902,20.508,10.254,0
135131.268,41.992,46.387,22.949,33.203,88.867,0
135131.272,43.945,43.945,29.297,36.133,114.258,0
135131.276,18.555,35.156,33.691,8.789,32.715,0
135131.280,10.742,21.484,31.738,-4.395,-52.246,0
135131.283,30.273,20.020,27.344,19.043,-3.906,0
135131.287,45.410,34.180,19.531,38.574,62.988,0
135131.291,28.809,41.992,15.625,31.250,16.113,0
135131.295,6.836,38.574,22.461,15.137,-38.574,0
135131.299,11.230,25.391,31.250,14.648,-19.531,0
135131.303,28.320,25.879,35.645,33.691,81.543,0
135131.305,28.320,30.762,41.992,36.133,103.027,0
135131.309,16.113,28.320,52.246,22.949,6.348,0
135131.313,28.320,42.969,34.180,28.320,26.367,1
135131.317,42.969,42.480,9.277,31.250,92.773,0
135131.321,25.391,26.367,20.020,17.578,110.352,0
135131.324,9.766,25.391,28.809,5.859,99.121,0
135131.328,14.648,24.414,28.809,9.766,67.871,0
135131.332,29.785,24.902,28.320,26.855,88.379,0
135131.336,38.086,20.996,25.879,35.645,61.035,0
135131.340,25.879,26.367,30.762,27.832,28.320,0
135131.344,22.949,39.551,24.414,22.461,21.484,0
135131.348,42.969,31.738,0.977,35.156,39.062,0
135131.350,54.199,39.062,19.531,46.387,75.684,0
135131.354,39.062,57.617,50.293,37.109,7.812,0
135131.358,9.766,46.875,38.574,16.602,-45.410,0
135131.362,17.090,39.551,27.344,20.508,-1.953,0
135131.365,39.062,40.527,23.438,41.504,89.844,0
135131.369,29.785,36.133,19.531,37.598,86.426,0
135131.373,17.090,32.227,26.367,20.020,-15.625,0
135131.377,35.645,35.156,39.551,29.785,-46.875,0
135131.381,52.734,37.109,39.551,45.410,3.418,0
135131.385,42.480,33.691,26.855,33.691,40.039,0
135131.389,17.090,27.344,19.043,12.207,11.719,0
135131.393,8.301,23.926,12.695,6.836,0.000,0
135131.396,29.297,26.855,13.672,21.973,38.574,0
135131.400,40.039,28.809,12.695,30.762,91.309,0
135131.404,26.855,33.691,19.531,21.484,54.688,0
135131.408,19.531,39.551,36.133,15.625,-12.207,0
135131.412,39.551,45.410,39.062,33.203,20.996,0
135131.416,47.363,37.109,27.832,43.457,68.848,0
135131.420,26.367,26.367,13.184,26.367,49.316,0
135131.424,18.066,29.785,16.113,18.555,-9.766,0
135131.427,39.062,29.785,24.414,27.832,-13.184,0
135131.431,53.223,16.602,31.250,43.457,64.941,0
135131.435,50.293,25.879,34.668,53.223,70.312,0
135131.439,31.250,42.480,10.742,31.250,5.371,0
135131.440,14.160,34.668,-1.465,14.648,-23.438,0
135131.444,21.973,26.855,18.066,25.391,12.695,0
135131.448,26.855,29.785,38.574,27.832,46.387,0
135131.452,11.230,30.762,44.922,10.254,10.254,0
135131.456,3.906,30.273,41.016,2.930,-28.320,0
135131.459,25.879,26.855,38.574,23.438,4.883,0
135131.463,43.457,27.344,40.039,38.574,49.805,0
135131.467,33.203,33.203,38.574,26.367,-10.742,0
135131.471,23.438,30.762,30.273,14.160,-38.574,0
135131.475,37.598,34.180,21.973,25.879,-11.230,0
135131.479,47.852,40.039,21.973,39.551,-5.859,0
135131.483,30.762,35.645,21.973,29.785,-3.906,0
135131.485,16.113,36.133,20.996,17.090,-7.324,0
135131.489,29.297,43.945,32.715,28.320,0.977,0
135131.493,39.551,40.527,37.109,38.574,38.574,0
135131.497,34.180,29.297,36.621,34.180,41.504,0
135131.501,10.254,20.996,31.250,11.719,-42.480,0
135131.505,0.977,22.949,26.855,6.836,-50.781,0
135131.509,30.762,30.273,26.855,29.785,-0.488,0
135131.513,39.062,29.785,25.391,35.645,8.789,0
135131.517,20.508,25.879,30.273,22.949,-1.953,0
135131.520,25.391,23.438,29.785,21.973,-44.922,0
135131.524,43.945,26.367,28.320,36.133,-15.137,0
135131.528,50.293,30.762,37.598,46.875,35.645,0
135131.530,36.621,33.691,40.039,43.945,31.250,0
135131.534,19.043,33.203,21.973,32.227,-14.648,0
135131.538,25.879,29.785,9.766,37.598,-2.441,0
135131.542,49.805,35.645,32.227,56.641,56.152,0
135131.545,30.273,39.551,40.039,38.086,67.871,0
135131.549,-1.465,41.992,33.691,8.789,-15.625,0
135131.553,11.230,40.039,33.691,14.160,-47.363,0
135131.557,38.086,31.250,37.598,38.086,37.109,0
135131.561,33.691,20.996,34.668,36.133,88.379,0
135131.565,10.254,22.461,27.832,11.719,19.531,0
135131.569,13.184,28.320,23.438,10.254,-48.340,0
135131.573,35.645,28.809,21.484,27.832,9.277,0
135131.590,44.434,32.227,36.621,38.574,71.289,0
135131.594,20.996,25.879,35.645,21.484,53.223,0
135131.598,7.324,24.902,34.668,11.230,16.113,0
135131.602,28.809,30.273,37.598,26.367,68.359,0
135131.606,43.457,34.668,33.691,40.039,129.883,0
135131.609,25.879,31.738,28.809,23.438,62.988,0
135131.613,1.953,21.484,19.531,-3.418,-19.531,0
135131.617,26.367,34.180,25.391,11.719,30.273,0
135131.621,47.852,42.969,17.578,29.297,91.797,0
135131.625,27.344,29.785,18.555,19.043,76.172,0
135131.629,13.672,23.438,31.250,9.766,7.812,0
135131.633,25.879,25.879,23.438,20.996,13.672,0
135131.635,40.039,24.414,28.809,40.039,63.965,0
135131.639,37.109,31.250,32.227,35.156,44.922,0
135131.643,27.832,42.969,32.715,21.973,7.812,0
135131.647,30.762,43.457,33.203,24.414,-41.504,0
135131.651,43.945,39.062,26.367,39.062,-11.719,0
135131.654,43.945,35.156,31.738,41.016,31.250,0
135131.658,30.762,31.250,39.062,25.879,-14.648,0
135131.662,19.043,29.297,29.297,15.137,-31.738,0
135131.666,28.809,33.203,22.949,26.855,-28.809,0
135131.670,40.039,39.551,23.438,39.062,-2.930,0
135131.674,31.250,39.062,29.297,33.203,-5.371,0
135131.678,25.391,39.062,37.109,29.785,-67.383,0
135131.680,42.969,41.016,34.668,38.574,-28.320,0
135131.684,58.594,41.992,26.855,54.688,59.082,0
135131.688,46.875,37.109,31.250,50.781,61.035,0
135131.692,16.113,28.320,31.738,18.555,0.000,0
135131.696,9.277,18.555,17.090,2.441,-25.391,0
135131.699,28.320,19.043,11.230,17.578,31.250,0
135131.703,33.691,32.227,10.254,24.902,72.266,0
135131.707,17.578,24.414,14.160,12.695,23.438,0
135131.711,10.254,15.137,22.461,3.906,-40.527,0
135131.715,24.414,20.996,19.043,18.066,-8.301,0
135131.719,34.668,25.879,17.578,37.109,73.730,0
135131.723,26.367,33.691,33.203,31.250,40.527,0
135131.725,17.578,29.785,35.156,21.973,-40.039,0
135131.729,28.320,29.297,21.973,27.344,30.273,0
135131.733,41.016,36.133,20.508,39.551,128.418,0
135131.737,35.156,38.574,19.043,32.227,75.684,0
135131.741,12.695,28.809,14.648,12.695,-6.836,0
135131.744,25.391,25.879,26.367,21.484,-9.766,0
135131.748,47.852,33.691,26.367,39.551,38.086,0
135131.752,29.785,25.391,18.555,26.855,56.152,0
135131.756,12.207,23.438,28.809,10.742,-35.645,0
135131.760,21.484,27.344,35.645,15.625,-56.641,0
135131.764,44.434,31.250,28.320,34.668,46.875,1
135131.768,45.410,27.344,22.461,35.645,97.168,0
135131.770,32.715,21.484,28.809,24.902,35.645,0
135131.774,36.621,30.273,36.133,31.738,4.883,0
135131.778,44.434,31.738,28.809,38.574,48.340,0
135131.782,40.039,28.809,20.508,33.691,101.074,0
135131.785,17.578,23.438,21.973,13.672,54.688,0
135131.789,-0.977,21.484,21.973,-5.859,-27.344,0
135131.793,8.301,31.250,23.438,1.953,0.000,0
135131.797,32.227,37.109,26.367,27.344,61.523,0
135131.801,28.809,29.785,27.344,24.902,48.340,0
135131.805,3.906,20.508,20.996,5.371,14.648,0
135131.809,18.066,28.809,17.578,21.484,5.371,0
135131.813,43.457,25.879,24.902,46.875,27.344,0
135131.815,33.691,16.602,29.785,34.180,53.223,0
135131.819,18.555,28.320,24.414,19.531,-1.465,0
135131.823,31.250,38.086,27.344,33.691,-36.133,0
135131.827,45.898,33.203,32.715,46.875,11.719,0
135131.830,41.504,28.320,30.762,45.410,73.242,0
135131.834,27.344,36.621,29.785,35.645,47.363,0
135131.838,20.508,39.551,31.738,29.297,-10.742,0
135131.842,35.156,36.621,23.926,38.574,18.066,0
135131.846,43.945,39.551,17.090,49.805,52.734,0
135131.850,25.879,37.109,25.879,40.039,27.344,0
135131.854,15.625,33.691,38.574,25.879,-25.879,0
135131.858,29.297,34.668,37.109,34.668,16.113,0
135131.861,44.922,33.691,27.832,51.758,82.031,0
135131.865,35.645,25.879,24.414,44.922,51.758,0
135131.869,22.461,26.367,35.645,34.180,-20.508,0
135131.873,33.203,40.039,50.781,36.621,3.906,0
135131.877,40.527,37.598,46.387,32.715,85.449,0
135131.881,26.367,23.438,31.738,21.484,96.191,0
135131.885,5.859,19.531,22.461,3.906,7.324,0
135131.889,5.371,21.973,23.438,0.000,-67.383,0
135131.892,21.484,21.484,24.902,17.090,23.438,0
135131.896,33.691,29.785,30.762,33.691,102.539,0
135131.900,18.555,31.738,37.109,27.344,53.223,0
135131.904,0.488,18.555,33.203,12.207,-22.949,0
135131.905,18.555,25.879,24.902,26.855,7.812,0
135131.909,32.227,33.203,25.391,44.922,95.703,0
135131.913,18.555,27.832,32.715,33.203,89.355,0
135131.917,8.789,29.297,37.598,15.137,-3.418,0
135131.921,18.555,24.414,31.738,20.996,-34.668,0
135131.924,38.574,27.344,27.344,40.039,-0.977,0
135131.928,35.645,40.039,30.762,33.203,-21.484,0
135131.932,10.742,38.574,32.227,15.137,-28.320,0
135131.936,13.672,30.273,28.320,18.555,13.672,0
135131.940,40.039,24.902,29.297,34.180,27.832,0
135131.944,38.574,33.203,30.273,35.645,43.457,0
135131.948,20.996,36.621,29.297,22.949,5.371,0
135131.965,24.902,41.992,33.203,20.020,-40.527,0
135131.969,35.645,43.457,32.715,28.809,33.203,0
135131.973,31.250,36.621,33.691,28.320,95.215,0
135131.977,18.555,39.062,23.438,14.648,62.012,0
135131.981,20.020,33.203,16.113,13.672,25.879,0
135131.984,29.785,25.391,25.879,26.367,33.203,0
135131.988,28.809,25.391,25.879,28.809,58.594,0
135131.992,23.926,26.855,32.715,22.949,45.898,0
135131.996,20.996,34.180,36.621,17.578,-20.020,0
135132.000,20.020,33.203,21.973,12.695,-59.570,0
135132.004,30.762,29.297,15.625,20.996,-7.812,0
135132.008,32.715,36.621,23.438,20.996,38.574,0
135132.010,13.184,34.180,21.973,0.488,-34.668,0
135132.014,15.137,24.902,20.996,6.348,-52.734,0
135132.018,38.574,24.414,25.391,27.344,47.852,0
135132.022,42.480,33.203,27.832,29.785,60.547,0
135132.026,22.461,31.738,29.785,19.531,-5.371,0
135132.029,11.719,21.973,24.414,11.719,-34.180,0
135132.033,32.227,32.227,14.648,27.832,8.301,0
135132.037,41.504,41.016,8.301,37.598,62.988,0
135132.041,30.273,38.574,17.090,27.344,12.695,0
135132.045,21.973,34.180,30.273,21.484,-53.223,0
135132.049,29.297,34.180,34.180,29.297,3.906,0
135132.053,43.945,32.227,35.156,44.434,62.500,0
135132.055,34.668,36.133,26.367,35.156,33.691,0
135132.059,18.555,43.945,28.809,12.207,-32.227,0
135132.063,30.273,40.039,36.133,19.531,-14.160,0
135132.067,46.387,33.691,27.832,35.645,48.828,0
135132.070,34.668,33.691,18.555,29.297,54.688,0
135132.074,12.695,36.621,20.508,12.207,6.348,0
135132.078,14.648,37.109,23.926,9.277,-18.066,0
135132.082,32.227,28.320,23.438,25.391,26.367,0
135132.086,33.691,26.367,25.879,30.762,24.902,0
135132.090,19.043,38.574,27.832,23.926,-18.066,0
135132.094,16.602,39.551,25.391,19.043,5.859,0
135132.098,32.715,32.715,26.855,32.715,54.199,0
135132.101,39.551,29.297,28.320,41.992,95.703,0
135132.105,22.461,29.297,25.879,27.832,49.316,0
135132.109,7.324,27.344,25.879,14.160,-29.785,0
135132.113,24.414,26.367,29.785,21.973,-42.969,0
135132.117,46.387,26.855,32.227,40.527,23.438,0
135132.121,34.668,19.043,31.738,39.551,72.266,0
135132.125,21.484,27.344,33.203,24.414,46.387,0
135132.129,29.785,52.734,30.273,25.391,19.531,0
135132.132,43.945,50.781,22.461,35.156,82.520,0
135132.136,38.574,36.621,15.625,30.762,108.398,0
135132.140,21.484,36.133,22.949,16.602,31.738,0
135132.144,24.414,38.086,27.832,18.555,6.836,0
135132.145,41.504,40.039,23.926,35.645,60.059,0
135132.149,44.922,39.062,23.926,44.434,116.211,0
135132.153,28.320,31.738,30.762,31.250,83.984,0
135132.157,20.508,28.320,31.250,21.484,13.672,0
135132.161,32.715,27.832,21.484,32.227,28.809,0
135132.164,37.598,25.879,15.625,38.086,96.191,0
135132.168,24.414,22.461,18.066,26.367,107.910,0
135132.172,15.137,21.484,29.297,9.277,20.020,0
135132.176,23.438,27.832,33.691,8.301,24.414,0
135132.180,38.574,31.738,33.691,27.832,125.488,0
135132.184,30.762,29.785,36.133,28.320,79.590,0
135132.188,6.348,26.855,26.367,2.930,1.465,2
135132.190,14.160,27.344,20.996,3.418,-4.395,0
135132.194,36.133,30.762,22.461,23.926,59.570,0
135132.198,31.250,30.273,18.066,25.879,96.680,0
135132.202,16.602,30.273,12.695,11.719,76.172,0
135132.205,17.578,23.926,17.090,9.277,41.504,0
135132.209,30.762,21.484,20.996,28.320,41.992,0
135132.213,34.668,22.461,23.438,34.180,79.590,0
135132.217,21.973,28.320,34.180,20.508,26.855,0
135132.221,9.277,36.621,33.203,10.742,-40.039,0
135132.225,19.531,31.738,19.531,18.555,-29.785,0
135132.229,34.180,29.785,20.020,30.273,46.875,0
135132.233,18.555,26.855,25.391,14.648,41.016,0
135132.235,8.301,27.832,23.926,3.906,-19.043,0
135132.239,19.043,32.715,28.320,17.090,-11.719,0
135132.243,35.156,30.273,34.180,34.180,36.621,0
135132.247,32.227,26.367,31.250,34.668,73.242,0
135132.250,17.090,32.715,37.598,20.508,27.344,0
135132.254,21.484,34.668,24.414,21.973,1.953,0
135132.258,25.879,20.508,1.465,26.855,22.461,0
135132.262,18.066,14.160,18.066,22.949,52.246,0
135132.266,6.348,27.344,39.062,12.207,57.129,0
135132.270,5.859,36.133,42.480,2.441,-1.465,0
135132.274,16.602,25.879,39.551,13.184,39.551,0
135132.278,22.949,24.414,34.180,26.367,83.984,0
135132.280,14.648,32.227,35.156,20.996,19.531,0
135132.284,7.324,27.344,33.691,12.695,-39.062,0
135132.288,24.902,24.902,29.785,22.461,19.043,0
135132.292,38.086,41.504,30.273,37.598,84.961,0
135132.295,24.902,30.762,22.461,30.762,64.453,0
135132.299,8.789,12.207,18.066,13.184,8.301,0
135132.303,21.973,26.855,19.043,16.602,-20.020,0
135132.307,42.969,39.062,19.043,36.621,55.176,0
135132.311,40.527,38.574,22.461,40.527,96.680,0
135132.315,17.578,23.926,18.555,14.648,20.020,0
135132.319,17.090,22.949,19.043,8.789,-4.883,0
135132.323,38.574,30.273,23.926,31.738,59.570,0
135132.340,46.875,30.762,31.738,47.363,103.516,0
135132.344,31.738,33.203,34.180,34.668,38.574,0
135132.348,27.344,35.156,24.902,29.785,-39.062,0
135132.352,42.480,38.086,25.391,47.852,-13.672,0
135132.355,35.645,21.484,22.461,44.922,30.273,0
135132.359,9.766,15.137,19.043,26.855,-0.977,0
135132.363,-0.977,30.762,26.367,19.043,-1.465,0
135132.367,9.277,30.762,25.391,23.926,15.137,0
135132.371,29.297,27.344,23.438,40.527,66.895,0
135132.375,23.926,27.344,31.738,39.062,70.312,0
135132.379,2.930,29.297,35.645,18.555,-21.484,0
135132.383,7.812,31.250,27.344,20.020,-30.273,0
135132.385,26.367,31.250,24.902,37.109,7.324,0
135132.389,30.273,33.203,30.762,38.086,7.812,0
135132.393,0.488,28.809,25.391,13.672,-10.742,0
135132.397,-8.789,20.020,14.160,2.441,-45.410,0
135132.401,17.578,22.461,15.137,23.926,-23.926,0
135132.405,24.902,30.762,28.809,34.668,19.531,0
135132.409,12.695,27.344,34.180,21.484,-11.719,0
135132.413,9.277,24.414,31.738,13.672,-14.648,0
135132.417,27.344,30.762,27.344,24.414,27.832,0
135132.421,39.062,34.180,22.949,35.645,28.320,0
135132.424,24.902,34.668,22.461,27.344,25.391,0
135132.428,17.090,39.551,28.320,20.508,-9.277,0
135132.431,28.320,33.203,20.996,29.785,-28.809,0
135132.434,42.969,17.578,15.137,41.504,63.965,0
135132.438,39.062,9.766,22.461,38.086,62.500,0
135132.442,31.250,29.785,33.691,32.715,-5.859,0
135132.446,39.062,55.176,36.621,35.156,4.883,0
135132.450,39.062,48.828,27.344,36.133,44.922,0
135132.454,22.461,27.832,22.949,24.902,58.105,0
135132.458,-2.930,25.391,20.996,5.371,-5.859,0
135132.462,-4.883,31.738,17.090,5.371,-27.832,0
135132.466,22.949,25.391,19.531,24.902,14.160,0
135132.470,37.598,25.879,32.715,38.574,44.434,0
135132.474,24.902,34.668,31.250,26.367,-0.977,0
135132.475,15.137,39.551,24.902,14.648,-60.059,0
135132.479,30.762,37.598,21.973,23.926,-33.691,0
135132.483,50.293,36.621,17.090,34.180,19.043,0
135132.487,40.039,31.250,26.855,26.367,50.781,0
135132.491,28.809,25.879,31.250,17.090,26.367,0
135132.494,40.527,24.902,21.484,23.926,-1.465,0
135132.498,44.434,19.531,22.949,32.227,46.875,0
135132.502,34.180,25.391,32.227,29.297,73.242,0
135132.506,24.414,35.645,39.551,19.043,23.438,0
135132.510,27.344,23.438,30.273,10.742,10.742,0
135132.514,40.527,13.184,17.578,22.461,70.312,0
135132.518,42.969,32.227,21.484,32.227,61.523,0
135132.520,29.785,44.434,23.926,18.555,-11.719,0
135132.524,27.344,37.109,20.996,12.695,-19.531,0
135132.528,41.504,34.180,25.391,29.785,37.598,0
135132.532,44.922,29.785,24.902,38.574,64.453,0
135132.535,27.832,20.508,23.926,20.996,50.293,0
135132.539,13.672,20.996,25.879,12.207,-4.395,0
135132.543,27.832,25.391,23.438,26.855,2.441,0
135132.547,44.434,29.785,31.250,41.504,64.453,0
135132.551,30.273,26.367,32.227,32.227,65.918,0
135132.555,8.301,23.926,20.508,6.836,32.715,0
135132.559,19.043,24.414,24.414,6.348,31.250,0
135132.563,38.086,25.391,29.297,29.785,81.055,0
135132.566,31.250,27.344,25.879,32.227,61.035,0
135132.570,15.625,27.832,28.809,14.160,-21.973,0
135132.574,22.461,24.902,30.273,16.113,-34.668,0
135132.578,41.992,19.043,31.738,29.785,-3.418,0
135132.582,44.434,26.367,30.762,36.133,22.461,0
135132.586,26.367,38.086,26.855,25.391,-20.996,0
135132.590,21.973,36.133,29.785,14.648,-92.285,0
135132.594,44.434,38.086,27.832,34.180,-64.453,0
135132.597,51.758,40.039,24.902,41.504,2.930,0
135132.601,31.250,29.785,23.926,22.461,9.766,0
135132.605,14.160,21.973,21.973,9.277,-16.602,0
135132.609,25.391,22.461,22.461,19.531,5.371,0
135132.610,41.504,25.391,28.320,40.039,35.156,0
135132.614,29.297,25.879,31.250,35.156,6.348,0
135132.618,11.230,22.461,28.809,20.020,-41.504,0
135132.622,14.648,20.020,34.180,26.367,-1.465,0
135132.626,31.250,25.391,39.551,45.410,79.102,0
135132.630,25.879,24.902,34.668,37.598,73.730,0
135132.633,4.883,19.531,27.832,16.602,-4.883,0
135132.637,7.324,23.438,23.438,17.578,-38.574,0
135132.641,26.367,22.949,24.414,26.855,42.480,0
135132.645,27.832,22.461,26.367,29.297,78.125,0
135132.649,15.137,20.996,26.367,20.020,16.113,0
135132.653,22.461,19.531,27.832,18.066,-33.203,0
135132.670,41.016,29.297,22.461,28.809,0.977,0
135132.674,43.945,42.969,21.973,40.527,70.801,0
135132.678,37.109,49.805,29.785,34.668,52.734,0
135132.682,23.926,41.016,31.738,18.555,-2.930,0
135132.686,32.227,36.621,28.809,22.949,29.297,2
135132.689,47.363,32.715,26.367,41.016,75.684,0
135132.693,30.762,30.762,21.973,36.621,37.598,0
135132.697,11.230,29.297,22.949,18.555,-10.742,0
135132.701,18.066,28.320,29.297,22.949,35.156,0
135132.705,34.180,33.691,32.227,42.969,98.145,0
135132.709,36.133,37.598,33.203,46.875,119.629,0
135132.713,13.184,35.156,32.227,23.438,81.055,0
135132.715,2.930,32.227,27.832,12.695,48.340,0
135132.719,22.461,28.320,25.879,28.320,84.473,0
135132.723,27.832,28.320,27.344,36.133,130.859,0
135132.727,11.230,33.691,30.762,21.484,68.848,0
135132.731,6.348,32.715,28.809,8.789,-8.789,0
135132.734,28.320,29.297,25.879,21.484,15.625,0
135132.738,42.480,30.273,25.879,36.133,70.312,0
135132.742,26.367,21.484,24.414,22.949,64.453,0
135132.746,10.254,21.973,28.320,6.836,-2.930,0
135132.750,19.531,31.738,23.926,11.230,-4.883,0
135132.754,36.133,38.574,20.996,27.344,68.359,0
135132.758,29.297,41.992,29.297,24.414,73.730,0
135132.760,8.301,43.457,31.250,8.301,-2.441,0
135132.764,12.695,40.527,29.785,15.137,-47.852,0
135132.768,29.785,28.320,28.320,31.738,23.438,0
135132.772,21.484,27.344,29.785,28.809,75.684,0
135132.776,0.977,40.039,31.738,12.207,19.531,0
135132.779,5.859,41.016,32.227,12.695,-23.438,0
135132.783,37.598,39.062,36.621,38.086,22.949,0
135132.787,44.922,40.039,28.320,40.039,75.684,0
135132.791,22.461,36.133,25.879,18.066,-14.160,0
135132.795,12.207,28.320,32.227,8.301,-81.543,0
135132.799,31.250,23.926,25.391,20.996,-10.742,0
135132.803,42.480,25.879,25.391,30.273,65.918,0
135132.806,24.902,26.367,24.414,19.043,72.266,0
135132.810,9.277,26.367,25.391,9.277,-3.906,0
135132.814,18.066,22.949,28.809,13.672,-18.066,0
135132.818,35.645,21.973,30.273,29.297,41.016,0
135132.822,28.809,30.762,28.809,33.203,62.988,0
135132.826,13.184,33.691,23.926,16.113,-9.277,0
135132.830,17.578,32.715,24.414,15.137,-40.527,0
135132.833,37.109,37.598,27.832,34.668,27.832,0
135132.837,42.480,47.852,34.180,37.598,57.129,0
135132.841,21.484,43.945,34.180,19.043,4.883,0
135132.845,12.695,34.180,29.297,6.348,-9.277,0
135132.849,25.879,31.250,27.832,15.625,35.156,0
135132.850,35.156,32.227,21.973,30.273,65.918,0
135132.854,23.438,30.762,20.020,22.949,19.531,0
135132.858,14.648,31.250,26.855,13.672,-23.438,0
135132.862,31.250,22.461,30.273,23.438,3.906,0
135132.866,42.480,25.879,28.320,31.250,52.246,0
135132.870,33.691,51.270,33.691,23.926,59.082,0
135132.874,22.461,51.270,39.062,12.207,-10.254,0
135132.878,18.066,33.691,29.785,12.207,-10.742,0
135132.882,32.715,33.203,27.344,29.297,-8.301,0
135132.886,36.621,37.109,30.762,34.180,-6.836,0
135132.889,22.461,33.203,29.785,21.484,-30.273,0
135132.893,22.949,26.855,29.297,19.531,-49.316,0
135132.895,39.551,35.645,28.809,37.598,23.438,0
135132.899,41.504,44.922,18.066,42.480,72.754,0
135132.903,18.555,39.062,14.160,25.391,-0.977,0
135132.907,9.766,37.109,23.438,14.160,-70.801,0
135132.910,31.738,33.691,28.809,26.367,-19.531,0
135132.914,39.551,31.250,27.832,41.016,33.203,0
135132.918,17.578,28.809,26.855,24.414,20.020,0
135132.922,11.230,32.227,34.180,10.742,-33.691,0
135132.926,30.273,35.156,39.062,22.949,-41.992,0
135132.930,45.898,36.133,37.598,38.574,25.391,0
135132.934,34.180,37.598,30.273,33.203,19.531,0
135132.938,17.090,39.062,23.926,17.090,-51.270,0
135132.940,20.020,38.086,25.879,18.066,-25.391,0
135132.944,35.156,32.715,23.926,28.320,37.598,0
135132.948,29.785,27.344,20.996,24.414,21.484,0
135132.952,15.625,32.715,30.762,15.625,-36.621,0
135132.955,24.414,38.574,39.062,18.066,-38.086,0
135132.959,36.133,23.926,33.691,28.320,16.113,0
135132.963,41.016,17.090,30.273,30.762,20.996,0
135132.967,22.949,17.090,25.391,13.672,-28.809,0
135132.971,10.254,23.438,21.973,4.883,-10.742,0
135132.975,28.809,40.527,25.879,21.484,43.945,0
135132.979,38.086,44.922,23.926,35.156,36.621,0
135132.983,23.438,43.945,24.902,28.320,11.230,0
135132.985,16.113,40.527,25.391,18.066,24.414,0
135132.989,27.344,33.203,28.320,24.902,51.758,0
135132.993,39.551,26.855,38.086,36.133,88.379,0
135132.997,30.273,22.461,34.180,28.320,77.148,0
135133.000,17.090,30.762,31.738,16.113,0.977,0
135133.004,21.484,33.691,31.738,13.672,-18.066,0
135133.008,36.133,26.855,30.762,24.902,16.113,0
135133.012,35.156,26.367,30.762,27.344,42.969,0
135133.016,17.090,26.855,25.879,12.695,20.508,0
135133.020,19.043,24.902,24.902,14.160,0.000,0
135133.024,39.551,24.902,24.902,33.203,50.781,0
135133.028,40.039,25.391,29.297,40.039,91.309,0
135133.031,22.461,28.320,31.738,26.855,26.367,0
135133.035,16.602,37.598,28.809,20.020,-21.973,0
135133.039,34.180,40.527,26.367,33.203,1.465,0
135133.043,43.457,38.086,30.762,43.945,43.457,0
135133.047,27.832,38.574,34.668,32.715,63.477,0
135133.051,12.695,36.133,30.762,16.113,-10.254,0
135133.055,21.484,33.691,29.297,21.973,-41.016,0
135133.059,36.133,35.645,28.320,37.109,63.965,0
135133.062,30.762,35.156,19.531,32.715,70.801,0
135133.066,14.648,32.715,21.484,18.555,-5.371,0
135133.070,21.973,20.508,28.809,21.484,1.465,0
135133.074,49.316,15.137,25.391,46.387,70.801,0
135133.090,51.270,27.832,21.484,50.781,107.422,0
135133.094,20.996,36.133,26.855,23.926,43.945,0
135133.098,11.230,46.387,27.832,17.578,4.395,0
135133.102,33.691,47.363,24.902,38.574,65.430,0
135133.106,41.992,34.180,30.762,47.363,82.031,0
135133.109,21.484,31.738,27.832,27.832,14.160,2
135133.113,15.137,41.016,25.879,19.531,-59.570,0
135133.117,31.250,37.598,25.879,32.227,13.672,0
135133.121,38.086,26.367,17.090,38.574,104.980,0
135133.125,29.785,25.879,17.090,30.762,62.988,0
135133.129,19.043,27.832,20.508,14.648,29.785,0
135133.133,28.809,25.879,28.320,20.996,41.016,0
135133.135,46.875,30.273,37.598,38.574,69.824,0
135133.139,37.109,34.668,35.645,37.109,94.238,0
135133.143,10.254,24.902,20.020,14.648,81.543,0
135133.147,14.648,21.973,11.719,11.719,41.504,0
135133.151,30.762,20.508,14.160,31.738,59.570,0
135133.154,34.668,19.043,14.160,39.551,95.215,0
135133.158,29.297,24.902,20.996,27.832,76.660,0
135133.162,23.926,27.344,34.668,21.973,23.438,0
135133.166,40.527,30.273,31.250,35.156,28.320,0
135133.170,45.410,26.367,22.461,39.551,46.387,0
135133.174,27.832,15.137,26.367,30.273,30.762,0
135133.178,20.508,25.391,28.320,22.949,12.695,0
135133.180,35.645,37.109,27.344,30.762,34.668,0
135133.184,50.293,39.062,28.809,49.805,79.590,0
135133.188,36.133,39.062,30.762,39.551,87.402,0
135133.192,10.742,39.062,27.344,18.066,34.668,0
135133.196,19.043,36.621,20.508,24.414,14.648,0
135133.199,39.062,29.297,25.391,41.992,67.383,0
135133.203,39.062,23.926,34.180,47.363,89.844,0
135133.207,19.531,28.809,26.367,27.344,38.086,0
135133.211,22.949,41.016,25.879,24.414,-20.996,0
135133.215,41.016,40.039,26.367,39.551,44.434,0
135133.219,41.016,26.367,19.043,35.645,123.535,0
135133.223,25.391,27.344,22.461,20.508,64.941,0
135133.225,14.160,36.621,29.297,15.625,-9.766,0
135133.229,29.785,37.109,36.133,28.320,11.719,0
135133.233,38.086,33.691,37.598,38.086,99.609,0
135133.237,24.902,28.320,33.203,28.809,81.055,0
135133.241,15.137,31.738,31.738,17.578,2.930,0
135133.244,24.902,35.156,31.250,25.879,41.992,0
135133.248,41.992,34.668,31.250,43.945,128.906,0
135133.252,38.086,39.062,34.180,37.598,136.719,0
135133.256,21.484,40.527,31.738,19.043,34.180,0
135133.260,24.414,32.227,25.879,21.484,6.836,0
135133.264,39.551,23.438,31.250,36.621,74.219,0
135133.268,35.156,30.273,38.574,36.133,94.238,0
135133.271,14.648,38.086,32.227,20.996,53.223,0
135133.275,13.672,37.109,26.855,15.625,26.855,0
135133.279,27.832,31.738,27.344,27.832,28.320,0
135133.283,31.738,29.297,27.344,32.715,58.594,0
135133.287,17.090,33.691,26.855,18.555,37.109,0
135133.291,12.695,35.156,29.785,9.766,3.906,0
135133.295,27.344,34.180,28.809,24.414,52.734,0
135133.299,36.133,34.668,18.066,35.645,95.703,0
135133.302,23.438,36.621,23.438,24.414,106.445,0
135133.306,12.695,38.574,35.156,16.602,26.855,0
135133.310,20.508,37.109,33.203,23.926,-1.953,0
135133.314,33.203,33.203,27.344,32.715,67.871,0
135133.315,30.762,28.809,25.879,27.832,77.637,0
135133.319,13.672,28.809,25.391,11.230,11.230,0
135133.323,19.043,25.391,29.785,16.602,-44.922,0
135133.327,40.039,20.020,26.855,36.133,10.742,0
135133.331,44.922,36.133,18.066,41.504,68.848,0
135133.334,31.250,45.410,21.973,26.855,41.504,0
135133.338,23.438,41.504,22.461,18.555,16.602,0
135133.342,32.715,39.062,22.461,32.227,37.109,0
135133.346,35.645,34.668,27.832,38.086,102.051,0
135133.350,27.832,32.715,35.645,29.297,93.750,0
135133.354,20.996,28.809,33.691,19.531,14.160,0
135133.358,31.250,28.809,24.414,26.367,49.316,0
135133.360,35.156,25.879,22.949,34.180,109.863,0
135133.364,18.555,24.902,21.973,19.531,83.008,0
135133.368,5.371,27.344,22.949,5.371,15.625,0
135133.372,14.160,27.832,21.973,11.719,5.371,0
135133.375,32.715,24.414,20.996,28.809,83.496,0
135133.379,29.297,27.344,26.367,25.391,83.984,0
135133.383,13.672,32.715,36.133,10.742,-24.414,0
135133.387,15.625,26.855,37.109,10.254,-40.039,0
135133.391,24.902,22.949,30.273,22.949,55.664,0
135133.395,23.438,26.367,26.855,25.391,96.191,0
135133.399,9.277,29.785,30.273,8.789,29.785,0
135133.403,1.953,25.879,30.762,-1.953,2.930,0
135133.405,18.066,21.484,32.715,17.090,66.895,0
135133.409,34.668,32.715,31.738,33.203,96.680,0
135133.413,25.879,38.574,28.809,20.020,50.293,0
135133.417,14.160,34.180,37.109,9.766,-16.113,0
135133.421,23.926,33.691,38.574,17.090,0.977,0
135133.424,29.785,29.297,30.762,27.832,44.434,0
135133.428,19.531,24.902,27.832,18.555,34.180,0
135133.432,7.324,25.879,23.926,1.465,-10.254,0
135133.436,20.508,33.203,22.461,9.766,-0.977,0
135133.440,41.992,35.156,30.762,32.227,67.871,0
135133.444,42.480,38.086,36.133,39.062,60.547,0
135133.448,24.414,43.945,20.996,22.949,-4.883,0
135133.465,21.973,34.668,8.789,19.531,-13.184,0
135133.469,42.480,27.832,22.461,36.621,42.480,0
135133.473,41.992,27.832,39.062,39.551,92.285,0
135133.477,18.555,26.367,39.551,24.414,63.965,0
135133.480,11.230,29.785,34.668,17.090,-10.254,0
135133.484,23.438,29.785,30.762,25.391,8.301,0
135133.488,29.297,25.879,26.855,31.738,65.918,0
135133.492,17.578,25.391,25.391,23.926,12.207,0
135133.496,9.766,27.344,26.367,15.625,-50.293,0
135133.500,23.438,27.832,26.367,22.461,-32.715,0
135133.504,42.480,27.832,26.367,38.574,11.230,0
135133.508,32.715,29.785,24.902,32.715,59.570,0
135133.511,14.648,27.832,24.902,20.020,42.480,0
135133.515,32.715,21.484,29.785,38.086,31.738,1
135133.519,53.223,23.926,27.344,50.781,62.988,0
135133.523,38.086,36.621,19.531,28.809,93.750,0
135133.527,20.508,46.875,23.926,11.719,62.988,0
135133.531,17.578,44.922,27.344,9.277,19.531,0
135133.535,29.297,41.016,20.996,18.066,58.105,0
135133.539,37.109,39.551,19.531,29.297,110.352,0
135133.542,21.973,34.180,19.043,17.578,54.199,0
135133.546,13.672,29.785,19.043,7.812,-35.156,0
135133.550,31.738,31.738,21.484,22.461,-16.602,0
135133.554,40.527,26.855,21.484,32.715,46.387,0
135133.555,31.250,31.738,21.973,26.367,11.230,0
135133.559,33.203,49.316,20.996,22.949,-45.898,0
135133.563,36.133,42.969,29.785,30.273,19.043,0
135133.567,33.203,25.879,38.574,38.086,77.148,0
135133.571,29.297,25.391,33.691,32.715,34.180,0
135133.574,12.695,25.879,33.203,18.555,-47.363,0
135133.578,12.695,21.484,35.645,17.090,-44.922,0
135133.582,34.180,17.578,38.574,33.691,50.781,0
135133.586,41.504,23.438,46.875,42.969,54.688,0
135133.590,22.949,31.738,52.734,27.344,16.602,0
135133.594,14.160,24.414,41.016,16.602,21.973,0
135133.598,32.715,16.602,32.227,31.250,38.574,0
135133.600,38.086,18.555,30.762,38.086,38.086,0
135133.604,21.973,17.090,26.367,25.879,14.160,0
135133.608,15.625,18.066,15.625,19.531,-25.879,0
135133.612,29.785,22.461,14.160,31.738,-5.859,0
135133.615,37.109,23.438,32.715,46.387,76.172,0
135133.619,24.414,24.902,42.969,40.527,71.777,0
135133.623,9.766,25.879,40.527,24.414,-22.949,0
135133.627,18.066,24.902,35.645,29.297,-37.109,0
135133.631,36.133,20.996,31.738,46.875,12.207,0
135133.635,29.297,19.043,27.344,46.387,42.480,0
135133.639,10.254,20.508,26.855,29.297,17.578,0
135133.643,16.113,21.973,32.227,29.297,-31.738,0
135133.645,32.715,29.297,33.691,41.504,20.996,0
135133.649,30.762,30.762,32.227,44.434,52.246,0
135133.653,15.625,30.273,26.855,32.715,-9.277,0
135133.657,14.160,26.367,22.461,21.973,-48.340,0
135133.661,25.879,22.949,22.461,41.016,29.297,0
135133.664,31.250,22.949,24.414,51.758,89.355,0
135133.668,21.973,25.391,22.461,31.738,42.480,0
135133.672,11.230,27.832,30.762,18.066,-44.434,0
135133.676,24.414,29.297,37.109,30.273,-46.875,0
135133.680,41.504,30.273,31.738,45.898,64.453,0
135133.684,28.320,25.879,27.344,36.133,39.062,0
135133.688,14.648,27.832,29.785,23.438,-43.457,0
135133.690,29.785,32.227,32.227,28.809,12.207,0
135133.694,48.340,30.273,26.855,43.457,67.383,0
135133.698,44.434,20.996,27.832,51.270,49.805,0
135133.702,34.668,19.043,34.668,43.457,18.066,0
135133.706,33.203,33.203,28.809,32.227,8.789,0
135133.710,41.992,44.922,17.578,33.691,59.570,0
135133.714,45.410,41.992,14.648,35.156,66.406,0
135133.717,21.973,40.039,16.113,14.160,-20.508,0
135133.721,11.230,36.133,11.230,3.906,-22.461,0
135133.725,29.297,32.227,8.789,17.578,49.316,0
135133.729,40.527,38.086,17.090,28.320,64.941,0
135133.733,31.250,40.527,21.973,21.973,47.852,0
135133.737,15.137,35.645,16.113,7.324,16.113,0
135133.741,22.461,30.762,13.184,18.066,23.438,0
135133.745,34.668,27.832,16.113,33.203,45.410,0
135133.749,21.484,29.297,23.438,23.926,50.781,0
135133.752,6.836,32.715,24.414,11.230,20.996,0
135133.756,12.695,32.227,21.973,16.113,0.488,0
135133.760,31.738,31.738,19.531,36.133,49.805,0
135133.764,34.180,33.691,23.926,38.086,62.500,0
135133.768,15.137,36.621,30.273,19.043,-2.930,0
135133.772,13.672,36.621,29.297,15.137,-36.133,0
135133.776,33.691,36.621,25.391,30.762,20.020,0
135133.780,38.086,36.133,20.508,32.227,41.016,0
135133.780,17.578,34.668,20.020,17.578,17.578,0
135133.784,16.113,38.086,24.902,19.043,9.766,0
135133.788,33.203,38.086,27.344,33.203,34.668,0
135133.792,36.621,31.738,30.762,37.109,75.195,0
135133.796,20.020,28.320,34.180,24.414,46.387,0
135133.800,10.742,32.715,38.574,13.672,-22.461,0
135133.803,24.902,41.992,41.016,23.926,-0.488,0
135133.807,39.551,41.992,38.086,40.039,63.965,0
135133.811,31.738,41.016,31.738,37.109,76.660,0
135133.815,10.742,33.691,20.508,14.648,21.484,0
135133.819,14.160,28.809,22.461,13.184,-20.020,0
135133.823,32.715,32.715,30.273,31.738,24.902,0
135133.840,30.273,33.691,27.344,30.762,39.062,0
135133.844,19.531,36.133,28.809,18.555,-19.043,0
135133.848,22.949,31.250,35.645,15.137,-33.691,0
135133.852,34.668,26.367,36.621,26.855,31.738,0
135133.856,41.016,26.855,32.715,32.227,68.848,0
135133.859,24.902,34.668,30.762,20.020,20.020,0
135133.863,15.137,42.969,36.133,12.695,-30.762,0
135133.867,32.715,41.016,37.109,25.879,-18.066,0
135133.871,46.387,38.086,34.668,39.551,41.992,0
135133.875,33.691,41.504,35.156,26.855,48.828,0
135133.879,13.672,39.551,31.250,7.812,4.395,0
135133.883,22.461,36.133,24.414,15.137,34.180,0
135133.885,39.551,31.738,24.414,31.738,109.375,0
135133.889,30.273,30.273,30.273,28.320,133.789,0
135133.893,16.113,41.992,36.621,17.578,65.430,0
135133.897,19.531,40.039,37.598,22.949,43.457,0
135133.901,40.039,34.180,33.691,39.062,96.191,0
135133.904,41.992,36.133,31.250,43.457,85.938,0
135133.908,19.043,38.086,32.715,29.297,17.578,0
135133.912,17.090,34.180,31.250,19.043,-23.438,0
135133.916,36.621,29.297,14.648,29.785,36.621,0
135133.920,36.133,28.320,3.906,37.109,59.570,0
135133.924,15.625,26.855,18.555,21.973,8.789,0
135133.928,9.766,32.715,34.668,13.184,-14.648,0
135133.930,28.320,38.086,37.598,27.344,15.625,0
135133.934,38.574,33.203,33.203,38.574,83.008,1
135133.938,25.879,32.715,32.715,24.414,89.844,0
135133.942,16.113,32.715,32.227,8.301,10.254,0
135133.945,22.461,28.320,24.902,13.184,17.578,0
135133.949,35.156,28.809,18.066,27.832,63.965,0
135133.953,25.391,32.227,20.996,25.391,-7.324,0
135133.957,3.906,34.180,24.414,8.301,-55.664,0
135133.961,9.277,30.762,19.043,8.789,-48.340,0
135133.965,30.273,28.809,19.531,27.344,-4.883,0
135133.969,33.203,32.227,25.391,32.227,22.461,0
135133.973,14.648,37.598,32.715,19.043,-16.602,0
135133.976,1.953,38.574,35.645,12.207,-35.156,0
135133.980,20.508,34.668,32.227,25.879,18.555,0
135133.984,37.598,32.715,27.344,42.969,63.477,0
135133.988,21.484,29.785,22.949,28.809,39.062,0
135133.992,6.836,28.320,13.672,10.742,8.789,0
135133.996,20.508,27.832,18.555,20.996,20.996,0
135134.000,35.645,23.926,32.715,36.621,55.664,0
135134.004,25.879,28.809,30.273,27.344,36.133,0
135134.007,13.672,39.551,29.785,10.742,-75.684,0
135134.011,19.531,34.668,33.203,11.719,-35.645,0
135134.015,35.156,32.227,28.809,27.832,87.402,0
135134.019,31.250,30.762,30.762,28.320,71.289,0
135134.020,15.625,27.832,36.621,16.113,16.602,0
135134.024,17.090,29.785,33.203,16.602,-12.695,0
135134.028,32.715,27.832,29.785,34.180,20.996,0
135134.032,33.691,27.344,35.645,39.551,99.609,0
135134.036,18.555,35.645,41.504,30.273,30.762,0
135134.040,11.719,39.551,40.527,23.926,-41.504,0
135134.043,25.391,34.180,37.109,34.668,31.250,0
135134.047,40.039,33.691,33.691,49.316,82.520,0
135134.051,25.879,31.738,32.227,33.203,19.531,0
135134.055,9.766,30.273,32.715,16.602,-11.719,0
135134.059,29.297,37.598,33.691,31.250,19.043,0
135134.063,42.480,38.574,32.715,42.480,51.270,0
135134.065,27.832,34.668,31.738,29.297,21.973,0
135134.069,15.625,34.668,31.250,10.254,-26.367,0
135134.073,27.344,34.180,23.438,14.648,-4.883,0
135134.077,47.852,31.738,21.484,38.574,62.500,0
135134.080,35.645,37.598,28.809,40.039,90.820,0
135134.084,18.066,38.574,34.668,19.531,6.836,0
135134.088,22.461,31.250,34.668,14.648,-21.973,0
135134.092,41.992,36.133,31.738,34.180,1.953,0
135134.096,44.434,36.133,25.879,38.086,58.105,0
135134.100,25.879,30.273,20.508,21.484,76.660,0
135134.104,16.113,36.133,24.902,14.648,15.625,0
135134.108,30.273,38.574,28.809,24.414,26.367,0
135134.110,42.480,28.320,27.832,36.621,95.703,0
135134.114,31.250,28.320,26.367,29.297,84.961,0
135134.118,19.531,37.109,23.438,14.648,12.695,0
135134.122,31.738,38.086,21.973,23.926,12.695,0
135134.126,48.828,38.086,24.902,41.016,58.105,0
135134.130,42.480,35.645,20.508,35.645,90.332,0
135134.133,27.832,31.250,18.555,20.020,25.391,0
135134.137,32.227,33.203,28.320,22.949,-18.066,0
135134.141,46.387,38.086,33.203,41.992,53.223,0
135134.145,43.945,35.156,34.668,42.969,56.641,0
135134.149,23.438,33.203,34.180,24.902,0.000,0
135134.153,17.090,31.250,29.785,20.020,-25.879,0
135134.156,39.062,24.902,28.809,38.574,14.648,0
135134.160,46.875,24.414,31.250,48.340,55.664,0
135134.164,27.344,29.785,30.273,32.227,22.461,0
135134.168,15.625,32.227,26.367,18.066,-20.508,0
135134.172,29.297,24.414,24.414,27.832,-3.906,0
135134.176,43.457,23.926,18.555,41.992,44.434,0
135134.180,32.715,32.227,22.461,35.156,58.105,0
135134.184,20.996,30.762,29.785,21.973,20.508,0
135134.188,32.715,27.832,33.203,31.250,51.270,0
135134.192,43.457,23.926,32.227,44.922,101.074,0
135134.196,32.715,20.020,23.438,33.203,70.312,0
135134.199,14.648,19.043,23.438,16.602,11.719,0
135134.216,12.207,19.531,27.832,10.742,-2.930,0
135134.219,28.809,23.438,26.367,22.461,40.039,0
135134.223,33.203,29.785,30.273,27.832,70.801,0
135134.227,20.996,33.203,31.250,13.672,26.855,0
135134.231,19.531,26.367,22.949,13.672,-21.973,0
135134.235,36.133,21.973,23.926,27.344,3.906,0
135134.239,42.480,28.320,27.832,35.156,35.156,0
135134.243,24.902,29.785,22.461,28.320,32.715,0
135134.247,12.695,25.879,18.066,18.066,14.160,0
135134.251,19.043,21.973,19.531,22.461,35.156,0
135134.255,32.227,25.391,21.484,35.645,91.309,0
135134.259,23.926,30.273,16.602,29.785,88.379,0
135134.260,3.418,28.320,13.672,11.719,14.160,0
135134.264,15.137,30.273,20.508,18.555,-29.297,0
135134.268,43.945,33.691,29.297,40.039,28.809,0
135134.272,37.109,32.227,29.785,33.203,53.711,0
135134.276,15.137,28.809,25.879,14.160,-25.391,0
135134.279,18.066,24.902,25.879,18.555,-65.918,0
135134.283,34.668,20.996,20.020,30.762,10.254,0
135134.287,41.016,22.949,19.531,37.598,67.383,0
135134.291,23.926,23.926,24.414,25.879,3.418,0
135134.295,17.090,25.879,25.391,17.578,-53.711,0
135134.299,39.551,32.715,28.809,32.715,-2.441,0
135134.303,46.875,34.668,27.344,43.457,63.965,0
135134.305,28.320,33.691,22.949,28.809,46.387,0
135134.309,12.695,31.738,24.902,13.672,-24.414,0
135134.313,25.879,29.297,21.973,23.926,-3.906,0
135134.317,43.945,33.691,24.414,40.039,62.988,0
135134.321,34.180,35.645,32.227,33.691,66.406,0
135134.325,14.648,25.879,27.344,10.254,-17.578,0
135134.328,21.484,28.320,25.879,13.184,-29.297,0
135134.332,34.180,36.133,22.461,30.762,61.523,0
135134.336,27.832,34.668,18.066,28.320,39.551,0
135134.340,11.719,34.180,19.531,13.184,-14.648,0
135134.344,8.301,35.156,20.020,4.883,-20.996,0
135134.348,24.902,38.574,19.531,21.484,38.086,0
135134.350,31.250,42.969,24.414,35.156,89.844,0
135134.354,17.578,37.598,25.391,20.020,34.668,0
135134.358,11.230,34.668,21.973,10.742,-28.320,0
135134.362,25.391,37.598,19.043,23.926,-9.766,0
135134.366,31.250,36.133,19.043,30.273,47.363,0
135134.369,20.020,35.156,25.391,21.973,54.199,0
135134.373,9.766,32.227,28.809,14.648,15.137,0
135134.377,19.531,32.227,28.320,22.949,17.578,0
135134.381,35.156,37.598,23.926,36.133,60.059,0
135134.385,29.297,41.504,27.832,30.762,39.062,0
135134.389,12.207,34.180,36.133,12.207,-21.484,0
135134.393,16.602,28.809,38.574,11.230,-26.855,0
135134.395,33.203,37.109,34.668,24.414,33.691,0
135134.399,29.785,35.645,24.414,23.926,95.703,0
135134.403,11.230,31.738,21.973,7.812,57.129,0
135134.407,7.324,33.691,24.414,3.906,4.395,0
135134.410,29.297,40.039,25.391,24.414,77.637,1
135134.414,35.645,41.504,28.320,35.156,137.207,0
135134.418,7.812,35.156,23.438,11.719,76.172,0
135134.422,1.953,32.227,17.578,2.441,17.090,0
135134.426,23.926,24.902,22.949,22.949,51.758,0
135134.430,30.762,20.508,25.391,32.227,143.066,0
135134.434,17.578,32.715,20.508,18.555,128.418,0
135134.438,1.465,41.992,17.578,2.930,9.277,0
135134.441,9.766,39.551,20.508,9.766,-36.621,0
135134.445,24.902,33.203,21.484,25.391,38.574,0
135134.449,17.578,32.227,23.926,21.973,58.594,0
135134.453,-2.930,34.668,23.926,7.324,-26.855,0
135134.457,0.488,33.691,21.973,8.301,-38.086,0
135134.461,23.926,28.320,25.879,27.832,28.809,0
135134.465,22.461,22.461,23.438,30.273,19.531,0
135134.469,1.953,24.414,20.508,12.207,-27.344,0
135134.472,4.395,35.645,24.414,8.301,-18.066,0
135134.476,32.227,42.969,25.879,28.809,41.992,0
135134.480,40.039,38.086,27.832,41.504,63.477,0
135134.484,22.949,31.738,25.391,28.320,30.762,0
135134.485,21.484,33.691,22.949,24.902,-7.324,0
135134.489,36.133,32.715,23.926,36.133,30.273,0
135134.493,47.363,29.297,28.320,45.410,93.750,0
135134.497,42.480,33.203,33.203,41.504,43.945,0
135134.501,28.320,33.691,25.391,27.344,-13.184,0
135134.504,31.738,33.691,21.484,27.832,1.465,0
135134.508,46.387,36.133,28.809,42.969,23.438,0
135134.512,42.480,37.109,31.250,41.504,26.367,0
135134.516,23.438,34.180,28.809,22.461,8.301,0
135134.520,28.320,35.645,24.414,20.996,-19.531,0
135134.524,47.852,40.039,23.926,38.574,75.684,0
135134.528,47.852,37.109,25.879,40.527,95.703,0
135134.530,27.344,31.738,26.855,23.926,16.602,0
135134.534,19.531,32.227,28.320,18.066,1.953,0
135134.538,35.156,28.809,27.832,32.227,14.160,0
135134.542,41.992,28.320,29.297,48.340,65.918,0
135134.546,25.879,32.227,34.668,37.598,68.848,0
135134.549,13.672,25.879,35.645,27.344,-31.738,0
135134.553,21.484,27.832,29.785,32.715,-38.574,0
135134.557,34.180,27.832,28.809,42.480,42.480,0
135134.561,27.832,26.367,29.785,39.062,28.809,0
135134.565,12.207,27.832,27.344,23.438,-8.789,0
135134.569,25.391,28.320,29.785,28.320,-2.930,0
135134.573,41.016,33.203,28.320,41.992,69.824,0
135134.590,33.691,33.691,31.250,37.109,80.566,0
135134.594,13.672,35.645,34.180,16.602,21.973,0
135134.598,8.789,36.133,32.715,10.254,-14.648,0
135134.602,28.320,32.227,31.250,22.949,20.996,0
135134.606,37.109,29.785,30.762,32.715,62.988,0
135134.610,20.996,29.297,28.809,20.996,35.645,0
135134.614,9.766,29.297,24.902,11.230,-23.926,0
135134.617,25.879,28.809,30.273,22.949,15.137,0
135134.621,39.551,36.133,35.156,36.621,99.121,0
135134.625,25.879,35.156,33.691,27.344,51.270,0
135134.629,6.348,27.832,27.832,8.301,-24.414,0
135134.633,14.160,32.227,23.438,14.648,-25.879,0
135134.635,29.785,28.320,24.414,28.809,20.996,0
135134.639,17.090,25.391,26.367,20.996,20.508,0
135134.643,-3.906,29.297,26.855,4.395,-25.879,0
135134.647,2.930,27.832,28.809,9.766,-21.484,0
135134.651,20.996,19.043,32.227,27.344,45.898,0
135134.655,20.020,14.648,33.203,23.926,43.457,0
135134.658,2.930,17.090,29.785,7.324,-25.391,0
135134.662,2.930,17.578,29.297,6.348,1.465,0
135134.666,24.902,20.996,29.785,18.555,41.992,0
135134.670,29.785,25.879,26.855,23.926,56.152,0
135134.674,15.625,23.926,25.391,10.742,41.016,0
135134.678,13.672,26.855,26.367,1.953,-7.812,0
135134.681,33.691,30.762,27.344,18.555,7.324,0
135134.685,42.480,24.902,28.320,31.250,55.664,0
135134.689,24.902,20.020,28.809,18.555,36.133,0
135134.693,9.766,26.855,30.273,8.301,0.000,0
135134.697,22.949,35.645,28.809,20.508,-12.207,0
135134.701,41.992,24.902,26.855,39.551,53.711,0
135134.705,31.738,21.484,31.738,35.645,100.098,0
135134.709,19.043,33.691,36.133,20.996,46.875,0
135134.712,22.461,36.133,37.109,18.555,22.461,0
135134.716,36.133,35.645,36.621,32.715,61.035,0
135134.720,35.645,38.086,32.227,37.598,126.953,0
135134.724,17.090,32.227,26.855,17.090,100.098,0
135134.725,16.602,29.785,29.785,11.719,12.695,0
135134.729,30.273,34.668,31.738,27.344,40.039,0
135134.733,32.227,30.762,28.320,30.273,114.746,0
135134.737,16.602,23.926,28.320,15.625,69.336,0
135134.741,7.324,16.602,27.832,6.836,16.113,0
135134.744,20.508,18.555,32.715,19.043,59.082,0
135134.748,36.621,29.297,35.645,32.715,102.051,0
135134.752,26.855,31.250,31.250,26.855,57.129,0
135134.756,8.789,28.320,29.785,11.719,-18.066,0
135134.760,17.090,27.832,26.367,17.090,-6.348,0
135134.764,32.715,27.832,24.902,36.133,66.406,0
135134.768,22.949,28.809,28.320,32.715,96.680,0
135134.770,0.977,29.785,35.645,12.695,37.109,0
135134.774,2.441,25.391,36.621,7.812,22.949,0
135134.778,19.531,18.555,31.738,20.996,64.453,0
135134.782,20.996,24.902,28.809,22.949,67.871,0
135134.786,9.277,34.668,28.320,7.324,12.695,0
135134.790,7.812,28.320,29.297,3.906,-45.898,0
135134.793,25.391,21.484,29.297,21.484,19.043,0
135134.797,40.527,26.367,32.227,36.133,73.242,0
135134.801,27.344,29.785,28.809,26.367,19.531,0
135134.805,13.672,29.297,21.973,10.254,-20.020,0
135134.809,30.762,25.879,17.578,17.090,-0.977,0
135134.813,42.969,24.902,16.113,29.785,77.148,0
135134.815,26.855,26.855,20.508,15.625,62.012,0
135134.819,12.695,27.344,24.902,-5.371,-1.465,0
135134.823,18.555,27.344,24.902,-0.977,8.789,0
135134.827,32.715,28.809,26.367,16.113,59.082,0
135134.831,25.879,27.832,30.273,18.066,81.543,0
135134.835,11.719,25.391,28.320,7.324,29.297,0
135134.838,11.230,27.344,21.484,4.395,-27.344,1
135134.842,21.484,26.367,19.531,17.090,-17.090,0
135134.846,28.809,22.949,21.973,24.902,39.062,0
135134.850,13.672,28.320,22.461,13.672,33.691,0
135134.854,8.789,35.156,19.531,8.789,-22.949,0
135134.858,26.367,31.738,22.461,30.762,0.977,0
135134.860,31.738,29.297,30.762,41.504,65.430,0
135134.864,18.555,32.227,31.738,26.855,42.480,0
135134.868,3.418,28.320,26.367,15.625,-15.137,0
135134.872,9.277,22.461,26.855,20.508,-6.348,0
135134.875,23.438,27.344,29.297,29.785,66.406,0
135134.879,13.184,28.809,28.809,20.508,53.223,0
135134.883,-2.441,23.438,27.344,2.441,-11.719,0
135134.887,2.930,15.625,24.414,2.441,-30.762,0
135134.891,25.391,16.113,18.555,23.438,53.711,0
135134.895,25.879,23.926,15.625,24.414,76.172,0
135134.899,7.812,30.762,23.438,8.301,-7.812,0
135134.903,10.254,31.738,27.344,6.348,-29.297,0
135134.906,29.785,30.273,22.949,22.949,30.762,0
135134.910,35.156,32.715,22.949,32.227,65.430,0
135134.914,19.531,34.180,27.832,18.555,23.438,0
135134.918,14.648,29.785,26.367,11.230,-28.809,0
135134.922,28.320,31.738,24.414,23.438,6.348,0
135134.926,36.621,30.273,29.297,32.715,64.453,0
135134.930,20.020,22.949,30.762,20.020,13.184,0
135134.934,5.859,26.367,24.902,7.324,-9.766,0
135134.937,19.531,33.691,19.043,16.602,21.973,0
135134.941,36.621,34.180,16.602,34.668,62.988,0
135134.945,34.180,35.156,22.949,31.250,40.527,0
135134.949,24.902,39.551,29.297,16.113,-8.789,0
135134.965,21.973,35.645,30.762,19.531,-9.766,0
135134.969,34.180,32.715,32.715,31.738,18.555,0
135134.973,41.504,32.715,30.762,37.598,40.039,0
135134.977,26.855,32.715,27.344,26.367,-5.859,0
135134.981,18.066,35.645,24.414,17.578,-42.480,0
135134.984,30.273,34.180,20.996,28.320,2.930,0
135134.988,35.645,31.738,24.414,37.598,59.570,0
135134.992,20.508,30.762,31.250,27.832,55.664,0
135134.996,14.160,32.715,32.227,22.461,31.738,0
135135.000,33.203,28.320,29.785,32.715,56.641,0
135135.004,46.875,27.344,29.785,43.457,125.488,0
135135.008,29.785,30.273,30.762,31.738,115.234,0
135135.010,13.672,24.902,29.297,13.184,33.691,0
135135.014,24.414,24.902,26.855,15.625,18.066,0
135135.018,41.504,29.785,22.949,28.809,70.312,0
135135.022,39.551,34.668,23.926,27.344,75.195,0
135135.026,24.902,34.180,25.391,12.695,-39.551,0
135135.029,28.809,31.738,22.461,16.113,-89.844,0
135135.033,42.480,34.180,20.508,32.715,-21.484,0
135135.037,43.457,31.738,22.461,37.109,34.180,0
135135.041,30.273,29.785,22.461,25.391,-3.418,0
135135.045,19.531,28.809,21.484,13.672,-66.895,0
135135.049,22.461,22.461,16.113,20.020,-4.883,0
135135.053,30.762,21.973,15.625,31.738,73.242,0
135135.055,20.020,29.785,23.438,20.508,38.574,0
135135.059,9.766,31.738,30.273,5.371,-20.996,0
135135.063,28.320,26.367,33.691,15.625,-27.832,0
135135.067,43.457,26.855,30.273,33.691,45.410,0
135135.071,30.273,23.926,25.391,21.484,62.988,0
135135.075,16.113,20.996,23.438,5.371,-18.555,0
135135.079,24.902,25.391,20.508,12.207,-9.277,0
135135.083,41.016,27.832,19.043,27.344,70.801,0
135135.087,37.109,30.273,28.320,25.879,57.617,0
135135.090,19.043,33.203,33.691,9.766,-2.441,0
135135.094,21.484,32.715,26.367,10.254,-17.578,0
135135.098,42.480,27.344,20.996,27.832,35.156,0
135135.100,48.828,24.902,20.996,34.668,65.918,0
135135.104,32.227,25.879,23.926,20.508,28.809,0
135135.108,25.879,28.809,33.203,20.508,19.043,0
135135.112,39.062,32.227,34.668,32.715,41.504,0
135135.116,46.387,31.250,22.949,39.551,59.082,0
135135.119,33.691,30.273,21.973,29.297,51.270,0
135135.123,20.996,32.715,25.879,14.160,35.645,0
135135.127,31.250,30.762,30.273,21.484,16.602,0
135135.131,40.527,31.250,30.762,31.738,14.648,0
135135.135,30.762,38.086,27.344,24.414,18.555,0
135135.139,15.137,33.691,30.762,6.836,-16.113,0
135135.143,18.555,30.273,27.344,8.301,-36.133,0
135135.146,33.203,29.297,21.484,23.926,51.758,0
135135.150,28.320,26.367,21.484,20.996,99.609,0
135135.154,11.230,33.203,24.414,8.301,48.340,0
135135.158,10.742,35.156,21.973,7.812,3.418,0
135135.162,26.855,33.203,18.066,21.484,8.789,0
135135.166,28.320,36.133,25.391,27.832,61.035,0
135135.170,9.277,37.109,27.832,12.695,51.270,0
135135.174,7.324,35.156,27.832,6.348,-12.207,0
135135.177,25.391,35.156,26.855,18.066,20.508,0
135135.181,37.598,32.715,23.438,27.832,107.910,0
135135.185,25.879,33.691,24.414,17.578,74.707,0
135135.189,14.648,36.133,24.902,7.812,12.695,0
135135.190,25.391,30.273,23.926,18.555,45.410,0
135135.194,39.062,31.250,22.461,33.203,119.629,0
135135.198,31.250,35.156,25.391,30.762,78.613,0
135135.202,17.578,34.180,32.715,16.602,-13.672,0
135135.205,27.344,31.738,29.785,20.020,-16.113,0
135135.209,35.156,30.762,23.926,33.203,59.082,0
135135.213,25.879,35.156,21.973,30.273,76.660,0
135135.217,9.277,35.645,25.391,15.625,-15.625,0
135135.221,6.348,31.738,26.855,12.695,-56.152,0
135135.225,20.996,30.762,23.438,24.902,9.766,0
135135.229,25.391,31.250,22.461,31.250,49.316,0
135135.233,9.766,34.180,24.414,18.066,24.414,0
135135.235,5.371,39.062,29.297,12.695,-25.879,0
135135.239,23.438,34.668,30.762,22.461,1.465,0
135135.243,36.133,35.156,28.320,34.180,63.477,0
135135.247,21.973,37.109,26.367,25.391,41.504,0
135135.251,5.859,33.203,27.832,9.277,-41.504,0
135135.254,19.531,34.668,29.297,17.090,-42.969,0
135135.258,36.133,38.086,27.832,33.203,-10.742,0
135135.262,24.902,37.598,29.785,28.320,1.465,0
135135.266,9.766,37.109,31.738,13.184,-24.414,0
135135.270,14.160,32.715,28.320,10.742,-36.621,0
135135.274,27.832,32.227,24.902,23.438,23.438,0
135135.278,26.855,35.156,21.484,25.391,46.387,0
135135.280,10.254,35.645,20.996,13.184,7.324,0
135135.284,9.277,35.645,23.438,12.207,-20.996,0
135135.288,30.273,31.738,26.855,27.832,21.484,0
135135.292,38.086,32.227,25.391,38.574,54.199,0
135135.296,21.484,35.156,25.879,26.855,28.809,0
135135.299,23.438,39.062,25.879,22.461,-46.875,0
135135.303,39.062,40.527,24.414,34.668,-22.949,0
135135.307,41.504,31.250,25.391,43.945,74.219,0
135135.311,29.785,26.367,28.809,38.086,74.219,0
135135.315,14.160,33.691,35.156,24.414,31.250,1
135135.319,19.531,35.156,31.738,27.344,24.414,0
135135.323,34.180,34.668,33.203,45.898,76.660,0
135135.326,34.180,32.227,40.527,43.945,92.773,0
135135.330,16.113,28.320,33.691,22.461,9.277,0
135135.334,15.137,32.715,27.344,20.996,-13.672,0
135135.338,35.645,32.715,29.297,36.133,57.129,0
135135.342,34.668,33.203,25.879,39.062,100.098,0
135135.346,17.090,34.668,25.879,21.484,19.531,0
135135.350,15.137,34.180,26.855,11.719,-28.320,0
135135.354,33.203,33.203,27.832,25.391,38.086,0
135135.357,40.527,30.273,32.227,37.109,76.172,0
135135.361,23.438,36.621,32.715,25.391,41.504,0
135135.365,15.137,41.992,28.320,15.625,-33.691,0
135135.369,28.809,37.598,23.438,26.855,-3.906,0
135135.386,35.645,37.109,22.461,31.738,60.547,0
135135.390,21.973,37.109,22.949,17.090,30.273,0
135135.394,8.301,37.598,27.832,0.977,-24.414,0
135135.398,17.090,38.574,29.785,7.812,3.906,0
135135.402,29.297,31.250,20.996,23.926,66.406,0
135135.406,18.555,22.949,20.020,22.949,79.590,0
135135.410,-2.441,21.973,24.414,5.371,25.879,0
135135.414,0.000,28.320,23.438,3.418,20.996,0
135135.417,21.484,31.738,28.809,22.461,37.109,0
135135.421,25.879,31.250,30.273,26.367,28.809,0
135135.425,13.184,32.227,27.832,11.719,10.742,0
135135.429,9.277,33.203,22.949,6.836,-19.531,0
135135.430,25.391,33.203,23.438,22.949,15.625,0
135135.434,33.203,34.180,28.809,33.691,74.219,0
135135.438,16.602,32.715,28.320,20.020,72.266,0
135135.442,3.418,31.250,28.320,5.859,-20.020,0
135135.446,16.113,29.785,25.391,11.230,-38.574,0
135135.449,36.621,30.273,28.320,34.668,38.086,0
135135.453,30.273,33.691,32.227,34.180,42.480,0
135135.457,11.719,35.156,29.785,15.137,18.555,0
135135.461,19.531,40.527,32.227,18.555,-0.488,0
135135.465,36.621,37.598,36.621,32.227,31.250,0
135135.469,33.203,31.250,30.273,28.809,94.727,0
135135.473,17.090,34.180,24.902,11.230,47.852,0
135135.475,16.602,32.227,27.344,10.254,-2.441,0
135135.479,30.273,26.855,23.438,23.438,24.902,0
135135.483,32.715,31.250,21.973,27.832,76.660,0
135135.487,14.160,36.621,22.949,16.602,52.734,0
135135.491,7.812,33.691,27.344,8.789,7.324,0
135135.495,23.438,30.273,32.227,19.531,62.012,0
135135.499,30.762,31.250,29.297,30.762,99.609,0
135135.502,20.996,24.414,26.855,18.066,41.992,0
135135.506,7.324,23.438,26.855,2.441,-35.645,0
135135.510,16.602,27.832,23.438,14.160,-11.230,0
135135.514,31.738,24.414,19.043,29.297,73.730,0
135135.518,25.391,26.367,26.855,23.438,67.871,0
135135.520,7.812,34.180,31.738,10.254,-5.859,0
135135.524,14.160,34.180,27.832,13.184,-3.906,0
135135.528,34.668,24.414,25.391,26.367,52.734,0
135135.532,27.832,20.508,22.461,22.461,70.801,0
135135.536,8.789,31.738,22.461,7.812,9.766,0
135135.540,17.578,38.574,26.855,8.301,-36.621,0
135135.544,35.645,35.645,29.785,25.391,20.508,0
135135.547,29.785,31.250,24.902,30.762,65.918,0
135135.551,17.090,31.738,23.926,16.602,31.250,0
135135.555,12.207,33.203,30.762,8.789,5.859,0
135135.559,25.879,32.715,31.738,24.414,31.738,0
135135.563,36.133,36.133,26.855,38.574,86.426,0
135135.565,19.531,34.668,24.414,23.438,81.055,0
135135.569,2.930,25.391,21.973,5.859,31.250,0
135135.573,12.695,24.414,20.508,10.254,46.875,0
135135.577,25.391,29.785,24.414,23.926,86.914,0
135135.581,20.508,29.785,28.809,26.367,84.473,0
135135.585,5.859,28.320,35.156,14.648,28.320,0
135135.589,5.859,29.297,34.180,12.695,10.742,0
135135.593,20.508,28.320,29.785,26.367,51.758,0
135135.596,19.531,28.320,28.809,25.879,75.195,0
135135.600,0.977,28.809,27.344,9.766,62.012,0
135135.604,-2.930,28.320,26.855,7.812,29.785,0
135135.608,16.113,27.832,24.902,24.414,61.035,0
135135.611,30.762,28.320,25.879,35.156,103.027,0
135135.615,15.625,32.715,28.809,22.949,69.824,0
135135.619,7.324,29.297,32.227,13.672,5.859,0
135135.623,22.949,21.973,35.645,23.438,0.977,0
135135.627,33.203,29.297,32.715,32.227,59.082,0
135135.631,20.508,35.645,28.320,24.902,48.828,0
135135.635,5.371,35.645,27.344,10.742,-26.855,0
135135.639,12.207,36.133,27.344,16.113,-8.301,0
135135.642,32.715,35.156,25.391,37.109,53.223,0
135135.646,30.273,35.645,23.926,33.691,45.898,0
135135.650,10.742,38.086,27.832,14.160,0.488,0
135135.654,14.160,38.086,28.809,16.113,-21.973,0
135135.655,33.691,33.203,29.297,35.645,43.457,0
135135.659,37.598,31.250,32.227,38.574,75.195,0
135135.663,19.531,37.598,28.809,18.555,0.977,0
135135.667,10.742,40.039,28.809,5.371,-14.648,0
135135.670,25.391,36.133,28.809,20.508,23.926,0
135135.674,36.621,34.180,29.297,36.621,48.340,0
135135.678,20.020,35.645,30.273,23.438,20.020,0
135135.682,8.789,27.832,28.320,10.254,-45.898,0
135135.686,19.043,20.996,29.297,18.555,-33.691,0
135135.690,20.996,25.391,30.273,30.273,21.484,0
135135.694,13.184,27.832,24.902,24.902,37.109,0
135135.698,-4.395,33.203,26.855,7.812,8.301,0
135135.715,-4.883,33.203,30.273,8.301,9.766,0
135135.719,15.137,31.738,28.809,27.832,39.062,0
135135.723,17.578,35.156,30.762,26.855,70.312,0
135135.727,0.488,31.738,32.715,7.324,47.363,0
135135.731,-3.906,23.926,27.344,2.930,-8.789,0
135135.734,18.066,23.438,22.949,18.555,33.203,0
135135.738,23.926,28.320,19.043,21.484,76.172,0
135135.742,11.719,26.367,20.020,11.230,17.090,0
135135.746,7.812,20.996,25.879,6.836,-10.742,0
135135.750,20.020,20.508,21.973,17.578,-3.906,0
135135.754,29.785,24.902,18.066,33.691,11.230,0
135135.758,18.066,27.344,23.438,19.531,19.531,0
135135.760,6.348,24.902,28.809,3.906,-13.672,0
135135.764,11.719,26.367,27.832,12.695,-8.301,0
135135.768,26.855,33.203,27.344,27.344,36.621,0
135135.772,20.996,35.645,32.715,21.484,54.199,0
135135.776,10.742,33.203,30.273,9.277,-12.695,0
135135.779,19.531,28.320,20.508,14.648,-27.832,0
135135.783,36.621,30.273,19.531,29.785,42.969,0
135135.787,36.133,33.691,20.508,31.250,98.633,0
135135.791,24.414,29.785,21.973,20.996,41.016,0
135135.795,22.461,24.902,23.926,15.625,-14.160,0
135135.799,35.645,32.715,20.996,26.855,53.223,1
135135.803,40.527,38.574,24.414,35.156,100.586,0
135135.805,26.367,37.109,30.762,20.020,36.621,0
135135.809,21.973,37.109,30.273,8.301,-20.020,0
135135.813,36.621,32.715,22.949,17.578,8.789,0
135135.817,46.387,29.785,19.531,29.785,50.781,0
135135.821,34.180,34.180,20.508,22.461,21.484,0
135135.824,19.531,35.156,17.578,7.324,-41.992,0
135135.828,29.785,33.691,18.066,14.648,-24.414,0
135135.832,44.922,32.715,21.973,33.691,29.785,0
135135.836,35.156,32.227,25.391,28.809,21.973,0
135135.840,15.137,29.297,22.949,7.324,-28.320,0
135135.844,23.926,24.414,19.531,11.230,0.977,0
135135.848,49.316,30.273,25.879,39.062,74.219,0
135135.851,51.758,33.691,28.320,43.945,98.145,0
135135.855,29.785,28.320,20.508,23.438,47.363,0
135135.859,20.996,31.250,16.113,13.672,8.301,0
135135.863,40.039,34.668,19.531,29.297,35.645,0
135135.867,40.527,28.809,25.879,37.109,67.871,0
135135.871,19.531,18.555,26.367,19.531,50.781,0
135135.875,16.113,13.184,20.508,9.277,-1.953,0
135135.879,35.645,23.438,23.926,25.391,37.598,0
135135.882,43.945,34.180,24.414,37.598,83.008,0
135135.886,30.273,26.855,20.020,26.367,80.078,0
135135.890,19.043,29.785,20.996,14.160,38.086,0
135135.894,27.832,33.203,19.531,18.066,43.457,0
135135.895,44.434,25.879,19.043,35.645,99.121,0
135135.899,39.551,21.484,21.484,36.133,98.633,0
135135.903,29.785,23.926,26.367,26.367,25.391,0
135135.907,35.645,31.250,25.391,25.879,19.531,0
135135.911,43.945,30.762,23.926,34.668,94.238,0
135135.914,42.480,31.738,27.344,42.480,94.238,0
135135.918,27.832,25.879,29.297,30.273,37.598,0
135135.922,21.973,22.461,26.367,16.113,-20.020,0
135135.926,39.551,34.180,21.973,26.367,-10.742,0
135135.930,49.316,33.203,26.855,39.551,87.402,0
135135.934,28.809,23.926,28.320,23.926,58.105,0
135135.938,7.812,22.461,18.066,1.953,-11.719,0
135135.940,23.438,22.461,14.648,14.648,27.832,0
135135.944,42.480,22.949,20.508,31.738,81.543,0
135135.948,30.762,25.879,24.414,23.438,69.336,0
135135.952,15.137,28.320,21.484,9.277,-4.395,0
135135.956,25.391,26.367,20.996,14.648,-7.324,0
135135.959,42.480,22.949,23.926,32.715,64.941,0
135135.963,41.504,29.297,23.438,30.762,84.961,0
135135.967,26.855,36.621,22.949,13.672,31.250,0
135135.971,25.879,32.227,25.879,12.207,5.371,0
135135.975,48.340,32.715,26.367,30.762,45.410,0
135135.979,54.688,32.715,22.949,36.621,78.613,0
135135.983,34.180,34.668,22.949,21.484,51.270,0
135135.985,25.879,41.992,25.879,15.625,16.602,0
135135.989,41.504,35.156,24.902,30.273,17.090,0
135135.993,49.316,28.320,24.414,40.527,56.152,0
135135.997,30.762,32.227,24.414,27.344,53.223,0
135136.001,15.137,28.809,21.484,6.348,20.996,0
135136.005,27.832,22.461,24.902,14.160,32.715,0
135136.009,40.527,23.926,23.926,29.297,76.660,0
135136.013,36.133,27.344,21.973,24.414,67.871,0
135136.017,26.855,27.832,25.391,17.090,42.969,0
135136.020,31.250,29.297,24.902,19.531,72.754,0
135136.024,52.246,29.785,22.949,36.133,122.559,0
135136.028,52.246,26.367,30.762,43.945,115.234,0
135136.032,26.367,22.949,36.621,22.949,74.707,0
135136.036,23.926,32.715,29.785,17.090,39.551,0
135136.040,42.480,33.203,27.344,35.645,40.039,0
135136.044,42.969,23.926,31.738,37.598,70.801,0
135136.048,26.855,33.691,33.203,21.484,27.344,0
135136.051,22.461,41.992,28.320,11.719,-8.789,0
135136.055,34.668,35.645,24.902,23.438,-1.953,0
135136.059,40.527,27.344,28.320,33.691,57.129,0
135136.063,29.785,27.832,38.086,24.414,83.008,0
135136.067,18.066,34.668,39.551,12.695,11.230,0
135136.071,25.391,31.738,33.203,16.113,34.180,0
135136.075,35.156,26.855,28.320,25.391,83.496,0
135136.090,21.484,25.879,24.902,15.137,80.566,0
135136.094,6.836,27.832,26.367,2.930,57.617,0
135136.098,11.719,29.297,23.438,8.301,-15.625,0
135136.102,26.855,30.273,20.020,22.949,17.090,0
135136.106,26.367,27.832,23.926,25.879,88.379,0
135136.109,10.254,25.391,28.320,14.648,29.297,0
135136.113,10.742,30.762,26.367,9.277,-7.324,0
135136.117,30.762,38.574,31.250,24.414,48.340,0
135136.121,39.062,41.992,34.668,36.621,83.008,0
135136.125,24.414,41.016,32.715,23.926,20.996,0
135136.129,12.695,35.645,30.762,11.230,-27.344,0
135136.133,28.320,34.180,28.809,23.438,36.133,0
135136.135,44.434,33.691,30.273,35.156,76.660,0
135136.139,30.273,31.738,32.715,23.438,24.902,0
135136.143,11.719,37.109,28.320,7.812,-22.949,0
135136.147,21.973,41.016,24.414,14.160,-10.254,0
135136.151,32.227,38.574,26.367,28.320,39.062,0
135136.154,23.438,34.668,25.879,24.902,48.340,0
135136.158,4.395,30.273,22.949,7.324,7.812,0
135136.162,1.953,29.297,26.855,7.324,30.273,0
135136.166,25.391,31.738,30.273,25.879,82.031,0
135136.170,29.297,31.738,34.668,30.762,90.332,0
135136.174,16.113,34.668,37.109,20.020,54.688,0
135136.178,16.113,35.156,30.762,16.602,-8.789,0
135136.180,32.715,35.156,23.926,29.297,3.906,0
135136.184,35.156,30.273,22.461,34.668,41.504,0
135136.188,17.090,26.855,22.461,22.461,-16.602,0
135136.192,4.395,35.156,21.484,9.277,-42.969,0
135136.196,12.207,35.645,22.949,13.672,23.926,0
135136.199,26.855,31.250,29.785,27.344,49.805,0
135136.203,16.113,28.809,31.738,19.531,4.883,0
135136.207,2.441,29.785,26.855,2.930,-38.574,0
135136.211,11.230,33.203,22.949,8.789,-8.301,0
135136.215,30.762,37.109,20.996,27.832,53.223,0
135136.219,31.250,37.109,21.973,28.809,90.820,0
135136.223,12.207,34.180,24.902,13.672,60.059,0
135136.225,11.230,33.203,25.879,12.207,27.832,0
135136.229,27.832,30.273,25.391,30.273,85.449,0
135136.233,24.902,30.273,28.320,39.551,116.699,0
135136.237,8.789,30.762,32.715,24.414,50.781,0
135136.241,6.836,32.715,28.809,19.531,6.348,0
135136.245,25.879,37.109,28.809,32.715,1.465,0
135136.248,33.203,34.668,32.715,41.504,54.688,0
135136.252,17.090,33.203,30.273,29.785,52.246,0
135136.256,7.812,29.785,28.809,19.043,-38.086,0
135136.260,20.508,30.273,25.391,26.855,-5.371,0
135136.264,39.062,36.621,23.926,41.016,38.086,0
135136.268,31.738,33.203,26.855,35.156,2.441,0
135136.270,15.625,34.180,27.344,17.090,-27.344,0
135136.274,21.973,38.574,26.367,21.973,20.508,0
135136.278,34.668,40.527,27.344,35.156,95.703,0
135136.282,32.227,45.898,26.855,33.691,78.613,0
135136.286,17.578,43.457,25.391,20.996,-4.883,0
135136.289,14.160,36.621,25.391,14.648,-20.020,2
135136.293,26.367,35.645,28.320,25.879,46.875,0
135136.297,27.832,34.668,31.250,32.715,63.965,0
135136.301,9.766,31.250,28.809,17.578,-27.344,0
135136.305,0.977,27.832,21.484,6.836,-71.289,0
135136.309,19.043,27.832,20.508,22.949,-19.043,0
135136.313,30.762,30.762,24.902,40.527,27.832,0
135136.316,11.230,30.273,24.902,27.344,16.113,0
135136.320,-4.883,28.320,26.855,11.719,-12.695,0
135136.324,10.254,31.738,26.855,19.531,-4.883,0
135136.328,28.320,33.691,21.484,33.691,50.781,0
135136.332,21.484,31.738,26.855,29.297,73.730,0
135136.336,8.789,34.180,33.691,16.602,16.602,0
135136.340,17.090,37.598,33.691,20.020,-51.270,0
135136.344,32.227,41.016,30.273,31.250,-25.391,0
135136.347,23.438,38.574,28.809,26.367,55.176,0
135136.351,4.395,33.203,32.715,8.789,23.438,0
135136.355,2.930,32.715,31.250,5.859,-13.672,0
135136.359,26.367,36.133,27.832,21.484,52.246,0
135136.360,34.668,28.809,24.414,25.879,60.547,0
135136.364,10.254,21.973,23.438,12.695,-1.953,0
135136.368,1.953,34.180,20.508,7.324,-51.758,0
135136.372,24.414,41.504,24.414,18.066,-38.574,0
135136.376,37.598,40.527,35.156,28.809,19.531,0
135136.379,20.996,35.645,32.227,20.020,22.461,0
135136.383,3.906,30.762,26.367,5.371,-26.367,0
135136.387,18.066,31.250,24.902,8.789,-26.855,0
135136.391,36.133,31.250,20.508,24.414,60.547,0
135136.395,27.344,30.273,24.902,22.949,54.688,0
135136.399,13.184,29.297,30.762,8.789,-46.387,0
135136.403,18.066,29.785,26.855,14.648,-52.734,0
135136.405,31.738,32.227,23.926,30.273,6.836,0
135136.409,34.180,31.738,31.738,29.297,52.734,0
135136.413,15.137,32.715,35.645,14.160,18.066,0
135136.417,7.812,34.668,30.273,10.254,-18.066,0
135136.421,26.367,34.180,28.809,28.320,58.105,0
135136.424,35.156,34.668,31.738,41.016,111.816,0
135136.428,16.113,35.156,33.691,29.785,48.828,0
135136.432,-0.488,38.086,31.738,12.695,17.090,0
135136.436,16.113,35.645,30.762,22.461,55.176,0
135136.440,32.715,29.785,30.273,40.039,103.516,0
135136.444,21.484,32.227,27.344,31.250,97.656,0
135136.448,8.301,37.109,31.250,11.230,41.504,0
135136.465,18.066,37.109,33.203,14.648,42.969,0
135136.469,30.762,32.715,30.273,30.762,83.984,0
135136.473,21.973,33.691,30.762,28.320,54.199,0
135136.477,6.348,39.551,30.762,13.672,-8.301,0
135136.481,6.836,39.062,29.297,12.207,-1.465,0
135136.485,20.996,37.109,31.738,27.344,48.828,0
135136.489,27.344,33.691,32.715,33.691,76.660,0
135136.493,17.090,33.691,26.855,21.973,65.918,0
135136.496,16.113,38.574,27.344,16.602,18.555,0
135136.500,32.227,40.527,32.227,31.738,18.066,0
135136.504,37.109,37.598,27.344,42.480,82.031,0
135136.508,26.367,34.668,25.879,32.227,48.340,0
135136.510,19.043,38.574,27.832,19.043,-15.625,0
135136.514,28.809,38.086,26.367,24.902,3.418,0
135136.518,45.898,37.598,23.438,39.062,55.664,0
135136.522,44.922,41.016,27.344,36.621,72.266,0
135136.526,30.762,40.039,34.180,22.949,-28.320,0
135136.529,31.738,38.574,31.250,25.391,-53.223,0
135136.533,44.922,35.156,26.855,39.551,34.668,0
135136.537,37.598,35.156,27.832,34.180,39.551,0
135136.541,13.672,35.156,30.273,14.648,-24.414,0
135136.545,9.766,31.738,27.832,13.672,-56.641,0
135136.549,29.297,32.227,24.902,32.715,16.602,0
135136.553,33.691,33.203,24.902,37.598,57.129,0
135136.556,17.090,39.551,24.902,19.531,34.180,0
135136.560,15.137,41.504,28.809,11.230,0.488,0
135136.564,33.203,37.598,27.344,26.367,26.855,0
135136.568,40.527,35.156,26.855,35.156,102.051,0
135136.572,25.391,31.250,27.832,20.996,51.270,0
135136.576,14.160,30.273,26.855,5.371,-5.371,0
135136.580,23.926,34.180,28.320,12.207,15.625,0
135136.584,37.109,31.250,23.926,25.879,74.707,0
135136.587,22.949,23.926,24.414,19.043,88.867,0
135136.591,1.953,20.996,26.367,5.859,37.109,0
135136.595,12.207,20.996,25.391,10.254,33.691,0
135136.599,30.762,27.344,27.832,23.438,56.641,0
135136.600,31.738,32.227,27.344,22.949,66.406,0
135136.604,17.090,34.668,25.391,4.883,17.578,0
135136.608,16.113,38.086,23.926,1.953,-42.480,0
135136.612,37.109,32.715,25.879,23.438,-24.414,0
135136.616,41.504,32.227,25.879,33.203,17.090,0
135136.619,25.391,39.062,23.926,19.043,-26.855,0
135136.623,12.695,39.062,20.996,5.371,-39.062,0
135136.627,22.461,29.785,24.902,17.578,14.648,0
135136.631,38.086,25.879,30.273,39.062,31.250,0
135136.635,24.902,30.273,26.367,26.855,36.133,0
135136.639,6.348,35.645,24.414,6.348,14.648,0
135136.643,20.508,40.527,23.926,16.602,32.715,0
135136.645,37.598,38.574,24.414,34.668,74.219,0
135136.649,29.785,37.598,24.414,27.344,83.984,0
135136.653,14.648,38.574,23.438,12.695,67.383,0
135136.657,16.113,33.203,27.344,18.066,57.617,0
135136.661,31.250,32.227,29.297,35.156,100.586,0
135136.665,34.668,34.668,26.855,38.086,105.469,0
135136.668,18.555,33.691,29.297,23.438,50.781,0
135136.672,18.066,31.738,29.297,19.043,6.836,0
135136.676,33.203,27.344,23.438,31.250,42.480,0
135136.680,41.016,30.762,26.855,41.992,86.914,0
135136.684,22.461,39.062,28.809,27.832,48.340,0
135136.688,6.836,33.691,22.949,12.695,2.930,0
135136.690,25.879,26.367,22.461,25.391,25.391,0
135136.694,37.109,21.973,22.949,39.551,87.402,0
135136.698,23.438,23.438,22.949,30.273,67.871,0
135136.702,10.254,27.344,22.461,16.113,-17.090,0
135136.706,17.090,26.367,19.531,20.508,-0.977,0
135136.709,33.691,23.438,18.555,32.227,79.102,0
135136.713,28.320,24.414,21.973,29.297,25.391,0
135136.717,8.789,23.926,22.461,11.230,-45.898,0
135136.721,11.230,22.461,17.578,7.324,-44.922,0
135136.725,30.273,23.438,17.090,24.414,-2.930,1
135136.729,35.645,24.414,21.973,32.715,42.480,0
135136.733,16.602,28.809,20.996,16.602,17.090,0
135136.735,7.812,28.809,18.066,4.883,9.277,0
135136.739,30.762,26.855,21.973,24.902,77.637,0
135136.743,40.527,26.855,23.926,36.133,89.844,0
135136.747,16.602,23.438,21.973,12.695,29.785,0
135136.751,4.883,26.367,20.996,0.488,9.277,0
135136.754,22.461,27.344,25.879,17.090,-1.953,0
135136.758,33.691,26.855,21.973,28.809,6.348,0
135136.762,27.832,31.738,17.578,21.973,21.484,0
135136.766,16.602,33.203,21.484,9.277,9.277,0
135136.770,23.926,26.367,20.996,13.184,-9.277,0
135136.774,43.457,28.320,18.555,33.203,43.945,0
135136.778,38.574,34.668,14.160,31.738,78.613,0
135136.781,17.578,34.180,14.160,14.160,18.066,0
135136.785,20.996,33.691,19.531,16.602,-13.184,0
135136.789,42.969,33.691,26.367,35.645,-11.230,0
135136.793,46.387,30.762,28.809,38.574,7.324,0
135136.797,28.809,29.785,26.855,21.973,-17.578,0
135136.801,20.996,34.668,21.484,12.695,-49.316,0
135136.805,33.691,35.156,17.578,20.508,-20.996,0
135136.809,39.062,26.855,19.531,32.227,54.199,0
135136.812,22.461,22.461,20.996,22.461,59.082,0
135136.816,6.348,27.832,22.461,8.789,-35.645,0
135136.820,19.043,35.156,21.484,19.531,-14.648,0
135136.824,30.762,36.133,23.926,29.297,100.098,0
135136.840,20.020,30.762,28.320,20.508,83.984,0
135136.844,5.859,23.438,30.762,9.766,9.277,0
135136.848,9.766,24.414,29.785,13.184,-8.301,0
135136.852,25.391,33.203,26.855,28.320,68.359,0
135136.856,22.461,26.367,21.973,27.832,108.887,0
135136.859,6.836,23.926,21.973,14.160,11.230,0
135136.863,5.371,33.203,26.855,9.766,-62.500,0
135136.867,21.484,35.645,24.902,23.438,-2.441,0
135136.871,30.273,32.715,23.438,27.832,50.293,0
135136.875,11.230,29.785,25.879,9.277,17.578,0
135136.879,5.371,31.738,30.273,2.441,-16.113,0
135136.883,24.414,35.156,27.344,16.602,13.672,0
135136.885,34.180,35.156,23.926,27.832,55.176,0
135136.889,22.949,33.203,27.832,19.531,25.391,0
135136.893,6.348,30.762,26.367,5.371,-28.320,0
135136.897,16.602,28.320,24.414,9.277,-0.488,0
135136.901,31.250,27.344,25.391,25.391,68.848,0
135136.905,23.438,27.832,24.902,22.949,61.035,0
135136.909,8.789,29.297,29.297,9.766,-10.254,0
135136.913,14.160,25.391,33.203,11.719,-11.719,0
135136.917,30.762,25.391,30.273,28.320,82.520,0
135136.920,23.926,24.414,26.855,26.367,98.633,0
135136.924,7.324,24.414,25.391,10.254,33.203,0
135136.928,6.348,26.367,24.414,11.719,-10.254,0
135136.930,20.020,23.926,24.414,26.855,36.621,0
135136.934,28.320,27.832,24.902,31.738,59.082,0
135136.938,16.602,29.785,26.855,15.625,25.391,0
135136.942,12.207,26.367,32.227,8.789,16.602,0
135136.945,24.414,26.855,30.273,19.531,59.570,0
135136.949,32.715,28.809,24.902,34.180,78.125,0
135136.953,20.996,31.250,23.926,26.367,36.621,0
135136.957,5.859,27.832,23.926,7.812,6.348,0
135136.961,16.602,26.367,27.832,13.672,-52.734,0
135136.965,32.227,24.414,28.809,31.250,-17.090,0
135136.969,26.367,23.438,28.809,28.809,32.227,0
135136.973,9.766,32.227,29.297,12.207,-23.926,0
135136.975,9.766,39.062,26.367,10.742,-51.758,0
135136.979,29.297,38.086,22.461,25.879,22.949,0
135136.983,28.809,39.062,22.949,26.367,76.660,0
135136.987,8.789,41.992,24.902,9.277,27.344,0
135136.990,8.301,35.156,20.996,1.465,-15.137,0
135136.994,26.855,28.320,18.555,9.766,32.227,0
135136.998,35.645,30.762,20.996,19.531,77.637,0
135137.002,21.484,36.621,28.809,12.207,21.484,0
135137.006,7.324,31.250,32.227,1.465,-52.246,0
135137.010,20.996,27.832,23.926,12.695,-44.434,0
135137.014,34.180,31.250,21.484,26.855,28.320,0
135137.018,22.461,33.203,29.297,20.508,35.156,0
135137.021,10.254,32.227,32.715,13.184,-33.203,0
135137.025,23.926,35.156,33.203,21.484,-41.504,0
135137.029,38.086,38.086,31.738,35.156,29.785,0
135137.033,24.902,33.203,29.297,30.762,44.434,0
135137.037,2.441,30.762,23.926,12.207,-25.391,0
135137.041,8.301,24.902,23.926,13.672,-60.547,0
135137.045,34.180,20.020,26.855,34.180,4.883,0
135137.049,37.598,29.785,28.809,38.574,29.785,0
135137.052,15.137,32.227,25.879,17.090,-31.250,0
135137.056,9.766,28.320,21.973,8.789,-19.043,0
135137.060,31.738,28.809,27.832,23.926,32.227,0
135137.064,39.551,24.414,28.809,31.250,62.012,0
135137.065,24.414,25.879,27.832,22.949,32.715,0
135137.069,13.184,26.367,27.344,13.184,-16.113,0
135137.073,25.879,24.414,26.855,22.461,-5.859,0
135137.077,39.551,30.273,26.855,35.156,37.598,0
135137.081,28.809,33.691,27.832,28.320,-2.930,0
135137.084,9.766,33.691,33.203,11.719,-53.223,0
135137.088,18.555,32.227,29.785,11.719,-48.828,0
135137.092,34.180,28.809,20.996,24.414,-35.156,0
135137.096,28.320,20.996,19.043,22.949,17.090,0
135137.100,13.184,19.531,17.578,9.277,-11.230,0
135137.104,18.066,20.508,20.996,9.766,-69.824,0
135137.108,36.133,21.484,22.949,25.879,-29.297,0
135137.111,33.203,31.250,25.391,30.762,28.809,0
135137.114,12.695,34.668,32.715,18.066,13.672,0
135137.118,15.625,34.180,31.738,15.625,-25.879,0
135137.122,42.480,32.227,28.320,31.738,8.789,0
135137.126,49.316,31.250,23.438,39.551,56.152,0
135137.130,29.297,31.738,22.461,26.367,45.898,0
135137.134,15.137,26.367,24.902,13.672,-16.602,1
135137.138,29.785,27.832,25.391,23.926,-28.320,0
135137.142,43.457,32.227,21.484,36.621,67.871,0
135137.146,29.297,30.762,19.043,24.414,80.566,0
135137.150,13.672,30.273,25.391,8.789,-0.488,0
135137.153,19.531,32.227,30.762,11.230,-41.992,0
135137.155,39.551,35.645,27.832,26.367,20.020,0
135137.159,37.109,33.203,21.484,25.391,84.961,0
135137.163,11.719,29.297,21.973,8.301,46.387,0
135137.167,9.766,29.785,25.391,5.371,-32.715,0
135137.170,30.762,31.738,24.902,23.926,4.883,0
135137.174,35.156,36.133,24.902,33.691,43.457,0
135137.178,17.090,39.062,29.297,19.043,-8.301,0
135137.182,14.648,39.551,26.367,11.719,-4.395,0
135137.186,34.180,34.668,24.902,27.344,50.781,0
135137.190,43.457,33.203,32.227,42.480,86.914,0
135137.194,30.273,38.086,34.180,32.227,51.758,0
135137.198,16.113,33.203,36.621,19.043,-13.184,0
135137.201,27.832,20.508,39.551,33.203,4.395,0
135137.205,51.270,19.043,40.527,56.641,84.473,0
135137.209,42.480,31.738,35.645,48.340,54.199,0
135137.213,17.090,47.363,32.227,18.066,-24.414,0
135137.217,13.184,47.363,31.250,12.207,-10.742,0
135137.221,22.461,39.062,30.762,26.855,6.836,0
135137.225,22.461,35.645,32.227,30.273,19.531,0
135137.229,13.184,32.715,32.715,20.020,16.602,0
135137.232,16.113,29.297,30.273,18.555,3.906,0
135137.236,32.227,29.785,32.227,35.156,29.297,0
135137.240,38.574,34.180,35.645,46.875,70.312,0
135137.244,21.973,35.156,32.715,33.691,41.504,0
135137.261,10.254,28.320,28.809,22.949,-10.742,0
135137.265,25.879,23.438,24.414,35.156,5.371,0
135137.269,37.598,26.367,24.902,45.898,46.387,0
135137.273,28.320,27.344,30.762,33.691,34.668,0
135137.277,17.090,27.344,31.250,18.066,-45.898,0
135137.281,27.344,25.391,29.785,25.391,-52.246,0
135137.285,44.434,28.809,28.320,43.945,41.992,0
135137.289,38.086,31.738,26.855,41.016,89.355,0
135137.292,20.996,30.273,27.832,26.855,41.504,0
135137.296,24.414,31.738,24.902,30.762,9.766,0
135137.300,41.016,33.203,22.949,43.945,70.801,0
135137.304,48.340,33.203,21.973,47.363,117.676,0
135137.305,30.273,29.785,27.344,29.785,39.551,0
135137.309,20.508,30.273,33.691,22.949,-21.973,0
135137.313,40.039,32.715,28.320,42.480,38.086,0
135137.317,48.340,27.344,25.879,52.246,106.445,0
135137.321,25.879,28.809,27.832,34.668,80.078,0
135137.325,18.555,34.668,29.297,23.438,7.812,0
135137.329,33.691,32.227,27.344,35.156,14.648,0
135137.333,37.598,29.297,26.855,44.434,92.285,0
135137.337,34.180,34.668,32.715,39.551,67.871,0
135137.341,27.344,36.621,34.668,25.879,1.465,0
135137.344,36.621,38.086,30.762,26.367,26.367,0
135137.348,54.199,41.992,28.809,41.504,89.844,0
135137.350,49.316,40.527,29.785,36.621,102.539,0
135137.354,31.738,36.133,29.297,19.531,33.691,0
135137.358,33.203,33.203,26.855,17.090,-18.066,0
135137.362,47.363,33.203,25.879,29.785,27.344,0
135137.366,48.340,39.551,25.879,34.668,72.266,0
135137.369,28.809,41.992,26.855,19.531,41.992,0
135137.373,16.602,41.016,29.785,12.207,11.719,0
135137.377,36.133,39.062,31.738,29.297,32.715,0
135137.381,46.387,36.133,31.738,39.551,70.801,0
135137.385,30.273,37.109,25.391,30.762,55.176,0
135137.389,18.066,37.109,23.438,23.438,-12.695,0
135137.393,26.367,35.156,28.320,28.809,5.859,0
135137.395,40.527,35.645,29.785,41.504,76.660,0
135137.399,35.645,36.133,31.250,37.598,86.426,0
135137.403,20.020,33.691,31.738,21.484,51.270,0
135137.407,27.832,33.691,29.785,20.020,18.066,0
135137.410,49.805,33.203,26.855,33.203,50.781,0
135137.414,43.945,31.738,25.879,36.133,87.891,0
135137.418,23.926,32.227,28.320,20.996,12.207,0
135137.422,25.879,31.738,32.227,17.090,-23.926,0
135137.426,40.527,30.273,30.273,27.344,37.109,0
135137.430,38.574,32.715,26.367,29.785,101.562,0
135137.434,19.043,34.180,22.949,14.648,65.918,0
135137.438,9.766,26.855,24.414,4.395,-24.414,0
135137.440,24.902,27.344,32.227,20.020,-5.371,0
135137.444,38.086,33.691,34.180,33.691,85.938,0
135137.448,21.973,33.691,34.668,23.438,58.594,0
135137.452,7.812,33.691,35.645,11.230,-16.113,0
135137.456,21.973,33.203,32.227,20.996,3.418,0
135137.459,36.133,30.762,30.273,33.203,53.711,0
135137.463,30.762,31.250,30.762,28.320,35.156,0
135137.467,14.648,33.203,30.273,10.254,-30.762,0
135137.471,16.602,34.180,31.738,15.625,0.000,0
135137.475,38.574,35.156,35.156,38.574,59.570,0
135137.479,40.039,37.598,30.762,37.109,64.941,0
135137.483,20.508,34.668,34.668,18.066,17.090,0
135137.486,20.020,34.668,39.062,15.137,-32.227,0
135137.490,40.039,36.621,31.738,30.762,20.020,0
135137.494,42.480,31.738,25.391,35.645,83.496,0
135137.498,20.020,29.297,23.926,16.602,59.082,0
135137.502,10.742,28.809,30.762,7.812,3.418,0
135137.506,28.809,29.785,33.691,20.996,42.969,0
135137.510,41.504,29.785,32.715,33.691,74.219,0
135137.514,30.762,24.902,33.691,26.367,54.688,0
135137.517,17.578,25.879,30.762,12.695,2.930,0
135137.521,23.438,30.273,29.297,16.602,9.277,0
135137.525,39.062,30.762,31.250,34.180,85.938,0
135137.529,29.297,28.809,29.785,29.297,71.289,0
135137.530,8.789,32.715,30.762,11.719,-4.395,0
135137.534,12.207,25.879,34.668,13.672,-20.508,0
135137.538,24.902,22.461,32.715,26.367,55.176,0
135137.542,20.508,29.785,28.809,26.855,101.074,0
135137.546,4.883,27.832,26.367,10.254,22.949,0
135137.550,4.883,26.367,23.926,-0.488,-37.598,0
135137.554,24.414,23.438,24.414,12.695,-11.230,0
135137.558,29.297,24.414,22.461,21.484,17.090,0
135137.562,16.113,26.855,21.973,10.254,9.277,0
135137.566,10.254,24.414,31.250,5.371,-36.621,0
135137.570,24.414,28.320,28.809,19.043,-37.109,0
135137.573,36.621,27.832,22.949,29.297,62.988,2
135137.590,22.949,27.344,24.902,19.043,60.059,0
135137.594,5.859,32.227,26.367,5.371,-41.504,0
135137.598,19.043,32.715,23.926,11.719,-38.574,0
135137.602,39.551,32.715,18.066,25.391,50.781,0
135137.605,35.156,34.180,20.020,22.949,76.660,0
135137.609,16.602,30.273,25.879,8.789,-2.930,0
135137.613,16.113,26.855,29.785,10.742,-21.484,0
135137.617,36.621,29.785,24.414,30.762,39.062,0
135137.621,38.574,28.320,15.625,34.180,61.035,0
135137.625,15.137,28.809,17.578,16.113,29.785,0
135137.629,10.742,31.738,17.578,6.836,-10.742,0
135137.633,29.297,31.250,17.578,16.113,37.598,0
135137.635,38.574,32.715,22.949,23.438,73.242,0
135137.639,21.973,30.273,26.855,13.672,36.133,0
135137.643,4.883,30.273,26.367,5.371,-5.371,0
135137.647,19.043,30.273,27.832,14.648,31.738,0
135137.651,37.598,27.344,29.297,31.738,75.195,0
135137.655,25.879,27.344,27.832,27.344,43.457,0
135137.659,8.301,27.344,28.320,9.277,-5.859,0
135137.663,20.508,24.902,23.926,14.648,-5.859,0
135137.667,39.551,26.855,22.461,32.227,36.621,0
135137.671,36.621,29.297,26.367,29.297,41.504,0
135137.674,20.020,24.414,28.809,12.207,8.789,0
135137.678,20.508,27.344,26.855,11.719,5.859,0
135137.680,41.016,33.203,24.414,30.273,58.105,0
135137.684,48.340,34.668,24.902,39.062,80.566,0
135137.688,30.273,36.621,23.438,22.461,39.551,0
135137.692,20.020,37.109,23.438,13.184,14.160,0
135137.696,38.574,35.645,27.344,29.785,46.875,0
135137.699,47.363,33.691,32.715,41.992,78.613,0
135137.703,30.762,35.645,35.645,32.227,50.293,0
135137.707,17.090,36.621,32.715,18.066,11.719,0
135137.711,23.926,34.180,27.344,23.438,-20.996,0
135137.715,35.645,30.762,25.879,39.062,-3.906,0
135137.719,26.367,33.203,26.367,33.691,40.039,0
135137.723,13.672,36.133,30.762,18.555,-18.555,0
135137.726,18.555,33.691,33.203,19.043,-25.391,0
135137.730,30.273,29.297,29.297,28.320,49.316,0
135137.734,30.762,31.738,26.855,30.273,72.266,0
135137.738,11.719,34.668,30.762,19.043,18.066,0
135137.742,5.859,28.320,32.715,15.137,-26.367,0
135137.746,23.438,27.344,30.273,28.809,37.598,0
135137.750,29.297,29.297,24.414,33.691,83.008,0
135137.754,13.184,27.832,21.484,17.090,30.273,0
135137.757,6.348,29.785,24.902,6.836,-25.391,0
135137.761,22.949,25.879,26.855,18.555,16.113,0
135137.765,33.691,25.879,33.203,33.691,95.215,0
135137.769,18.066,31.738,35.645,23.926,90.820,0
135137.770,6.836,38.086,33.691,11.719,27.832,0
135137.774,24.902,35.156,28.320,23.438,20.020,0
135137.778,41.504,31.738,26.367,41.016,75.195,0
135137.782,31.738,37.598,32.227,35.156,82.520,0
135137.786,13.672,35.156,36.133,15.625,9.766,0
135137.790,20.996,30.762,35.156,17.578,-40.527,0
135137.794,39.551,33.203,32.715,35.645,34.180,0
135137.798,37.109,32.715,31.250,33.691,38.574,0
135137.802,24.414,31.250,29.785,20.996,-6.348,0
135137.805,22.949,30.273,30.273,22.949,5.859,0
135137.809,35.156,28.320,29.297,35.156,39.551,0
135137.813,39.551,31.738,21.973,44.434,51.270,0
135137.815,19.531,28.320,20.508,30.273,43.457,0
135137.819,5.859,16.113,27.344,16.113,-5.859,0
135137.823,22.461,21.484,31.738,27.832,-29.297,0
135137.827,29.785,29.785,30.762,35.156,38.086,0
135137.831,10.742,28.320,29.785,20.996,66.406,0
135137.835,-4.883,28.320,27.344,4.883,48.828,0
135137.839,10.742,24.414,24.414,10.254,43.945,0
135137.843,32.227,24.902,25.391,26.855,56.152,0
135137.847,26.367,25.391,23.438,23.438,74.707,0
135137.851,15.137,26.855,20.508,11.230,60.059,0
135137.855,17.090,32.227,21.484,12.207,5.371,0
135137.858,34.668,34.180,28.320,28.809,38.574,0
135137.860,37.109,30.273,29.297,31.738,92.773,0
135137.864,15.625,28.320,27.344,11.719,29.785,0
135137.868,11.719,30.762,23.926,2.930,-30.762,0
135137.872,30.762,26.855,19.531,17.090,13.184,0
135137.876,37.598,24.414,17.090,27.832,70.801,0
135137.879,17.578,26.855,18.066,18.555,27.832,0
135137.883,5.859,31.250,25.391,11.230,-26.855,0
135137.887,20.996,36.133,32.715,24.902,-34.668,0
135137.891,26.855,36.621,29.297,35.156,44.922,0
135137.895,11.230,36.133,24.902,25.879,60.547,0
135137.899,-5.371,36.133,25.391,11.230,-23.438,0
135137.903,0.977,31.738,23.926,15.137,-19.043,0
135137.906,22.949,27.344,23.438,35.156,72.754,0
135137.910,23.438,34.668,23.926,34.668,81.055,0
135137.914,5.859,38.574,25.879,16.602,-0.977,0
135137.918,8.789,33.691,27.344,17.090,-11.230,0
135137.922,30.762,36.133,26.367,31.250,57.617,0
135137.926,34.180,39.062,25.391,35.645,73.730,0
135137.930,16.113,38.086,25.391,21.484,2.441,0
135137.934,9.766,36.133,26.855,12.207,-14.648,0
135137.937,28.320,35.156,24.902,26.367,51.270,0
135137.941,39.551,33.203,24.902,39.062,78.613,0
135137.945,24.414,29.297,24.414,28.320,38.086,0
135137.949,10.742,27.344,20.508,14.160,-5.859,0
135137.952,25.391,28.809,19.531,26.367,29.297,0
135137.956,41.992,32.227,22.461,42.480,75.195,0
135137.960,32.715,33.691,21.973,39.062,38.574,0
135137.964,15.625,34.180,23.438,25.879,-29.785,0
135137.967,8.789,28.320,27.832,19.531,-43.945,0
135137.971,22.461,25.879,26.367,32.227,-2.441,0
135137.975,22.461,29.785,23.438,32.715,20.996,0
135137.979,-3.906,29.785,23.438,8.789,13.672,0
135137.983,-2.930,23.926,22.949,8.789,-0.488,0
135137.987,23.438,20.996,20.508,31.250,31.250,0
135137.991,24.902,21.973,21.973,36.133,76.660,0
135137.995,5.371,23.438,27.832,21.973,67.871,0
135138.010,7.324,27.344,26.855,15.625,6.836,0
135138.014,24.414,26.855,25.391,26.855,21.484,0
135138.018,33.203,25.879,23.438,37.598,85.938,0
135138.022,22.461,27.344,20.020,27.344,53.223,0
135138.026,8.301,29.297,22.461,12.207,-6.836,0
135138.029,27.344,32.227,29.297,23.926,31.250,0
135138.033,49.316,35.645,29.297,41.504,61.035,0
135138.037,35.156,37.598,25.391,32.227,73.730,0
135138.041,17.090,35.156,25.391,17.090,24.414,0
135138.045,21.973,23.926,25.879,18.066,-38.086,0
135138.049,34.668,22.461,23.926,33.203,46.875,1
135138.053,30.762,32.715,20.020,34.180,81.543,0
135138.055,13.672,35.645,20.996,20.020,8.301,0
135138.059,13.672,36.133,25.879,17.090,-1.953,0
135138.063,34.668,35.156,23.926,29.785,57.617,0
135138.067,41.016,31.250,23.438,37.598,108.398,0
135138.071,23.438,28.320,24.902,23.438,60.059,0
135138.074,13.672,29.297,23.438,14.160,-28.320,0
135138.078,28.809,30.273,27.344,26.855,-5.371,0
135138.082,42.480,28.809,25.879,38.086,37.598,0
135138.086,26.367,23.438,20.020,25.391,1.953,0
135138.090,9.277,26.367,20.020,7.324,-80.078,0
135138.094,18.066,28.320,17.578,11.719,-32.227,0
135138.098,34.180,27.344,20.020,33.203,72.754,0
135138.100,29.297,30.273,24.414,32.227,37.109,0
135138.104,10.254,27.832,22.461,15.625,-31.738,0
135138.108,18.555,26.367,20.508,20.508,-32.227,0
135138.112,35.645,28.320,23.438,40.039,7.324,0
135138.116,32.715,29.785,24.414,40.527,47.852,0
135138.119,18.066,35.645,23.438,19.531,26.367,0
135138.123,17.090,35.156,21.484,11.719,-29.785,0
135138.127,33.691,28.809,14.160,26.855,26.855,0
135138.131,41.504,21.973,20.508,38.086,67.871,0
135138.135,25.879,25.879,29.785,23.926,-21.484,0
135138.139,13.184,44.922,28.320,9.766,-50.293,0
135138.143,26.855,46.875,23.926,23.926,-27.832,0
135138.145,38.574,41.016,18.555,34.180,9.766,0
135138.149,28.809,38.574,16.113,22.461,16.113,0
135138.153,13.184,36.133,20.996,13.184,-22.461,0
135138.157,23.438,42.480,27.344,20.508,-23.926,0
135138.161,44.434,38.086,29.297,35.645,3.418,0
135138.164,39.062,28.320,28.809,37.598,23.926,0
135138.168,18.066,29.785,22.949,18.555,2.441,0
135138.172,20.996,33.691,18.066,20.508,-42.969,0
135138.176,37.109,32.715,22.461,40.527,-3.418,0
135138.180,36.133,31.250,29.785,42.480,48.340,0
135138.184,20.020,36.133,31.738,27.832,-11.719,0
135138.188,8.789,38.086,32.227,14.648,-61.523,0
135138.191,20.508,35.156,27.344,20.996,-11.230,0
135138.195,35.645,39.551,27.832,36.621,17.090,0
135138.199,24.902,42.480,29.785,31.738,-41.992,0
135138.203,8.301,31.738,22.949,14.160,-72.754,0
135138.207,19.531,25.391,22.461,20.996,-28.320,0
135138.211,37.109,38.086,26.367,38.574,49.805,0
135138.215,27.832,42.480,28.809,28.320,27.832,0
135138.219,11.230,38.086,37.109,10.742,-75.684,0
135138.222,16.602,36.621,38.574,13.184,-38.086,0
135138.226,34.668,41.016,34.180,30.762,52.246,0
135138.230,29.297,42.480,32.715,33.203,52.734,0
135138.234,9.766,39.551,31.250,17.090,-16.602,0
135138.235,9.277,41.016,25.879,16.602,-46.875,0
135138.239,29.297,39.551,24.902,31.250,-11.230,0
135138.243,34.668,36.133,32.227,38.574,43.945,0
135138.247,14.648,38.574,29.785,26.367,13.672,0
135138.251,1.953,38.086,27.344,14.648,-26.367,0
135138.254,19.531,38.086,27.344,25.879,28.809,0
135138.258,33.203,38.086,28.809,37.109,91.309,0
135138.262,16.113,35.156,31.250,23.926,49.805,0
135138.266,0.000,35.156,26.367,12.695,3.418,0
135138.270,13.184,29.785,25.391,21.484,8.301,0
135138.274,34.668,26.855,30.762,39.062,27.832,0
135138.278,23.438,32.227,32.227,35.645,65.918,0
135138.280,1.465,36.621,26.855,14.160,18.066,0
135138.284,4.883,34.180,22.949,15.625,-43.945,0
135138.288,26.855,32.227,27.832,37.598,-8.789,0
135138.292,25.879,34.180,31.738,39.062,48.340,0
135138.296,9.277,38.086,35.645,18.555,27.832,0
135138.299,11.230,32.715,39.062,16.602,-22.461,0
135138.303,33.203,28.320,36.133,35.156,9.766,0
135138.307,38.574,32.715,34.668,44.434,30.273,0
135138.311,18.066,35.645,31.738,31.738,20.020,0
135138.315,9.277,36.133,29.297,16.602,-12.695,0
135138.319,28.320,32.715,31.250,29.297,-40.527,0
135138.323,42.969,32.715,31.738,45.898,0.977,0
135138.340,31.250,37.109,32.227,41.504,-9.277,0
135138.344,23.926,39.062,33.203,31.738,-62.500,0
135138.348,31.738,35.645,30.273,34.668,-49.805,0
135138.352,46.387,34.180,28.809,48.340,7.812,0
135138.355,44.434,32.227,31.738,46.875,38.086,0
135138.359,20.996,30.762,36.621,27.832,-7.812,0
135138.363,18.555,29.297,36.621,22.949,-37.598,0
135138.367,42.480,26.855,36.133,39.062,24.414,0
135138.371,43.945,25.391,39.062,46.387,64.941,0
135138.375,21.484,28.320,37.598,30.273,30.273,0
135138.379,17.578,32.227,29.785,22.949,-20.020,0
135138.383,38.574,33.691,25.391,40.527,10.254,0
135138.385,42.480,30.273,29.297,45.410,30.762,0
135138.389,24.414,28.320,33.691,30.762,-21.973,0
135138.393,19.043,33.203,30.762,19.043,-51.270,0
135138.397,36.133,34.180,21.484,26.367,-3.906,0
135138.400,48.340,36.133,20.996,39.551,62.500,0
135138.404,36.621,38.086,28.809,31.250,28.320,0
135138.408,21.484,38.086,28.809,13.672,-36.133,0
135138.412,29.785,33.203,28.320,19.043,1.465,0
135138.416,43.945,30.273,27.832,33.203,67.383,0
135138.420,35.645,37.598,29.785,27.344,50.781,0
135138.424,16.602,40.039,31.738,12.695,-4.395,0
135138.428,17.578,37.598,28.320,13.672,-28.320,0
135138.431,39.062,35.645,26.855,34.180,9.277,0
135138.435,39.062,34.180,30.762,41.016,12.695,0
135138.439,10.254,31.738,28.809,20.020,-27.344,0
135138.443,4.883,32.227,22.461,10.742,-16.602,0
135138.447,26.855,33.691,18.555,25.879,6.348,0
135138.451,33.203,32.227,22.461,36.621,54.199,0
135138.455,21.973,32.227,27.832,22.461,48.828,2
135138.459,16.602,27.832,27.832,7.324,27.344,0
135138.462,24.902,25.879,25.879,15.137,29.785,0
135138.466,37.109,26.855,26.855,30.273,59.082,0
135138.470,37.109,26.855,28.809,32.227,86.914,0
135138.474,25.879,34.180,28.809,12.695,29.297,0
135138.475,27.832,38.574,26.367,5.859,34.668,0
135138.479,40.039,35.156,20.996,20.996,111.816,0
135138.483,25.879,28.809,18.066,13.672,122.559,0
135138.487,4.395,27.344,20.020,-1.465,47.852,0
135138.491,8.301,27.832,19.531,3.906,51.270,0
135138.494,27.832,23.926,18.555,21.973,119.141,0
135138.498,33.691,20.996,21.973,28.320,123.535,0
135138.502,20.508,27.832,28.809,20.508,41.016,0
135138.506,13.672,28.320,35.156,18.555,-65.918,0
135138.510,28.809,27.344,31.738,33.691,-27.832,0
135138.514,45.898,32.227,23.926,46.387,42.969,0
135138.518,30.762,31.250,24.414,33.691,7.812,0
135138.520,24.414,38.086,25.879,24.902,-27.832,0
135138.524,40.039,37.109,22.949,38.574,12.695,0
135138.528,34.668,22.461,33.691,41.992,83.008,0
135138.532,12.695,18.555,43.457,25.391,59.570,0
135138.536,-2.441,17.090,39.551,11.719,-24.902,0
135138.539,8.301,13.672,35.645,15.625,-30.273,0
135138.543,30.273,10.742,31.250,29.297,31.738,0
135138.547,32.715,15.137,34.180,30.762,13.672,0
135138.551,20.996,24.414,37.598,19.043,-52.734,0
135138.555,20.508,27.832,34.668,14.648,-16.602,0
135138.559,37.598,24.902,37.109,27.344,24.902,0
135138.563,44.922,22.949,37.109,38.086,62.500,0
135138.565,25.391,22.949,34.668,28.320,45.898,0
135138.569,20.996,18.555,35.645,27.344,-17.578,0
135138.573,42.969,23.926,30.762,39.062,3.906,0
135138.577,47.852,39.062,20.020,31.738,71.777,0
135138.580,17.090,44.434,16.602,21.973,45.898,0
135138.584,-21.484,42.480,18.066,9.766,-70.312,0
135138.588,-16.602,32.715,20.020,12.695,-32.227,0
135138.592,9.277,24.902,20.996,36.621,44.434,0
135138.596,4.883,24.414,20.020,31.250,3.418,0
135138.600,-9.766,26.855,17.578,14.160,-62.500,0
135138.604,1.465,27.344,12.207,21.484,-86.914,0
135138.608,20.508,24.902,15.625,36.133,-38.086,0
135138.611,19.531,23.926,22.949,36.133,14.160,0
135138.614,6.348,28.320,25.391,21.973,-13.184,0
135138.618,8.301,33.691,21.484,13.184,-43.945,0
135138.622,28.320,32.227,17.578,25.391,5.859,0
135138.626,37.109,33.203,17.578,37.598,39.551,0
135138.630,21.484,38.086,19.531,26.855,-19.531,0
135138.634,12.207,36.133,19.531,18.066,-81.543,0
135138.638,32.227,31.738,20.020,28.809,-32.715,0
135138.642,46.387,30.762,21.973,36.621,47.363,0
135138.646,29.785,32.715,26.855,25.391,-1.465,0
135138.650,18.555,38.574,32.227,18.555,-46.875,0
135138.653,33.203,39.551,30.762,30.762,3.418,0
135138.656,46.875,33.691,24.902,43.457,92.773,0
135138.660,37.598,30.762,20.020,35.645,115.234,0
135138.664,22.461,31.250,20.996,17.090,29.297,0
135138.668,25.391,32.715,24.414,18.066,-1.465,0
135138.672,41.016,35.156,28.809,39.551,42.480,0
135138.676,46.875,37.109,30.762,50.293,47.363,0
135138.680,29.785,34.668,23.926,32.715,-25.391,0
135138.684,20.020,29.785,19.531,22.461,-37.109,0
135138.688,38.086,32.227,17.090,38.086,24.902,0
135138.692,43.945,38.086,18.066,43.945,69.336,0
135138.695,27.832,40.039,20.996,28.320,76.172,0
135138.699,20.508,35.645,26.367,19.043,24.414,0
135138.715,36.621,36.621,32.227,30.762,33.691,0
135138.719,49.805,36.621,29.297,40.527,105.957,0
135138.723,39.062,34.668,17.578,30.273,70.312,0
135138.727,23.438,40.039,14.160,15.625,21.484,0
135138.731,28.809,35.156,22.949,16.602,36.621,0
135138.734,43.945,30.762,30.762,31.738,57.617,0
135138.738,40.039,34.668,36.621,33.203,75.684,0
135138.742,17.090,31.738,36.133,19.531,64.453,0
135138.746,14.160,28.320,30.273,16.602,43.457,0
135138.750,36.133,32.227,31.250,30.762,55.664,0
135138.754,32.227,28.320,32.227,33.203,77.148,0
135138.758,12.207,22.949,26.855,18.066,64.941,0
135138.760,5.371,29.297,23.926,11.230,7.812,0
135138.764,19.531,31.250,27.832,24.902,34.668,0
135138.768,31.250,28.320,30.762,33.691,97.168,0
135138.772,21.484,23.926,29.785,19.043,98.145,0
135138.776,11.719,20.508,29.785,13.184,41.504,0
135138.779,27.344,21.973,27.344,21.484,-10.254,0
135138.783,53.711,25.391,29.297,37.109,28.320,0
135138.787,46.387,26.367,30.273,35.156,49.805,0
135138.791,27.832,30.273,26.367,16.602,-43.457,0
135138.795,32.715,37.598,23.438,14.160,-71.289,0
135138.799,46.875,41.016,19.043,23.926,30.273,0
135138.803,38.086,40.039,19.043,20.508,43.457,0
135138.805,8.301,33.691,21.973,-2.441,-45.898,0
135138.809,7.324,30.762,20.508,-1.953,-64.453,0
135138.813,31.250,32.227,22.461,19.531,21.973,0
135138.817,35.156,34.180,20.508,23.926,70.801,0
135138.821,18.066,35.156,20.020,15.137,47.852,0
135138.824,7.324,31.738,26.855,11.719,-16.113,0
135138.828,18.066,32.715,29.297,24.414,-3.418,0
135138.832,31.250,34.180,27.832,36.133,81.543,0
135138.836,17.090,32.715,22.949,28.809,11.230,0
135138.840,3.906,33.203,23.926,16.602,-40.527,0
135138.844,16.113,33.203,33.203,21.973,-6.836,0
135138.848,34.180,31.250,37.598,40.527,23.438,0
135138.850,30.273,33.203,36.621,36.133,40.527,0
135138.854,17.578,34.180,33.203,18.066,-31.738,0
135138.858,24.414,32.227,32.715,20.020,-42.480,0
135138.862,42.480,33.203,30.762,31.738,55.664,0
135138.866,42.480,36.133,26.367,30.273,74.707,0
135138.869,28.809,37.598,27.832,20.508,2.441,0
135138.873,26.367,36.133,28.809,13.184,-21.484,0
135138.877,45.410,38.086,32.227,29.297,33.203,0
135138.881,54.199,37.109,37.598,44.922,45.898,0
135138.885,32.715,35.156,32.227,27.832,10.254,0
135138.889,25.391,35.156,27.344,19.531,-5.371,1
135138.893,38.574,36.621,25.879,34.180,7.324,0
135138.896,47.363,38.086,22.949,46.875,62.500,0
135138.900,32.227,34.668,23.926,36.621,64.941,0
135138.904,12.207,31.250,23.926,20.020,5.859,0
135138.908,18.555,34.668,24.414,25.879,-15.137,0
135138.912,36.621,35.156,25.391,43.945,47.852,0
135138.916,33.691,30.762,28.320,41.504,70.801,0
135138.920,18.066,30.762,32.227,23.926,8.789,0
135138.924,20.996,33.691,29.297,22.949,-14.160,0
135138.927,38.086,36.133,29.297,36.621,58.594,0
135138.931,36.621,37.109,22.949,32.227,128.906,0
135138.935,16.602,35.645,20.508,12.695,84.961,0
135138.939,16.113,33.203,25.391,7.324,63.965,0
135138.940,35.156,33.691,27.832,18.066,88.379,0
135138.944,36.621,33.203,30.762,25.879,115.723,0
135138.948,18.555,32.715,28.320,14.648,77.148,0
135138.952,8.789,29.785,22.949,-0.977,-16.602,0
135138.956,19.043,27.344,20.508,10.254,-7.324,0
135138.959,36.133,33.203,20.020,32.715,61.035,0
135138.963,24.902,36.621,20.020,28.320,67.871,0
135138.967,2.930,30.762,20.508,10.254,-38.086,0
135138.971,11.719,28.809,23.926,15.625,-29.785,0
135138.975,32.227,33.203,31.738,33.691,64.453,0
135138.979,27.832,37.598,37.109,30.762,85.938,0
135138.983,9.277,37.598,34.180,17.090,31.738,0
135138.985,9.277,34.180,28.809,19.531,-34.668,0
135138.989,28.320,29.297,26.367,33.203,30.273,0
135138.993,31.250,28.320,28.320,37.109,93.750,0
135138.997,7.812,32.715,24.902,20.020,13.184,0
135139.001,7.324,34.668,26.855,12.695,-9.766,0
135139.005,30.762,37.598,32.715,24.902,67.383,0
135139.008,41.504,38.086,33.203,32.227,79.590,0
135139.012,27.832,37.598,33.691,20.508,19.531,0
135139.016,16.113,34.668,27.832,9.277,-15.625,0
135139.020,31.250,34.180,20.996,22.949,15.625,0
135139.024,46.875,40.527,27.344,42.480,60.547,0
135139.028,36.621,40.527,35.645,37.598,32.715,0
135139.030,20.508,40.527,36.133,23.926,-20.996,0
135139.034,24.414,42.480,34.180,34.180,-17.578,0
135139.038,36.133,37.598,37.109,49.316,44.434,0
135139.042,28.809,34.180,40.039,42.969,65.430,0
135139.045,10.254,33.203,35.156,20.508,24.414,0
135139.049,7.812,29.297,29.297,13.184,-20.508,0
135139.053,21.484,30.762,25.879,26.855,11.719,0
135139.057,25.391,30.273,23.926,30.762,75.195,0
135139.061,11.230,27.344,25.879,16.602,36.621,0
135139.065,6.836,30.762,27.832,10.742,0.000,0
135139.069,26.367,31.250,31.738,24.414,20.996,0
135139.073,39.062,24.414,31.250,33.691,41.992,0
135139.077,26.367,29.297,23.438,22.461,25.391,0
135139.081,9.277,32.227,21.973,11.719,-33.203,0
135139.085,22.949,26.855,25.391,22.949,-44.434,0
135139.089,40.527,27.832,26.367,35.156,43.945,0
135139.093,28.809,31.250,31.250,29.297,96.680,0
135139.097,13.672,34.668,32.715,16.113,16.113,0
135139.100,19.531,35.156,28.809,20.020,-25.391,0
135139.104,33.203,32.227,26.367,33.203,45.410,0
135139.108,31.738,31.738,26.855,33.203,47.852,0
135139.112,17.090,27.832,24.902,19.531,-23.926,0
135139.116,14.648,24.414,20.508,14.648,-23.438,0
135139.120,29.297,26.367,20.020,26.855,27.344,0
135139.137,39.062,28.320,22.461,36.133,70.801,0
135139.141,25.391,32.227,24.414,23.926,29.297,0
135139.144,20.020,34.180,26.367,15.625,-14.160,0
135139.148,40.527,37.109,27.832,32.227,22.949,0
135139.152,53.223,41.504,27.344,49.805,85.449,0
135139.156,38.086,40.527,27.344,36.621,54.688,0
135139.160,19.043,37.109,25.391,19.043,-13.672,0
135139.164,30.273,33.203,22.461,28.809,12.695,0
135139.168,46.387,33.691,22.949,41.016,37.109,0
135139.172,32.227,34.668,26.367,33.203,27.832,0
135139.176,17.578,29.297,27.832,19.043,2.441,0
135139.180,26.367,31.250,31.250,22.949,-27.832,0
135139.180,43.945,39.551,35.645,39.551,16.602,0
135139.184,41.992,40.039,32.227,40.039,67.871,0
135139.188,24.902,41.016,27.832,23.438,5.859,0
135139.192,25.391,41.504,20.508,19.043,-55.176,0
135139.196,43.457,38.574,19.531,29.785,5.859,0
135139.200,47.852,38.086,27.832,32.227,62.012,0
135139.203,30.762,31.250,31.738,20.996,44.922,0
135139.207,19.531,25.879,29.785,11.719,-2.441,0
135139.211,33.691,29.785,33.203,28.320,-14.160,0
135139.215,44.434,32.715,41.504,43.457,44.922,0
135139.219,20.996,30.762,37.109,28.320,32.227,0
135139.223,-2.930,27.832,32.227,16.602,-20.020,0
135139.225,7.812,25.391,28.320,22.949,-19.043,0
135139.229,28.809,25.391,29.297,40.039,32.715,0
135139.233,26.367,25.391,32.715,40.039,71.777,0
135139.237,10.742,24.902,29.785,26.367,18.066,0
135139.240,19.531,25.391,29.785,28.809,-4.395,0
135139.244,38.086,24.414,34.668,44.922,64.453,0
135139.248,33.691,24.414,39.551,41.992,90.820,0
135139.252,13.184,26.367,36.133,18.066,7.324,0
135139.256,9.766,25.879,27.344,12.695,-60.059,0
135139.260,25.391,25.391,23.926,24.902,0.000,0
135139.264,30.273,27.344,26.855,30.762,92.285,0
135139.268,15.625,27.344,26.855,20.508,60.547,0
135139.270,4.883,28.809,26.855,8.301,0.488,0
135139.274,19.531,31.250,28.320,22.461,16.602,0
135139.278,32.715,27.344,30.273,37.109,66.406,0
135139.282,22.949,23.438,33.203,31.250,76.660,0
135139.286,13.184,25.879,32.227,18.066,30.273,0
135139.289,21.973,25.879,29.785,16.113,-0.977,0
135139.293,35.645,28.809,30.762,30.762,69.824,0
135139.297,30.762,34.180,28.320,32.227,49.805,0
135139.301,15.137,35.645,24.414,13.672,-34.668,0
135139.305,16.602,33.203,28.320,12.207,0.000,0
135139.309,35.645,31.738,25.879,30.762,64.941,0
135139.313,40.039,30.273,24.414,35.156,63.477,0
135139.315,20.020,28.809,30.273,20.996,10.742,0
135139.319,14.160,27.344,30.762,14.648,-13.672,0
135139.323,33.691,28.809,20.020,28.809,20.508,0
135139.327,42.969,37.109,16.113,37.598,90.820,0
135139.330,25.391,42.969,24.414,24.902,69.336,0
135139.334,17.090,39.551,28.809,18.066,-31.738,0
135139.338,29.297,32.715,31.738,29.785,-51.758,0
135139.342,42.969,31.738,30.273,40.039,20.996,0
135139.346,34.180,33.203,31.250,30.762,54.199,0
135139.350,19.043,31.738,31.250,18.555,-7.324,0
135139.354,23.926,27.344,27.344,21.484,-25.391,0
135139.358,38.574,28.320,25.879,36.133,41.016,0
135139.361,38.574,28.320,26.367,38.086,71.289,0
135139.365,17.578,28.320,29.297,19.531,-4.395,0
135139.369,14.648,29.297,27.344,16.113,-47.852,0
135139.373,34.668,29.785,22.461,29.297,35.156,1
135139.377,39.551,30.762,29.297,33.691,103.516,0
135139.381,22.949,29.297,31.738,23.438,54.199,0
135139.385,15.137,27.832,25.879,16.602,-15.625,0
135139.389,28.320,28.320,27.832,28.320,13.184,0
135139.392,35.645,28.320,30.273,39.551,74.707,0
135139.396,19.043,30.762,32.715,28.809,79.102,0
135139.400,7.812,29.297,31.738,16.113,31.738,0
135139.404,18.555,23.926,27.832,24.902,18.555,0
135139.405,36.621,25.391,28.809,41.992,69.824,0
135139.409,33.691,30.762,32.227,40.527,66.406,0
135139.413,17.578,35.645,29.297,23.438,-19.043,0
135139.417,21.484,33.203,21.973,22.461,-27.832,0
135139.420,40.527,30.273,21.973,35.156,48.828,0
135139.424,39.062,29.785,24.414,35.156,81.543,0
135139.428,20.508,28.320,25.879,20.020,13.184,0
135139.432,20.020,26.367,27.344,16.113,-42.480,0
135139.436,39.062,27.344,26.855,35.156,42.480,0
135139.440,44.434,30.273,31.738,41.992,81.543,0
135139.444,27.832,28.809,37.109,28.320,34.668,0
135139.448,17.090,29.297,32.227,15.137,12.695,0
135139.465,27.344,27.344,23.438,20.508,19.043,0
135139.469,39.062,25.879,22.461,32.715,60.059,0
135139.473,31.738,30.762,23.438,25.879,58.594,0
135139.477,20.508,32.715,23.438,13.672,17.578,0
135139.481,29.297,33.691,25.879,20.508,37.598,0
135139.484,44.922,34.180,28.809,37.109,80.566,0
135139.488,41.016,34.180,30.273,33.203,69.336,0
135139.492,17.578,35.156,34.668,16.113,40.039,0
135139.496,14.648,35.645,33.691,15.137,15.625,0
135139.500,39.062,31.250,27.344,32.227,27.344,0
135139.504,39.062,30.273,27.344,32.715,95.215,0
135139.508,19.531,29.297,30.273,18.066,97.656,0
135139.510,19.531,28.809,31.250,17.090,15.137,0
135139.514,38.574,31.250,27.344,34.668,13.672,0
135139.518,46.875,31.738,25.879,48.340,71.289,0
135139.522,30.762,33.691,30.273,36.621,49.316,0
135139.525,20.508,31.250,32.227,23.926,-5.371,0
135139.529,33.203,28.320,28.320,31.250,-14.648,0
135139.533,45.898,29.297,28.320,44.922,56.641,0
135139.537,34.180,29.297,28.320,37.109,72.266,0
135139.541,16.602,35.156,25.879,19.043,-25.391,0
135139.545,22.949,34.180,23.926,19.531,-83.008,0
135139.549,39.062,20.996,22.949,33.203,16.113,0
135139.553,33.203,23.926,22.949,32.715,65.430,0
135139.555,17.090,31.738,24.902,14.648,-30.762,0
135139.559,18.555,30.273,27.344,13.184,-45.410,0
135139.563,38.574,24.902,24.414,32.715,40.039,0
135139.567,40.527,26.367,23.438,39.062,65.918,0
135139.571,24.414,34.668,24.414,24.902,3.418,0
135139.575,24.902,36.621,21.973,22.461,-42.480,0
135139.578,38.574,32.227,22.461,34.668,-13.672,0
135139.582,43.945,33.691,25.391,41.504,54.688,0
135139.586,29.785,35.645,29.785,25.879,31.738,0
135139.590,15.625,30.273,29.297,13.672,-58.594,0
135139.594,28.809,29.297,24.902,27.832,-15.625,0
135139.598,44.922,32.715,18.066,43.945,69.336,0
135139.601,32.227,31.738,17.090,36.133,66.895,0
135139.605,19.043,30.762,28.320,20.996,4.395,0
135139.609,30.762,28.809,34.668,29.297,-17.578,0
135139.613,49.316,30.273,31.738,47.363,62.988,0
135139.617,41.504,32.227,25.879,41.992,73.242,0
135139.621,20.508,30.762,19.043,24.414,29.785,0
135139.625,21.484,31.738,21.484,24.414,20.508,0
135139.629,36.133,28.809,29.297,38.574,89.355,0
135139.632,39.062,29.297,31.250,44.922,152.344,0
135139.636,23.438,31.250,27.832,27.832,96.680,0
135139.640,17.578,27.832,26.855,19.531,37.109,0
135139.644,31.738,25.879,30.273,35.156,37.598,0
135139.645,38.574,27.344,29.785,40.527,75.195,0
135139.649,18.066,27.344,28.809,22.461,72.754,0
135139.653,-0.488,28.320,28.320,7.324,25.879,0
135139.657,16.602,30.273,23.438,17.090,23.438,0
135139.661,32.715,30.762,18.555,30.762,86.426,0
135139.664,16.113,29.297,19.531,23.438,91.309,0
135139.668,-2.930,28.809,26.367,7.324,8.301,0
135139.672,8.789,29.785,29.785,13.672,-29.297,0
135139.676,26.855,30.273,28.809,30.273,14.648,0
135139.680,24.902,29.297,28.320,26.855,11.719,0
135139.684,10.254,28.320,27.832,13.184,-37.109,0
135139.688,9.277,25.879,29.297,12.207,-20.020,0
135139.690,29.297,24.902,26.855,24.414,26.367,0
135139.694,38.574,28.809,26.367,34.668,35.645,0
135139.698,23.926,35.156,25.391,24.902,-9.766,0
135139.702,14.160,41.504,22.461,15.625,-71.289,0
135139.706,26.855,42.480,26.855,26.855,-39.551,0
135139.709,39.551,44.434,28.809,40.039,32.715,0
135139.713,27.832,40.527,27.344,29.785,3.906,0
135139.717,16.113,34.668,29.785,11.719,-82.520,0
135139.721,28.809,35.645,32.715,18.555,-49.316,0
135139.725,49.316,34.668,29.785,33.203,44.922,0
135139.729,38.574,30.273,27.344,27.344,47.852,0
135139.733,17.578,27.832,25.391,11.719,21.484,0
135139.735,22.949,32.227,26.367,16.113,13.672,0
135139.739,38.086,28.320,31.738,33.691,33.203,0
135139.743,39.062,27.344,31.250,33.203,62.500,0
135139.747,22.461,34.180,30.273,19.531,12.695,0
135139.750,15.625,36.621,29.297,16.113,-19.043,0
135139.754,28.320,36.621,29.297,24.902,13.184,0
135139.758,36.133,30.273,31.250,34.180,42.480,0
135139.762,21.973,32.715,31.250,22.949,-7.324,0
135139.766,13.184,36.621,27.344,14.160,-37.598,0
135139.770,31.738,36.133,25.391,28.320,4.395,0
135139.774,41.504,33.203,25.391,40.527,38.086,0
135139.778,24.902,31.250,25.391,27.344,23.438,0
135139.781,12.207,32.715,29.785,14.648,-25.879,0
135139.785,21.973,34.180,32.227,23.438,5.371,0
135139.789,37.109,34.668,25.879,37.109,51.758,0
135139.793,30.762,31.738,24.902,32.227,47.363,2
135139.797,12.695,29.297,26.367,14.648,8.301,0
135139.801,16.602,25.391,23.438,18.066,-9.277,0
135139.805,35.645,24.414,21.973,36.621,29.785,0
135139.809,30.762,28.320,17.578,34.668,62.012,0
135139.812,7.324,31.738,19.043,16.602,44.922,0
135139.816,5.859,30.762,29.785,13.184,17.090,0
135139.820,28.809,25.879,33.203,31.250,60.547,0
135139.824,37.598,25.391,29.785,39.062,110.352,0
135139.841,20.020,26.855,23.438,22.949,95.703,0
135139.845,9.766,26.855,19.531,9.766,27.344,0
135139.849,24.902,28.320,25.879,22.461,11.719,0
135139.853,38.574,25.879,31.250,39.062,95.215,0
135139.857,28.320,23.438,31.738,33.203,78.613,0
135139.861,12.207,28.809,32.715,22.949,-56.641,0
135139.865,18.066,26.855,31.738,26.855,-54.688,0
135139.869,36.133,27.832,31.738,40.527,94.238,0
135139.872,35.156,29.297,35.156,40.039,111.816,0
135139.876,15.137,23.926,27.832,19.531,24.902,0
135139.880,10.742,22.949,23.438,12.695,23.438,0
135139.884,26.367,24.414,24.414,27.832,83.496,0
135139.885,28.320,29.785,22.949,29.785,86.426,0
135139.889,17.578,32.227,24.414,14.648,24.414,0
135139.893,18.555,27.344,26.855,9.277,0.000,0
135139.897,41.992,29.297,27.344,26.855,42.969,0
135139.901,54.688,32.227,28.320,36.133,95.703,0
135139.904,36.133,32.227,28.809,22.949,80.078,0
135139.908,25.879,28.809,28.809,16.602,24.902,0
135139.912,36.621,25.391,27.832,28.320,39.551,0
135139.916,44.922,26.855,26.855,44.922,90.332,0
135139.920,37.109,33.203,22.949,41.504,58.594,0
135139.924,22.949,34.668,21.484,26.367,9.277,0
135139.928,28.320,31.738,26.367,30.762,30.273,0
135139.930,47.852,32.227,30.273,47.363,33.691,0
135139.934,43.945,30.762,33.203,49.316,41.016,0
135139.938,22.461,31.250,32.227,31.250,43.945,0
135139.942,16.602,31.250,32.227,23.926,31.250,0
135139.945,34.180,29.297,27.832,33.203,82.520,0
135139.949,41.992,32.715,26.855,37.598,83.008,0
135139.953,24.902,35.645,32.227,26.855,37.598,0
135139.957,20.508,28.809,32.715,20.020,15.625,0
135139.961,34.180,23.926,31.250,33.203,13.184,0
135139.965,39.062,26.855,32.715,45.410,48.828,0
135139.969,27.832,32.715,34.180,35.156,52.246,0
135139.973,17.578,35.156,27.832,22.949,12.695,0
135139.975,27.344,31.738,20.020,30.273,-17.578,0
135139.979,42.480,31.738,22.949,42.480,27.344,0
135139.983,33.691,33.203,23.926,39.551,53.223,0
135139.987,17.090,32.227,27.344,24.902,-31.250,0
135139.991,21.484,28.320,31.738,22.949,-23.438,0
135139.995,42.969,29.785,31.738,37.109,42.969,0
135139.999,41.016,33.203,29.297,37.598,83.496,0
135140.003,19.043,29.297,26.367,16.602,54.688,0
135140.007,19.043,30.762,22.461,10.742,-8.789,0
135140.011,40.527,32.715,22.461,31.738,43.945,0
135140.014,43.945,30.762,26.367,41.992,121.094,0
135140.018,25.391,32.227,26.367,25.879,67.871,0
135140.020,19.531,32.715,27.344,20.508,10.742,0
135140.024,39.062,35.645,29.785,33.691,82.031,0
135140.028,48.340,34.668,27.832,42.969,128.906,0
135140.032,34.668,32.227,23.926,35.156,58.594,0
135140.036,20.508,36.133,19.531,19.531,-22.949,0
135140.040,28.320,36.621,22.461,26.855,-27.344,0
135140.044,48.340,30.762,30.273,47.852,41.504,0
135140.048,40.039,30.762,34.668,41.992,26.855,0
135140.051,17.090,38.086,35.156,22.461,-23.926,0
135140.055,20.020,41.016,36.621,25.391,-19.043,0
135140.059,43.945,41.016,39.062,45.898,15.137,0
135140.063,46.387,36.621,32.227,43.945,18.066,0
135140.065,20.996,32.227,25.391,19.043,-12.207,0
135140.069,17.578,31.250,25.879,13.184,-21.973,0
135140.073,39.062,32.715,24.902,28.320,-13.184,0
135140.077,42.969,33.691,24.414,34.668,45.410,0
135140.081,27.832,37.109,25.391,22.949,63.965,0
135140.085,18.555,35.645,23.438,12.695,41.992,0
135140.089,23.926,28.320,28.320,17.090,45.898,0
135140.093,29.785,26.367,33.203,25.391,78.613,0
135140.097,19.043,25.391,28.809,17.578,64.453,0
135140.101,3.418,21.484,27.832,2.930,-11.719,0
135140.105,11.230,20.020,29.297,9.277,-19.531,0
135140.108,26.367,20.020,24.902,27.832,55.176,0
135140.110,19.043,20.996,22.461,25.391,76.660,0
135140.114,0.977,22.949,21.973,8.301,26.367,0
135140.118,3.906,23.438,23.438,9.277,-2.441,0
135140.122,25.391,25.391,22.949,26.855,45.410,0
135140.126,31.250,28.320,22.949,34.180,90.332,0
135140.129,9.766,27.344,22.949,16.602,9.277,0
135140.133,4.883,29.297,20.020,8.301,-45.410,0
135140.137,23.438,31.738,18.555,24.414,-19.043,0
135140.141,33.691,30.273,18.066,36.133,63.477,0
135140.145,19.531,27.832,21.973,20.996,73.730,0
135140.149,4.395,31.250,25.879,5.371,28.809,0
135140.153,19.531,39.551,23.438,14.160,35.156,0
135140.155,34.180,39.062,24.902,27.832,78.125,0
135140.159,21.484,33.691,27.344,21.973,89.844,0
135140.163,4.883,36.133,25.879,6.348,44.434,0
135140.167,14.648,40.527,22.949,11.230,43.945,0
135140.170,33.203,36.621,20.508,30.273,67.383,0
135140.174,24.414,28.809,22.461,24.902,41.016,0
135140.178,6.348,26.367,29.785,12.695,-26.367,0
135140.182,17.090,26.367,33.691,24.902,-5.371,0
135140.186,41.016,26.367,27.832,40.039,61.035,0
135140.190,35.645,36.621,17.090,36.621,96.680,0
135140.194,14.160,44.922,12.695,18.066,70.312,0
135140.198,4.395,38.086,21.973,8.789,29.785,0
135140.215,24.902,35.156,26.855,23.438,91.309,0
135140.219,39.062,33.691,24.414,37.598,125.488,0
135140.223,23.438,27.832,25.879,28.320,54.199,0
135140.227,12.207,27.832,26.855,13.672,13.184,0
135140.231,21.973,30.273,24.414,20.508,19.043,0
135140.234,33.691,31.738,26.855,37.598,49.805,0
135140.238,29.785,28.809,30.762,30.273,72.266,0
135140.242,15.137,27.344,32.227,11.719,15.137,0
135140.246,21.973,31.738,30.762,16.113,-9.766,0
135140.250,41.016,33.203,26.855,34.668,48.828,0
135140.254,35.645,35.645,22.949,34.180,95.215,0
135140.258,15.625,37.109,20.508,16.113,55.664,0
135140.260,18.555,36.133,20.508,15.137,-18.555,0
135140.264,37.109,40.039,18.555,33.203,-0.977,0
135140.268,33.691,33.691,18.555,35.645,59.082,0
135140.272,17.090,23.438,23.438,20.020,56.641,0
135140.276,10.254,25.879,23.926,14.160,6.836,0
135140.279,22.461,29.297,24.414,27.344,30.273,0
135140.283,34.180,28.809,26.367,38.574,107.422,0
135140.287,19.531,31.250,23.926,28.809,91.309,1
135140.291,5.371,37.109,23.926,17.090,0.977,0
135140.295,20.020,37.109,26.855,25.391,-29.297,0
135140.299,39.062,33.203,29.297,46.875,41.992,0
135140.303,30.273,30.762,31.250,44.434,75.684,0
135140.305,10.742,31.738,28.320,23.438,0.488,0
135140.309,20.020,33.203,27.832,26.855,-45.410,0
135140.313,45.410,34.180,27.344,41.504,41.504,0
135140.317,42.969,36.133,27.344,40.039,60.547,0
135140.321,21.973,38.086,30.273,26.855,-56.152,0
135140.325,15.625,32.227,30.273,16.113,-74.219,0
135140.328,28.320,31.250,28.809,30.273,13.184,0
135140.332,43.457,37.109,26.855,45.898,41.504,0
135140.336,23.438,36.133,27.832,27.832,-22.461,0
135140.340,6.836,32.715,30.762,12.695,-59.570,0
135140.344,23.926,31.250,30.273,23.926,13.672,0
135140.348,38.086,32.227,29.785,37.598,61.523,0
135140.350,27.344,32.227,31.250,30.273,13.184,0
135140.354,12.207,32.715,30.762,14.160,-35.156,0
135140.358,21.484,34.180,28.809,18.555,5.371,0
135140.362,38.574,33.203,27.832,38.086,60.547,0
135140.366,33.691,34.668,26.367,39.551,61.035,0
135140.369,14.648,34.180,29.297,21.484,12.207,0
135140.373,17.090,35.156,34.180,20.996,-30.273,0
135140.377,39.062,36.133,32.227,35.645,23.926,0
135140.381,37.598,32.227,28.320,33.691,53.711,0
135140.385,20.020,32.715,22.949,17.090,35.645,0
135140.389,17.578,36.621,20.996,11.719,20.996,0
135140.393,33.691,36.621,29.297,29.785,0.488,0
135140.395,43.457,36.621,33.691,45.410,33.203,0
135140.399,26.367,38.574,29.297,32.227,43.945,0
135140.403,16.602,41.992,30.273,18.066,26.367,0
135140.407,30.762,41.504,31.250,29.785,60.547,0
135140.411,47.363,38.086,30.273,49.805,100.098,0
135140.414,39.062,34.668,29.785,44.434,74.219,0
135140.418,18.066,31.250,26.367,25.391,29.785,0
135140.422,30.273,30.762,28.320,32.227,5.371,0
135140.426,53.223,35.645,28.809,47.852,8.789,0
135140.430,45.410,40.039,31.250,39.551,14.160,0
135140.434,23.438,38.086,34.180,19.531,-23.926,0
135140.438,25.391,36.621,30.762,19.531,-45.410,0
135140.440,41.992,34.180,28.809,34.668,32.227,0
135140.444,40.527,33.691,30.762,36.621,66.406,0
135140.448,20.996,38.086,29.785,20.996,9.766,0
135140.452,16.602,35.156,31.250,12.695,9.277,0
135140.456,32.227,31.738,28.809,25.879,29.785,0
135140.459,40.527,35.156,26.367,38.086,54.199,0
135140.463,26.855,33.203,31.250,23.926,22.461,0
135140.467,12.695,27.344,34.180,12.207,-41.016,0
135140.471,25.879,28.809,29.297,22.461,-6.836,0
135140.475,43.457,32.715,22.461,33.691,44.922,0
135140.479,33.691,31.250,26.855,30.762,33.203,0
135140.483,15.137,31.250,33.691,17.090,12.207,0
135140.487,20.020,35.645,30.273,17.090,19.531,0
135140.491,39.551,34.180,27.344,35.156,60.059,0
135140.495,40.039,30.273,31.250,37.109,51.758,0
135140.499,21.484,27.344,35.645,18.066,-6.836,0
135140.503,20.508,29.785,30.762,11.719,1.465,0
135140.507,39.062,32.715,22.949,28.320,40.527,0
135140.511,38.086,31.250,21.484,34.668,34.180,0
135140.515,22.461,33.691,24.902,20.020,5.371,0
135140.519,14.648,33.691,24.902,9.766,33.691,0
135140.522,28.809,30.273,24.414,20.996,65.918,0
135140.526,47.363,29.297,28.320,37.109,90.332,0
135140.530,38.086,35.645,29.785,30.273,85.938,0
135140.530,22.461,38.574,28.320,15.137,30.762,0
135140.534,31.250,35.645,26.367,20.020,50.293,0
135140.538,43.945,33.691,23.438,31.250,82.031,0
135140.542,31.250,30.762,22.461,26.855,36.133,0
135140.546,13.672,27.832,23.438,12.695,0.000,0
135140.549,18.555,29.297,24.414,18.066,7.812,0
135140.553,35.645,31.738,25.391,32.715,25.391,0
135140.557,32.715,35.156,23.926,29.297,52.734,0
135140.561,13.672,36.133,18.555,13.672,21.973,0
135140.565,14.160,34.668,19.043,12.207,-29.785,0
135140.569,29.297,33.203,24.414,23.438,26.367,0
135140.573,29.785,31.250,26.367,23.926,90.332,0
135140.590,9.277,26.855,26.855,11.719,53.223,0
135140.594,-0.488,30.273,27.832,3.418,-10.742,0
135140.598,16.113,36.133,25.879,13.184,-2.930,0
135140.602,30.273,33.691,25.391,28.320,52.734,0
135140.606,21.484,37.598,27.344,22.949,50.293,0
135140.609,6.836,40.527,28.809,10.742,-21.484,0
135140.613,20.020,38.086,33.691,19.531,-37.109,0
135140.617,38.574,36.133,37.109,37.109,31.250,0
135140.621,34.668,32.227,30.762,30.762,41.016,0
135140.625,20.508,29.297,24.902,14.160,-30.273,0
135140.629,24.902,29.297,25.879,17.578,-88.379,0
135140.633,40.527,32.227,26.855,29.297,28.809,0
135140.635,34.180,29.297,28.809,28.809,128.906,0
135140.639,13.184,24.902,28.320,16.113,66.406,0
135140.643,11.719,29.297,29.297,12.695,53.711,0
135140.647,26.367,31.250,29.297,27.832,108.398,0
135140.651,32.715,32.715,23.438,37.109,132.324,0
135140.654,15.137,35.156,20.508,20.508,37.598,0
135140.658,1.465,36.133,23.438,7.324,-39.551,0
135140.662,17.090,35.156,28.320,18.555,22.461,0
135140.666,36.621,32.227,31.738,37.109,82.031,0
135140.670,28.320,28.320,28.809,33.203,67.383,0
135140.674,14.648,28.809,26.367,20.996,10.742,0
135140.678,26.367,33.691,31.250,30.762,30.762,0
135140.680,41.992,37.109,33.691,45.898,102.539,0
135140.684,35.156,39.062,35.156,42.969,90.820,0
135140.688,17.090,38.086,34.668,28.320,10.254,0
135140.692,20.996,34.668,34.180,29.297,-22.461,0
135140.696,44.434,31.738,36.133,48.828,18.066,0
135140.700,44.922,29.785,32.227,49.316,71.289,0
135140.703,20.996,28.809,27.832,28.320,60.059,0
135140.707,13.184,27.832,27.832,23.438,33.691,0
135140.711,30.273,28.320,29.785,38.574,50.293,0
135140.715,40.527,30.762,28.320,45.410,79.102,0
135140.719,23.438,31.738,26.367,28.809,62.988,0
135140.723,9.277,28.320,28.809,16.602,4.395,0
135140.725,25.879,30.762,27.344,29.785,-17.090,0
135140.729,41.992,35.156,26.855,42.480,17.090,0
135140.733,26.855,35.645,29.297,33.203,44.434,0
135140.737,12.207,34.668,32.227,20.996,-5.859,1
135140.740,20.508,33.203,30.273,24.902,-20.508,0
135140.744,34.668,33.691,26.855,41.504,49.805,0
135140.748,33.203,36.133,26.855,42.969,75.195,0
135140.752,17.578,37.109,29.297,24.414,37.109,0
135140.756,15.625,32.227,28.809,17.090,-6.836,0
135140.760,29.785,26.367,26.855,26.855,43.457,0
135140.764,33.691,28.809,28.809,33.691,106.934,0
135140.768,17.578,33.691,29.297,18.555,50.293,0
135140.770,12.207,35.156,29.785,7.812,24.902,0
135140.774,26.855,33.691,29.785,20.508,39.551,0
135140.778,37.598,31.250,29.785,34.180,47.852,0
135140.782,24.902,33.691,32.227,30.762,39.551,0
135140.786,12.207,34.180,31.250,19.531,-21.973,0
135140.790,27.832,29.297,30.762,30.273,-55.664,0
135140.793,41.504,29.297,30.762,44.434,7.324,0
135140.797,28.320,29.297,32.715,33.691,-8.301,0
135140.801,17.090,29.785,33.203,20.508,-80.078,0
135140.805,26.367,31.738,28.320,23.438,-27.344,0
135140.809,45.410,30.273,24.902,39.551,32.715,0
135140.813,46.875,32.227,24.902,38.574,41.016,0
135140.815,26.367,32.715,26.855,20.996,-16.602,0
135140.819,23.438,30.762,27.832,20.508,-48.828,0
135140.823,48.828,39.062,30.762,41.504,-4.883,0
135140.827,56.641,43.457,30.273,49.805,45.410,0
135140.831,32.715,39.062,30.762,27.344,20.020,0
135140.835,21.484,35.645,34.180,14.160,-14.648,0
135140.838,35.645,35.156,36.133,26.367,27.832,0
135140.842,43.457,34.668,34.668,37.598,27.344,0
135140.846,22.461,31.738,30.273,26.855,-4.395,0
135140.850,4.395,32.715,27.344,11.719,-52.246,0
135140.854,16.602,33.691,25.879,18.555,-49.316,0
135140.858,34.180,32.715,23.926,37.598,47.852,0
135140.860,27.344,32.715,27.344,39.062,62.988,0
135140.864,11.230,34.180,32.715,27.344,3.418,0
135140.868,18.555,34.668,29.785,31.738,31.250,0
135140.872,41.992,32.715,32.715,46.875,79.102,0
135140.875,42.969,30.762,36.621,46.875,69.824,0
135140.879,16.113,25.391,33.203,29.785,59.570,0
135140.883,10.254,21.484,28.809,18.066,10.254,0
135140.887,32.715,20.996,26.367,26.855,43.945,0
135140.891,37.598,20.996,26.855,31.738,102.539,0
135140.895,16.113,26.855,31.738,16.113,69.336,0
135140.899,2.930,30.273,30.762,5.371,20.020,0
135140.903,16.602,29.297,25.391,14.648,17.090,0
135140.906,28.809,26.367,27.344,28.320,96.191,0
135140.909,20.508,25.391,32.715,23.438,76.172,0
135140.913,9.766,29.785,30.273,10.742,-15.137,0
135140.917,23.926,30.762,27.344,18.555,6.348,0
135140.921,39.551,28.809,25.391,38.574,74.707,0
135140.925,34.180,31.250,22.461,37.109,82.520,0
135140.929,16.602,37.598,25.391,20.996,-9.277,0
135140.933,16.113,32.715,27.832,20.020,-46.875,0
135140.937,36.621,25.391,23.926,38.574,25.879,0
135140.941,41.504,33.203,25.879,43.457,60.059,0
135140.945,27.832,41.504,32.227,27.832,19.531,0
135140.949,24.902,41.016,28.809,19.043,-9.277,0
135140.951,43.945,37.109,22.949,27.344,35.645,0
135140.955,52.246,37.109,22.949,36.133,66.895,0
135140.959,36.621,38.086,25.391,21.484,42.480,0
