timestamps,TP9,AF7,AF8,TP10,Right AUX,Marker0
135269.620,14.648,19.531,29.785,8.301,9.766,0
135269.624,7.812,11.719,23.926,5.371,-32.227,0
135269.628,25.391,15.137,24.414,23.926,6.836,0
135269.632,39.062,22.949,20.996,38.574,37.598,0
135269.636,36.133,27.832,19.043,33.203,-8.789,0
135269.640,14.160,32.227,20.996,22.949,-48.340,0
135269.644,21.484,32.715,15.137,22.949,4.883,0
135269.648,42.480,28.809,12.207,30.273,67.383,0
135269.652,26.855,30.273,24.902,19.531,27.344,0
135269.655,6.348,29.785,34.180,2.930,13.184,0
135269.659,17.090,32.715,36.133,13.672,40.039,0
135269.663,38.086,37.109,22.949,36.133,54.688,0
135269.667,42.969,38.086,4.883,35.645,50.781,0
135269.670,26.855,33.203,11.719,17.578,19.531,0
135269.674,15.625,22.949,31.738,11.230,-1.953,0
135269.678,33.203,21.973,45.410,21.484,2.930,0
135269.682,30.273,23.438,37.109,28.809,1.465,0
135269.686,10.254,19.531,24.902,19.531,-1.953,0
135269.690,6.348,18.555,27.832,9.277,-16.602,0
135269.694,19.531,22.949,40.527,20.020,11.230,0
135269.698,36.133,16.602,43.457,31.738,58.105,0
135269.702,26.367,12.207,38.574,23.438,33.203,0
135269.706,17.578,25.879,35.156,5.371,-3.906,0
135269.710,26.855,27.344,27.832,7.812,-3.418,0
135269.710,23.926,25.391,24.414,26.855,31.738,0
135269.714,13.672,32.227,27.344,24.414,64.941,0
135269.718,10.742,32.715,26.367,10.254,54.199,1
135269.722,16.113,31.250,14.160,11.719,61.523,0
135269.726,23.438,28.320,22.949,25.879,87.402,0
135269.730,29.297,24.902,40.039,41.992,97.168,0
135269.734,20.996,27.344,39.062,25.879,46.387,0
135269.738,11.719,25.879,26.855,11.719,-33.203,0
135269.742,32.227,25.879,19.043,29.785,-36.133,0
135269.745,45.898,24.902,17.578,25.879,24.902,0
135269.749,21.973,16.602,24.902,14.648,15.137,0
135269.753,7.324,23.438,34.668,13.184,-15.625,0
135269.755,19.531,28.320,30.273,19.043,21.973,0
135269.759,34.668,27.344,27.344,27.344,68.359,0
135269.763,25.879,32.227,25.879,17.090,34.180,0
135269.767,17.090,33.203,23.438,5.371,-34.668,0
135269.771,25.879,31.738,23.926,15.625,4.395,0
135269.775,28.809,29.785,24.902,30.273,62.500,0
135269.779,24.414,36.621,24.902,23.926,36.133,0
135269.783,19.531,38.574,26.367,13.184,-42.480,0
135269.787,18.066,33.691,27.832,19.043,-23.926,0
135269.790,29.785,27.832,25.879,29.785,92.285,0
135269.794,31.250,26.367,22.461,29.297,93.750,0
135269.798,1.953,25.879,14.160,14.160,37.598,0
135269.800,-5.859,23.438,12.207,6.348,24.414,0
135269.804,21.484,24.414,20.996,18.066,46.387,0
135269.808,32.715,30.273,26.367,30.762,99.121,0
135269.812,25.391,32.715,22.461,21.484,73.242,0
135269.816,23.438,31.738,30.273,12.695,14.648,0
135269.820,20.996,34.180,40.527,22.949,25.391,0
135269.824,27.832,32.715,40.039,33.691,65.918,0
135269.828,31.250,28.320,34.668,31.738,60.547,0
135269.831,21.484,32.227,33.691,20.508,-0.488,0
135269.835,15.137,30.273,34.180,11.719,33.691,0
135269.839,17.578,24.902,35.156,19.043,80.078,0
135269.843,16.113,22.461,32.715,20.508,40.527,0
135269.847,-2.930,26.367,29.785,10.254,-12.207,0
135269.850,1.465,33.203,26.855,11.230,-11.719,0
135269.854,23.438,34.668,22.461,25.879,27.344,0
135269.858,31.738,31.738,24.414,34.180,67.871,0
135269.862,20.508,35.156,24.414,24.902,39.551,0
135269.866,14.160,37.598,19.043,18.066,-12.207,0
135269.870,29.297,33.691,18.066,25.879,13.672,0
135269.874,29.785,33.203,23.926,33.691,56.641,0
135269.878,8.301,30.273,35.156,23.438,41.016,0
135269.882,1.465,26.855,37.109,11.230,-26.855,0
135269.886,13.672,29.297,27.344,19.043,-47.852,0
135269.890,34.180,28.809,23.926,25.879,57.129,0
135269.906,19.531,29.297,29.785,17.090,70.801,0
135269.910,-4.395,33.691,33.691,3.418,-38.086,0
135269.914,11.230,36.621,31.250,8.789,-35.645,0
135269.918,26.367,28.809,27.344,25.391,24.902,0
135269.921,23.438,23.926,31.738,22.949,39.062,0
135269.925,6.836,29.297,36.133,12.695,-34.180,0
135269.929,7.324,31.250,32.715,13.184,-92.285,0
135269.933,23.926,28.320,32.227,32.227,26.855,0
135269.937,24.902,26.855,35.645,40.527,87.402,0
135269.941,11.230,23.926,33.203,22.949,26.855,0
135269.945,4.395,21.973,33.691,16.602,26.855,0
135269.949,27.832,29.297,30.273,34.668,75.195,0
135269.951,39.551,33.691,26.367,39.551,84.473,0
135269.955,11.719,32.715,24.902,13.184,46.875,0
135269.959,-1.465,32.227,26.855,-1.465,41.504,0
135269.963,13.184,30.762,32.227,10.742,68.848,0
135269.967,27.344,26.855,29.297,25.391,110.352,0
135269.971,13.184,26.367,23.438,25.391,97.656,0
135269.975,4.883,28.320,22.949,11.230,16.113,0
135269.978,16.602,24.414,25.391,13.672,22.949,0
135269.982,20.508,23.926,24.902,32.227,45.898,0
135269.986,19.043,26.367,25.879,27.832,43.945,0
135269.990,6.836,23.926,29.785,13.184,22.949,0
135269.994,9.277,24.414,32.227,14.160,-20.508,0
135269.995,21.484,30.273,28.320,27.344,14.160,0
135269.999,23.438,32.227,27.344,31.738,54.688,0
135270.003,16.113,33.203,27.832,19.043,20.996,0
135270.007,17.090,37.109,16.602,11.719,-21.484,0
135270.011,20.508,36.133,17.090,18.066,25.391,0
135270.015,25.391,35.156,29.785,27.832,95.703,0
135270.019,16.113,37.598,30.273,22.461,72.266,0
135270.023,3.906,41.504,25.879,11.230,12.695,0
135270.027,14.160,39.551,23.926,16.113,-30.762,0
135270.031,28.809,32.227,27.344,29.297,12.207,0
135270.035,24.414,30.762,21.973,27.832,78.613,0
135270.038,9.766,35.645,13.672,18.066,19.531,0
135270.040,29.785,36.133,12.207,23.926,-5.859,0
135270.044,39.062,35.645,13.184,34.668,57.617,0
135270.048,15.625,36.621,22.949,31.250,67.871,0
135270.052,12.207,34.180,41.016,19.043,14.160,0
135270.056,14.648,33.203,46.875,14.160,-28.809,0
135270.060,20.508,30.273,38.086,18.066,4.395,0
135270.064,25.391,29.785,30.273,25.879,74.219,0
135270.068,10.742,30.273,29.297,17.090,46.387,0
135270.071,1.953,29.785,24.902,10.742,-43.457,0
135270.075,19.531,27.344,20.020,25.391,-17.090,0
135270.079,27.344,22.949,19.043,44.434,56.152,0
135270.083,19.043,34.668,13.672,32.715,37.109,0
135270.085,15.137,41.992,12.695,7.812,-0.488,0
135270.089,19.531,39.551,21.973,11.230,40.527,0
135270.093,21.973,34.180,32.715,25.879,103.516,0
135270.097,18.555,29.785,34.668,24.414,106.934,0
135270.101,9.766,33.203,30.273,14.160,33.203,0
135270.105,14.648,32.227,26.855,16.113,-27.344,0
135270.109,28.320,29.297,20.020,28.320,8.789,0
135270.113,29.785,32.715,19.531,31.738,67.871,0
135270.116,23.438,34.668,17.578,20.508,49.316,0
135270.120,23.438,36.133,15.137,19.043,1.465,0
135270.124,37.109,34.180,27.344,33.203,39.062,0
135270.128,46.387,34.180,21.484,40.527,75.684,0
135270.132,32.227,34.180,7.812,26.855,62.012,0
135270.135,13.184,31.250,22.461,11.719,19.043,0
135270.139,19.531,33.203,32.227,15.137,2.930,0
135270.143,33.203,33.203,29.297,24.902,38.086,0
135270.147,31.250,34.180,23.438,18.066,56.641,0
135270.151,12.695,34.668,21.484,6.348,28.809,0
135270.155,12.695,33.691,28.320,18.066,32.227,0
135270.159,35.156,33.691,32.227,32.715,55.176,0
135270.163,38.574,34.180,34.668,33.691,58.594,0
135270.167,26.367,32.715,33.203,30.273,39.062,0
135270.171,20.508,29.785,27.832,26.855,-8.301,0
135270.174,25.391,31.250,26.855,34.180,21.484,0
135270.175,33.691,34.668,29.297,41.504,53.711,0
135270.179,26.855,40.039,29.785,35.156,16.602,0
135270.183,20.996,40.039,28.320,23.926,-20.508,0
135270.187,31.738,34.668,27.344,32.227,-1.953,0
135270.191,38.574,33.203,26.367,47.363,41.504,0
135270.195,27.344,32.715,24.902,36.133,18.555,0
135270.199,18.555,35.156,29.297,20.020,-71.777,0
135270.203,28.320,36.621,26.855,23.438,-83.984,0
135270.206,38.574,36.133,25.391,41.992,19.531,0
135270.210,31.738,38.574,25.879,41.016,22.949,0
135270.214,20.020,38.086,22.949,22.949,-25.391,0
135270.218,27.832,36.133,23.438,26.367,20.020,0
135270.220,36.621,35.156,20.996,41.992,82.520,1
135270.224,30.273,35.156,20.996,40.039,101.074,0
135270.228,14.160,34.668,25.879,23.438,27.344,0
135270.232,10.742,31.738,24.414,16.113,3.906,0
135270.236,32.227,29.297,22.949,25.879,73.242,0
135270.240,30.273,32.227,24.902,28.809,81.055,0
135270.244,18.555,40.039,23.926,17.578,16.602,0
135270.248,24.902,42.969,20.020,15.137,-25.391,0
135270.251,17.578,34.180,23.438,17.090,-3.418,0
135270.255,11.719,26.855,38.086,15.625,38.574,0
135270.259,10.254,28.320,45.898,12.207,16.113,0
135270.263,7.812,29.785,39.551,7.812,-0.977,0
135270.280,23.926,28.320,34.668,14.160,13.184,0
135270.284,32.715,29.297,40.039,30.273,56.152,0
135270.288,19.531,29.297,42.480,31.738,69.824,0
135270.292,6.348,26.855,38.086,23.438,33.691,0
135270.296,13.184,27.344,33.203,26.855,21.484,0
135270.300,26.855,26.367,30.273,41.504,38.086,0
135270.304,24.902,24.414,26.855,44.434,41.016,0
135270.308,7.812,27.832,23.438,30.762,21.973,0
135270.311,3.418,27.832,25.879,20.508,-0.488,0
135270.315,23.438,22.461,34.668,37.109,9.277,0
135270.319,30.762,23.926,36.621,47.852,65.918,0
135270.323,6.348,33.203,26.367,18.555,41.504,0
135270.325,-0.977,40.527,0.977,3.418,-28.809,0
135270.329,26.367,40.039,-3.906,21.484,-22.461,0
135270.333,33.203,36.133,10.742,31.250,37.598,0
135270.337,20.508,37.109,12.695,26.367,22.461,0
135270.341,16.602,38.574,21.484,20.996,-40.527,0
135270.345,26.855,36.621,31.250,25.391,-22.461,0
135270.349,46.387,37.109,33.203,38.086,14.648,0
135270.353,41.504,33.691,28.320,37.598,9.277,0
135270.356,36.621,30.273,23.926,24.902,-21.973,0
135270.360,41.016,30.273,21.484,22.461,-55.176,0
135270.364,41.016,33.691,15.137,41.504,8.301,0
135270.368,39.551,34.180,4.395,48.828,75.684,0
135270.372,26.855,28.809,11.230,30.762,25.391,0
135270.375,23.438,31.250,28.320,23.926,-15.137,0
135270.379,34.180,35.645,36.133,39.062,-4.883,0
135270.383,42.969,33.691,40.527,50.293,46.875,0
135270.387,34.668,35.156,44.922,41.016,29.785,0
135270.391,25.391,35.645,41.016,31.738,-31.738,0
135270.395,36.133,36.621,31.250,40.527,0.000,0
135270.399,47.363,39.551,27.832,52.246,35.156,0
135270.403,36.133,33.691,25.879,42.969,23.438,0
135270.407,23.926,29.297,16.113,26.367,-25.391,0
135270.411,32.715,31.738,14.160,29.297,-29.785,0
135270.414,41.992,32.227,22.949,40.527,48.828,0
135270.416,40.527,33.691,23.926,42.969,85.449,0
135270.419,28.809,32.715,20.508,31.250,7.812,0
135270.423,23.438,29.297,20.996,23.926,-28.809,0
135270.427,37.109,31.250,27.344,37.109,38.086,0
135270.431,41.016,34.180,31.738,45.410,57.129,0
135270.435,30.762,40.527,28.320,36.133,13.672,0
135270.439,27.832,40.527,20.508,27.344,-18.555,0
135270.443,39.551,33.691,19.531,35.645,-39.551,0
135270.447,46.387,32.227,28.809,47.363,-22.461,0
135270.451,41.016,34.180,27.832,44.434,19.531,0
135270.455,22.461,32.227,25.391,30.273,-15.137,0
135270.458,19.043,25.391,27.344,29.785,-21.484,0
135270.461,35.645,26.367,22.461,47.852,42.969,0
135270.465,23.438,25.879,24.414,49.805,90.820,0
135270.469,8.301,20.508,31.738,33.691,40.039,0
135270.473,21.973,24.414,30.762,27.832,18.555,0
135270.477,32.227,27.344,34.180,39.062,86.914,0
135270.480,27.832,27.344,34.180,41.016,81.543,0
135270.484,15.137,29.785,20.508,31.250,45.410,0
135270.488,12.207,26.855,16.602,24.902,11.719,0
135270.492,25.391,24.414,27.344,34.668,22.949,0
135270.496,28.809,26.367,22.949,38.086,78.613,0
135270.500,17.090,26.855,6.348,22.949,74.219,0
135270.504,7.324,23.438,23.438,13.672,35.156,0
135270.506,23.926,22.949,35.645,22.949,47.363,0
135270.509,33.691,28.320,31.250,35.156,85.449,0
135270.513,15.137,28.809,38.086,23.438,54.688,0
135270.517,3.418,22.949,41.992,4.883,2.930,0
135270.521,10.254,22.949,40.527,9.277,-7.324,0
135270.525,35.645,25.879,34.180,24.902,12.695,0
135270.529,27.832,27.344,28.809,20.508,14.160,0
135270.533,-6.348,26.855,23.926,4.883,-3.906,0
135270.537,1.953,28.320,22.949,10.254,-7.812,0
135270.541,21.973,22.461,22.461,27.832,22.461,0
135270.545,25.879,17.578,20.020,31.738,57.129,0
135270.548,17.090,21.973,14.160,17.578,38.086,0
135270.550,12.695,23.438,14.160,13.672,41.016,0
135270.554,26.855,30.273,25.879,26.367,63.477,0
135270.558,33.203,40.039,30.273,30.762,72.266,0
135270.562,15.137,46.875,37.598,24.902,61.523,0
135270.566,4.395,44.434,38.086,9.766,13.672,0
135270.570,16.602,34.668,31.250,14.160,26.367,0
135270.574,32.227,32.227,29.297,27.344,68.359,0
135270.577,22.461,37.109,30.273,20.020,40.527,0
135270.581,6.348,32.715,25.391,14.648,0.488,0
135270.585,15.137,25.391,23.438,17.578,14.648,0
135270.589,24.902,27.344,24.414,22.461,52.734,0
135270.593,18.066,26.855,9.766,20.508,41.992,0
135270.597,7.812,30.273,0.977,6.348,19.531,0
135270.600,11.719,33.691,17.578,4.395,-5.371,0
135270.604,28.320,29.785,39.551,17.090,41.016,0
135270.608,33.203,26.367,48.340,24.902,117.676,0
135270.612,18.066,25.391,44.922,14.160,52.246,0
135270.616,13.672,22.949,33.691,4.883,-18.066,0
135270.620,24.414,20.996,24.414,15.625,18.066,0
135270.624,27.832,29.297,25.879,27.832,83.984,0
135270.628,21.973,36.621,29.297,18.066,35.156,0
135270.632,17.578,30.273,30.273,6.348,-41.992,0
135270.636,22.461,27.832,30.273,18.555,-8.301,0
135270.640,38.086,30.762,32.227,37.109,49.316,0
135270.655,29.785,39.551,26.367,32.715,46.387,0
135270.659,10.742,45.410,26.367,18.555,-0.977,0
135270.663,23.438,43.945,36.133,24.414,-34.180,0
135270.667,36.621,41.016,38.574,39.062,57.617,0
135270.671,33.203,39.551,38.086,40.039,109.375,0
135270.675,10.254,38.574,34.668,24.414,-10.742,0
135270.679,2.930,35.156,30.762,15.137,-12.207,0
135270.683,15.137,29.297,32.715,28.320,62.012,0
135270.686,12.695,31.250,34.668,36.133,67.871,0
135270.690,0.977,33.691,33.203,22.461,40.527,0
135270.694,-0.488,29.297,30.273,12.695,-6.836,0
135270.698,16.602,27.344,28.809,25.879,6.836,0
135270.700,24.902,25.879,33.203,39.551,52.246,0
135270.704,22.949,27.344,39.062,30.762,23.438,0
135270.708,20.996,34.668,33.691,13.672,-30.273,0
135270.712,20.020,34.180,25.391,16.113,-20.508,0
135270.716,19.531,28.809,25.879,25.391,30.762,0
135270.720,13.184,27.832,26.855,20.508,35.156,1
135270.724,3.418,27.832,25.879,8.789,-4.883,0
135270.728,6.836,27.344,29.785,8.301,-19.043,0
135270.732,23.438,28.809,32.227,23.438,17.578,0
135270.735,26.855,31.738,31.738,25.879,33.203,0
135270.739,15.137,30.273,32.715,12.695,5.859,0
135270.743,16.602,30.762,29.297,12.207,-20.020,0
135270.745,30.762,34.180,27.832,31.250,-14.160,0
135270.749,34.668,31.738,27.832,39.062,22.949,0
135270.753,22.949,30.762,30.762,27.832,9.766,0
135270.757,15.625,32.227,33.691,21.484,-35.645,0
135270.761,24.414,34.180,31.738,34.668,-25.391,0
135270.765,33.691,34.180,31.738,45.410,28.320,0
135270.769,20.020,32.227,33.203,28.320,41.504,0
135270.773,9.277,34.180,31.738,17.090,-8.789,0
135270.776,18.066,34.180,28.809,22.949,-65.430,0
135270.780,24.902,29.785,31.250,31.250,-12.695,0
135270.784,18.066,29.785,36.133,27.832,15.137,0
135270.788,3.906,28.809,32.227,12.695,-33.203,0
135270.790,6.836,25.391,29.297,12.695,-25.391,0
135270.794,25.391,30.273,27.344,28.320,19.043,0
135270.798,29.297,32.715,28.320,33.691,67.871,0
135270.802,17.090,30.273,29.297,17.578,27.832,0
135270.806,17.090,30.762,25.391,11.230,-13.184,0
135270.810,33.691,33.203,23.438,27.344,44.434,0
135270.814,36.133,34.180,20.508,32.715,77.637,0
135270.818,23.438,33.203,21.484,19.531,11.719,0
135270.822,18.066,35.645,22.949,9.766,-12.207,0
135270.825,24.902,33.203,20.996,17.578,2.930,0
135270.829,29.785,29.297,21.973,26.855,46.875,0
135270.833,20.020,30.762,20.508,18.066,55.664,0
135270.837,6.836,28.809,20.996,7.324,4.883,0
135270.840,13.672,25.879,21.484,10.742,20.020,0
135270.844,27.832,27.344,16.113,20.508,71.289,0
135270.848,25.391,25.879,18.066,18.066,47.852,0
135270.852,16.113,23.438,27.832,9.766,-3.418,0
135270.856,20.996,27.344,27.344,10.254,8.789,0
135270.860,34.668,33.203,21.973,25.879,57.129,0
135270.864,32.715,34.180,23.438,30.762,49.316,0
135270.868,13.184,28.320,23.438,12.207,30.762,0
135270.872,8.789,26.367,20.996,5.371,2.441,0
135270.876,21.973,27.344,22.949,18.066,-2.930,0
135270.880,26.855,26.367,26.367,25.391,53.711,0
135270.880,19.531,28.809,27.344,17.578,44.922,0
135270.884,15.625,35.156,22.949,6.836,-12.207,0
135270.888,26.855,33.691,16.602,14.160,-16.113,0
135270.892,36.133,28.320,19.043,29.297,57.617,0
135270.896,24.414,25.879,22.461,19.043,73.242,0
135270.900,11.230,30.273,20.996,6.348,-16.113,0
135270.904,19.043,34.668,19.043,18.555,-20.508,0
135270.908,32.715,36.133,16.113,35.645,32.715,0
135270.911,27.344,36.621,22.461,28.320,61.035,0
135270.915,14.160,35.156,37.598,15.625,22.949,0
135270.919,15.625,33.691,42.480,17.090,-12.207,0
135270.923,26.855,32.715,33.203,25.879,35.645,0
135270.925,24.902,32.715,28.320,29.297,66.406,0
135270.929,10.254,31.250,28.320,18.555,46.875,0
135270.933,9.277,32.227,28.320,16.602,16.602,0
135270.937,20.020,31.738,30.273,26.367,43.457,0
135270.941,31.250,32.715,24.414,34.180,83.984,0
135270.945,26.367,35.645,17.090,30.762,62.500,0
135270.949,14.160,32.715,28.809,17.090,-16.113,0
135270.953,24.414,31.250,38.086,19.531,-20.508,0
135270.957,36.621,32.227,39.062,34.180,48.828,0
135270.960,26.855,26.855,41.016,33.691,43.945,0
135270.964,17.578,23.926,36.133,18.555,8.789,0
135270.968,19.043,32.227,29.297,11.230,17.090,0
135270.970,26.855,36.621,29.297,22.949,70.801,0
135270.974,21.973,33.203,32.715,25.879,86.914,0
135270.978,2.930,29.297,32.227,11.230,62.500,0
135270.982,2.441,26.367,29.785,9.766,35.645,0
135270.986,25.391,29.297,26.855,33.203,63.965,0
135270.990,31.738,35.156,21.484,44.922,40.039,0
135270.994,14.648,35.645,24.414,27.832,-51.270,0
135270.998,14.648,32.715,32.227,20.508,-61.035,0
135271.001,33.203,31.250,38.086,33.203,-39.062,0
135271.005,36.621,31.738,40.527,38.086,12.207,0
135271.009,20.020,32.227,38.574,25.879,2.441,0
135271.013,12.207,34.180,36.133,15.137,-46.387,0
135271.030,23.926,36.133,34.180,19.043,-9.277,0
135271.034,28.320,39.062,32.715,32.715,5.859,0
135271.038,19.531,40.527,32.715,31.250,5.371,0
135271.042,8.301,37.109,32.227,16.602,7.324,0
135271.046,14.160,32.715,32.227,17.578,-1.953,0
135271.050,26.855,31.738,25.391,37.598,39.551,0
135271.054,24.414,33.203,24.414,40.039,77.637,0
135271.058,10.742,33.203,41.504,22.949,26.855,0
135271.061,10.742,31.250,48.340,19.531,-29.297,0
135271.065,23.438,32.715,42.480,32.715,-13.672,0
135271.069,30.762,34.668,36.133,37.598,23.926,0
135271.073,24.902,36.621,32.227,26.367,19.531,0
135271.077,14.160,33.691,32.715,16.113,-26.855,0
135271.080,23.926,32.227,33.203,22.949,-11.230,0
135271.084,32.715,35.645,30.273,29.785,68.848,0
135271.088,18.555,35.645,32.227,20.996,87.891,0
135271.092,7.324,34.180,37.598,10.742,-0.977,0
135271.096,13.184,32.715,37.109,14.648,-10.254,0
135271.100,19.043,32.715,32.715,23.438,35.645,0
135271.104,13.184,37.109,28.809,18.555,44.922,0
135271.108,4.395,33.203,21.484,9.277,-11.230,0
135271.112,11.230,26.855,12.207,11.719,-28.809,0
135271.116,23.438,28.320,18.555,25.879,66.406,0
135271.120,24.414,32.715,32.227,30.762,120.117,0
135271.121,11.230,32.715,40.527,15.137,46.875,0
135271.125,11.719,31.250,45.898,7.324,-0.488,0
135271.129,30.273,31.738,44.434,28.809,50.293,0
135271.133,27.832,35.645,27.832,36.133,74.219,0
135271.136,10.254,36.133,18.555,19.043,62.988,0
135271.140,8.789,33.691,28.809,12.695,15.137,0
135271.144,19.043,32.715,31.250,21.484,28.320,0
135271.148,25.879,29.785,22.949,30.762,93.750,0
135271.152,17.578,33.203,21.973,26.367,58.105,0
135271.156,10.742,36.133,31.250,15.625,5.371,0
135271.160,19.531,34.668,43.945,17.090,44.434,0
135271.164,25.391,34.180,47.363,33.203,90.332,2
135271.165,20.996,36.133,42.969,32.715,105.957,0
135271.169,16.602,33.691,35.156,25.391,70.312,0
135271.173,19.043,30.273,30.273,22.461,31.738,0
135271.177,28.809,34.668,35.645,28.320,94.238,0
135271.181,28.809,37.598,37.109,31.738,113.770,0
135271.185,16.113,38.086,37.109,16.602,38.086,0
135271.189,14.160,37.109,33.203,7.324,-11.719,0
135271.193,24.902,35.645,31.250,17.578,-7.324,0
135271.197,33.203,36.133,38.574,31.250,31.250,0
135271.200,25.391,37.598,27.832,21.484,36.133,0
135271.204,16.113,38.574,13.184,6.348,8.789,0
135271.208,17.578,33.691,22.949,10.254,3.418,0
135271.210,21.484,31.250,36.133,19.043,44.434,0
135271.214,13.672,33.203,37.109,15.625,32.715,0
135271.218,2.930,32.715,34.180,3.906,-41.016,0
135271.222,10.742,35.156,34.180,12.695,-80.078,0
135271.226,31.250,34.180,35.645,34.180,-5.859,0
135271.230,30.273,34.668,36.621,33.203,9.766,0
135271.234,17.578,38.574,35.156,16.602,-57.617,0
135271.238,23.926,36.133,34.180,16.113,-62.500,0
135271.241,41.016,33.203,31.738,31.250,-2.441,0
135271.245,41.992,33.691,32.227,33.203,30.273,0
135271.249,29.785,33.691,34.180,22.461,-39.062,0
135271.253,29.297,33.691,30.273,19.043,-59.570,0
135271.255,43.945,34.180,31.250,30.762,-14.160,0
135271.259,50.293,30.273,32.227,42.480,45.410,0
135271.263,36.621,28.809,27.344,30.762,37.109,0
135271.267,24.902,28.809,24.902,12.695,-4.395,0
135271.271,34.180,25.391,22.461,18.555,39.551,0
135271.275,39.551,27.344,20.508,31.250,72.266,0
135271.279,26.855,32.715,23.438,24.902,29.297,0
135271.283,13.672,36.133,29.297,12.207,-20.996,0
135271.286,17.090,34.668,30.762,13.672,13.672,0
135271.290,29.297,32.227,27.344,23.926,71.289,0
135271.294,27.832,26.855,25.879,25.391,48.828,0
135271.298,13.672,21.973,25.879,16.113,13.672,0
135271.302,11.719,20.020,22.949,14.648,12.207,0
135271.305,25.879,20.508,21.973,25.391,37.109,0
135271.309,30.762,23.438,22.949,31.250,40.039,0
135271.313,17.090,26.855,22.461,20.508,-6.348,0
135271.317,10.742,30.273,18.066,7.324,-43.457,0
135271.321,20.508,25.879,20.508,17.578,-41.992,0
135271.325,24.902,23.926,27.344,25.879,-6.348,0
135271.329,10.742,22.949,26.367,8.789,-12.207,0
135271.333,-4.395,18.555,21.484,0.488,-29.785,0
135271.337,4.883,20.020,18.066,8.789,-12.695,0
135271.341,15.137,21.973,16.113,18.066,40.527,0
135271.344,6.348,21.484,20.508,15.137,61.523,0
135271.346,-5.371,27.832,24.902,1.465,1.465,0
135271.350,-0.977,29.297,21.973,1.465,-47.852,0
135271.354,13.184,23.926,19.531,16.113,2.930,0
135271.357,14.160,23.438,22.461,20.508,47.363,0
135271.361,4.395,27.344,27.832,12.207,4.395,0
135271.365,4.883,29.785,30.762,10.742,-27.344,0
135271.369,18.066,29.297,30.762,21.484,0.488,0
135271.373,21.484,25.879,28.809,28.320,59.082,0
135271.377,10.742,27.344,26.367,18.555,42.480,0
135271.381,5.371,31.738,23.438,7.324,-18.555,0
135271.385,18.555,34.180,25.879,13.672,0.977,0
135271.389,31.738,32.715,32.715,29.297,51.758,0
135271.406,25.879,33.203,30.762,24.414,41.016,0
135271.410,10.742,34.668,25.391,6.836,-22.461,0
135271.414,15.137,30.762,20.508,11.230,-40.527,0
135271.418,28.320,31.250,18.555,28.320,26.855,0
135271.422,23.926,31.250,27.344,23.926,42.480,0
135271.425,9.766,29.785,35.645,5.859,-23.438,0
135271.429,10.254,28.320,36.621,5.371,-18.066,0
135271.433,24.902,27.344,24.414,20.996,44.434,0
135271.437,27.832,33.203,9.766,26.367,89.844,0
135271.441,14.160,34.180,18.555,13.672,41.016,0
135271.445,14.160,29.785,34.668,8.301,-28.809,0
135271.449,29.297,28.320,41.992,22.461,32.715,0
135271.450,30.762,29.785,41.992,30.273,86.914,0
135271.454,17.090,28.809,39.551,20.508,63.965,0
135271.458,7.812,28.809,36.621,10.742,23.926,0
135271.462,17.578,25.879,32.715,18.555,21.973,0
135271.466,31.250,26.367,32.715,30.273,79.102,0
135271.470,22.949,31.738,34.180,24.414,79.102,0
135271.474,7.812,32.227,33.203,10.742,0.000,0
135271.478,15.625,33.203,28.809,17.090,-2.930,0
135271.482,31.738,33.691,28.809,33.691,70.801,0
135271.485,27.832,32.715,31.738,27.832,83.496,0
135271.489,16.602,33.203,33.203,12.695,26.855,0
135271.493,21.484,33.203,32.715,14.160,-4.395,0
135271.495,34.180,34.180,28.809,27.832,33.203,0
135271.499,31.250,34.180,24.902,29.297,86.426,0
135271.503,11.719,32.227,22.949,11.230,85.449,0
135271.507,11.230,31.738,26.367,7.812,34.180,0
135271.511,28.320,28.809,31.250,25.879,51.270,0
135271.515,29.297,28.320,31.738,33.691,103.027,0
135271.519,11.719,29.785,31.738,22.461,62.988,0
135271.523,6.348,31.250,23.438,15.625,14.160,0
135271.527,20.508,30.762,15.137,23.438,-3.906,0
135271.530,31.250,30.762,15.625,31.250,26.367,0
135271.534,20.996,32.227,24.902,24.902,56.641,0
135271.538,11.719,30.273,45.898,14.648,-25.391,0
135271.542,22.461,29.785,48.828,19.043,-53.711,0
135271.545,29.785,34.668,39.551,30.273,5.371,0
135271.549,28.320,39.062,33.691,30.762,44.922,0
135271.553,19.043,39.062,28.320,17.090,24.902,0
135271.557,16.602,36.133,36.133,16.113,-9.277,0
135271.561,30.273,37.598,33.691,29.785,4.883,0
135271.565,34.668,36.621,27.832,31.250,40.039,0
135271.569,23.926,30.762,29.785,19.043,23.926,0
135271.573,21.973,29.785,34.180,15.137,-17.090,0
135271.577,34.668,33.203,38.086,27.832,44.434,0
135271.581,33.691,33.691,23.438,37.109,100.586,0
135271.585,25.879,34.668,16.602,31.738,42.480,0
135271.585,22.461,32.715,28.320,19.531,-41.016,0
135271.589,20.020,27.344,40.527,20.508,-22.461,0
135271.593,35.156,28.809,42.969,37.109,44.922,0
135271.597,44.434,32.715,36.133,36.133,52.246,0
135271.601,25.879,34.668,25.391,23.438,-0.977,0
135271.605,16.602,32.227,30.273,32.227,-15.625,0
135271.609,35.156,26.855,39.551,42.480,21.973,0
135271.613,37.109,25.879,31.250,36.133,14.648,0
135271.616,20.996,26.367,30.762,23.438,-7.324,0
135271.620,24.414,32.715,35.645,18.555,-8.789,0
135271.624,36.621,34.668,28.809,28.320,28.809,0
135271.628,41.992,32.227,27.832,36.621,83.008,0
135271.630,34.180,32.715,29.785,23.926,88.867,0
135271.634,24.414,32.227,26.367,12.207,32.715,0
135271.638,39.062,36.133,25.391,22.949,45.898,0
135271.642,47.852,43.457,28.809,30.762,103.516,0
135271.646,32.227,41.016,21.484,23.926,95.703,0
135271.650,20.020,39.551,9.277,15.625,25.879,0
135271.654,28.809,41.992,14.648,21.973,-7.324,0
135271.658,38.574,36.621,26.855,39.062,66.895,2
135271.661,30.762,32.715,33.203,38.574,102.539,0
135271.665,18.066,33.203,33.691,22.949,54.688,0
135271.669,23.438,29.785,35.645,22.949,16.602,0
135271.673,39.551,28.809,38.574,40.527,7.324,0
135271.675,37.598,32.227,35.645,43.457,21.484,0
135271.679,26.367,35.645,33.203,29.297,5.371,0
135271.683,22.949,31.738,31.738,22.949,-27.832,0
135271.687,31.250,26.367,22.949,35.156,-5.371,0
135271.691,33.691,30.273,17.090,44.434,32.227,0
135271.695,19.531,32.227,27.832,32.715,5.859,0
135271.699,14.160,34.180,35.156,28.320,-64.453,0
135271.703,22.949,34.180,35.156,37.598,-49.805,0
135271.706,32.715,32.227,32.715,38.086,19.531,0
135271.710,24.414,32.227,32.715,28.320,10.254,0
135271.714,12.695,33.691,31.250,16.602,-50.781,0
135271.718,17.090,33.691,26.367,20.508,-56.152,0
135271.722,29.785,30.762,24.902,34.180,17.578,0
135271.725,25.879,33.203,29.297,37.109,27.832,0
135271.729,10.742,34.668,30.273,21.973,-41.504,0
135271.733,14.648,32.227,28.320,18.555,-42.969,0
135271.737,28.809,32.715,26.367,31.738,34.668,0
135271.741,27.832,31.738,28.809,30.762,60.547,0
135271.745,16.602,35.156,34.180,16.602,0.000,0
135271.749,12.207,35.645,32.715,12.207,-16.113,0
135271.753,26.855,29.297,33.691,22.461,21.484,0
135271.757,35.156,27.832,34.180,34.668,63.477,0
135271.761,25.391,28.809,32.715,28.320,52.734,0
135271.764,15.625,28.320,27.832,13.184,-4.883,0
135271.781,24.414,30.273,18.066,19.531,-19.043,0
135271.785,35.156,33.691,19.043,36.133,39.551,0
135271.789,20.996,29.785,33.691,30.762,101.074,0
135271.793,11.230,30.762,45.898,15.625,16.113,0
135271.796,24.902,35.645,44.434,19.531,-14.648,0
135271.800,36.133,32.715,37.109,34.180,22.949,0
135271.804,30.273,27.344,31.250,28.809,20.508,0
135271.808,16.602,28.320,28.809,15.137,-10.254,0
135271.812,14.160,30.273,24.414,11.719,-40.039,0
135271.816,26.855,29.785,22.461,28.809,11.230,0
135271.820,27.832,32.227,27.344,37.109,56.641,0
135271.824,11.230,34.668,33.203,20.996,67.871,0
135271.826,10.742,34.668,37.109,15.625,44.434,0
135271.830,30.762,34.180,35.156,27.344,60.547,0
135271.834,38.086,31.250,30.273,39.062,126.465,0
135271.837,23.926,33.203,28.320,27.832,89.355,0
135271.841,17.578,34.668,30.273,13.184,7.324,0
135271.845,26.855,31.250,27.832,14.160,20.508,0
135271.849,30.273,31.250,25.391,23.438,76.172,0
135271.853,17.090,35.156,22.461,20.508,72.754,0
135271.857,4.883,36.621,27.344,7.812,-3.418,0
135271.861,12.695,32.715,30.762,8.301,-74.707,0
135271.865,28.809,29.785,25.879,22.949,2.930,0
135271.869,28.320,28.809,26.855,30.762,83.496,0
135271.870,13.184,31.250,28.809,19.531,46.875,0
135271.874,12.207,32.227,29.297,19.043,21.973,0
135271.878,31.250,29.297,29.297,34.180,86.914,0
135271.882,38.086,33.203,25.879,42.480,111.816,0
135271.886,18.555,36.621,27.832,27.832,41.504,0
135271.890,11.719,33.691,27.832,16.113,-3.418,0
135271.894,21.973,31.738,23.438,23.926,12.695,0
135271.898,25.391,31.250,33.691,35.156,31.250,0
135271.902,16.113,30.273,46.875,27.832,0.977,0
135271.905,2.930,30.273,42.480,12.207,-20.508,0
135271.909,10.742,32.227,34.668,21.484,8.789,0
135271.913,23.438,28.809,35.645,30.273,70.801,0
135271.915,13.184,28.320,26.855,21.484,83.984,0
135271.919,2.441,32.715,24.902,7.812,34.668,0
135271.923,14.648,37.109,34.668,11.230,-1.953,0
135271.927,31.250,35.156,35.156,28.809,20.508,0
135271.931,31.738,32.715,31.250,30.273,62.988,0
135271.935,19.531,35.156,34.180,13.672,0.000,0
135271.939,13.672,37.598,36.133,8.301,-45.410,0
135271.943,23.926,40.039,34.668,17.578,34.668,0
135271.947,34.668,38.086,36.133,25.391,66.895,0
135271.950,20.020,35.645,33.203,12.695,61.035,0
135271.954,14.160,33.691,31.250,2.441,40.039,0
135271.958,30.762,35.156,32.227,17.090,-7.812,0
135271.960,36.621,36.621,34.668,31.250,30.273,0
135271.964,25.879,34.668,33.691,26.855,47.363,0
135271.968,10.254,34.668,36.621,13.184,-6.836,0
135271.972,11.719,37.109,37.109,16.602,9.277,0
135271.976,31.250,39.062,34.668,33.691,58.105,0
135271.980,19.043,31.738,34.180,30.762,77.148,0
135271.984,-5.859,26.367,30.273,10.254,20.508,0
135271.988,2.441,29.297,27.832,7.324,-10.742,0
135271.992,21.973,33.691,26.367,18.555,24.414,0
135271.995,28.320,35.156,23.926,23.438,43.945,0
135271.999,20.020,36.133,23.926,12.695,24.902,0
135272.003,20.020,39.062,25.879,4.395,-11.719,0
135272.007,34.180,36.621,28.809,15.625,7.812,0
135272.010,42.480,34.668,28.320,26.367,54.688,0
135272.014,30.762,35.156,25.391,18.066,18.066,0
135272.018,16.602,32.227,26.367,10.742,-53.711,0
135272.022,31.250,31.250,26.367,20.996,-9.766,0
135272.026,45.898,31.738,25.879,34.668,48.340,0
135272.030,33.691,28.809,27.832,31.250,9.277,0
135272.034,21.973,30.273,27.344,26.367,-5.859,0
135272.038,29.785,32.715,30.273,28.809,30.762,0
135272.042,41.016,29.297,33.691,38.086,48.340,0
135272.046,33.691,30.273,29.785,40.039,45.410,0
135272.050,16.113,34.180,28.320,26.855,18.555,0
135272.050,21.973,37.109,30.273,28.320,4.395,0
135272.054,38.086,38.574,28.320,41.992,60.059,0
135272.058,29.785,39.551,28.809,44.434,96.680,0
135272.062,10.742,42.480,30.273,28.320,48.340,0
135272.066,3.418,42.480,29.785,19.043,4.883,0
135272.070,20.996,41.016,28.809,28.320,29.297,0
135272.074,31.250,41.504,28.320,32.227,22.461,0
135272.078,20.508,40.039,30.273,19.531,0.488,0
135272.081,15.137,39.062,28.809,14.648,23.438,0
135272.085,33.691,42.969,26.855,26.855,28.809,0
135272.089,47.363,42.480,23.438,35.645,100.098,0
135272.093,43.457,39.062,21.484,29.785,109.863,0
135272.110,36.133,39.062,24.414,20.996,36.133,2
135272.114,42.480,41.992,27.832,27.344,-22.461,0
135272.118,60.547,39.062,28.320,42.480,20.508,0
135272.122,60.059,37.598,29.785,46.387,64.941,0
135272.126,34.668,40.039,32.715,31.738,19.531,0
135272.130,26.367,36.133,29.297,25.879,-34.180,0
135272.134,41.016,35.645,27.832,44.922,15.137,0
135272.138,33.691,41.016,26.855,43.457,89.844,0
135272.142,14.160,39.551,24.414,19.043,24.902,0
135272.145,11.230,33.203,25.391,11.719,-36.621,0
135272.149,4.883,26.855,22.949,22.949,-0.977,0
135272.153,5.371,26.367,21.973,34.180,41.992,0
135272.155,-2.930,28.320,22.949,22.461,31.738,0
135272.159,-15.625,28.809,21.973,7.812,-9.277,0
135272.163,-2.441,30.273,23.438,12.695,-37.109,0
135272.167,12.695,29.297,23.438,27.344,28.809,0
135272.171,7.812,27.832,22.461,25.391,51.758,0
135272.175,-0.977,26.855,23.438,7.324,-15.625,0
135272.179,6.348,24.414,21.973,5.859,-35.156,0
135272.183,25.879,22.461,19.531,20.996,33.691,0
135272.186,32.227,22.461,20.996,28.320,80.078,0
135272.190,18.066,26.367,24.414,19.531,40.527,0
135272.194,17.090,31.738,27.344,11.230,-21.484,0
135272.198,38.086,31.250,28.809,18.555,19.531,0
135272.200,36.133,28.320,26.367,23.926,94.238,0
135272.204,16.113,30.762,30.273,16.113,70.312,0
135272.208,14.160,30.273,33.691,4.395,13.672,0
135272.212,26.855,28.320,30.273,10.742,49.316,0
135272.216,38.574,28.809,28.809,33.691,83.984,0
135272.220,22.949,27.344,29.297,24.902,50.293,0
135272.224,6.836,26.855,27.344,6.348,-5.371,0
135272.228,15.137,28.320,23.926,9.766,-30.762,0
135272.232,22.949,26.367,24.414,23.438,-21.484,0
135272.235,9.766,23.438,22.461,16.602,12.207,0
135272.239,-0.977,28.809,21.973,-5.859,3.906,0
135272.243,3.418,28.809,22.949,-3.906,-46.875,0
135272.247,15.137,26.367,18.555,12.695,-20.508,0
135272.250,19.043,26.367,19.531,21.973,11.230,0
135272.254,6.348,30.762,26.855,13.672,-13.672,0
135272.258,5.371,36.133,27.344,14.160,-49.316,0
135272.262,21.484,33.203,23.926,25.391,-38.574,0
135272.266,22.949,30.273,23.926,25.879,26.367,0
135272.270,16.113,31.250,25.391,17.578,43.457,0
135272.274,13.184,31.738,23.438,5.859,-5.371,0
135272.278,18.555,30.273,21.973,9.766,-1.953,0
135272.282,29.785,25.391,23.438,21.973,78.125,0
135272.286,23.926,28.809,23.926,16.602,83.008,0
135272.290,8.301,32.227,30.762,6.348,-24.902,0
135272.290,15.625,30.762,34.668,10.742,-52.734,0
135272.294,33.203,29.297,32.227,25.879,28.809,0
135272.298,23.926,28.320,28.320,29.297,85.938,0
135272.302,3.418,27.832,25.391,22.949,49.316,0
135272.306,7.812,23.926,26.367,22.461,21.973,0
135272.310,23.926,27.832,23.926,23.438,50.293,0
135272.314,24.414,32.715,21.973,23.438,94.238,0
135272.318,8.301,33.691,24.902,8.301,44.434,0
135272.321,7.812,33.203,25.391,2.930,-28.809,0
135272.325,16.602,29.297,28.809,19.531,33.691,0
135272.329,19.531,31.250,33.691,30.273,90.820,0
135272.333,13.672,33.203,33.691,25.391,70.801,0
135272.335,-0.977,31.738,27.832,16.113,4.395,0
135272.339,8.789,31.738,22.461,14.160,-11.719,0
135272.343,22.461,36.133,19.531,24.902,59.570,0
135272.347,13.672,36.621,21.973,23.926,57.617,0
135272.351,10.254,32.227,26.367,10.254,-15.137,0
135272.355,20.020,35.156,25.391,12.695,-33.691,0
135272.359,32.227,36.621,25.879,29.297,4.395,0
135272.363,34.668,28.320,31.738,29.297,12.207,0
135272.366,26.855,27.344,34.668,17.578,-5.371,0
135272.370,29.297,30.762,30.762,19.531,24.902,0
135272.374,39.551,32.227,28.809,36.133,68.848,0
135272.378,38.086,32.715,32.227,50.781,38.574,0
135272.380,22.949,30.762,33.203,39.062,-2.441,0
135272.384,20.508,31.738,20.996,20.020,2.930,0
135272.388,29.785,31.250,19.531,28.320,55.176,0
135272.392,29.785,33.203,34.668,38.574,127.441,0
135272.396,19.043,35.156,42.969,29.785,87.402,0
135272.400,13.672,33.691,44.434,20.508,11.719,0
135272.404,22.461,34.180,36.133,23.438,-6.348,0
135272.408,32.715,34.180,26.367,35.156,40.039,0
135272.411,28.809,33.691,28.809,34.668,89.844,0
135272.415,15.625,32.715,31.738,21.973,39.062,0
135272.419,20.508,30.762,30.273,13.672,-12.207,0
135272.423,40.039,35.156,30.273,32.227,42.969,0
135272.426,38.574,35.645,34.180,41.992,81.055,0
135272.430,33.691,36.621,35.645,29.785,18.555,0
135272.434,29.785,38.086,35.645,25.879,-26.855,0
135272.438,36.621,38.086,29.297,34.180,31.250,0
135272.441,43.945,39.062,25.879,40.039,100.098,0
135272.445,31.250,39.062,25.879,26.367,39.062,0
135272.449,25.391,40.527,26.855,20.020,-26.855,0
135272.453,37.598,42.480,27.344,31.738,4.395,0
135272.457,41.992,38.574,23.926,47.363,49.805,0
135272.461,35.645,37.109,24.414,37.598,76.172,0
135272.465,26.367,40.039,29.297,21.973,53.711,0
135272.469,20.508,34.180,29.297,26.367,20.508,0
135272.472,32.715,30.273,29.785,39.551,39.551,0
135272.475,29.785,32.227,33.203,36.621,37.109,0
135272.479,17.578,29.297,29.297,21.484,3.906,0
135272.483,24.414,30.273,26.367,22.461,-11.230,0
135272.487,37.109,37.109,31.250,41.504,28.809,0
135272.491,33.203,38.086,30.273,42.480,50.781,0
135272.495,19.531,35.645,25.879,23.438,0.488,0
135272.499,26.855,35.156,29.297,22.949,-16.602,0
135272.503,38.086,33.691,38.086,36.621,15.137,0
135272.507,35.156,29.785,45.898,43.945,49.805,0
135272.511,19.043,25.879,45.410,30.762,39.062,0
135272.514,5.371,27.832,37.109,20.020,14.160,0
135272.530,21.973,28.809,31.738,20.996,9.766,0
135272.534,34.668,27.832,33.203,31.738,21.973,0
135272.538,33.691,30.273,29.297,30.273,22.949,0
135272.542,22.461,24.414,27.344,16.113,4.883,0
135272.546,15.625,21.484,26.855,15.137,39.551,0
135272.550,23.926,30.273,23.926,23.926,92.285,0
135272.554,21.973,33.203,23.926,19.531,76.660,1
135272.558,10.742,34.668,24.414,4.883,38.086,0
135272.561,16.602,34.180,25.879,7.324,21.973,0
135272.565,28.320,29.297,25.391,21.973,47.852,0
135272.569,29.297,29.297,23.438,28.809,59.570,0
135272.573,13.184,25.391,22.949,18.066,48.340,0
135272.575,5.859,23.438,20.996,9.766,-8.301,0
135272.579,20.020,28.320,23.438,24.414,-5.371,0
135272.583,23.926,33.203,28.320,33.691,71.777,0
135272.587,16.602,32.227,33.203,25.391,65.430,0
135272.591,9.766,28.809,39.551,18.555,-6.836,0
135272.595,27.832,30.273,28.320,16.602,-20.508,0
135272.599,37.598,32.715,16.113,22.949,34.180,0
135272.603,16.113,38.086,25.391,23.438,45.898,0
135272.606,10.742,44.922,31.250,6.836,-21.973,0
135272.610,25.879,45.410,28.320,8.301,-27.344,0
135272.614,32.715,39.551,27.832,21.973,37.598,0
135272.618,29.297,38.574,26.855,20.996,30.762,0
135272.620,23.438,38.574,14.648,16.602,-14.160,0
135272.624,22.461,37.598,5.859,8.301,-13.184,0
135272.628,40.039,36.621,20.508,14.648,54.688,0
135272.632,30.273,37.109,31.250,25.879,93.750,0
135272.636,8.789,38.574,31.250,11.230,39.062,0
135272.640,3.418,37.598,31.738,4.395,-21.484,0
135272.644,16.113,36.133,32.715,16.602,-12.207,0
135272.648,29.297,39.551,31.738,24.902,50.781,0
135272.652,17.090,41.016,28.320,21.973,36.133,0
135272.655,13.672,38.086,27.344,12.207,-43.945,0
135272.659,27.344,36.133,28.320,18.555,-25.879,0
135272.663,37.598,37.109,35.156,40.039,68.848,0
135272.665,33.691,37.109,36.133,41.992,89.844,0
135272.669,18.066,36.133,33.203,26.855,4.395,0
135272.673,24.414,39.062,33.203,25.879,-18.555,0
135272.677,41.992,39.551,30.273,35.645,54.688,0
135272.681,40.527,37.109,29.785,33.691,80.566,0
135272.685,26.367,38.574,32.227,19.531,28.809,0
135272.689,29.785,40.039,31.738,13.672,-19.043,0
135272.693,44.434,35.156,32.227,26.855,-6.348,0
135272.696,41.504,35.156,30.273,32.227,17.578,0
135272.700,37.109,39.062,30.273,20.996,35.156,0
135272.704,24.414,37.109,28.320,16.113,35.156,0
135272.708,23.438,35.645,20.508,24.414,28.809,0
135272.712,40.039,33.691,25.879,33.691,65.918,0
135272.716,31.738,34.668,37.109,30.273,54.199,0
135272.720,19.531,36.621,40.039,20.020,-16.113,0
135272.724,27.832,36.621,38.086,22.461,-31.250,0
135272.727,43.457,40.039,33.691,38.086,46.387,0
135272.731,40.527,38.574,31.738,37.598,59.570,0
135272.735,27.832,34.668,29.297,23.438,9.766,0
135272.739,25.391,31.250,30.762,19.043,5.859,0
135272.743,33.203,28.320,34.180,27.344,60.547,0
135272.747,33.691,29.785,30.762,32.227,97.656,0
135272.751,17.578,33.691,31.250,21.973,59.570,0
135272.755,11.230,34.668,31.250,14.160,-5.371,0
135272.755,26.367,33.203,27.344,30.762,22.949,0
135272.759,30.762,32.227,30.762,37.598,105.957,0
135272.763,17.578,28.809,33.203,18.555,61.523,0
135272.767,3.418,29.297,32.715,12.695,-25.391,0
135272.771,20.996,29.785,27.344,23.926,-33.203,0
135272.775,38.574,32.715,14.648,37.109,10.742,0
135272.779,29.297,33.203,20.020,29.297,21.484,0
135272.783,20.020,30.762,39.062,13.672,-62.012,0
135272.787,26.855,30.762,45.410,18.555,-60.547,0
135272.790,41.016,24.414,45.410,44.434,16.602,0
135272.794,41.504,24.414,44.922,53.223,40.039,0
135272.798,21.973,33.691,39.062,24.902,-3.418,0
135272.800,7.812,40.527,26.855,11.719,-23.438,0
135272.804,17.578,40.039,24.902,23.926,17.090,0
135272.808,17.578,36.621,27.344,25.391,36.621,0
135272.812,2.441,36.133,28.320,16.602,-13.184,0
135272.816,1.953,36.621,30.762,13.672,-3.418,0
135272.820,23.926,36.133,27.344,21.484,64.453,0
135272.824,34.180,34.180,26.367,30.273,57.617,0
135272.828,13.672,33.203,24.414,22.461,12.207,0
135272.832,6.836,30.762,22.461,6.348,-14.160,0
135272.835,23.926,27.344,25.879,13.184,1.465,0
135272.839,31.250,30.273,29.297,31.250,36.621,0
135272.843,26.855,34.180,30.273,29.297,52.734,0
135272.845,21.973,35.156,28.320,15.137,32.715,0
135272.849,18.066,33.203,31.250,17.090,6.348,0
135272.853,28.320,32.227,32.227,36.133,33.691,0
135272.857,30.273,31.738,29.297,34.180,67.383,0
135272.861,15.137,31.250,27.344,15.137,21.484,0
135272.865,10.254,34.180,24.902,10.742,-9.277,0
135272.869,19.043,32.715,24.902,24.902,38.086,0
135272.872,17.578,31.738,25.879,29.785,82.031,0
135272.876,6.836,30.762,26.367,18.066,1.953,0
135272.880,7.812,26.367,26.855,12.695,-53.711,0
135272.884,21.973,25.879,25.391,26.367,30.273,0
135272.888,29.785,27.832,27.832,36.621,79.590,0
135272.905,17.578,29.785,29.297,22.461,54.688,0
135272.909,3.418,31.738,22.461,7.324,-5.371,0
135272.913,16.113,32.227,18.555,12.207,5.371,0
135272.917,30.273,34.180,18.066,23.438,64.453,0
135272.921,35.156,29.297,19.043,15.137,46.387,0
135272.925,28.809,23.438,20.996,0.488,-26.855,0
135272.929,8.301,27.344,20.508,1.465,-38.086,0
135272.933,20.996,31.738,23.438,17.578,49.316,0
135272.936,29.785,32.715,26.367,22.949,79.590,0
135272.940,15.625,33.203,28.320,6.836,-12.695,0
135272.944,21.973,33.203,28.320,7.324,-29.297,0
135272.948,38.574,35.645,25.391,28.809,50.781,0
135272.952,39.062,40.039,27.344,36.133,68.848,0
135272.955,23.438,35.645,29.785,24.414,17.090,0
135272.959,20.020,31.250,28.320,18.066,-32.715,0
135272.963,32.227,32.715,29.297,25.879,-24.902,0
135272.967,39.551,30.273,27.344,32.227,29.297,0
135272.971,30.273,29.297,23.438,26.367,-0.977,0
135272.975,17.578,33.691,23.926,13.184,-57.129,0
135272.979,21.973,31.250,20.508,11.230,-4.883,0
135272.983,41.504,31.250,16.113,23.438,28.809,0
135272.987,31.738,32.227,15.137,12.695,-8.301,0
135272.991,7.324,31.738,17.090,-2.441,-31.738,2
135272.994,19.531,32.715,21.484,2.441,-26.367,0
135272.995,32.227,34.668,24.414,20.508,12.207,0
135272.999,31.250,37.109,27.344,26.855,62.012,0
135273.003,29.785,36.133,28.809,13.184,27.344,0
135273.007,35.156,38.086,25.879,7.324,-16.113,0
135273.011,44.434,35.156,26.855,19.043,14.160,0
135273.015,44.922,30.273,28.809,26.367,41.504,0
135273.019,23.438,31.250,24.414,17.090,45.898,0
135273.023,18.066,31.250,27.832,13.672,8.789,0
135273.027,58.594,35.156,32.715,23.926,-26.367,0
135273.030,75.684,37.109,35.156,33.691,41.992,0
135273.034,49.316,34.180,36.133,29.297,92.285,0
135273.038,25.879,37.598,33.203,18.555,28.320,0
135273.040,16.113,39.551,34.180,23.926,16.602,0
135273.044,37.109,35.645,34.668,40.527,65.918,0
135273.048,40.527,33.691,18.555,35.645,70.312,0
135273.052,29.785,33.203,14.648,18.555,32.227,0
135273.056,30.273,33.203,26.367,19.531,16.113,0
135273.060,25.879,31.738,28.320,31.250,30.273,0
135273.064,5.859,32.715,30.273,29.297,66.406,0
135273.068,2.930,37.598,33.691,16.113,26.367,0
135273.072,14.160,37.109,31.250,11.719,-21.973,0
135273.075,21.484,33.203,28.809,22.461,59.082,0
135273.079,36.621,32.227,27.344,29.297,92.285,0
135273.083,25.879,33.691,24.902,17.578,71.289,0
135273.085,16.602,29.785,22.949,5.859,43.457,0
135273.089,35.645,25.391,21.973,17.578,44.922,0
135273.093,54.199,31.250,22.461,34.180,108.398,0
135273.097,48.340,34.180,23.926,30.273,86.426,0
135273.101,31.738,30.273,25.391,18.555,13.672,0
135273.105,39.551,31.250,21.973,23.438,-2.441,0
135273.109,58.105,35.156,21.973,39.062,60.547,0
135273.113,44.922,30.762,23.926,41.016,88.867,0
135273.116,17.090,27.832,24.902,23.438,33.203,0
135273.120,21.484,34.180,28.320,15.625,6.348,0
135273.124,35.156,31.250,25.391,30.273,56.152,0
135273.128,26.855,26.855,22.949,37.598,101.074,0
135273.131,9.766,26.855,27.832,21.484,57.129,0
135273.135,14.648,24.902,28.809,12.207,26.367,0
135273.139,41.992,26.367,25.879,25.391,60.059,0
135273.143,37.598,26.855,26.855,33.691,72.754,0
135273.146,14.160,24.902,26.367,21.484,79.590,0
135273.150,14.648,22.461,21.973,10.254,9.277,0
135273.154,22.461,25.879,22.949,16.113,-38.086,0
135273.158,37.598,28.809,32.227,28.320,-8.301,0
135273.162,37.109,29.785,33.691,31.738,14.648,0
135273.166,23.926,31.250,29.297,22.949,-14.648,0
135273.170,28.809,30.273,27.344,24.414,0.977,0
135273.174,42.480,32.227,30.273,41.504,78.613,0
135273.177,41.504,33.203,38.086,44.922,62.988,0
135273.181,30.762,31.738,41.504,36.133,-16.113,0
135273.184,42.480,32.227,34.180,33.203,-56.641,0
135273.188,45.410,34.668,25.391,34.668,-22.949,0
135273.192,23.926,31.250,25.391,36.621,18.066,0
135273.196,14.648,28.809,27.832,23.926,-2.930,0
135273.200,12.695,29.297,25.391,13.672,-20.508,0
135273.204,18.555,31.738,22.949,21.484,-18.555,0
135273.208,30.762,34.668,24.902,31.738,26.367,0
135273.212,21.484,32.715,29.297,28.809,40.527,0
135273.216,6.836,33.203,26.367,12.695,-19.531,0
135273.220,17.578,31.738,20.996,13.672,-2.930,0
135273.220,29.785,26.855,20.020,29.297,79.102,0
135273.224,24.414,26.855,20.020,24.414,90.332,0
135273.228,15.625,30.273,21.973,7.812,21.484,0
135273.232,22.949,33.691,23.438,12.207,10.742,0
135273.236,30.273,28.809,27.832,30.273,41.016,0
135273.240,22.461,23.438,35.156,35.645,52.734,0
135273.244,12.695,27.832,34.180,22.461,-2.930,0
135273.248,13.184,30.762,28.320,17.578,-40.527,0
135273.251,30.273,33.203,15.625,30.273,40.039,0
135273.255,34.668,35.645,7.324,37.598,99.609,0
135273.259,18.066,38.086,23.926,28.320,82.520,0
135273.263,12.695,35.645,35.156,17.090,37.109,0
135273.280,20.020,31.738,29.297,21.973,45.410,0
135273.284,29.297,34.668,25.391,34.668,56.152,0
135273.288,23.438,35.645,23.926,29.297,42.969,0
135273.292,13.184,39.551,20.020,12.207,-10.254,0
135273.296,23.438,44.434,17.090,18.066,-2.930,0
135273.300,41.992,44.434,16.113,31.738,68.848,0
135273.304,34.668,41.016,16.113,27.344,86.426,0
135273.308,20.020,40.039,18.066,16.113,31.250,0
135273.311,24.414,39.551,19.531,13.672,-24.414,0
135273.315,38.086,41.016,21.973,29.297,5.859,0
135273.319,33.691,42.969,23.926,34.668,80.078,0
135273.323,15.625,40.039,25.879,19.531,83.008,0
135273.325,10.742,33.691,26.855,9.766,23.438,0
135273.329,27.832,31.250,27.344,22.949,29.297,0
135273.333,36.133,33.203,29.297,34.668,64.453,0
135273.337,16.113,30.762,30.273,24.902,20.020,0
135273.341,14.648,27.344,24.414,14.648,-50.781,0
135273.345,24.902,26.367,20.508,19.531,-61.035,0
135273.349,20.020,25.391,23.438,30.273,17.090,0
135273.353,20.020,28.809,26.367,24.414,66.406,0
135273.356,13.672,34.180,28.809,13.184,-17.578,0
135273.360,13.672,36.133,36.621,20.508,-47.363,0
135273.364,33.203,33.203,38.574,38.086,26.367,0
135273.368,30.273,30.273,33.691,37.598,43.457,0
135273.370,9.766,30.273,25.879,17.090,0.000,0
135273.374,14.160,29.785,17.090,12.695,-25.391,0
135273.378,34.180,30.273,17.090,25.879,24.414,0
135273.382,36.133,32.227,22.949,33.691,63.477,0
135273.386,31.250,33.203,24.902,23.926,13.184,0
135273.390,31.250,36.621,22.461,16.602,5.859,0
135273.394,27.344,39.062,25.879,28.320,41.016,0
135273.398,37.598,35.645,29.785,39.062,75.195,0
135273.401,24.902,32.227,30.762,28.320,62.500,0
135273.405,8.789,30.273,32.227,13.184,4.395,0
135273.409,23.438,27.344,32.227,20.996,11.719,0
135273.413,31.250,25.879,30.273,29.785,66.406,0
135273.417,15.625,23.926,30.762,19.043,63.965,2
135273.420,1.953,26.855,34.668,9.766,-4.883,0
135273.424,10.254,30.762,36.621,14.160,-4.883,0
135273.428,23.926,30.273,40.039,28.320,18.066,0
135273.432,25.391,30.762,42.480,31.250,4.395,0
135273.436,8.301,30.762,40.039,13.184,-10.742,0
135273.440,7.324,28.809,34.180,6.348,-36.133,0
135273.444,26.367,27.344,28.809,20.996,-11.719,0
135273.448,30.273,29.297,29.297,28.320,18.066,0
135273.452,18.555,33.203,30.273,18.066,13.672,0
135273.456,15.625,32.227,27.832,10.254,9.277,0
135273.460,38.086,30.273,23.438,18.555,61.035,0
135273.460,41.504,30.762,22.461,32.227,100.586,0
135273.464,19.531,35.156,22.461,26.367,71.289,0
135273.468,13.672,35.156,20.020,12.695,14.648,0
135273.472,25.879,31.738,26.367,21.484,6.348,0
135273.476,37.109,28.809,31.250,40.527,71.289,0
135273.480,35.645,27.344,27.832,39.062,82.031,0
135273.484,25.391,30.762,27.344,24.902,-2.930,0
135273.488,25.391,31.250,27.832,24.902,-37.109,0
135273.491,39.062,28.320,32.227,35.156,36.621,0
135273.495,34.668,29.785,32.227,33.203,86.426,0
135273.499,5.371,31.250,34.180,20.020,27.832,0
135273.503,2.441,25.391,40.039,14.160,-4.883,0
135273.505,22.949,21.484,38.086,23.926,34.180,0
135273.509,28.320,22.461,39.062,31.250,70.801,0
135273.513,15.137,24.414,41.016,19.043,72.754,0
135273.517,13.672,26.855,36.621,10.742,33.203,0
135273.521,30.762,30.762,32.227,25.879,40.039,0
135273.525,40.039,35.645,32.227,41.504,104.004,0
135273.529,37.109,35.156,30.762,30.273,63.965,0
135273.533,27.344,36.133,28.320,13.672,-9.766,0
135273.536,28.809,35.156,29.297,16.113,27.832,0
135273.540,42.969,33.203,27.344,29.785,75.684,0
135273.544,40.527,36.621,25.391,32.715,63.965,0
135273.548,30.273,40.039,25.391,19.043,34.668,0
135273.550,28.809,38.574,20.508,18.555,32.227,0
135273.554,38.086,33.203,21.973,38.574,69.824,0
135273.558,40.527,31.738,25.391,37.109,82.031,0
135273.562,21.973,28.320,27.344,15.625,29.297,0
135273.566,19.531,24.414,30.273,10.742,6.836,0
135273.570,33.203,25.879,33.203,24.414,27.344,0
135273.574,40.039,28.809,38.574,32.715,40.527,0
135273.578,25.391,29.297,36.621,23.438,31.250,0
135273.581,5.371,26.855,31.738,12.695,8.301,0
135273.585,21.484,31.738,29.297,23.926,16.602,0
135273.589,41.992,36.133,26.855,41.016,53.223,0
135273.593,25.391,31.250,24.902,34.180,41.504,0
135273.597,5.371,24.902,24.414,17.578,7.812,0
135273.601,17.578,26.855,28.809,18.066,0.000,0
135273.605,23.926,26.855,28.809,32.715,41.016,0
135273.609,8.789,24.902,26.855,30.273,56.152,0
135273.612,-1.953,27.832,32.227,13.672,-13.184,0
135273.616,4.883,28.320,38.086,13.184,-56.641,0
135273.620,17.090,25.879,33.691,22.949,-21.973,0
135273.624,19.531,25.879,26.367,25.391,5.859,0
135273.628,14.160,27.832,27.344,20.020,-20.508,0
135273.632,15.137,30.273,28.320,16.602,-31.250,0
135273.636,25.391,26.367,30.762,28.809,19.531,0
135273.640,30.762,27.344,31.738,40.039,75.195,0
135273.656,19.043,30.762,32.227,34.668,55.176,0
135273.660,11.230,26.855,36.621,25.391,0.977,0
135273.664,30.762,28.809,36.133,26.855,26.855,0
135273.668,38.086,29.785,34.180,38.086,91.797,0
135273.671,22.949,26.855,32.227,38.574,126.953,0
135273.675,10.742,26.855,29.785,24.414,40.039,0
135273.679,16.602,26.367,27.832,20.020,-3.418,0
135273.683,28.809,28.320,28.809,37.598,101.562,0
135273.687,20.020,35.156,29.785,36.621,99.121,0
135273.691,10.742,36.133,32.715,14.160,48.340,0
135273.695,3.418,31.738,36.621,7.812,10.742,0
135273.699,13.672,33.203,34.668,20.508,39.062,0
135273.700,28.320,35.156,33.691,31.738,115.723,0
135273.704,6.348,32.227,31.250,18.066,68.848,0
135273.708,3.906,31.738,29.297,6.836,20.508,0
135273.712,19.043,32.227,25.879,19.043,67.383,0
135273.716,22.949,32.715,23.926,26.855,107.910,0
135273.720,18.066,34.668,23.438,18.555,42.480,0
135273.724,14.648,32.715,19.043,6.348,-23.926,0
135273.728,14.648,32.227,25.391,18.555,30.762,0
135273.732,30.273,30.273,37.109,33.203,108.398,0
135273.735,33.203,30.762,39.551,25.879,71.289,0
135273.739,9.766,32.715,38.086,11.230,15.137,0
135273.743,11.719,29.785,35.645,11.719,26.855,0
135273.745,37.598,27.832,35.156,27.344,49.316,0
135273.749,41.504,31.250,31.738,31.738,45.898,0
135273.753,24.414,30.762,28.809,12.695,10.742,0
135273.757,18.555,26.367,28.809,8.789,-6.836,0
135273.761,27.344,26.367,27.832,30.762,16.113,0
135273.765,41.504,25.879,26.855,34.180,49.805,0
135273.769,32.715,27.344,20.996,23.438,11.719,0
135273.773,7.324,28.809,20.996,19.043,-39.551,0
135273.776,13.184,26.367,30.273,26.855,-9.766,0
135273.780,33.691,25.879,33.203,33.691,29.297,0
135273.784,22.949,27.832,30.273,24.414,24.414,0
135273.788,4.395,26.367,29.785,12.695,-1.953,0
135273.790,19.531,26.855,26.855,15.625,-15.625,0
135273.794,39.062,27.344,21.973,31.250,33.203,0
135273.798,35.156,25.879,20.996,29.297,62.500,0
135273.802,14.160,24.414,23.926,10.742,23.438,0
135273.806,19.531,24.902,24.414,12.207,1.953,0
135273.810,47.852,26.367,20.996,28.809,32.227,0
135273.814,41.016,21.484,19.043,26.855,60.059,0
135273.818,17.578,22.949,19.531,12.695,7.812,0
135273.822,13.184,25.391,23.438,7.812,-71.777,0
135273.825,32.227,24.414,24.414,21.484,-11.719,0
135273.829,40.527,27.832,23.438,34.180,27.344,0
135273.833,25.391,25.879,23.438,24.414,-38.574,0
135273.835,21.484,25.879,20.020,13.672,-71.289,0
135273.839,29.297,31.250,22.461,23.926,-55.176,0
135273.843,31.738,35.645,23.438,38.574,14.160,0
135273.847,24.902,34.180,18.066,31.738,62.500,0
135273.851,14.648,27.832,21.973,16.113,22.949,0
135273.855,27.832,26.855,26.855,19.531,18.555,1
135273.859,47.852,31.250,26.367,34.180,87.891,0
135273.863,38.574,32.715,30.273,32.715,105.469,0
135273.866,26.367,34.180,33.203,18.066,34.180,0
135273.870,19.531,38.086,32.715,18.066,17.578,0
135273.874,32.715,36.133,30.273,32.715,53.711,0
135273.878,40.039,33.203,31.250,37.598,68.359,0
135273.882,25.879,32.227,31.738,22.949,39.551,0
135273.885,23.438,32.227,31.738,17.578,10.742,0
135273.889,34.180,29.297,34.668,29.297,9.766,0
135273.893,41.016,26.855,32.715,34.180,33.203,0
135273.897,30.273,31.250,34.180,26.367,18.066,0
135273.901,25.879,34.668,34.668,17.578,-32.715,0
135273.905,37.598,31.738,31.738,22.461,-23.926,0
135273.909,41.992,26.367,31.250,35.645,39.551,0
135273.913,32.227,30.273,23.438,28.809,69.336,0
135273.917,19.531,33.691,17.578,9.766,46.875,0
135273.921,27.344,34.668,24.414,17.090,36.621,0
135273.925,39.062,35.645,31.738,33.203,64.941,0
135273.925,39.551,33.203,29.297,24.902,86.914,0
135273.929,23.926,36.133,28.320,15.625,44.434,0
135273.933,19.043,39.551,27.832,20.508,0.977,0
135273.937,35.156,38.086,22.949,34.668,21.484,0
135273.941,35.645,36.621,25.391,41.992,70.312,0
135273.945,18.555,32.715,32.227,29.297,-10.742,0
135273.949,16.113,28.320,33.691,19.043,-93.262,0
135273.953,32.715,30.273,32.227,28.809,-18.555,0
135273.957,38.086,33.691,30.762,40.527,105.957,0
135273.960,24.902,33.203,31.738,33.203,125.488,0
135273.964,16.113,34.668,32.715,19.531,45.410,0
135273.968,29.785,36.133,27.832,25.879,43.945,0
135273.970,40.039,32.227,24.902,40.039,109.375,0
135273.974,33.203,29.785,28.320,34.668,119.141,0
135273.978,25.879,30.273,26.855,23.438,37.598,0
135273.982,27.832,32.227,20.996,27.344,23.438,0
135273.986,41.016,29.785,21.484,43.945,79.102,0
135273.990,39.062,29.297,23.926,42.969,54.688,0
135273.994,32.715,31.250,23.438,26.855,-14.648,0
135273.998,33.203,28.809,23.438,21.484,-40.039,0
135274.002,29.297,26.367,21.484,31.250,17.578,0
135274.005,32.715,27.344,24.902,36.621,62.012,0
135274.009,21.973,32.227,31.250,20.996,18.066,0
135274.013,14.648,32.227,31.250,7.324,-7.812,0
135274.031,32.227,30.762,24.902,21.484,33.691,0
135274.035,40.527,31.250,18.066,32.715,86.426,0
135274.038,23.438,31.250,20.508,20.020,77.637,0
135274.042,14.160,31.250,21.973,7.812,17.578,0
135274.046,24.902,31.738,19.043,14.160,-6.348,0
135274.050,31.250,29.785,21.484,27.832,-1.465,0
135274.054,20.508,29.297,24.902,27.344,-2.930,0
135274.058,2.441,31.738,26.367,14.160,-24.902,0
135274.062,8.789,33.691,28.809,12.695,-22.949,0
135274.066,27.344,33.203,33.203,29.785,-0.977,0
135274.070,24.414,33.203,32.227,33.203,50.781,0
135274.074,10.742,31.738,29.297,16.602,41.504,0
135274.075,14.160,30.762,24.902,13.672,-33.691,0
135274.079,28.320,33.691,25.391,26.367,0.000,0
135274.083,37.598,33.203,29.297,29.785,73.242,0
135274.087,15.625,29.297,29.297,15.625,24.902,0
135274.091,-0.488,31.738,29.785,7.812,-56.152,0
135274.095,20.020,31.738,27.344,15.625,-32.715,0
135274.099,20.996,29.785,25.391,26.855,37.109,0
135274.103,10.254,32.227,29.785,23.926,39.551,0
135274.106,5.859,33.691,32.715,12.207,-20.508,0
135274.110,12.695,33.203,33.691,16.113,-21.973,0
135274.114,25.391,31.250,31.738,29.785,50.781,0
135274.118,21.484,31.738,26.855,26.367,82.520,0
135274.121,8.789,33.203,27.344,12.207,2.930,0
135274.125,10.254,36.133,28.809,7.324,-31.738,0
135274.129,28.320,35.156,27.832,23.926,49.316,0
135274.133,32.715,33.203,28.809,34.668,96.191,0
135274.137,17.090,32.715,31.250,20.020,35.156,0
135274.141,17.578,31.250,28.320,10.254,-32.715,0
135274.145,31.250,30.273,26.855,19.043,-7.812,0
135274.149,34.668,29.785,30.273,26.367,39.551,0
135274.153,21.484,29.297,31.250,19.043,2.930,0
135274.157,12.695,29.785,27.344,10.254,-49.316,0
135274.161,23.438,30.273,22.949,16.602,-20.508,0
135274.164,31.738,31.738,22.461,24.902,47.363,0
135274.165,20.996,32.715,22.949,17.090,24.902,0
135274.169,14.160,29.297,23.926,3.418,-35.156,0
135274.173,26.855,25.391,23.438,12.207,-33.691,0
135274.177,31.250,27.344,25.391,28.809,-12.207,0
135274.181,28.809,34.180,27.832,29.785,-3.906,0
135274.185,21.484,34.668,30.273,20.020,-28.809,0
135274.189,18.066,31.738,29.785,17.578,-69.336,0
135274.193,28.320,33.203,32.715,32.715,-20.508,0
135274.196,29.785,35.156,39.551,41.016,11.719,0
135274.200,15.625,34.180,36.621,25.879,21.973,0
135274.204,14.160,30.762,28.809,18.066,20.996,0
135274.208,30.762,26.855,21.973,30.273,34.668,0
135274.210,34.668,27.344,24.414,35.645,92.285,0
135274.214,22.949,27.832,29.297,26.367,85.938,0
135274.218,17.578,29.785,31.250,12.695,29.297,0
135274.222,28.809,33.691,31.250,20.020,38.574,0
135274.226,34.668,32.227,37.109,37.598,90.820,0
135274.230,24.414,33.203,34.668,37.109,84.961,0
135274.234,17.578,35.156,20.996,21.973,21.484,0
135274.238,27.344,33.691,24.902,20.020,-20.996,0
135274.241,41.504,31.738,33.691,32.227,34.180,0
135274.245,33.691,31.738,37.109,32.715,91.309,0
135274.249,9.277,30.273,39.062,17.090,21.973,0
135274.253,13.672,28.809,37.109,9.766,-33.203,0
135274.255,22.949,29.785,36.133,25.391,15.137,0
135274.259,12.695,28.809,34.668,35.156,58.594,0
135274.263,7.324,27.344,34.180,22.461,36.133,0
135274.267,7.324,27.344,36.621,15.137,-39.062,0
135274.271,27.344,29.785,36.133,28.809,-11.719,0
135274.275,37.109,34.668,34.180,40.039,68.848,0
135274.279,24.902,35.156,31.250,31.738,30.762,0
135274.283,20.020,32.227,22.949,20.020,-49.805,0
135274.287,27.832,30.762,22.949,20.508,-21.973,0
135274.290,37.109,32.227,24.414,32.227,60.547,0
135274.294,31.250,35.645,21.973,28.320,18.555,2
135274.298,19.043,31.738,24.414,11.719,-50.293,0
135274.302,20.996,28.809,24.902,13.184,-22.949,0
135274.305,31.250,32.227,26.367,33.691,20.508,0
135274.309,28.809,31.738,31.738,38.086,52.734,0
135274.313,14.160,32.715,26.855,20.996,28.809,0
135274.317,10.742,31.738,20.508,17.090,-27.832,0
135274.321,29.297,28.320,24.902,33.203,11.230,0
135274.325,37.109,29.785,26.855,41.992,62.988,0
135274.329,20.020,32.715,26.367,28.320,17.578,0
135274.333,10.742,33.203,26.855,17.090,-4.395,0
135274.337,29.297,32.227,25.391,27.344,34.668,0
135274.341,39.062,32.715,24.902,37.598,97.168,0
135274.344,24.414,31.250,22.461,27.832,82.031,0
135274.361,16.602,32.227,21.973,14.160,7.324,0
135274.365,25.391,34.180,22.461,17.090,-7.812,0
135274.369,39.062,31.738,22.461,28.320,62.012,0
135274.373,33.203,33.203,22.949,25.879,72.266,0
135274.376,19.043,36.133,22.949,13.672,-8.301,0
135274.380,23.926,28.809,29.785,16.113,-16.113,0
135274.384,34.180,28.320,29.785,27.344,36.133,0
135274.388,33.203,32.715,23.926,29.297,69.824,0
135274.392,20.020,30.762,23.926,17.090,36.133,0
135274.396,18.066,29.297,23.926,12.695,-12.695,0
135274.400,33.691,27.832,25.391,25.879,-0.977,0
135274.404,50.293,28.320,28.809,39.062,39.551,0
135274.405,40.039,31.738,28.320,33.203,13.672,0
135274.409,27.344,35.156,26.367,23.438,-27.344,0
135274.413,44.434,35.645,24.414,30.273,13.184,0
135274.417,51.758,33.203,27.344,46.387,76.660,0
135274.421,39.062,30.762,33.691,44.922,73.242,0
135274.425,25.391,27.344,34.180,31.250,-10.742,0
135274.429,24.414,26.855,32.715,31.250,-47.852,0
135274.433,33.203,27.832,31.250,41.992,29.297,0
135274.436,33.203,27.344,31.250,43.945,70.801,0
135274.440,16.602,25.879,31.250,26.367,-13.184,0
135274.444,7.812,28.809,27.344,18.066,-55.664,0
135274.448,19.531,30.762,26.367,27.832,34.180,0
135274.451,30.762,29.785,28.809,35.156,74.707,0
135274.455,34.180,30.762,29.785,26.855,27.344,0
135274.458,20.508,34.180,27.344,15.625,3.906,0
135274.462,20.996,37.598,24.902,29.785,71.289,0
135274.466,34.180,32.715,28.809,43.457,81.055,0
135274.470,24.414,30.273,31.250,29.785,13.184,0
135274.474,16.113,34.668,30.762,15.137,-28.320,0
135274.478,22.461,30.762,31.738,23.926,-31.250,0
135274.482,29.297,29.297,31.250,38.086,-0.977,0
135274.486,21.484,34.180,28.809,32.715,0.000,0
135274.490,14.648,30.273,27.344,18.066,-42.480,0
135274.494,21.484,26.367,26.367,21.484,-6.348,0
135274.496,35.645,33.203,25.879,37.109,58.594,0
135274.500,34.180,35.645,22.461,37.109,71.777,0
135274.504,19.043,32.715,22.461,22.949,31.250,0
135274.507,22.461,34.668,24.414,24.414,-11.230,0
135274.511,41.016,34.180,23.926,40.527,31.738,0
135274.515,48.828,34.180,27.832,47.852,58.594,0
135274.519,33.203,37.598,32.227,35.156,48.340,0
135274.523,28.809,35.156,31.250,29.297,26.855,0
135274.527,42.969,31.250,30.273,41.504,11.719,0
135274.531,48.340,29.785,32.715,50.781,45.898,0
135274.535,35.645,29.297,32.715,41.504,64.453,0
135274.539,20.996,30.273,26.855,25.879,26.855,0
135274.540,23.926,30.762,25.879,31.738,1.465,0
135274.544,37.109,29.785,28.320,45.410,58.105,0
135274.548,33.203,28.809,28.809,41.016,65.918,0
135274.552,19.531,29.297,30.762,28.809,24.414,0
135274.556,31.738,31.250,32.227,33.203,-11.719,0
135274.560,48.828,33.691,34.668,46.875,7.812,0
135274.564,40.039,36.133,36.621,45.898,62.988,0
135274.568,21.973,34.668,33.203,30.273,20.996,0
135274.571,18.066,31.250,23.926,20.020,-6.836,0
135274.575,29.785,28.809,18.066,27.832,53.223,0
135274.579,35.156,29.297,21.484,33.203,75.195,0
135274.583,22.949,30.762,22.949,20.020,51.270,0
135274.587,18.066,29.785,19.531,13.184,3.418,0
135274.590,29.297,29.785,17.578,23.438,18.555,0
135274.594,37.598,27.832,23.438,34.180,87.891,0
135274.598,25.391,26.855,28.809,24.902,57.617,0
135274.602,16.602,28.809,26.855,10.742,-14.160,0
135274.606,30.273,32.715,23.438,18.066,9.766,0
135274.610,41.992,30.762,22.949,32.715,83.008,0
135274.614,38.574,29.785,26.855,34.668,92.773,0
135274.618,27.832,34.180,28.320,22.949,37.109,0
135274.622,24.414,36.621,26.367,22.461,29.785,0
135274.626,36.133,32.715,24.902,39.551,54.199,0
135274.629,37.109,30.762,21.973,41.016,74.707,0
135274.630,20.020,34.180,21.973,25.879,39.551,0
135274.634,18.066,32.715,24.902,21.484,27.832,0
135274.638,34.668,30.273,25.391,32.715,55.664,0
135274.642,43.945,32.715,25.391,39.551,58.594,0
135274.646,32.227,34.668,26.367,29.297,61.035,0
135274.650,20.020,33.691,26.855,17.578,-16.113,0
135274.654,35.156,30.273,26.855,24.902,-32.227,0
135274.658,47.363,32.227,27.344,35.645,18.555,0
135274.662,22.949,35.645,26.855,26.855,46.387,0
135274.665,17.578,32.227,25.391,13.184,20.996,0
135274.669,26.855,28.320,24.902,13.184,5.859,0
135274.673,37.598,32.227,20.996,25.391,85.938,0
135274.675,35.645,35.156,22.461,23.438,88.379,0
135274.679,17.578,33.691,27.832,8.789,15.137,0
135274.683,23.438,32.715,27.344,8.301,-22.949,0
135274.687,39.062,32.227,23.926,23.438,18.555,0
135274.691,32.715,30.273,23.926,27.832,40.039,0
135274.695,18.555,28.320,23.926,12.695,-8.789,0
135274.699,19.043,27.344,24.414,7.324,-38.086,0
135274.703,26.367,28.320,24.414,20.996,-17.578,0
135274.706,29.297,29.785,23.438,29.785,52.734,0
135274.710,17.578,29.785,26.855,20.996,51.758,0
135274.714,9.277,27.832,24.902,7.324,-14.648,0
135274.718,17.578,26.855,21.973,12.207,22.949,0
135274.720,28.320,26.855,25.879,22.949,65.918,0
135274.724,19.043,25.879,27.832,17.090,28.809,0
135274.728,2.930,28.320,26.367,7.324,-5.371,0
135274.732,11.719,31.250,23.438,11.230,-2.441,0
135274.736,25.391,29.297,24.414,24.902,47.363,0
135274.740,19.043,30.762,24.414,21.973,79.102,0
135274.744,7.812,32.715,26.367,5.859,34.668,0
135274.748,11.719,32.715,31.738,7.812,-11.719,2
135274.751,19.531,32.227,30.762,24.902,40.039,0
135274.755,20.996,31.250,25.879,29.297,76.660,0
135274.759,21.484,28.809,26.855,21.484,23.438,0
135274.763,10.254,30.273,30.762,17.578,-3.906,0
135274.780,20.508,33.691,29.785,26.855,16.602,0
135274.784,38.086,34.668,25.391,33.691,70.312,0
135274.788,15.625,36.621,22.461,20.020,80.566,0
135274.792,-0.488,39.062,17.578,7.812,38.086,0
135274.796,16.602,35.645,18.066,16.602,44.922,0
135274.800,33.691,32.715,23.926,33.691,85.449,0
135274.804,27.832,33.203,25.879,30.762,66.406,0
135274.808,12.207,31.738,29.297,17.578,-3.906,0
135274.811,18.555,29.785,33.691,22.461,-24.902,0
135274.815,38.086,29.785,33.203,40.527,26.855,0
135274.819,34.668,33.203,30.273,40.527,67.871,0
135274.823,21.973,38.086,26.855,26.855,76.660,0
135274.827,25.391,37.598,25.391,19.531,44.922,0
135274.830,34.668,34.180,24.902,31.738,30.273,0
135274.834,34.180,29.297,25.391,39.551,58.594,0
135274.838,20.508,28.809,23.926,21.484,53.711,0
135274.842,11.719,29.785,20.996,12.695,16.602,0
135274.846,23.438,29.785,21.484,25.879,45.410,0
135274.850,33.691,26.855,27.344,33.691,103.516,0
135274.854,23.438,25.391,26.367,28.320,69.824,0
135274.858,15.137,25.879,20.020,18.066,-7.812,0
135274.862,27.832,26.367,19.043,19.043,-51.758,0
135274.866,38.086,26.367,19.043,31.738,21.973,0
135274.870,28.320,23.926,22.949,29.785,77.148,0
135274.870,15.625,23.438,27.344,18.066,23.438,0
135274.874,19.043,24.902,26.855,19.043,-5.859,0
135274.878,31.250,25.879,24.414,29.297,74.219,0
135274.882,31.738,28.320,25.391,30.273,79.590,0
135274.886,17.090,27.344,27.832,13.672,9.766,0
135274.890,9.277,29.785,24.902,4.395,33.691,0
135274.894,25.879,34.180,22.461,19.043,36.133,0
135274.898,35.645,32.715,25.391,34.180,40.039,0
135274.901,24.414,32.715,26.367,23.438,19.043,0
135274.905,15.137,33.691,23.926,8.789,-29.785,0
135274.909,28.320,34.180,22.461,20.508,9.277,0
135274.913,35.156,34.180,23.438,36.133,21.484,0
135274.916,17.578,29.297,24.902,29.785,-16.602,0
135274.920,21.973,28.320,27.832,17.090,-3.906,0
135274.924,24.902,29.297,29.785,21.484,26.367,0
135274.927,18.066,30.762,25.879,33.203,40.039,0
135274.931,20.508,28.320,27.832,32.715,21.973,0
135274.935,6.836,26.855,29.297,18.555,-5.859,0
135274.939,4.883,30.273,25.391,14.648,8.789,0
135274.943,25.391,28.809,21.973,27.832,46.875,0
135274.947,24.414,27.832,20.020,27.832,13.184,0
135274.951,7.812,29.297,20.508,13.672,-40.527,0
135274.955,9.766,29.785,21.484,11.230,-38.086,0
135274.959,24.414,28.809,20.508,26.367,41.016,0
135274.961,30.762,30.273,22.949,41.016,107.422,0
135274.964,19.531,30.762,26.855,36.133,86.426,0
135274.968,14.160,28.320,28.809,25.391,-6.348,0
135274.972,27.832,29.297,27.344,29.785,1.465,0
135274.976,36.621,25.391,27.344,42.969,58.594,0
135274.980,23.438,23.926,26.855,34.668,41.504,0
135274.984,13.184,30.762,25.879,18.066,-8.789,0
135274.988,26.367,34.668,28.809,25.879,-55.664,0
135274.992,40.039,35.645,30.762,40.527,0.977,0
135274.996,34.668,36.621,28.320,39.551,32.227,0
135275.000,21.973,35.645,23.926,25.391,-19.043,0
135275.004,21.973,32.227,21.973,20.508,-11.719,0
135275.006,36.621,32.227,22.949,33.691,26.855,0
135275.010,41.016,30.762,25.391,40.527,23.926,0
135275.014,25.879,31.738,29.785,27.344,-18.066,0
135275.017,20.020,33.691,30.273,19.531,-34.668,0
135275.021,38.574,33.691,28.320,31.250,12.695,0
135275.025,39.551,34.668,25.879,39.551,67.383,0
135275.029,19.531,32.715,28.320,25.879,39.062,0
135275.033,13.184,34.668,35.156,15.137,-10.254,0
135275.037,20.020,37.109,33.691,16.602,9.277,0
135275.041,24.902,33.691,30.273,25.391,79.102,0
135275.045,17.090,28.809,26.367,23.926,86.426,0
135275.049,5.859,28.809,23.438,8.301,39.062,0
135275.051,10.254,31.250,27.832,5.859,55.664,0
135275.055,28.320,31.738,30.762,20.996,89.844,0
135275.059,27.832,32.227,30.762,23.438,51.758,0
135275.063,3.418,31.738,24.902,5.859,-7.812,0
135275.066,5.371,30.762,24.902,3.906,-8.301,0
135275.070,27.344,29.297,31.250,20.996,24.414,0
135275.074,25.879,29.297,34.668,26.367,42.969,0
135275.078,12.207,31.738,35.645,18.066,13.184,0
135275.082,13.184,32.227,37.598,13.672,-21.484,0
135275.086,30.762,32.715,35.645,26.367,8.301,0
135275.090,38.086,29.785,29.297,36.133,79.590,0
135275.094,29.297,29.785,23.438,29.785,102.539,0
135275.095,22.461,30.762,21.484,18.066,62.988,0
135275.099,29.785,32.715,21.484,20.996,32.227,0
135275.103,41.992,35.645,24.902,36.621,70.801,0
135275.107,40.527,35.156,29.297,37.109,70.312,0
135275.111,28.809,35.645,29.297,25.391,-3.418,0
135275.115,34.668,39.551,29.785,25.879,-23.926,0
135275.119,52.734,40.039,32.715,41.504,4.883,0
135275.123,43.457,34.668,34.180,44.922,38.574,0
135275.127,20.020,30.273,33.203,27.832,10.742,0
135275.130,22.461,28.809,31.250,19.043,-20.996,0
135275.134,39.551,30.273,29.297,31.738,40.039,0
135275.138,40.527,32.715,28.809,39.062,120.117,0
135275.155,23.926,33.203,33.203,28.320,64.453,0
135275.159,18.066,33.691,32.715,20.996,-17.090,0
135275.163,32.227,34.180,26.855,27.344,13.184,0
135275.167,32.715,34.180,26.855,36.133,84.473,0
135275.171,21.973,33.691,31.738,31.250,74.219,0
135275.175,10.254,33.691,30.762,15.625,22.461,0
135275.179,11.230,35.156,24.414,17.090,-4.883,0
135275.183,30.273,30.273,19.531,31.738,59.570,0
135275.187,27.344,27.344,22.949,31.738,85.938,0
135275.190,12.695,30.762,28.320,17.090,-26.855,0
135275.194,21.484,33.203,25.879,17.090,-45.410,0
135275.198,38.086,32.715,25.391,33.203,54.199,0
135275.200,37.598,35.156,26.855,35.645,116.699,0
135275.204,24.414,38.574,25.879,20.996,64.941,0
135275.208,24.414,34.180,27.832,14.160,-10.254,0
135275.212,35.645,31.250,25.879,25.391,23.926,0
135275.216,43.457,34.180,22.949,35.156,95.215,0
135275.220,35.645,35.645,23.926,28.809,53.223,0
135275.224,24.902,34.180,19.531,16.602,-32.715,0
135275.228,32.715,31.250,19.043,20.996,13.672,0
135275.232,42.480,31.738,22.461,37.598,53.711,0
135275.235,33.691,35.156,22.461,35.156,29.785,0
135275.239,22.949,37.109,22.461,18.555,-15.625,1
135275.243,24.902,35.645,22.949,19.043,-15.137,0
135275.245,29.297,34.668,24.902,32.715,32.227,0
135275.249,26.367,32.715,27.832,31.738,6.348,0
135275.253,10.742,32.715,31.250,18.066,-22.949,0
135275.257,13.672,33.691,32.227,17.090,5.371,0
135275.261,31.250,27.832,31.250,30.273,45.898,0
135275.265,33.203,26.367,26.855,33.203,44.922,0
135275.269,21.973,33.203,23.926,23.438,14.648,0
135275.273,24.414,37.109,20.020,18.066,30.762,0
135275.276,37.109,34.668,18.066,27.832,35.645,0
135275.280,38.086,31.250,20.020,38.086,56.641,0
135275.284,23.926,30.273,20.020,27.832,53.711,0
135275.288,8.789,27.344,20.020,11.719,17.090,0
135275.290,20.996,28.809,23.926,21.484,28.809,0
135275.294,39.062,30.762,23.926,36.621,113.281,0
135275.298,34.180,26.367,24.902,32.227,102.051,0
135275.302,13.672,24.902,25.879,19.043,7.812,0
135275.306,14.160,29.297,25.879,20.508,-11.230,0
135275.310,37.109,29.297,27.832,34.668,28.809,0
135275.314,38.574,28.809,27.344,35.645,54.199,0
135275.318,19.043,29.785,22.461,19.043,1.465,0
135275.322,16.602,32.227,15.137,13.184,-30.273,0
135275.325,29.785,30.273,15.137,26.855,21.484,0
135275.329,29.785,28.809,20.020,34.180,60.059,0
135275.333,20.020,29.297,19.531,25.391,22.949,0
135275.335,22.949,29.297,18.066,21.973,-12.695,0
135275.339,28.320,32.227,20.996,27.344,18.066,0
135275.343,34.180,32.227,24.902,39.551,61.523,0
135275.347,23.438,32.715,26.367,36.621,31.738,0
135275.351,11.230,35.156,23.438,17.090,-27.344,0
135275.355,26.367,36.133,21.484,24.414,-41.992,0
135275.359,40.527,36.133,23.438,41.992,-20.996,0
135275.363,30.762,35.156,24.902,30.762,-4.883,0
135275.366,17.578,32.227,22.461,15.625,-41.016,0
135275.370,23.926,32.715,22.461,15.137,-52.246,0
135275.374,37.109,33.203,24.902,23.438,27.344,0
135275.378,31.250,32.227,25.879,24.414,62.988,0
135275.380,18.066,29.785,26.367,6.836,6.348,0
135275.384,12.207,30.273,26.855,0.488,-41.016,0
135275.388,25.391,28.809,24.902,19.043,-4.883,0
135275.392,31.250,26.367,23.438,28.320,47.363,0
135275.396,22.461,32.227,22.949,13.672,-0.977,0
135275.400,18.066,31.250,22.949,3.906,-62.988,0
135275.404,25.879,26.855,23.926,17.578,-47.852,0
135275.408,36.621,22.949,23.438,30.273,22.461,0
135275.411,23.926,20.508,26.367,21.484,54.688,0
135275.415,8.789,25.879,27.344,10.742,15.137,0
135275.419,20.508,28.809,24.414,13.672,-2.441,0
135275.423,34.668,29.297,25.391,27.344,59.570,0
135275.425,25.391,31.738,26.367,25.879,110.840,0
135275.429,11.719,28.809,25.879,10.254,51.270,0
135275.433,21.484,24.414,24.414,8.789,9.277,0
135275.437,38.086,23.926,26.367,19.531,18.066,0
135275.441,39.551,29.785,25.879,22.461,56.641,0
135275.445,25.879,33.203,22.461,5.859,18.066,0
135275.449,20.508,31.250,21.973,-0.488,-46.875,0
135275.453,37.109,29.785,19.531,19.043,-9.766,0
135275.456,39.551,29.785,20.508,31.250,52.734,0
135275.460,20.508,27.832,24.902,24.902,26.367,0
135275.464,11.719,28.320,26.855,17.090,-25.391,0
135275.468,22.949,30.273,29.297,28.320,-19.531,0
135275.472,35.156,25.391,27.832,43.457,39.551,0
135275.476,23.926,22.949,27.832,37.598,49.316,0
135275.480,6.836,24.414,33.691,23.926,-16.602,0
135275.484,19.043,25.391,31.738,22.461,-9.277,0
135275.488,33.203,27.832,27.344,33.691,90.820,0
135275.492,22.461,27.344,24.902,31.250,105.957,0
135275.496,7.324,25.879,23.438,13.672,-2.930,0
135275.500,12.207,23.926,22.949,9.766,-23.438,0
135275.503,29.297,23.438,21.973,22.949,49.805,0
135275.507,32.715,30.273,24.902,30.762,78.125,0
135275.511,19.531,34.668,26.367,19.531,31.250,0
135275.515,14.648,31.738,21.973,12.207,-1.465,0
135275.530,35.645,30.762,20.508,25.879,24.414,0
135275.534,41.016,30.273,21.973,32.715,41.504,0
135275.538,26.367,32.715,25.391,21.973,24.414,0
135275.542,23.438,34.180,28.809,15.625,-12.695,0
135275.546,28.809,31.250,28.320,25.391,-1.953,0
135275.550,33.203,29.785,26.367,38.574,29.297,0
135275.554,26.855,27.832,23.438,33.203,15.137,0
135275.558,15.137,21.973,22.461,20.996,31.738,0
135275.561,18.555,20.020,23.926,25.879,16.602,0
135275.565,34.180,20.996,24.902,39.551,26.367,0
135275.569,36.621,26.367,28.809,43.457,58.594,0
135275.573,23.438,31.738,27.832,30.273,43.457,0
135275.575,28.809,31.738,25.879,27.344,15.137,0
135275.579,37.109,30.762,28.320,38.086,10.742,0
135275.583,33.691,31.250,27.832,35.156,40.527,0
135275.587,27.832,32.227,30.273,21.484,50.781,0
135275.591,19.531,29.785,26.855,12.207,11.230,0
135275.595,29.297,32.715,22.949,20.996,1.465,0
135275.599,41.016,32.715,22.461,30.762,24.414,0
135275.602,29.297,31.738,24.414,15.625,9.766,0
135275.606,22.949,29.785,24.902,0.000,-62.988,0
135275.610,25.879,25.879,23.926,4.395,-68.359,0
135275.614,34.180,29.297,24.414,16.602,32.227,0
135275.618,33.691,29.297,22.461,17.090,54.199,0
135275.621,18.066,28.809,20.508,5.371,20.508,0
135275.624,20.020,31.738,24.414,4.395,12.695,0
135275.628,31.250,32.715,27.344,21.973,99.609,0
135275.632,31.250,35.645,28.320,26.855,118.164,0
135275.636,21.973,37.598,30.762,14.648,61.035,0
135275.640,22.461,31.738,31.738,14.648,31.250,0
135275.644,36.133,29.785,25.879,27.832,14.648,0
135275.648,41.016,29.297,21.973,33.203,48.340,0
135275.652,26.367,26.367,22.949,22.949,-20.020,0
135275.656,22.949,27.832,26.855,16.602,-81.055,0
135275.660,34.668,32.715,25.879,27.344,2.441,1
135275.664,36.133,35.156,24.902,38.574,78.125,0
135275.665,24.902,33.203,29.785,28.809,46.387,0
135275.669,14.160,32.715,31.250,13.184,-3.906,0
135275.673,22.949,31.738,30.273,22.461,15.625,0
135275.677,34.668,26.855,29.297,35.645,66.406,0
135275.681,26.855,26.855,28.809,23.926,84.961,0
135275.685,17.578,30.273,27.832,9.277,69.824,0
135275.689,16.113,28.809,25.879,10.742,58.105,0
135275.693,29.297,29.785,23.438,24.414,37.598,0
135275.696,34.668,30.762,23.438,29.785,22.461,0
135275.700,21.484,32.227,26.367,16.602,-24.902,0
135275.704,21.973,32.715,24.902,13.184,-64.941,0
135275.708,33.691,29.297,22.949,29.297,-11.719,0
135275.710,34.668,24.902,23.438,38.086,35.156,0
135275.714,21.484,25.391,24.414,27.344,47.852,0
135275.718,12.207,28.320,24.902,20.508,22.949,0
135275.722,19.531,31.250,26.367,29.297,7.812,0
135275.726,31.250,30.762,30.273,44.922,64.453,0
135275.730,23.926,29.785,30.762,39.551,72.266,0
135275.734,17.090,33.203,32.227,26.367,20.508,0
135275.738,19.043,32.715,31.250,29.297,11.719,0
135275.741,24.414,28.320,27.832,37.598,42.969,0
135275.745,24.902,28.809,32.715,34.668,83.496,0
135275.749,18.066,32.227,32.715,18.066,15.625,0
135275.753,20.020,31.250,24.414,18.066,-26.367,0
135275.755,24.414,30.762,24.902,32.715,43.945,0
135275.759,29.297,31.738,27.344,35.645,116.211,0
135275.763,23.926,32.715,26.855,24.414,68.848,0
135275.767,21.484,29.297,26.367,19.043,5.859,0
135275.771,36.621,29.785,27.344,30.762,24.414,0
135275.775,41.016,32.715,26.855,39.062,65.918,0
135275.779,30.273,34.180,27.344,26.367,47.363,0
135275.783,18.066,35.156,26.855,17.090,-21.973,0
135275.786,20.020,33.203,25.391,25.391,3.418,0
135275.790,31.250,34.668,29.297,37.109,68.848,0
135275.794,23.926,34.668,30.762,34.668,89.844,0
135275.798,13.672,28.809,28.320,21.484,36.133,0
135275.800,17.090,24.902,25.879,20.508,-2.930,0
135275.804,30.762,28.809,23.438,35.645,35.156,0
135275.808,31.738,32.227,22.949,39.551,49.805,0
135275.812,16.602,34.180,25.391,25.879,1.465,0
135275.816,20.996,33.691,24.902,20.508,-2.930,0
135275.820,35.645,33.203,22.949,33.203,30.762,0
135275.824,31.250,35.156,22.949,40.039,36.621,0
135275.828,18.066,32.715,24.414,24.902,20.508,0
135275.831,17.090,31.738,24.902,17.090,21.484,0
135275.835,30.273,33.203,24.902,28.809,64.941,0
135275.839,36.621,34.668,27.832,38.574,57.129,0
135275.843,31.738,38.086,30.762,31.738,4.883,0
135275.846,20.996,39.062,29.297,19.531,-25.391,0
135275.850,19.531,31.738,23.438,20.508,-36.621,0
135275.853,32.227,30.273,20.020,33.203,30.762,0
135275.857,31.250,30.273,22.949,32.227,58.594,0
135275.861,14.160,27.344,25.391,15.137,-10.254,0
135275.865,17.578,32.227,26.855,16.602,-2.441,0
135275.869,33.691,36.621,26.367,33.691,79.102,0
135275.873,30.762,36.133,27.344,31.738,91.797,0
135275.877,13.672,35.156,26.855,15.137,38.574,0
135275.881,13.672,33.691,23.438,10.742,7.812,0
135275.885,29.297,30.762,23.438,26.367,28.809,0
135275.889,30.762,25.879,24.902,37.598,75.195,0
135275.905,20.508,27.344,28.320,24.414,25.391,0
135275.909,16.602,28.809,29.297,11.230,-36.133,0
135275.913,26.855,24.414,28.809,20.508,1.465,0
135275.917,37.598,26.855,29.785,35.645,60.059,0
135275.921,28.809,32.227,27.344,25.391,58.594,0
135275.925,20.020,34.180,26.855,11.230,-9.766,0
135275.929,26.855,31.250,27.832,22.461,-7.812,0
135275.933,40.039,28.320,27.832,37.109,71.777,0
135275.936,33.203,27.344,28.320,32.715,63.965,0
135275.940,15.137,30.762,28.320,20.508,-2.930,0
135275.944,25.879,33.691,26.367,22.461,-11.719,0
135275.948,38.574,34.180,27.344,35.645,34.668,0
135275.950,36.621,37.598,29.297,35.156,83.984,0
135275.954,21.973,32.227,32.227,21.484,61.523,0
135275.958,20.508,26.367,31.250,18.555,10.742,0
135275.962,34.668,29.297,26.367,26.855,49.316,0
135275.966,34.180,31.250,31.250,36.133,76.172,0
135275.970,21.973,31.250,32.715,27.344,43.457,0
135275.974,12.695,29.785,30.273,9.766,18.066,0
135275.978,24.414,30.273,30.762,20.020,25.391,0
135275.981,32.715,30.273,29.297,34.180,75.195,0
135275.985,16.602,28.809,28.320,20.508,73.730,0
135275.989,5.371,29.297,28.320,7.812,21.973,0
135275.993,20.020,27.832,30.762,17.090,16.602,0
135275.995,32.715,22.461,32.227,27.832,83.984,0
135275.999,27.344,20.996,32.715,26.855,96.680,0
135276.003,18.555,23.438,30.273,16.113,44.922,0
135276.007,24.414,28.320,26.855,14.160,22.461,0
135276.011,37.109,30.273,29.785,29.785,42.969,0
135276.015,33.691,29.785,36.133,38.086,64.941,0
135276.019,19.531,29.785,36.133,27.832,45.898,0
135276.023,17.578,29.297,30.273,19.043,48.828,0
135276.027,32.715,29.785,25.879,29.785,65.918,0
135276.030,39.062,30.273,24.414,40.039,62.012,0
135276.034,27.344,31.738,24.902,30.762,46.875,0
135276.038,21.973,30.762,26.367,20.020,-7.324,0
135276.040,38.574,29.785,29.297,29.297,2.930,0
135276.044,43.945,32.715,28.809,39.551,88.867,0
135276.048,28.320,33.691,26.367,30.762,71.289,0
135276.052,25.391,29.297,25.879,18.066,2.930,0
135276.056,36.621,27.344,25.391,23.438,-4.395,0
135276.060,37.598,30.273,26.855,35.645,29.297,0
135276.064,27.344,33.203,30.273,37.598,59.082,0
135276.068,17.578,32.227,33.691,27.832,-7.324,0
135276.072,17.090,33.691,35.645,22.949,-46.875,0
135276.075,27.344,38.574,34.668,35.156,32.227,0
135276.079,27.344,39.062,31.738,39.062,80.566,0
135276.083,15.137,33.203,28.809,26.367,16.113,0
135276.085,5.859,32.227,23.926,17.578,-21.973,0
135276.089,15.137,30.762,20.508,25.391,27.344,0
135276.093,26.367,27.832,25.391,36.133,79.590,2
135276.097,16.113,28.809,29.785,30.762,38.086,0
135276.101,6.836,29.785,27.344,18.555,-38.574,0
135276.105,24.414,33.691,25.879,23.438,-5.371,0
135276.109,36.621,34.180,27.832,34.180,46.387,0
135276.113,27.344,35.156,26.367,25.879,7.812,0
135276.116,16.602,34.668,25.391,14.160,-49.805,0
135276.120,21.973,30.273,27.344,20.508,-40.039,0
135276.124,36.621,31.738,25.879,31.738,41.992,0
135276.128,36.621,31.738,31.738,35.156,43.457,0
135276.130,20.508,29.297,36.133,25.879,-22.461,0
135276.134,20.996,29.785,30.762,19.043,-41.504,0
135276.138,38.086,32.227,28.809,33.203,11.719,0
135276.142,37.598,36.133,28.809,42.969,84.961,0
135276.146,25.391,32.715,28.320,27.832,51.758,0
135276.150,21.484,25.391,28.320,16.602,-14.648,0
135276.154,33.691,29.785,27.344,29.785,3.906,0
135276.158,42.480,37.109,28.809,43.457,32.715,0
135276.161,27.832,38.574,24.902,29.785,29.785,0
135276.165,19.531,37.598,21.973,16.113,15.625,0
135276.169,30.762,39.062,25.391,20.996,-2.441,0
135276.173,43.945,39.062,23.926,33.691,20.508,0
135276.177,37.598,36.621,26.855,31.738,38.086,0
135276.180,26.367,37.109,27.832,17.090,15.137,0
135276.184,30.273,33.203,24.414,16.113,-12.695,0
135276.188,41.504,32.715,24.902,32.715,39.062,0
135276.192,38.086,34.180,23.926,35.645,76.660,0
135276.196,23.438,33.691,27.832,21.973,41.016,0
135276.200,23.438,33.691,27.344,15.625,14.160,0
135276.204,39.062,29.785,23.438,28.320,5.859,0
135276.208,42.480,28.320,25.879,36.621,34.668,0
135276.212,27.344,29.785,25.391,26.855,38.574,0
135276.216,21.484,29.297,23.438,20.996,2.441,0
135276.220,35.645,31.738,21.973,27.832,8.301,0
135276.235,43.457,32.715,23.438,39.551,62.012,0
135276.239,23.438,29.785,25.879,26.367,39.551,0
135276.243,11.719,30.762,25.391,7.812,-35.645,0
135276.247,22.949,31.738,22.949,13.672,-49.805,0
135276.251,33.203,32.227,18.066,27.344,34.668,0
135276.255,27.344,30.273,19.531,22.949,53.711,0
135276.259,16.602,27.832,26.367,3.906,-45.410,0
135276.263,16.113,25.879,27.344,1.465,-37.109,0
135276.266,27.832,24.414,23.438,16.602,60.547,0
135276.270,23.926,26.855,23.438,19.043,112.793,0
135276.274,4.883,28.320,23.438,4.883,49.316,0
135276.278,7.324,28.320,21.484,2.930,-12.207,0
135276.280,21.973,26.367,20.508,20.508,44.922,0
135276.284,24.902,25.879,20.996,30.762,103.027,0
135276.288,16.113,29.785,23.926,22.461,75.195,0
135276.292,13.672,30.762,27.832,16.602,41.504,0
135276.296,22.949,27.832,30.273,23.926,81.055,0
135276.300,31.250,25.391,29.785,34.668,96.680,0
135276.304,28.809,28.320,30.273,33.203,49.805,0
135276.308,20.508,30.762,32.715,20.996,-4.883,0
135276.312,25.879,28.320,30.762,18.066,-37.598,0
135276.315,41.016,26.367,25.879,30.273,-32.227,0
135276.319,38.086,24.902,23.926,34.180,-22.949,0
135276.323,20.508,26.855,22.461,17.578,-5.859,0
135276.325,20.996,27.832,24.414,17.090,-42.480,0
135276.329,42.480,28.809,23.438,32.715,-33.691,0
135276.333,43.945,32.227,20.020,33.203,49.805,0
135276.337,28.809,30.762,18.555,17.578,40.527,0
135276.341,26.855,30.273,20.508,10.742,11.230,0
135276.345,39.551,33.203,24.414,24.902,36.621,0
135276.349,43.945,37.109,24.414,34.668,89.355,0
135276.353,26.855,39.062,26.855,24.902,84.473,0
135276.356,16.602,39.062,32.227,18.066,2.441,0
135276.360,29.297,37.598,32.227,26.855,-10.254,0
135276.364,37.598,34.180,25.879,34.668,64.941,0
135276.368,24.902,28.320,21.973,27.832,71.289,0
135276.370,16.113,25.391,20.508,12.695,7.324,0
135276.374,27.344,28.809,21.484,14.648,-3.418,0
135276.378,47.363,28.320,22.949,31.738,23.926,0
135276.382,49.316,26.855,21.973,32.715,32.227,0
135276.386,21.973,29.297,20.508,16.113,27.344,0
135276.390,20.020,28.320,22.461,18.066,14.160,0
135276.394,38.574,22.949,23.926,33.691,41.016,0
135276.398,36.621,22.949,24.414,34.668,82.520,0
135276.401,25.391,26.367,26.855,21.484,30.273,0
135276.405,28.809,27.344,25.879,13.184,-38.086,0
135276.409,38.574,30.762,23.438,23.438,4.883,0
135276.413,34.668,31.250,23.926,33.203,62.012,0
135276.415,20.508,31.250,24.414,25.391,54.199,0
135276.419,16.602,32.227,28.809,18.555,2.441,0
135276.423,27.344,28.809,30.762,27.832,21.484,0
135276.427,31.738,28.320,27.832,39.551,77.148,0
135276.431,22.461,29.785,26.367,35.645,82.031,0
135276.435,6.836,27.344,27.832,20.020,35.156,0
135276.439,10.254,24.902,31.250,17.090,-2.930,0
135276.443,27.344,25.391,30.273,31.738,39.062,0
135276.446,20.996,25.391,26.367,31.250,55.176,0
135276.450,6.836,22.949,26.367,14.648,-13.672,0
135276.454,8.789,24.902,22.949,12.695,-43.457,0
135276.458,19.043,28.320,20.996,27.344,7.812,0
135276.460,25.391,27.344,22.461,38.574,32.227,0
135276.464,13.184,28.809,20.996,26.855,1.953,0
135276.468,8.301,28.320,22.949,18.066,-13.184,0
135276.472,27.344,24.414,25.879,27.832,-5.371,0
135276.476,34.668,26.855,23.926,36.133,18.066,0
135276.480,24.902,26.367,24.414,31.738,16.113,0
135276.484,23.926,26.367,30.762,25.391,-19.043,0
135276.488,30.762,28.809,29.785,28.809,-23.438,0
135276.491,39.551,31.738,29.297,41.016,26.855,0
135276.495,36.621,36.621,33.203,43.945,77.148,0
135276.499,21.484,33.691,29.785,31.250,35.645,0
135276.503,24.414,28.320,26.367,27.832,-12.695,0
135276.505,40.039,30.762,27.832,41.504,42.969,0
135276.509,39.062,34.668,27.344,46.387,91.797,0
135276.513,17.578,32.227,30.273,31.250,22.949,0
135276.517,10.742,29.297,33.203,20.508,-47.363,0
135276.521,29.297,31.738,29.785,32.227,24.414,1
135276.525,40.039,34.668,31.738,41.016,84.473,0
135276.529,22.949,33.691,34.668,31.250,-4.395,0
135276.533,15.625,30.762,34.180,22.461,-78.125,0
135276.536,28.809,31.250,33.691,29.297,-13.184,0
135276.540,36.133,34.668,31.738,38.574,69.824,0
135276.544,31.250,34.668,31.738,34.180,60.059,0
135276.548,20.508,27.832,31.738,21.484,8.301,0
135276.550,23.926,24.902,27.832,22.461,50.293,0
135276.554,36.133,27.344,31.738,39.551,109.863,0
135276.558,28.320,27.344,33.691,40.039,82.031,0
135276.562,16.602,30.762,27.344,22.461,53.223,0
135276.566,18.066,31.250,28.320,19.043,20.020,0
135276.570,33.203,26.855,32.227,34.668,32.227,0
135276.574,36.621,28.320,33.691,41.016,39.551,0
135276.578,22.461,28.809,31.738,27.832,-13.184,0
135276.581,20.020,30.273,35.156,24.414,-25.391,0
135276.585,39.062,32.227,39.551,40.527,0.977,0
135276.589,45.898,31.738,37.598,49.805,58.594,0
135276.593,27.344,32.715,37.109,41.016,70.312,0
135276.595,21.484,28.320,31.250,28.809,17.090,0
135276.599,37.109,27.344,26.855,35.645,27.832,0
135276.603,39.062,28.320,26.367,46.875,83.984,0
135276.607,29.785,30.762,25.879,40.527,76.660,0
135276.611,18.555,31.738,26.855,23.438,18.555,0
135276.615,20.508,27.832,28.320,22.461,-25.879,0
135276.619,30.762,27.832,28.809,33.203,6.836,0
135276.623,25.391,28.809,29.297,31.250,40.527,0
135276.626,13.184,27.832,28.809,20.508,19.531,0
135276.630,6.836,23.438,27.832,12.207,-31.738,0
135276.634,21.973,25.391,30.273,24.902,-5.371,0
135276.638,28.809,30.762,29.297,36.621,47.363,0
135276.642,13.672,31.738,28.320,22.949,27.344,0
135276.645,10.254,32.715,29.297,11.230,-42.480,0
135276.649,26.855,32.227,29.785,21.484,-45.898,0
135276.653,37.109,30.762,26.367,31.738,70.801,0
135276.657,23.438,32.227,26.367,21.484,39.551,0
135276.661,19.531,33.691,32.715,10.254,-71.777,0
135276.665,29.297,31.250,35.156,19.043,-47.852,0
135276.669,33.691,27.344,31.738,27.344,31.738,0
135276.673,25.391,28.320,27.832,19.531,48.828,0
135276.677,14.160,32.715,28.809,9.277,15.137,0
135276.681,20.996,30.762,27.832,13.672,-17.090,0
135276.684,32.227,31.250,26.367,32.227,61.523,0
135276.701,25.879,33.203,25.391,33.691,104.980,0
135276.704,11.230,28.809,26.367,19.531,27.832,0
135276.708,14.160,24.902,28.809,18.555,-3.906,0
135276.712,33.691,27.832,28.809,34.180,1.953,0
135276.716,35.156,27.832,27.344,41.016,-0.977,0
135276.720,20.508,25.879,30.273,31.738,-70.801,0
135276.724,19.043,26.855,41.992,24.414,-77.148,0
135276.728,27.344,26.855,51.270,31.250,-13.672,0
135276.732,34.668,27.832,57.129,42.969,30.762,0
135276.736,27.832,30.762,62.500,36.621,46.387,0
135276.740,16.602,28.809,57.617,19.043,23.438,0
135276.744,24.902,25.879,51.270,20.020,5.859,0
135276.761,41.016,23.438,50.293,34.180,49.805,0
135276.765,34.668,27.344,50.293,30.273,62.012,0
135276.769,15.625,30.273,49.805,14.160,-10.254,0
135276.773,19.531,26.367,50.293,14.648,-70.312,0
135276.777,35.156,29.785,52.734,29.785,-2.930,0
135276.780,35.156,31.738,54.688,34.180,50.293,0
135276.784,20.508,26.855,55.664,24.414,-21.484,0
135276.788,21.973,25.391,55.664,21.973,-55.664,0
135276.792,39.062,28.320,56.152,31.250,-21.973,0
135276.796,40.527,26.367,55.664,38.086,9.277,0
135276.800,27.344,25.391,53.711,28.809,-0.977,0
135276.804,18.555,26.855,51.270,18.066,-1.953,0
135276.790,30.762,21.973,46.875,28.320,21.973,0
135276.794,40.527,21.484,48.828,40.039,51.758,0
135276.798,27.832,26.367,47.852,27.344,20.508,0
135276.802,19.531,28.809,42.969,12.207,-65.918,0
135276.806,26.367,30.762,40.039,15.137,-58.594,0
135276.810,30.762,32.715,36.621,28.320,16.602,0
135276.814,30.762,33.203,36.621,26.855,34.180,0
135276.818,17.090,35.645,38.574,10.254,5.371,0
135276.822,13.672,36.621,39.062,11.719,-12.207,0
135276.826,31.250,36.621,36.133,27.832,67.871,0
135276.829,35.645,32.227,35.156,33.691,122.070,0
135276.833,19.043,29.785,35.645,20.020,63.965,0
135276.835,12.695,29.297,40.039,14.160,-44.922,0
135276.839,32.227,27.832,41.504,33.691,-27.344,0
135276.843,37.109,33.691,39.551,41.992,39.062,0
135276.847,21.484,34.180,37.109,30.273,29.785,0
135276.851,17.578,33.203,34.180,21.484,-17.578,0
135276.855,28.320,34.180,34.668,30.273,-38.086,0
135276.859,40.039,35.156,38.574,43.945,56.641,0
135276.863,30.762,35.156,37.109,38.574,79.590,0
135276.866,13.184,33.203,34.180,20.996,-23.438,0
135276.870,28.320,33.203,34.668,25.879,-17.090,0
135276.874,44.434,33.691,34.180,39.062,59.082,0
135276.878,32.715,33.691,33.691,31.738,77.637,0
135276.880,23.926,33.691,30.762,19.043,22.949,0
135276.884,32.227,30.762,31.250,19.043,-25.879,0
135276.888,42.969,29.297,34.668,27.832,26.855,0
135276.892,39.551,29.297,38.086,34.180,90.332,0
135276.896,29.785,32.715,40.527,25.879,63.965,0
135276.900,27.832,33.691,41.016,16.602,13.672,0
135276.904,34.668,33.203,39.062,23.438,18.066,0
135276.908,41.992,33.691,36.621,29.297,38.574,0
135276.911,32.227,33.203,35.156,20.996,62.988,0
135276.915,24.414,32.227,36.133,16.113,24.414,0
135276.919,36.621,28.320,34.180,29.785,37.598,0
135276.923,39.551,29.297,35.645,44.434,110.352,0
135276.925,31.250,34.180,39.551,40.527,85.938,0
135276.929,22.461,34.668,40.039,27.344,19.043,0
135276.933,26.855,34.180,36.621,29.785,-12.207,0
135276.937,39.062,33.203,35.156,46.387,24.414,0
135276.941,34.180,34.668,35.645,46.387,29.785,0
135276.945,20.508,34.668,32.715,31.250,21.973,0
135276.949,20.996,32.715,31.738,26.367,3.906,0
135276.953,37.598,34.180,30.273,39.551,9.766,0
135276.957,49.316,33.203,31.738,49.316,83.496,0
135276.960,33.691,32.715,33.691,33.203,60.547,0
135276.964,24.902,35.645,30.273,20.996,21.484,0
135276.968,44.922,38.086,29.785,32.715,73.730,0
135276.970,51.270,39.062,33.203,42.969,105.957,0
135276.974,42.480,38.086,36.621,36.621,59.082,0
135276.978,30.273,34.668,31.250,20.020,15.625,0
135276.982,22.461,32.715,25.391,17.578,38.086,0
135276.986,30.762,34.668,21.973,28.809,72.754,0
135276.990,31.738,34.180,20.508,22.949,72.754,0
135276.994,11.719,33.203,21.484,4.883,17.578,0
135276.998,12.695,34.668,22.949,6.348,-0.977,0
135277.002,35.156,33.203,25.879,27.832,62.988,0
135277.005,35.645,31.738,27.344,29.785,90.332,1
135277.009,23.926,33.691,29.785,13.184,48.340,0
135277.013,24.414,32.715,29.297,8.301,17.578,0
135277.030,36.133,28.809,26.855,22.461,76.172,0
135277.034,34.180,27.832,26.855,31.738,101.562,0
135277.038,16.602,29.297,28.320,20.996,53.711,0
135277.042,12.207,31.738,29.297,12.695,20.508,0
135277.046,26.367,31.250,29.785,24.902,1.465,0
135277.050,35.156,32.715,31.738,41.016,12.695,0
135277.054,32.227,32.715,30.273,33.203,-0.977,0
135277.058,20.996,29.297,29.297,16.602,-17.578,0
135277.062,23.438,25.879,28.320,18.066,15.137,0
135277.065,39.551,24.414,26.367,32.715,82.520,0
135277.069,38.574,30.273,26.855,33.203,104.492,0
135277.073,26.855,34.180,29.785,21.484,71.777,0
135277.075,26.367,29.785,27.832,20.020,64.941,0
135277.079,39.551,28.809,26.855,34.668,63.477,0
135277.083,39.551,34.668,30.273,41.504,67.383,0
135277.087,23.926,35.156,31.250,25.879,37.598,0
135277.091,17.090,27.832,25.879,15.137,-14.160,0
135277.095,24.902,24.414,26.367,25.879,-9.277,0
135277.099,31.250,26.855,31.738,33.691,34.668,0
135277.103,23.438,24.902,34.180,24.902,45.410,0
135277.107,22.949,29.785,32.227,18.555,-11.719,0
135277.110,45.898,35.156,31.738,35.645,4.883,0
135277.114,41.016,27.832,41.016,47.852,89.355,0
135277.118,10.254,24.902,44.922,24.414,55.664,0
135277.120,1.465,23.926,44.434,6.348,-4.883,0
135277.124,11.230,20.508,47.363,16.113,-5.371,0
135277.128,25.879,18.555,50.781,36.133,41.504,0
135277.132,21.973,18.555,52.734,36.621,68.359,0
135277.136,7.812,20.996,50.293,20.996,11.719,0
135277.140,13.184,24.414,46.875,21.484,-21.973,0
135277.144,27.344,23.438,44.922,37.109,68.848,0
135277.148,26.855,23.438,44.434,41.504,120.605,0
135277.152,13.184,25.879,42.969,26.367,16.113,0
135277.155,9.766,22.949,41.992,21.484,-37.598,0
135277.159,20.996,19.043,41.992,35.645,39.062,0
135277.163,39.551,27.344,37.598,44.922,98.145,0
135277.166,29.297,36.621,31.738,24.902,56.152,0
135277.169,19.043,39.062,26.855,5.859,8.789,0
135277.173,35.645,41.504,21.973,15.137,20.996,0
135277.177,38.086,39.062,19.531,20.996,56.641,0
135277.181,21.973,35.156,19.531,15.137,66.895,0
135277.185,15.137,32.715,23.438,12.207,16.602,0
135277.189,26.367,32.715,21.973,20.508,-8.301,0
135277.193,38.574,32.715,23.926,34.180,44.434,0
135277.197,37.109,33.691,27.344,34.180,22.461,0
135277.201,27.344,35.156,25.391,22.461,-11.230,0
135277.205,30.762,33.203,24.414,21.973,20.020,0
135277.208,43.945,28.809,22.949,33.203,56.641,0
135277.210,45.410,26.367,21.973,39.062,104.980,0
135277.214,21.973,31.250,19.531,24.902,71.777,0
135277.218,12.695,32.715,18.555,16.113,33.691,0
135277.222,26.855,32.227,21.484,26.367,66.895,0
135277.226,34.180,32.715,25.879,32.715,122.070,0
135277.230,25.391,29.297,26.855,24.414,79.102,0
135277.234,16.113,28.809,26.367,14.648,13.672,0
135277.238,24.902,31.250,26.367,19.043,22.461,0
135277.241,34.668,29.785,22.461,30.273,35.645,0
135277.245,24.414,29.297,19.531,24.414,59.082,0
135277.249,10.254,22.949,20.996,9.277,23.438,0
135277.253,14.648,19.531,23.438,10.742,16.113,0
135277.255,31.250,26.367,24.902,28.320,58.594,0
135277.259,29.297,31.250,24.902,34.180,73.242,0
135277.263,11.230,28.809,27.832,22.461,12.695,0
135277.267,15.137,24.414,30.762,20.020,-21.973,0
135277.271,35.645,24.902,31.250,35.156,42.969,0
135277.275,39.551,24.902,29.785,41.992,66.406,0
135277.279,22.949,24.414,30.762,31.250,38.574,0
135277.283,17.090,24.414,28.320,19.043,-6.348,0
135277.287,33.691,23.438,24.902,26.367,20.508,0
135277.290,41.992,28.320,23.926,41.504,86.426,0
135277.294,31.738,29.297,27.344,35.645,62.500,0
135277.298,20.996,22.461,32.715,22.461,-1.953,0
135277.300,26.855,24.414,31.738,22.461,6.348,0
135277.304,42.969,24.902,31.738,35.156,83.008,0
135277.308,32.227,22.461,29.297,37.109,107.422,0
135277.312,13.184,25.391,26.367,17.090,39.551,0
135277.316,21.973,28.320,24.902,10.254,31.250,0
135277.320,38.086,30.273,24.902,28.320,90.820,0
135277.324,32.715,28.809,23.438,30.273,83.984,0
135277.328,18.555,27.344,21.484,13.672,28.320,0
135277.331,15.137,26.367,21.484,8.789,-9.766,0
135277.335,31.250,25.879,19.531,19.531,33.691,0
135277.339,37.109,26.855,21.484,26.367,93.262,0
135277.343,20.508,29.785,25.391,16.113,61.523,0
135277.346,13.672,26.855,23.438,10.254,7.812,0
135277.350,23.926,22.461,20.996,20.508,-4.883,0
135277.354,32.715,27.832,21.484,32.227,0.000,0
135277.358,28.809,31.250,23.438,27.344,20.508,0
135277.362,18.555,31.250,25.879,14.160,-24.902,0
135277.366,25.879,31.738,26.855,20.996,-51.758,0
135277.370,42.969,32.715,24.414,38.086,10.742,0
135277.374,39.062,30.762,22.949,35.645,65.918,0
135277.378,20.996,29.785,27.832,23.926,26.855,0
135277.382,21.484,27.832,32.227,28.809,-3.418,0
135277.386,35.156,26.367,32.227,45.410,32.715,0
135277.389,34.668,27.832,30.273,45.898,64.453,0
135277.405,20.996,25.391,26.855,29.785,22.461,0
135277.409,15.137,25.879,27.832,20.508,-49.316,0
135277.413,32.715,26.367,31.250,30.273,-17.090,0
135277.417,41.016,26.855,27.344,38.574,34.668,0
135277.421,20.020,27.832,28.809,26.855,56.641,0
135277.425,11.230,25.391,30.762,14.160,12.695,0
135277.429,26.367,25.391,24.902,20.020,14.648,2
135277.433,35.156,27.344,20.508,33.691,75.195,0
135277.437,26.855,30.762,20.020,31.250,47.363,0
135277.440,16.602,31.738,22.461,17.090,20.020,0
135277.444,20.996,31.250,22.461,17.578,28.320,0
135277.448,31.250,30.273,21.973,29.785,110.840,0
135277.450,30.273,30.762,22.461,28.809,139.160,0
135277.454,20.508,34.180,25.879,20.020,71.289,0
135277.458,21.973,37.109,28.809,18.555,48.340,0
135277.462,35.156,35.645,30.762,33.203,87.891,0
135277.466,40.039,35.645,31.250,38.574,117.188,0
135277.470,25.879,39.062,25.391,22.949,69.336,0
135277.474,20.020,35.156,21.973,15.137,-4.883,0
135277.478,36.133,31.250,24.414,27.344,-23.926,0
135277.481,42.480,32.227,24.902,36.133,0.000,0
135277.485,29.785,31.738,26.855,27.832,-9.277,0
135277.489,22.949,29.785,29.785,22.949,-9.766,0
135277.493,33.691,29.297,30.762,30.273,1.953,0
135277.495,45.410,32.227,26.855,36.621,20.996,0
135277.499,37.109,30.762,27.344,30.762,46.875,0
135277.503,24.414,27.832,27.832,16.602,9.766,0
135277.507,26.855,28.320,26.367,20.020,-23.438,0
135277.511,35.645,27.832,28.809,35.645,39.062,0
135277.515,32.227,24.902,28.809,31.738,84.473,0
135277.519,16.113,19.531,27.344,16.602,36.133,0
135277.523,15.625,23.926,24.902,12.695,0.977,0
135277.526,30.273,30.762,26.855,26.367,34.668,0
135277.530,36.133,30.273,26.855,34.668,84.473,0
135277.534,29.785,30.762,23.926,25.879,65.430,0
135277.538,28.809,30.762,21.973,17.578,10.254,0
135277.540,42.969,27.832,25.879,28.809,21.973,0
135277.544,51.270,28.809,31.250,44.922,68.359,0
135277.548,40.039,28.320,31.738,38.086,45.410,0
135277.552,26.367,25.879,31.250,25.391,-31.738,0
135277.556,28.809,30.273,31.250,29.785,-34.180,0
135277.560,40.527,30.762,30.762,41.016,31.738,0
135277.564,37.598,30.762,32.715,38.086,60.547,0
135277.568,20.508,32.227,33.203,22.949,25.391,0
135277.571,21.973,32.715,29.297,22.461,-41.504,0
135277.575,40.039,35.156,27.832,39.062,13.672,0
135277.579,42.969,36.621,29.785,42.480,65.918,0
135277.583,23.926,33.691,32.227,28.320,15.625,0
135277.585,18.066,32.715,32.715,24.414,-30.762,0
135277.589,36.621,34.180,29.785,39.062,-17.578,0
135277.593,39.551,32.715,25.391,48.340,59.570,0
135277.597,22.461,32.227,26.367,34.180,34.180,0
135277.601,17.090,29.785,30.273,25.879,-19.043,0
135277.605,28.320,25.879,32.715,36.621,25.391,0
135277.609,31.738,27.832,32.227,41.992,95.215,0
135277.613,19.531,24.902,31.250,32.715,100.586,0
135277.617,11.719,25.391,31.738,19.043,5.859,0
135277.620,17.578,28.320,28.809,19.531,5.859,0
135277.624,29.785,29.297,27.344,34.668,94.238,0
135277.628,26.367,30.273,32.227,33.203,99.121,0
135277.630,15.137,29.297,34.180,19.531,41.016,0
135277.634,17.578,27.344,31.250,21.484,42.480,0
135277.638,31.250,26.855,26.855,30.762,84.473,0
135277.642,34.668,28.320,24.902,27.344,92.773,0
135277.646,20.996,29.297,27.832,13.184,56.641,0
135277.650,8.789,26.367,27.832,7.324,5.371,0
135277.654,14.648,32.715,26.855,20.020,32.227,0
135277.658,27.832,36.621,28.320,33.203,96.191,0
135277.662,20.020,31.250,31.250,26.855,82.520,0
135277.666,11.719,29.297,32.227,15.137,22.461,0
135277.670,24.902,30.762,29.785,21.973,-7.324,0
135277.673,41.016,32.227,29.785,37.109,43.945,0
135277.675,30.273,31.738,33.203,28.320,50.293,0
135277.679,20.020,33.691,29.297,9.766,-10.742,0
135277.683,26.367,34.180,27.344,15.625,-11.719,0
135277.687,32.227,36.621,28.809,33.203,35.645,0
135277.691,31.250,40.527,26.855,30.273,47.363,0
135277.695,17.090,38.574,27.832,18.066,4.883,0
135277.699,14.648,36.621,25.879,15.137,-76.660,0
135277.703,27.344,36.621,26.367,21.973,-41.016,0
135277.707,28.809,37.109,31.738,26.367,37.598,0
135277.710,15.137,33.203,31.250,13.672,-13.184,0
135277.714,9.277,31.250,28.320,4.883,-60.547,0
135277.718,24.902,34.180,27.344,19.043,-10.254,0
135277.720,31.250,35.645,23.926,23.926,41.016,0
135277.724,19.043,36.621,19.531,13.184,8.301,0
135277.728,7.324,33.203,17.578,2.930,-18.555,0
135277.732,15.625,30.273,17.578,11.230,16.602,0
135277.736,29.297,30.762,21.484,26.855,64.941,0
135277.740,23.926,31.250,25.879,23.438,40.527,0
135277.744,13.672,31.250,26.367,13.184,-28.809,0
135277.748,17.578,29.297,24.902,13.184,-31.250,0
135277.751,31.738,26.855,24.902,28.320,44.922,0
135277.755,32.227,31.250,25.391,30.273,60.547,0
135277.759,14.160,35.156,24.414,12.695,9.766,0
135277.763,11.230,28.809,27.344,6.348,-20.996,0
135277.780,27.832,24.902,24.902,21.484,32.715,0
135277.784,34.668,28.809,19.531,29.785,91.797,0
135277.788,20.996,28.809,22.949,18.555,55.176,0
135277.792,13.184,26.855,23.926,2.930,1.465,0
135277.796,28.320,27.832,20.508,13.184,38.086,0
135277.800,35.156,29.297,21.973,29.297,47.363,0
135277.804,23.438,29.297,23.926,21.973,4.395,0
135277.808,13.672,25.391,23.438,11.230,-1.465,0
135277.811,18.555,24.414,23.438,15.625,30.762,0
135277.815,29.785,27.832,23.926,28.320,83.984,0
135277.819,26.855,31.738,27.832,28.320,98.145,0
135277.823,16.113,33.203,27.344,19.531,9.277,0
135277.825,15.625,28.320,20.996,18.555,-44.434,0
135277.829,28.320,27.832,15.625,30.762,20.996,0
135277.833,30.762,28.320,18.555,36.133,98.633,0
135277.837,28.320,30.273,26.855,23.438,67.871,0
135277.841,33.203,31.738,28.809,23.926,-13.184,0
135277.845,32.715,27.344,26.367,41.992,9.277,0
135277.849,30.762,27.344,30.273,46.875,81.055,0
135277.853,24.902,29.297,35.645,37.109,64.453,0
135277.856,22.949,26.367,35.645,28.809,-1.465,0
135277.860,36.133,29.785,32.227,36.621,3.418,0
135277.864,42.969,41.504,28.320,39.062,56.641,0
135277.868,29.297,46.387,27.344,26.367,36.621,0
135277.870,17.578,42.969,30.273,14.648,-5.859,0
135277.874,22.461,36.133,29.785,19.531,4.395,0
135277.878,37.598,32.227,28.320,38.574,32.227,0
135277.882,35.645,32.715,30.762,36.133,53.711,2
135277.886,24.414,33.203,33.203,18.555,-11.719,0
135277.890,26.855,30.762,31.250,19.043,-36.621,0
135277.894,34.180,32.227,28.320,31.250,84.961,0
135277.898,30.762,35.156,27.344,31.738,135.742,0
135277.902,21.484,32.715,28.809,20.020,21.484,0
135277.905,26.367,28.320,29.297,18.066,-7.812,0
135277.909,35.645,31.250,31.250,33.691,79.590,0
135277.913,39.551,36.621,35.156,42.480,100.098,0
135277.915,30.762,33.691,34.180,30.273,69.336,0
135277.919,22.949,37.109,28.809,17.578,4.883,0
135277.923,36.621,39.551,27.832,26.855,3.418,0
135277.927,48.828,32.715,28.320,45.898,39.551,0
135277.931,38.086,30.273,25.391,42.969,11.230,0
135277.935,24.902,31.250,24.902,30.762,-9.766,0
135277.939,33.203,29.297,27.344,37.109,-15.625,0
135277.943,43.945,28.320,30.273,52.246,0.488,0
135277.946,38.086,32.227,28.809,50.781,32.715,0
135277.950,23.438,33.203,27.832,32.227,12.207,0
135277.954,26.855,33.203,29.785,27.832,-7.812,0
135277.958,41.992,35.645,29.785,41.504,15.625,0
135277.960,43.457,31.738,28.320,44.922,55.664,0
135277.964,32.715,28.809,27.344,31.250,49.805,0
135277.968,27.832,31.738,23.926,22.461,5.371,0
135277.972,36.133,30.273,21.973,30.762,32.715,0
135277.976,47.363,30.273,22.949,39.551,77.637,0
135277.980,32.715,29.785,24.902,29.785,26.367,0
135277.984,13.672,29.785,25.879,17.578,-50.293,0
135277.988,25.879,32.715,23.438,23.926,-41.016,0
135277.992,39.551,32.227,21.484,39.062,24.902,0
135277.995,28.809,28.809,23.926,35.156,36.133,0
135277.999,14.160,28.809,27.344,17.578,12.207,0
135278.003,21.973,29.785,31.738,19.043,-3.418,0
135278.005,38.086,30.762,28.809,35.156,27.832,0
135278.009,32.227,32.227,27.344,35.645,66.406,0
135278.013,20.996,32.715,31.738,23.438,23.438,0
135278.017,24.414,33.691,31.738,23.438,-18.066,0
135278.021,32.227,26.367,29.785,34.180,27.344,0
135278.025,35.645,24.902,29.297,36.621,101.074,0
135278.029,23.926,25.879,26.367,25.391,37.598,0
135278.033,19.043,26.367,23.438,15.137,-43.945,0
135278.036,29.785,27.344,22.461,21.973,25.879,0
135278.040,38.574,27.344,25.879,32.715,87.402,0
135278.044,27.344,27.832,29.297,22.461,73.242,0
135278.048,14.160,27.344,24.414,9.277,21.484,0
135278.052,26.367,25.879,20.996,17.090,30.273,0
135278.056,31.738,24.902,22.461,27.832,84.473,0
135278.060,17.090,26.367,24.902,23.438,51.270,0
135278.064,9.766,25.879,24.414,13.184,11.719,0
135278.068,16.602,26.367,23.926,10.742,26.367,0
135278.072,31.738,30.273,23.926,24.414,34.180,0
135278.075,30.273,29.297,22.949,29.297,34.668,0
135278.079,14.648,25.879,23.438,15.137,-9.766,0
135278.083,14.648,26.367,24.414,11.230,-17.090,0
135278.087,28.320,23.926,28.320,23.926,22.949,0
135278.091,32.227,23.926,29.297,34.180,51.270,0
135278.095,16.602,26.367,26.855,25.879,41.016,0
135278.095,11.230,25.879,25.391,15.625,-10.254,0
135278.099,30.273,30.273,25.879,24.902,-5.859,0
135278.103,43.457,37.109,24.902,38.574,47.363,0
135278.107,28.809,36.621,23.926,30.762,72.754,0
135278.111,17.090,33.691,24.414,21.484,18.555,0
135278.115,28.809,31.738,24.902,30.762,13.184,0
135278.119,36.621,29.785,24.902,37.598,70.801,0
135278.123,27.344,27.832,25.879,30.762,81.543,0
135278.127,19.531,27.832,29.785,17.578,60.547,0
135278.130,20.508,28.809,27.344,13.672,20.020,0
135278.134,30.762,31.250,24.902,28.809,50.781,0
135278.138,28.809,30.762,23.438,32.227,89.844,0
135278.155,10.742,27.344,23.926,14.648,44.922,0
135278.159,8.301,25.879,23.438,10.742,-24.414,0
135278.163,27.344,25.391,25.391,25.879,-27.832,0
135278.167,26.855,25.879,27.832,34.180,27.832,0
135278.171,8.789,22.949,27.344,18.555,58.105,0
135278.175,1.465,24.414,27.832,8.301,-0.977,0
135278.179,12.695,28.320,28.320,20.020,-20.508,0
135278.183,27.832,29.785,28.809,28.809,36.621,0
135278.187,16.113,29.297,29.297,18.066,25.391,0
135278.190,0.977,30.762,29.297,6.348,-52.246,0
135278.194,11.719,29.297,27.344,13.672,-60.059,0
135278.198,26.855,26.855,28.809,30.273,20.020,0
135278.200,26.367,28.320,32.715,28.809,49.316,0
135278.204,16.113,31.738,31.738,13.184,-11.719,0
135278.208,15.625,34.668,27.832,9.277,-9.766,0
135278.212,31.738,30.762,28.320,27.344,58.594,0
135278.216,35.156,29.297,30.762,34.668,69.824,0
135278.220,21.973,34.668,28.320,17.578,17.090,0
135278.224,19.043,32.227,28.809,10.254,-10.742,0
135278.228,28.809,26.855,32.227,22.949,35.645,0
135278.231,33.691,26.367,28.809,34.668,72.266,0
135278.235,17.578,29.297,27.832,26.855,21.484,0
135278.239,8.301,30.762,33.691,16.602,-29.785,0
135278.243,23.926,33.203,34.180,25.391,-14.648,0
135278.245,34.180,30.273,33.203,38.574,30.273,0
135278.249,23.926,25.879,32.227,31.738,35.645,0
135278.253,12.207,27.344,32.715,17.090,-9.766,0
135278.257,18.066,27.832,35.156,20.996,-20.996,0
135278.261,27.832,28.320,33.203,41.016,23.438,0
135278.265,19.531,31.250,29.785,39.551,26.855,0
135278.269,9.277,32.227,28.320,21.484,-19.043,0
135278.273,18.066,28.320,32.715,21.973,-32.227,0
135278.276,33.203,24.902,37.109,35.645,18.066,0
135278.280,30.762,25.391,34.180,37.598,64.941,0
135278.284,17.578,27.832,33.691,22.461,24.414,0
135278.288,14.160,28.809,38.086,17.090,-42.969,0
135278.290,30.762,31.738,37.598,34.180,-21.484,0
135278.294,41.504,34.180,34.668,46.387,28.809,0
135278.298,27.832,31.250,34.668,37.109,33.203,0
135278.302,17.578,27.832,35.156,25.879,-8.789,0
135278.306,26.367,29.297,30.762,31.738,-7.812,0
135278.310,37.598,29.297,34.668,41.992,43.457,0
135278.314,27.832,28.320,38.086,34.180,48.828,2
135278.318,10.742,29.785,30.273,16.602,17.090,0
135278.321,17.090,27.832,27.832,13.184,-38.574,0
135278.325,36.621,26.855,28.320,25.879,-12.207,0
135278.329,37.109,31.738,29.297,28.809,72.754,0
135278.333,23.926,35.156,29.785,17.090,29.297,0
135278.335,22.949,32.715,28.809,13.672,-22.949,0
135278.339,40.527,33.691,29.785,26.855,31.250,0
135278.343,45.898,38.086,32.715,35.156,72.266,0
135278.347,25.391,37.109,33.691,21.973,54.199,0
135278.351,18.066,35.645,29.785,11.230,27.344,0
135278.355,32.715,36.133,25.391,23.926,18.555,0
135278.359,34.668,36.133,24.414,35.156,81.543,0
135278.363,20.508,35.645,25.879,24.414,75.684,0
135278.366,16.602,33.203,29.785,15.625,-15.137,0
135278.370,24.902,34.180,28.809,20.996,6.836,0
135278.374,33.691,36.133,27.832,34.180,55.664,0
135278.378,27.344,35.156,31.738,31.738,55.664,0
135278.380,13.184,37.109,30.762,13.184,9.766,0
135278.384,16.602,38.086,27.344,12.207,-23.438,0
135278.388,32.715,37.109,25.879,27.344,45.898,0
135278.392,31.250,35.156,27.832,29.785,92.285,0
135278.396,20.020,33.691,28.809,20.020,42.480,0
135278.400,22.461,33.203,25.879,15.137,5.371,0
135278.404,33.691,32.227,25.879,23.926,9.766,0
135278.408,41.504,35.156,26.367,32.715,23.926,0
135278.412,28.320,34.668,25.879,23.926,14.648,0
135278.415,10.742,33.203,26.367,15.137,8.301,0
135278.419,25.391,35.156,23.926,25.879,15.137,0
135278.423,38.574,30.762,20.996,41.992,61.523,0
135278.426,23.438,31.250,25.879,30.762,66.406,0
135278.430,13.184,34.180,30.762,14.160,11.230,0
135278.434,31.250,35.156,29.785,26.855,-20.508,0
135278.438,46.875,36.133,27.832,46.875,5.371,0
135278.441,39.062,34.180,26.855,42.480,54.199,0
135278.445,24.414,32.227,27.344,23.926,25.391,0
135278.449,25.879,35.156,28.809,22.461,-17.578,0
135278.453,33.203,38.574,26.855,32.227,41.016,0
135278.457,25.391,34.668,25.879,30.762,84.961,0
135278.461,12.695,31.738,27.832,19.531,41.992,0
135278.465,13.672,34.180,27.344,15.137,6.836,0
135278.469,23.438,34.668,25.391,25.879,54.199,0
135278.470,28.809,34.180,23.926,34.668,104.004,0
135278.474,22.461,37.109,26.367,28.320,60.059,0
135278.478,14.648,41.016,27.832,20.020,22.949,0
135278.482,23.926,36.621,23.926,26.367,38.086,0
135278.486,39.551,34.668,21.484,38.086,65.918,0
135278.490,32.715,37.598,24.902,30.273,60.547,0
135278.494,21.973,33.691,27.344,10.254,5.371,0
135278.498,28.320,33.203,25.391,10.742,15.137,0
135278.502,40.527,33.691,28.320,29.785,76.660,0
135278.505,36.133,34.180,31.250,32.227,62.500,0
135278.509,26.855,37.109,28.320,17.090,33.203,0
135278.513,32.715,35.645,24.414,17.090,30.762,0
135278.517,42.969,33.691,22.949,31.250,61.035,0
135278.521,41.016,38.086,23.438,32.715,77.148,0
135278.525,27.832,41.504,22.461,18.555,20.996,0
135278.529,19.043,33.203,19.043,9.277,-1.953,0
135278.533,32.715,32.227,20.020,21.973,44.434,0
135278.536,49.316,38.574,27.832,38.574,46.387,0
135278.540,30.762,38.086,28.320,26.855,12.695,0
135278.544,15.137,35.156,23.438,10.254,15.625,0
135278.548,30.762,33.203,28.320,21.973,31.738,0
135278.552,39.062,33.691,31.250,36.621,27.344,0
135278.556,32.227,31.738,31.250,29.785,23.926,0
135278.560,22.461,30.762,26.855,14.648,25.391,0
135278.575,24.902,31.250,22.461,15.137,-12.207,0
135278.579,39.062,28.809,22.949,32.227,26.855,0
135278.583,36.133,33.691,22.461,30.762,62.988,0
135278.587,25.391,36.621,27.344,17.090,8.789,0
135278.591,24.414,32.227,30.273,17.090,-26.855,0
135278.595,34.180,32.227,28.809,28.320,0.000,0
135278.599,36.133,32.227,30.762,36.621,39.062,0
135278.603,19.531,35.645,26.855,27.832,23.926,0
135278.607,14.648,37.109,24.902,18.066,-15.137,0
135278.610,21.484,31.738,26.855,24.414,-15.625,0
135278.614,23.438,28.809,28.320,31.738,32.227,0
135278.618,12.207,28.320,30.273,21.484,25.879,0
135278.620,2.930,27.832,30.762,8.789,-68.359,0
135278.624,9.277,27.344,29.297,9.766,-43.457,0
135278.628,20.996,26.367,26.855,17.578,32.227,0
135278.632,18.066,23.926,27.832,16.113,-3.906,0
135278.636,2.441,23.926,30.762,3.418,-54.199,0
135278.640,7.324,27.832,30.273,3.906,-70.801,0
135278.644,25.879,27.832,30.273,20.508,-2.441,0
135278.648,27.832,29.297,32.715,24.414,48.340,0
135278.652,15.137,30.762,34.668,9.277,-33.203,0
135278.655,12.695,32.227,34.668,6.348,-58.594,0
135278.659,27.344,33.203,28.320,23.438,7.812,0
135278.663,32.715,31.250,26.367,34.180,19.043,0
135278.665,25.391,34.180,35.156,27.832,2.441,0
135278.669,24.414,36.133,38.574,20.508,-19.531,0
135278.673,35.645,33.691,35.156,33.691,-3.418,0
135278.677,39.062,30.762,32.715,44.922,41.992,0
135278.681,27.832,30.762,34.668,34.668,12.207,0
135278.685,17.578,36.133,33.691,20.508,-29.297,0
135278.689,24.414,34.668,31.250,21.973,-3.418,0
135278.693,39.062,29.785,35.645,39.062,54.688,0
135278.697,32.227,33.691,40.039,31.738,35.156,0
135278.700,14.648,33.691,36.133,11.719,-32.227,0
135278.704,15.625,30.273,33.203,11.230,-27.832,0
135278.708,27.832,28.809,31.250,23.438,49.805,0
135278.711,30.273,26.855,30.273,25.879,118.652,0
135278.715,20.508,26.367,31.250,13.672,80.078,0
135278.719,19.043,30.273,30.762,12.207,9.766,0
135278.723,29.785,33.203,32.227,23.438,36.133,0
135278.727,29.785,31.250,33.203,30.762,80.566,0
135278.730,14.648,30.762,33.203,22.461,62.500,0
135278.734,4.395,30.273,31.250,11.230,17.090,0
135278.738,15.137,27.832,29.297,19.043,-5.859,0
135278.742,24.414,27.832,28.320,33.203,73.242,0
135278.746,17.578,28.809,26.855,30.273,135.254,0
135278.750,9.766,26.367,27.832,17.578,61.523,0
135278.754,18.066,27.832,27.344,19.531,-20.020,0
135278.756,35.645,29.297,32.227,38.574,18.555,0
135278.760,31.738,26.367,32.227,39.551,82.520,0
135278.764,19.531,30.273,31.738,23.926,21.484,0
135278.768,23.926,30.762,33.691,24.902,-15.137,0
135278.772,33.203,30.273,32.715,34.180,43.945,1
135278.775,32.715,33.691,31.738,38.574,98.633,0
135278.779,20.020,34.180,29.785,26.367,41.016,0
135278.783,16.113,32.715,29.785,16.113,-40.527,0
135278.787,30.273,34.668,28.809,29.297,25.391,0
135278.791,35.156,38.086,26.855,39.062,113.281,0
135278.795,20.508,36.133,30.273,30.762,62.500,0
135278.799,12.695,30.762,29.785,18.066,-10.254,0
135278.800,21.973,30.273,26.367,22.461,20.508,0
135278.804,33.203,33.691,29.297,38.574,82.031,0
135278.808,25.879,33.203,33.691,33.203,58.105,0
135278.812,16.602,34.180,35.645,17.578,3.418,0
135278.816,24.902,36.133,33.203,22.461,13.672,0
135278.820,34.668,33.203,31.250,37.598,67.871,0
135278.824,27.344,29.297,32.227,34.668,46.387,0
135278.828,16.602,28.320,33.203,16.602,-36.133,0
135278.832,20.020,26.855,33.203,15.625,-41.504,0
135278.835,33.691,25.879,33.691,30.762,23.438,0
135278.839,37.109,22.461,32.715,36.133,66.895,0
135278.843,19.531,23.438,27.344,23.438,25.391,0
135278.846,16.113,27.832,25.391,15.137,-10.742,0
135278.850,32.227,32.227,26.855,27.832,16.113,0
135278.854,39.551,30.762,25.391,35.156,53.223,0
135278.858,27.344,27.344,24.414,22.949,72.754,0
135278.862,15.625,26.855,23.438,11.230,27.832,0
135278.865,25.879,27.344,26.367,14.648,5.859,0
135278.869,39.551,29.785,27.832,30.273,42.969,0
135278.873,32.227,31.738,27.344,35.156,50.781,0
135278.877,18.066,31.250,27.344,20.508,6.348,0
135278.881,22.949,26.367,28.809,20.508,-8.789,0
135278.885,36.133,26.367,27.344,33.691,52.734,0
135278.889,34.668,25.391,23.926,36.133,66.895,0
135278.905,20.020,24.414,23.438,22.461,17.090,0
135278.909,18.555,26.855,22.461,17.578,-27.832,0
135278.913,32.715,25.879,22.461,31.250,35.645,0
135278.917,35.156,28.320,23.438,37.109,106.445,0
135278.921,20.508,30.762,25.879,20.508,58.594,0
135278.925,19.531,30.273,26.855,7.812,19.043,0
135278.929,32.227,30.762,25.391,18.555,50.293,0
135278.933,36.621,33.691,24.902,27.344,121.094,0
135278.937,23.926,30.273,26.855,20.020,108.887,0
135278.940,13.184,24.414,27.832,8.789,10.742,0
135278.944,25.879,22.949,27.344,17.090,8.789,0
135278.948,39.551,26.367,27.832,32.227,83.984,0
135278.951,32.227,29.785,29.297,30.762,102.539,0
135278.954,20.020,33.203,26.855,20.508,34.180,0
135278.958,21.973,35.645,21.484,19.531,-0.977,0
135278.962,35.645,33.691,20.996,35.645,69.824,0
135278.966,41.016,31.250,23.926,39.551,97.168,0
135278.970,26.367,30.273,24.414,21.973,47.363,0
135278.974,18.555,30.762,24.902,18.555,-2.930,0
135278.978,33.203,31.250,24.414,32.227,41.992,0
135278.982,40.039,29.297,23.926,37.598,73.730,0
135278.986,27.832,27.344,25.391,27.832,28.809,0
135278.990,19.043,28.809,24.414,15.625,4.883,0
135278.993,28.320,27.344,25.879,24.414,-0.488,0
135278.996,36.621,25.879,29.297,37.598,45.898,0
135279.000,26.855,29.297,29.785,28.320,59.082,0
135279.004,12.207,29.785,26.855,12.695,-23.438,0
135279.008,17.090,27.832,23.438,13.184,-33.203,0
135279.012,30.273,27.344,21.484,25.879,14.648,0
135279.015,29.785,25.879,24.902,26.855,-1.953,0
135279.019,13.672,21.973,30.273,20.020,-32.715,0
135279.023,20.020,25.391,30.762,26.367,-36.133,0
135279.027,35.645,36.621,21.973,29.785,2.441,0
135279.031,27.832,41.016,17.090,18.066,54.688,0
135279.035,12.207,34.668,21.973,5.859,19.531,0
135279.039,3.418,28.320,24.902,2.441,-31.250,0
135279.040,14.648,27.344,26.367,18.066,3.418,0
135279.044,27.832,26.855,30.273,33.203,25.879,0
135279.048,20.508,29.785,31.250,23.438,-4.883,0
135279.052,7.812,34.180,26.367,12.207,-39.551,0
135279.056,14.648,30.762,20.020,18.555,-27.832,0
135279.060,25.391,27.344,21.973,33.203,42.480,0
135279.064,16.602,27.832,25.879,26.367,46.387,0
135279.068,3.906,28.809,27.344,8.301,-31.738,0
135279.072,6.836,26.855,25.391,10.742,-54.688,0
135279.076,16.113,23.926,24.414,23.438,-23.438,0
135279.079,18.555,28.809,29.297,25.879,12.695,0
135279.083,9.766,30.762,29.297,10.742,1.465,0
135279.085,9.766,30.273,25.391,8.301,-2.441,0
135279.089,27.832,30.762,23.926,22.949,38.574,0
135279.093,38.086,29.785,25.391,29.297,39.551,0
135279.097,28.809,32.227,23.438,17.090,-10.254,0
135279.101,26.855,31.250,21.484,11.719,-45.898,0
135279.105,37.109,25.391,23.926,24.902,12.695,0
135279.109,38.086,30.762,24.414,34.180,81.055,0
135279.113,22.461,34.180,28.809,25.879,45.410,0
135279.116,7.812,29.297,31.250,14.160,-34.668,0
135279.120,13.672,29.297,27.344,18.555,1.465,0
135279.124,21.973,28.320,29.297,32.227,73.242,0
135279.128,13.184,27.832,28.320,27.832,47.852,0
135279.130,-3.906,29.297,25.391,7.324,-28.320,0
135279.134,3.906,31.250,25.391,7.324,-41.504,0
135279.138,25.391,31.738,27.832,28.320,15.137,0
135279.142,24.902,30.273,28.320,30.273,20.996,0
135279.146,13.184,28.809,25.879,13.184,1.465,0
135279.150,10.742,28.809,24.414,10.742,-20.020,0
135279.154,26.367,30.273,26.367,25.391,9.277,0
135279.158,38.086,32.715,28.809,31.738,51.270,0
135279.161,33.203,36.133,26.855,24.902,31.738,0
135279.165,26.855,34.180,28.320,19.531,-10.742,0
135279.169,36.133,34.668,26.367,27.344,-9.766,0
135279.173,40.527,35.156,23.438,36.621,42.969,0
135279.175,25.391,36.621,24.902,26.367,35.156,0
135279.179,17.090,38.086,24.902,13.184,-32.715,0
135279.183,28.809,33.691,24.414,19.531,-36.621,0
135279.187,40.039,32.715,25.879,34.180,33.203,0
135279.191,31.738,32.715,29.785,31.250,60.547,0
135279.195,16.113,30.273,32.227,15.137,26.855,0
135279.199,17.578,30.273,29.297,15.625,5.371,0
135279.203,31.250,27.344,24.414,30.762,41.504,0
135279.207,33.691,27.832,21.973,34.668,110.352,0
135279.210,21.484,32.227,24.414,21.484,70.801,0
135279.214,17.578,32.715,24.902,13.184,-3.418,0
135279.218,28.320,30.273,25.391,21.484,9.766,0
135279.222,40.039,28.809,28.320,30.273,59.082,0
135279.225,25.879,27.344,31.250,23.438,39.551,0
135279.229,3.906,27.832,28.320,11.230,-10.742,0
135279.233,20.020,31.738,23.438,19.531,31.250,0
135279.237,32.715,31.738,25.879,33.691,102.539,0
135279.241,21.484,29.785,31.250,27.344,70.801,0
135279.245,12.207,31.250,30.273,14.160,-38.086,0
135279.249,26.367,31.250,26.367,19.531,-37.109,0
135279.253,40.527,26.855,23.438,30.762,52.246,2
135279.257,33.691,29.297,21.484,28.320,87.402,0
135279.261,23.438,31.250,23.438,15.625,14.160,0
135279.265,29.297,27.344,23.926,13.672,-14.160,0
135279.280,45.410,27.832,24.414,28.320,45.410,0
135279.284,49.316,34.180,29.297,34.180,85.938,0
135279.288,36.621,35.156,32.227,23.926,27.832,0
135279.292,30.762,31.738,30.273,17.578,-29.785,0
135279.296,41.992,33.203,26.855,30.762,8.301,0
135279.300,41.504,35.156,27.832,39.062,43.457,0
135279.304,26.367,30.762,29.297,24.902,32.715,0
135279.308,18.555,28.320,28.320,16.602,22.949,0
135279.311,29.297,32.715,25.879,27.832,54.199,0
135279.315,41.504,34.668,24.902,36.621,69.336,0
135279.319,28.320,32.227,28.320,28.320,44.922,0
135279.323,11.719,32.227,29.785,16.602,10.742,0
135279.325,23.926,33.691,29.785,20.508,-0.977,0
135279.329,36.621,34.180,31.738,35.645,50.293,0
135279.333,36.133,35.645,30.273,35.645,75.195,0
135279.337,24.414,34.668,31.250,20.508,18.555,0
135279.341,20.020,32.715,30.273,15.625,-24.414,0
135279.345,32.227,31.738,26.855,26.367,-0.977,0
135279.349,32.715,32.227,26.367,29.785,36.133,0
135279.353,20.508,33.203,27.832,16.602,20.996,0
135279.357,17.578,33.691,32.227,9.277,-13.672,0
135279.360,31.250,33.203,31.738,22.461,-27.344,0
135279.364,39.551,33.691,28.809,32.227,16.113,0
135279.368,31.250,34.668,29.785,25.391,49.805,0
135279.370,20.996,33.691,30.273,15.137,13.672,0
135279.374,24.902,26.855,30.762,23.438,36.133,0
