timestamps,TP9,AF7,AF8,TP10,Right AUX,Marker0
134336.753,71.289,39.551,30.762,54.688,80.566,0
134336.757,19.531,39.551,29.785,26.855,7.324,0
134336.761,10.742,34.668,32.715,9.766,20.020,0
134336.765,66.895,33.691,34.668,28.320,85.449,0
134336.769,74.219,36.621,27.344,42.480,93.262,0
134336.773,28.809,39.062,34.668,27.344,40.527,0
134336.776,5.859,36.133,45.898,0.977,-6.348,0
134336.780,64.453,34.180,55.664,18.066,31.250,0
134336.784,85.938,40.039,51.758,49.316,69.824,0
134336.788,19.043,44.922,44.434,33.203,18.066,0
134336.792,-13.672,38.086,50.781,10.254,1.465,0
134336.796,41.992,32.227,53.223,32.227,46.875,0
134336.798,93.750,34.180,52.246,53.223,99.609,0
134336.802,55.664,40.039,50.293,40.527,108.887,0
134336.806,12.695,43.457,42.480,11.230,30.762,0
134336.810,22.949,42.480,36.133,14.160,-17.578,0
134336.814,69.336,37.598,37.109,43.457,77.637,0
134336.818,69.336,38.086,35.645,48.828,112.793,0
134336.821,37.109,41.992,23.926,21.973,30.273,0
134336.825,18.555,38.086,25.879,4.395,-4.883,0
134336.829,38.574,39.062,44.434,28.809,-0.488,0
134336.833,69.336,41.016,53.711,40.039,41.016,0
134336.837,41.992,46.387,55.664,20.996,35.645,2
134336.841,8.301,53.223,57.129,2.930,-35.645,0
134336.843,34.668,48.828,61.035,26.855,-4.883,0
134336.847,82.520,44.434,53.711,53.223,102.539,0
134336.851,50.781,45.898,45.898,25.391,63.477,0
134336.855,2.930,45.410,56.641,-5.859,-29.297,0
134336.859,28.320,42.969,56.641,10.742,-10.742,0
134336.863,66.895,44.922,28.809,55.664,45.898,0
134336.866,64.941,47.363,7.812,55.176,40.039,0
134336.870,7.324,43.945,28.809,14.160,-5.859,0
134336.874,4.883,42.969,53.223,7.812,-9.766,0
134336.878,62.988,38.574,54.199,27.344,53.223,0
134336.882,71.777,31.250,47.363,25.879,68.848,0
134336.886,16.602,32.227,49.316,9.766,14.160,0
134336.888,-3.906,34.180,46.875,1.465,-2.441,0
134336.892,56.641,28.809,38.574,12.207,17.090,0
134336.896,70.801,27.344,30.273,34.668,71.777,0
134336.900,17.578,32.227,30.273,20.996,37.109,0
134336.904,5.371,35.156,35.156,6.836,-19.043,0
134336.908,47.363,36.133,33.691,25.879,-9.277,0
134336.911,70.312,34.180,25.879,44.922,24.414,0
134336.915,49.805,32.715,28.320,25.879,12.695,0
134336.919,14.160,33.691,32.227,-2.441,-47.852,0
134336.923,35.156,35.645,23.438,6.348,-30.273,0
134336.927,73.730,34.668,0.977,36.621,32.227,0
134336.931,53.711,31.738,-8.789,42.480,61.035,0
134336.933,4.395,32.227,13.672,12.207,22.949,0
134336.937,7.324,34.180,37.598,-7.324,0.000,0
134336.941,67.383,31.250,58.594,21.973,15.137,0
134336.945,75.684,28.809,62.012,37.598,49.805,0
134336.949,20.996,28.320,52.734,9.766,38.086,0
134336.953,1.465,30.762,48.340,-1.465,-2.441,0
134336.957,39.551,27.344,48.340,30.273,29.297,0
134336.960,74.219,17.578,39.062,44.434,73.730,0
134336.964,43.945,29.297,20.996,26.367,51.270,0
134336.968,0.000,43.457,20.508,-1.465,-27.832,0
134336.972,30.273,30.762,35.645,8.301,-44.922,0
134336.976,70.801,24.902,39.551,49.316,28.809,0
134336.978,41.016,40.039,38.574,38.086,66.406,0
134336.982,-9.277,46.875,35.156,2.930,22.461,0
134336.986,23.926,40.039,27.832,10.742,-21.484,0
134336.990,68.359,37.109,27.344,43.457,27.344,0
134336.994,50.293,36.621,32.715,52.734,73.730,0
134336.998,6.836,37.598,43.945,30.273,1.953,0
134337.002,6.348,38.574,45.898,18.066,-54.688,0
134337.005,70.312,44.434,50.293,43.945,46.875,0
134337.009,85.449,49.316,53.223,60.059,131.348,0
134337.013,27.832,40.527,42.969,27.832,38.086,0
134337.017,4.395,36.133,40.527,6.836,-23.438,0
134337.021,48.340,33.691,41.504,28.320,18.555,0
134337.038,81.055,29.297,38.574,58.594,66.895,0
134337.042,49.805,28.809,30.273,43.945,48.828,0
134337.046,16.113,31.738,25.391,22.949,-33.691,0
134337.050,29.297,30.762,38.086,41.016,-33.691,0
134337.054,62.500,30.273,37.598,62.988,52.734,0
134337.058,51.758,38.574,29.297,60.547,72.754,0
134337.062,8.789,39.551,41.504,25.391,31.250,0
134337.066,18.066,38.086,43.945,23.926,20.020,0
134337.070,65.430,40.527,46.875,61.035,61.035,0
134337.074,65.918,35.645,58.105,45.898,92.285,0
134337.077,6.348,31.738,59.570,14.160,48.340,0
134337.081,-6.348,34.668,52.734,9.277,-26.855,0
134337.083,46.875,39.062,43.457,36.133,-5.371,0
134337.087,70.312,38.574,42.480,62.500,44.434,0
134337.091,30.762,40.527,45.898,33.203,40.527,0
134337.095,5.859,40.039,39.062,1.465,3.418,0
134337.099,35.645,35.645,33.691,24.414,16.602,0
134337.103,88.379,36.133,31.738,66.895,95.703,0
134337.107,59.082,36.621,36.621,43.457,90.820,0
134337.111,-20.508,38.574,44.434,-2.441,22.949,0
134337.115,-2.930,40.527,36.133,6.836,14.160,0
134337.119,56.641,36.133,23.926,35.156,70.312,0
134337.123,67.871,34.180,30.273,42.480,77.148,0
134337.126,25.391,25.391,44.922,16.113,6.348,0
134337.128,15.137,21.484,55.664,24.902,-24.902,0
134337.132,58.105,39.551,47.852,57.617,41.016,0
134337.136,56.641,54.199,27.344,54.688,78.125,0
134337.140,6.836,55.664,35.156,22.461,21.973,0
134337.144,-2.441,52.734,54.688,2.930,-51.270,0
134337.148,46.387,48.340,52.246,30.762,-38.574,0
134337.152,69.824,45.898,45.898,51.758,37.598,0
134337.156,26.855,39.551,52.734,33.691,29.785,0
134337.160,0.977,34.668,56.641,11.230,-49.316,0
134337.164,38.574,35.156,46.875,21.973,-29.297,0
134337.167,62.012,33.203,39.551,58.105,58.594,0
134337.171,36.133,32.715,43.945,43.457,60.547,0
134337.173,-11.719,34.668,46.387,-0.488,-12.207,0
134337.177,10.742,38.574,35.156,10.254,3.906,0
134337.181,66.895,39.062,25.391,54.688,99.609,0
134337.185,54.199,40.039,32.227,51.758,108.398,0
134337.189,11.230,39.062,36.133,10.742,6.348,0
134337.193,19.043,37.598,37.598,3.418,-41.992,0
134337.197,69.336,41.504,38.086,45.410,8.301,0
134337.201,58.594,45.410,36.621,61.523,57.617,0
134337.204,12.207,44.922,37.598,25.879,18.555,0
134337.208,-0.488,39.062,37.598,13.184,-20.508,0
134337.212,43.945,39.551,30.762,38.086,81.055,0
134337.216,66.406,41.016,26.367,55.176,138.672,0
134337.233,25.879,38.574,32.715,33.203,57.617,0
134337.237,-5.859,37.598,41.992,7.324,6.348,0
134337.241,23.438,41.992,41.992,29.297,59.570,0
134337.245,65.918,45.410,41.992,67.383,105.469,0
134337.249,59.570,40.039,47.852,60.059,120.117,0
134337.253,15.625,35.645,46.387,14.160,31.738,0
134337.257,8.789,36.621,41.504,4.883,-13.672,0
134337.260,57.129,40.527,37.598,35.645,51.758,0
134337.264,59.570,42.969,35.645,34.180,42.480,0
134337.268,11.719,41.504,32.227,11.719,-13.184,0
134337.272,8.789,41.992,26.367,9.766,-36.133,0
134337.276,37.598,45.410,23.926,39.062,-13.672,0
134337.263,49.316,43.457,28.320,58.594,69.336,0
134337.267,15.625,38.574,34.180,33.203,59.082,0
134337.271,-6.348,39.062,47.363,6.836,-25.391,0
134337.275,40.527,37.109,58.594,46.387,10.254,0
134337.279,83.008,32.715,53.223,54.688,93.262,0
134337.283,34.668,44.434,45.410,12.695,97.656,0
134337.287,-8.789,51.270,41.016,-4.395,35.156,0
134337.290,29.785,50.293,39.062,20.020,29.297,0
134337.294,62.500,49.316,44.434,59.570,91.309,0
134337.298,58.594,45.410,49.316,44.922,109.375,0
134337.302,6.348,41.504,46.875,21.484,26.367,0
134337.306,-0.488,43.457,40.527,25.391,-21.973,0
134337.310,47.852,41.504,34.180,48.340,62.500,0
134337.314,53.711,38.086,39.062,59.570,137.207,0
134337.318,21.973,40.527,48.828,30.273,69.336,0
134337.322,6.348,36.621,49.316,14.648,17.090,0
134337.326,63.477,30.762,32.715,38.574,82.031,0
134337.330,80.566,37.598,19.043,53.711,113.281,0
134337.333,26.367,45.898,32.715,20.996,59.570,0
134337.337,5.371,45.898,44.434,-9.766,-27.344,1
134337.341,28.320,47.363,41.016,31.738,-0.977,0
134337.345,62.012,46.387,37.598,67.383,75.684,0
134337.349,34.180,41.016,35.156,27.344,63.965,0
134337.353,-3.418,37.598,35.645,-5.371,-3.906,0
134337.353,31.738,37.109,38.086,8.301,8.301,0
134337.357,59.570,34.180,37.598,38.574,107.422,0
134337.361,33.203,34.668,37.109,38.574,99.121,0
134337.365,13.184,41.016,35.156,8.301,3.418,0
134337.369,21.484,41.992,33.203,4.395,-25.391,0
134337.373,43.945,41.504,36.133,44.922,47.852,0
134337.377,47.363,44.434,33.691,53.223,67.383,0
134337.380,3.418,42.969,26.855,12.695,26.367,0
134337.384,1.465,38.574,30.762,-0.977,23.926,0
134337.388,48.828,37.598,35.645,38.086,56.641,0
134337.392,72.266,34.668,34.668,64.941,95.215,0
134337.396,34.668,38.086,29.785,27.832,57.617,0
134337.413,-8.789,48.340,18.555,-4.395,30.762,0
134337.417,29.297,41.504,22.461,23.438,42.969,0
134337.421,75.684,31.738,40.527,54.688,102.051,0
134337.425,44.922,40.039,47.363,42.969,104.004,0
134337.429,-10.254,54.688,43.945,5.371,43.457,0
134337.433,12.207,52.246,43.945,6.348,-11.230,0
134337.437,72.754,43.457,41.992,47.363,21.484,0
134337.440,61.035,47.363,39.551,47.852,82.031,0
134337.444,6.836,52.734,38.574,12.207,44.434,0
134337.448,6.348,48.828,33.691,7.812,-1.465,0
134337.452,73.730,41.016,32.227,47.363,7.324,0
134337.456,80.566,40.527,32.715,50.781,56.641,0
134337.458,12.695,41.504,36.621,16.602,12.695,0
134337.462,-2.930,42.969,40.039,20.508,-37.598,0
134337.466,31.250,38.574,37.109,34.180,34.668,0
134337.470,46.387,33.203,34.180,33.691,112.305,0
134337.474,29.785,32.715,34.180,22.461,63.477,0
134337.478,-6.348,34.668,35.645,0.000,-14.160,0
134337.482,27.832,36.133,36.133,13.672,1.953,0
134337.485,69.336,31.250,34.668,42.480,77.637,0
134337.489,35.156,34.180,38.086,29.297,62.500,0
134337.493,-7.812,41.992,40.527,1.465,-26.367,0
134337.497,14.648,43.457,40.527,15.625,-40.039,0
134337.501,72.266,41.016,38.574,49.805,21.973,0
134337.503,65.430,38.574,33.203,48.340,44.434,0
134337.507,21.484,36.133,28.809,15.625,1.465,0
134337.511,22.461,30.762,32.715,13.672,-10.254,0
134337.515,57.617,32.715,40.039,51.758,38.086,0
134337.519,55.664,42.969,39.062,60.547,88.379,0
134337.523,17.090,43.457,36.133,38.086,41.504,0
134337.527,10.742,38.574,35.156,15.137,-25.879,0
134337.531,43.945,38.086,30.762,17.578,9.277,0
134337.535,86.426,38.086,28.809,36.133,70.312,0
134337.539,43.457,38.086,35.645,21.973,46.875,0
134337.542,-5.371,37.598,39.551,-3.906,-4.883,0
134337.546,19.043,30.273,38.574,16.113,-2.441,0
134337.548,47.852,26.367,31.250,54.688,58.105,0
134337.552,41.992,22.949,27.344,48.340,112.793,0
134337.556,0.977,17.578,30.762,6.836,49.316,0
134337.560,17.578,27.344,33.203,4.395,3.906,0
134337.564,78.613,34.180,38.574,36.133,36.621,0
134337.568,70.312,34.180,40.527,47.363,53.223,0
134337.572,6.348,40.039,37.598,14.160,6.348,0
134337.576,-11.230,41.016,41.992,0.000,-40.527,0
134337.580,39.551,40.527,41.992,32.227,-22.949,0
134337.584,64.453,40.039,33.203,46.875,33.203,0
134337.587,23.438,39.551,34.180,35.156,37.109,0
134337.591,-10.742,41.016,35.645,4.883,-11.719,0
134337.593,18.066,40.527,29.297,7.812,-3.906,0
134337.597,64.453,34.668,26.855,31.250,69.824,0
134337.601,47.852,38.086,36.621,21.484,78.125,0
134337.605,0.000,43.457,48.828,-0.488,-14.160,0
134337.609,17.578,39.551,47.852,14.648,-26.367,0
134337.613,65.918,34.668,39.062,40.527,40.039,0
134337.616,48.828,31.250,33.203,27.344,45.410,0
134337.620,8.301,26.855,38.574,3.418,-31.250,0
134337.624,10.742,25.879,45.410,11.230,-71.289,0
134337.628,46.387,28.320,42.969,32.715,29.297,0
134337.632,63.965,29.785,41.504,54.688,91.797,0
134337.636,28.809,32.715,43.457,35.156,29.297,0
134337.638,12.207,36.621,37.598,2.930,-22.949,0
134337.642,50.293,30.762,32.227,28.320,37.598,0
134337.646,74.219,17.578,35.156,58.105,123.047,0
134337.650,32.715,20.508,43.457,35.156,52.246,0
134337.654,-4.883,37.109,49.316,7.324,-48.828,0
134337.658,43.945,39.062,45.898,20.508,-30.273,0
134337.661,88.867,34.668,41.504,48.828,26.855,0
134337.665,34.668,39.062,45.410,39.062,6.836,0
134337.669,-19.043,43.457,46.387,5.371,-31.250,0
134337.673,17.578,35.156,45.410,23.438,-2.930,0
134337.677,68.848,28.809,43.945,65.430,82.520,0
134337.681,53.711,27.344,41.992,49.316,83.984,0
134337.683,8.301,27.344,38.574,16.602,0.977,0
134337.687,2.930,21.973,36.133,20.020,5.859,0
134337.691,43.457,12.207,34.668,42.480,41.504,0
134337.695,55.664,22.949,33.203,50.293,94.727,0
134337.699,11.230,38.086,39.062,10.742,54.688,0
134337.703,-11.230,39.062,45.898,-11.230,-37.598,0
134337.707,23.438,33.203,39.551,17.578,-26.855,0
134337.710,57.129,32.715,34.180,49.316,50.293,0
134337.714,35.156,41.016,36.133,32.715,39.062,0
134337.718,2.441,43.457,37.598,8.789,-27.832,0
134337.722,27.832,42.480,38.086,30.762,23.926,0
134337.726,70.801,41.992,43.457,55.176,92.285,0
134337.729,39.551,40.527,40.527,33.203,114.258,0
134337.733,4.395,46.387,32.227,4.883,37.109,0
134337.736,17.578,52.246,37.109,11.719,19.043,0
134337.740,68.359,45.898,44.922,45.898,70.312,0
134337.744,65.918,42.480,41.504,46.875,85.449,0
134337.748,-0.977,43.945,34.668,9.277,-3.906,0
134337.752,2.441,44.434,38.086,5.859,-79.590,0
134337.756,69.824,46.875,41.504,34.668,8.301,0
134337.760,89.355,49.316,41.016,50.293,61.523,0
134337.764,27.832,49.316,41.504,26.367,13.672,0
134337.768,-8.301,45.898,42.969,1.465,-9.766,0
134337.772,27.344,45.898,38.574,13.672,41.504,0
134337.774,74.707,48.340,33.203,41.992,63.477,0
134337.778,53.223,41.992,41.992,34.668,28.320,0
134337.782,12.695,36.133,50.293,7.812,-36.133,0
134337.786,30.762,28.809,43.457,22.461,10.742,0
134337.790,65.430,25.391,41.504,60.059,93.262,0
134337.794,46.875,34.668,43.945,51.270,76.660,0
134337.798,-3.906,31.738,38.086,9.277,-5.859,2
134337.802,9.277,33.691,33.691,2.930,-10.254,0
134337.806,57.129,44.434,30.762,42.969,50.293,0
134337.810,48.340,36.621,30.762,53.223,70.312,0
134337.813,15.137,34.180,28.320,10.742,38.086,0
134337.817,6.836,33.691,22.949,-8.301,25.391,0
134337.833,31.738,24.902,28.809,18.555,42.969,0
134337.837,58.105,41.016,37.109,42.969,71.777,0
134337.841,37.109,54.199,44.434,37.109,53.711,0
134337.845,6.836,50.293,46.387,7.812,-3.418,0
134337.849,40.527,45.898,41.992,16.602,28.320,0
134337.853,76.172,44.434,36.133,43.457,83.984,0
134337.856,26.855,41.504,34.180,34.668,43.457,0
134337.860,-13.184,35.645,39.551,12.207,-31.250,0
134337.864,20.508,34.668,46.387,20.020,-33.203,0
134337.868,77.637,37.598,44.922,64.453,9.766,0
134337.872,77.148,41.504,43.457,57.617,24.902,0
134337.876,21.973,45.898,49.805,10.254,-9.766,0
134337.878,8.301,47.363,50.293,14.648,-46.875,0
134337.882,48.828,49.805,41.016,47.852,12.695,0
134337.886,53.711,48.828,35.645,42.480,70.312,0
134337.890,6.836,47.363,35.156,11.719,48.340,0
134337.894,-4.395,47.363,36.133,3.906,2.930,0
134337.898,54.688,46.387,33.691,29.297,12.695,0
134337.901,87.891,42.480,35.645,41.504,72.266,0
134337.905,22.949,42.969,41.016,15.137,46.875,0
134337.909,-15.625,44.922,41.016,-6.348,-49.316,0
134337.913,27.832,44.434,41.016,18.066,-28.809,0
134337.917,73.730,39.062,41.016,64.941,74.707,0
134337.921,70.801,34.668,43.457,47.852,41.992,0
134337.923,5.371,36.621,43.945,2.930,-20.020,0
134337.927,14.160,36.621,39.551,20.996,27.832,0
134337.931,75.684,33.691,33.203,46.387,88.379,0
134337.935,44.434,33.691,32.227,36.133,59.570,0
134337.939,0.977,44.434,37.109,11.719,-3.418,0
134337.943,13.672,52.734,41.992,10.254,-5.371,0
134337.947,60.547,44.434,41.504,52.734,55.664,0
134337.950,75.684,37.109,37.109,68.848,101.074,0
134337.954,12.695,46.875,38.574,22.461,26.855,0
134337.958,4.395,50.293,36.621,2.930,-4.395,0
134337.962,51.270,47.363,30.762,36.621,57.129,0
134337.966,63.477,44.434,37.598,62.012,98.633,0
134337.968,27.344,41.992,42.480,24.902,76.660,0
134337.972,-10.254,41.992,39.551,-12.695,12.207,0
134337.976,24.902,40.039,34.180,15.625,22.461,0
134337.980,83.008,42.969,29.785,47.363,75.195,0
134337.984,49.316,44.922,35.156,42.969,54.688,0
134337.988,-23.438,41.992,50.293,18.555,-5.371,0
134337.992,6.836,42.480,54.688,16.602,-4.395,0
134337.996,69.824,43.945,50.781,44.434,37.109,0
134337.999,69.336,41.992,52.734,41.992,83.008,0
134338.003,6.836,39.551,51.758,5.859,41.016,0
134338.007,-15.137,39.551,50.293,3.418,-2.441,0
134338.011,47.363,40.039,50.293,33.203,51.758,0
134338.015,65.430,37.109,44.434,44.434,72.266,0
134338.019,29.297,36.621,41.016,29.785,29.297,0
134338.023,6.836,37.598,45.898,16.113,28.809,0
134338.027,49.316,36.621,48.828,30.273,53.223,0
134338.031,78.613,41.992,47.363,45.410,86.426,0
134338.035,41.992,49.805,48.340,27.344,37.598,0
134338.038,16.113,46.875,50.293,8.301,-61.523,0
134338.042,32.227,41.016,45.898,20.020,-68.359,0
134338.046,59.570,40.039,41.016,45.410,5.371,0
134338.050,44.922,38.574,45.898,44.922,46.387,0
134338.054,6.348,42.969,52.734,14.160,-45.898,0
134338.058,9.277,41.504,50.293,9.277,-50.781,0
134338.059,64.453,35.156,40.527,44.922,43.945,0
134338.062,53.711,35.156,31.738,41.504,94.238,0
134338.066,6.348,36.133,36.621,11.719,16.602,0
134338.070,4.883,36.133,45.410,14.648,-56.641,0
134338.074,42.969,30.273,42.969,31.250,-15.625,0
134338.078,63.477,33.203,40.527,45.898,41.504,0
134338.082,23.926,39.062,41.992,17.578,11.719,0
134338.086,6.836,38.086,48.828,-5.371,-66.406,0
134338.090,39.062,41.504,54.688,26.855,-19.043,0
134338.094,65.430,41.504,51.758,52.734,61.035,0
134338.098,51.270,43.457,47.852,37.598,1.465,0
134338.102,12.695,44.434,40.039,27.344,-54.199,0
134338.103,30.273,38.574,32.715,41.504,-0.977,0
134338.107,67.383,28.320,38.574,55.176,74.219,0
134338.111,51.270,24.414,48.828,42.969,88.867,0
134338.115,4.883,40.039,55.176,17.090,14.160,0
134338.119,9.277,49.316,57.129,14.160,-16.602,0
134338.123,79.102,47.363,57.617,53.711,22.461,0
134338.127,70.312,52.734,59.570,70.312,21.973,0
134338.130,3.906,50.293,55.664,30.762,-43.945,0
134338.134,-3.906,40.039,50.293,20.020,-66.895,0
134338.138,54.688,39.551,50.293,42.969,-4.395,0
134338.142,82.520,41.504,40.527,60.547,60.547,0
134338.146,42.480,51.270,40.527,38.086,62.500,0
134338.163,4.883,55.664,50.293,7.812,2.441,0
134338.167,25.391,51.758,51.270,48.828,27.344,0
134338.171,61.523,53.223,50.781,77.148,115.723,0
134338.175,33.691,53.711,51.270,46.875,123.047,0
134338.179,-1.465,49.805,51.270,20.020,54.199,0
134338.183,18.066,48.340,49.316,28.320,-6.348,0
134338.187,64.941,44.434,35.645,60.547,48.828,0
134338.190,64.941,40.039,31.738,49.805,125.977,0
134338.194,-4.883,46.387,44.922,13.184,42.480,0
134338.198,3.906,48.340,52.246,17.578,-35.156,0
134338.202,71.289,48.828,48.340,50.293,41.504,0
134338.206,75.684,47.852,44.922,59.570,95.703,0
134338.208,27.344,50.781,41.504,30.762,30.273,0
134338.212,3.906,54.688,38.574,19.531,-31.250,0
134338.216,58.594,46.875,36.133,50.293,-25.879,0
134338.220,79.102,42.969,37.109,60.059,46.387,0
134338.224,44.922,46.387,38.086,36.621,71.777,0
134338.228,10.254,41.016,36.621,8.789,-15.137,0
134338.232,23.926,31.738,35.645,22.949,-47.363,0
134338.235,73.242,44.922,34.668,62.988,36.621,0
134338.239,54.688,57.129,38.574,54.688,43.945,0
134338.243,4.883,52.246,45.410,23.926,-38.574,0
134338.247,20.020,45.410,42.969,25.391,-15.137,0
134338.251,81.543,43.457,30.762,52.734,67.871,0
134338.253,74.219,44.434,30.762,65.430,65.918,0
134338.257,17.578,41.992,41.016,43.945,34.180,0
134338.261,24.902,42.969,40.527,35.156,24.414,0
134338.265,62.012,42.969,33.203,48.828,31.738,0
134338.269,71.777,41.504,32.227,50.781,66.406,0
134338.273,27.344,41.016,37.109,32.227,44.922,0
134338.276,6.348,41.504,31.250,17.578,-3.906,0
134338.280,41.016,40.527,27.832,51.270,33.203,0
134338.284,49.316,40.527,38.086,73.242,61.035,0
134338.288,15.625,38.086,45.898,31.738,25.879,0
134338.292,-22.949,33.203,47.852,-2.441,-16.113,2
134338.296,22.461,27.832,41.504,20.508,9.277,0
134338.298,80.566,27.832,40.039,54.199,82.031,0
134338.302,41.016,35.156,36.133,35.156,95.215,0
134338.306,-8.789,37.109,34.180,8.301,25.879,0
134338.310,13.672,35.645,35.156,15.625,-35.156,0
134338.314,68.359,38.086,30.273,31.250,48.828,0
134338.318,68.848,42.969,30.762,46.387,56.152,0
134338.322,8.789,41.016,33.691,35.156,0.977,0
134338.325,-12.207,38.086,39.551,7.812,-7.324,0
134338.329,38.086,41.992,42.480,23.438,-9.766,0
134338.333,69.824,39.551,40.527,46.875,64.941,0
134338.337,38.086,36.133,44.434,42.480,63.965,0
134338.341,7.324,44.434,46.387,22.461,-16.113,0
134338.343,39.551,39.062,40.527,25.879,17.578,0
134338.347,62.988,37.598,38.574,56.641,85.449,0
134338.351,41.992,54.688,46.875,46.387,39.062,0
134338.355,7.324,57.617,45.898,9.277,-24.414,0
134338.359,17.090,52.246,38.574,19.043,-15.137,0
134338.363,60.059,45.410,38.574,46.875,40.527,0
134338.366,51.758,39.551,40.527,39.551,57.129,0
134338.370,14.648,38.086,40.527,7.324,-19.043,0
134338.374,11.230,37.598,41.016,2.441,-82.520,0
134338.378,57.129,37.598,39.551,28.809,9.277,0
134338.382,60.059,36.621,41.992,41.504,98.145,0
134338.386,20.020,35.645,41.504,25.391,27.832,0
134338.388,17.090,33.203,30.762,12.207,-34.180,0
134338.392,56.641,36.133,34.668,40.039,20.508,0
134338.396,60.547,44.922,41.016,48.340,74.707,0
134338.400,16.602,47.852,39.551,12.207,27.344,0
134338.404,-1.465,44.434,42.480,-2.441,0.488,0
134338.408,30.762,34.668,42.969,16.113,34.180,0
134338.411,59.570,28.809,33.691,36.621,74.707,0
134338.415,28.809,32.227,29.297,20.996,45.898,0
134338.419,-15.137,34.180,32.227,-10.254,-51.758,0
134338.423,15.137,29.297,29.297,0.000,-59.082,0
134338.427,62.012,22.949,23.438,24.902,-19.043,0
134338.431,49.805,27.344,27.832,38.086,-2.930,0
134338.433,14.648,36.133,40.527,13.672,-38.086,0
134338.437,20.508,33.203,41.016,-0.977,-53.711,0
134338.441,49.316,32.715,32.715,38.574,15.137,0
134338.445,56.152,36.133,35.156,51.270,66.406,0
134338.449,19.531,34.180,42.480,10.254,16.602,0
134338.453,-19.531,25.879,40.527,-24.902,-31.250,0
134338.456,21.973,20.508,30.273,2.441,-6.348,0
134338.460,57.617,34.180,22.949,39.062,55.664,0
134338.464,24.414,47.852,29.785,24.902,56.152,0
134338.468,-8.301,45.410,39.062,-9.277,-0.977,0
134338.472,12.207,35.156,39.062,-4.883,11.230,0
134338.476,62.988,28.320,37.598,34.668,70.312,0
134338.480,48.340,32.715,31.250,30.762,91.309,0
134338.484,-16.113,36.133,30.273,-16.113,26.367,0
134338.488,9.766,34.668,36.133,-10.742,-33.203,0
134338.491,72.754,36.133,34.668,31.250,28.320,0
134338.495,68.359,35.156,32.227,40.039,60.547,0
134338.499,24.414,34.668,37.109,22.461,-4.395,0
134338.503,3.418,35.645,38.574,6.348,-22.949,0
134338.507,46.875,32.227,33.203,22.461,41.504,0
134338.511,65.918,26.855,37.109,41.504,77.148,0
134338.515,6.348,29.785,41.504,17.578,-9.277,0
134338.519,-18.555,32.227,40.527,-5.371,-70.801,0
134338.523,41.504,31.250,43.945,25.879,-5.371,0
134338.538,74.707,28.809,41.992,56.641,80.078,0
134338.542,41.992,31.250,35.645,49.316,77.148,0
134338.546,1.953,37.109,35.156,20.020,-1.953,0
134338.550,25.391,34.180,42.969,23.438,-6.836,0
134338.554,67.871,33.691,45.898,42.969,51.270,0
134338.558,68.359,41.504,46.387,36.133,16.113,0
134338.562,28.809,42.969,52.246,14.160,-22.949,0
134338.565,23.438,36.621,50.781,13.672,3.418,0
134338.569,71.777,37.598,50.293,48.340,63.965,0
134338.573,68.848,39.551,55.176,55.664,92.285,0
134338.577,17.578,43.945,44.922,19.531,31.250,0
134338.581,13.184,49.316,36.621,12.695,4.883,0
134338.583,51.758,44.922,39.551,44.922,53.711,0
134338.587,66.895,35.156,37.109,48.828,111.328,0
134338.591,19.043,31.738,40.527,20.020,71.777,0
134338.595,-6.836,39.551,46.875,11.719,-14.160,0
134338.599,40.039,46.387,47.363,34.180,10.742,0
134338.603,58.594,41.016,45.410,46.387,52.734,0
134338.606,33.691,37.598,47.852,36.133,25.879,0
134338.610,6.348,42.969,39.551,8.789,-12.695,0
134338.614,43.457,40.039,25.879,16.113,14.160,0
134338.618,77.637,32.227,35.156,47.852,54.199,0
134338.622,56.152,39.062,49.316,45.898,62.500,0
134338.626,20.508,43.945,51.270,17.090,37.109,0
134338.628,24.414,42.969,46.875,6.348,0.488,0
134338.632,67.383,41.992,43.945,46.387,34.180,0
134338.636,56.152,40.527,43.945,54.688,75.195,0
134338.640,8.301,37.598,46.387,3.906,7.324,0
134338.644,-1.953,31.250,48.340,-6.348,-63.477,0
134338.648,36.621,35.156,42.480,20.508,4.395,0
134338.651,61.035,41.992,38.574,34.668,56.641,0
134338.655,14.160,39.551,47.363,20.996,21.973,0
134338.659,-29.297,34.180,50.781,10.254,-21.973,0
134338.663,14.160,35.156,43.457,24.414,6.348,0
134338.667,73.730,35.645,38.574,42.480,87.402,0
134338.671,44.434,32.227,40.039,35.645,71.777,0
134338.673,1.953,32.715,43.457,7.812,-14.648,0
134338.677,44.434,39.062,38.086,13.672,-34.668,0
134338.681,82.520,42.480,32.227,45.410,20.020,0
134338.685,48.828,38.086,30.273,41.016,76.660,0
134338.689,0.977,31.250,36.621,24.414,39.551,0
134338.693,8.789,31.250,48.340,30.762,-2.930,0
134338.696,62.012,31.738,45.898,33.691,65.430,0
134338.700,66.895,29.785,45.410,41.016,110.352,0
134338.704,7.812,31.738,48.340,13.672,30.762,0
134338.708,-13.672,35.156,45.898,-0.977,-40.039,0
134338.712,39.551,34.180,44.434,32.227,20.020,0
134338.716,75.684,31.250,45.410,44.922,98.145,0
134338.719,38.574,35.156,43.945,23.438,70.312,0
134338.723,-1.953,35.156,41.016,10.742,19.531,0
134338.727,29.785,29.785,39.551,24.902,52.734,0
134338.731,65.430,29.785,35.156,41.992,111.328,0
134338.735,36.133,36.133,37.598,31.738,111.816,0
134338.739,-4.395,36.133,41.992,11.230,2.441,0
134338.743,5.371,33.203,37.598,14.648,-44.434,1
134338.747,52.246,34.180,32.715,41.016,8.301,0
134338.751,62.012,42.480,33.203,50.781,17.578,0
134338.754,18.066,46.875,37.109,18.066,-5.371,0
134338.758,18.555,42.969,41.504,5.859,-34.180,0
134338.762,67.383,40.039,46.875,39.062,16.113,0
134338.763,78.613,41.992,48.828,56.641,76.660,0
134338.767,27.344,42.969,42.969,32.715,44.922,0
134338.771,-2.441,39.062,39.551,8.789,-29.297,0
134338.775,44.922,21.973,38.574,29.297,-35.156,0
134338.779,70.801,22.461,40.039,53.223,28.809,0
134338.783,34.668,44.922,43.457,35.645,12.695,0
134338.787,-0.488,52.246,44.434,3.906,-23.926,0
134338.791,30.762,48.828,43.457,20.996,-7.324,0
134338.794,71.289,44.922,37.598,55.176,61.523,0
134338.798,48.340,45.898,35.156,43.945,93.750,0
134338.802,13.184,43.945,38.086,9.766,20.020,0
134338.806,20.508,38.086,34.668,11.719,-10.254,0
134338.808,50.781,35.156,31.738,48.340,70.312,0
134338.812,40.527,36.133,35.645,55.664,106.445,0
134338.816,4.883,39.062,39.062,22.949,0.977,0
134338.820,11.230,41.992,38.086,3.418,-78.125,0
134338.824,33.691,41.016,34.180,29.785,4.883,0
134338.828,40.527,40.039,31.738,45.410,59.570,0
134338.831,7.812,42.480,41.016,20.020,-8.789,0
134338.835,-11.719,41.016,46.387,2.930,-51.758,0
134338.839,31.250,36.133,39.551,20.020,12.695,0
134338.843,67.871,35.645,36.621,47.852,86.426,0
134338.847,39.551,36.133,40.527,39.062,29.785,0
134338.851,-6.348,36.133,43.945,14.160,-47.363,0
134338.853,7.324,35.156,40.527,26.367,-15.625,0
134338.857,50.781,36.133,37.598,56.152,84.961,0
134338.861,37.109,40.527,38.574,42.480,102.539,0
134338.865,-4.883,42.480,41.992,0.488,55.664,0
134338.869,4.883,36.621,47.363,-0.488,44.922,0
134338.873,50.781,33.203,44.922,34.668,66.895,0
134338.877,51.758,38.574,40.039,51.270,82.031,0
134338.880,3.418,38.574,40.527,15.137,47.852,0
134338.884,-12.695,38.086,31.738,-1.465,-1.953,0
134338.888,32.715,35.156,28.809,33.691,38.574,0
134338.892,51.758,32.227,40.527,43.457,81.543,0
134338.896,23.926,35.156,51.758,9.766,87.402,0
134338.913,0.000,41.016,53.223,-12.207,50.781,0
134338.917,11.719,41.016,47.363,6.836,23.438,0
134338.921,52.734,38.086,46.875,41.992,67.871,0
134338.925,44.434,38.574,52.246,37.109,59.082,0
134338.929,2.441,40.039,48.340,11.719,1.465,0
134338.933,21.484,43.457,39.551,22.461,-4.883,0
134338.937,75.195,44.434,42.480,50.781,73.242,0
134338.941,73.242,41.504,49.316,47.363,115.723,0
134338.945,11.719,48.828,43.945,37.598,36.621,0
134338.949,6.348,52.246,39.062,31.250,-14.160,0
134338.952,59.570,42.480,40.527,37.598,30.273,0
134338.956,62.500,41.016,43.945,41.504,70.801,0
134338.958,27.344,44.922,28.320,8.789,6.836,0
134338.962,14.648,45.898,14.160,11.230,-64.941,0
134338.966,47.363,48.828,33.203,31.738,22.949,0
134338.970,69.336,50.293,53.223,42.969,91.797,0
134338.974,28.320,49.805,59.082,23.438,-14.648,0
134338.978,1.465,53.223,56.641,-2.930,-79.102,0
134338.982,38.574,55.664,51.758,22.949,-29.297,0
134338.986,69.824,48.828,52.246,54.688,41.504,0
134338.990,50.781,46.875,51.758,46.387,28.809,0
134338.994,6.348,48.340,42.969,13.184,-57.129,0
134338.998,15.137,43.945,33.203,20.508,-63.965,0
134339.001,62.988,42.969,32.227,48.340,16.602,0
134339.004,58.105,51.270,40.039,43.945,45.898,0
134339.008,19.531,52.734,43.945,15.625,1.953,0
134339.011,15.625,49.316,44.434,15.137,-16.602,0
134339.015,56.152,54.199,41.504,46.387,22.949,0
134339.019,69.336,58.105,37.598,41.992,78.613,0
134339.023,26.855,60.059,31.250,23.438,17.578,0
134339.027,0.488,57.129,26.855,19.531,-28.320,0
134339.031,30.273,49.316,38.574,24.414,48.828,0
134339.035,62.988,50.293,48.340,41.992,74.707,0
134339.039,27.832,49.316,49.316,34.180,3.906,0
134339.043,6.348,45.410,46.875,6.836,-28.809,0
134339.047,49.805,46.875,41.016,21.484,-5.371,0
134339.048,62.012,50.293,38.086,50.293,36.621,0
134339.052,21.973,54.688,39.062,33.691,45.898,0
134339.056,-12.695,45.410,41.992,20.020,25.879,0
134339.060,16.602,37.109,46.387,39.062,0.488,0
134339.064,63.965,37.598,46.875,44.434,44.922,0
134339.068,60.547,38.086,44.434,46.387,85.449,0
134339.072,18.555,41.016,41.016,29.297,25.879,0
134339.075,6.348,43.457,42.480,21.973,12.695,0
134339.079,40.039,41.016,48.340,39.551,57.129,0
134339.083,64.453,38.086,48.828,51.270,113.281,0
134339.087,42.480,37.109,46.875,31.738,103.516,0
134339.091,-0.488,38.086,45.898,10.742,13.672,0
134339.093,31.250,39.551,42.969,34.180,25.391,0
134339.097,69.336,38.086,42.969,60.547,87.891,0
134339.101,43.945,38.086,43.945,50.293,55.664,0
134339.105,11.230,41.992,42.969,22.461,-28.320,0
134339.109,18.555,41.992,42.480,36.133,-22.461,0
134339.113,68.359,41.016,41.992,52.246,65.918,0
134339.117,59.570,46.875,44.922,38.086,100.098,0
134339.120,18.555,50.293,42.480,8.789,15.625,0
134339.124,20.020,45.898,34.668,3.906,-43.457,0
134339.128,58.594,40.039,34.180,39.062,24.902,0
134339.132,69.824,40.527,35.645,50.293,37.109,0
134339.136,19.043,41.016,34.180,15.625,-52.246,0
134339.138,3.906,41.992,41.992,2.441,-72.266,0
134339.142,58.594,45.410,47.852,38.086,7.324,0
134339.146,95.215,44.922,48.828,65.918,59.570,0
134339.150,45.410,45.898,50.293,43.945,49.316,0
134339.154,0.977,45.410,48.828,2.441,5.371,0
134339.158,36.621,43.945,40.527,18.555,-13.184,0
134339.161,71.289,48.828,35.645,50.781,78.613,0
134339.165,47.852,51.758,38.574,38.086,66.406,0
134339.169,19.531,56.641,32.715,15.625,-37.598,0
134339.173,32.715,53.711,33.203,26.367,-14.648,0
134339.177,73.730,48.340,37.109,53.711,59.570,0
134339.181,69.824,52.246,32.715,47.363,76.172,0
134339.184,15.137,53.711,31.738,18.066,2.930,0
134339.188,10.254,47.852,32.227,17.578,-21.484,0
134339.192,57.129,46.387,33.691,40.527,37.598,0
134339.196,71.289,51.758,40.039,44.922,66.406,0
134339.200,25.879,57.617,42.480,16.113,18.066,0
134339.204,8.301,58.594,38.574,0.977,-18.066,0
134339.208,52.246,53.223,41.016,22.949,5.859,0
134339.212,85.938,54.688,39.551,51.758,66.895,0
134339.216,40.039,60.547,29.297,28.320,48.828,0
134339.219,3.906,55.664,32.227,0.977,-17.578,0
134339.223,34.180,49.316,37.109,27.344,11.230,0
134339.227,76.172,49.316,38.574,58.105,56.641,0
134339.228,62.500,49.805,45.410,60.059,63.477,0
134339.232,-4.395,54.688,46.387,19.531,23.438,0
134339.236,8.301,61.523,39.062,5.859,-7.812,2
134339.240,68.359,57.617,33.203,44.922,64.453,0
134339.244,65.918,51.270,35.645,50.781,93.750,0
134339.248,30.273,53.711,41.016,26.855,24.414,0
134339.251,42.969,54.688,44.922,25.391,-12.207,0
134339.255,70.801,47.852,40.039,43.945,7.324,0
134339.259,67.871,46.387,37.598,55.176,40.527,0
134339.263,36.621,50.293,43.945,24.414,9.766,0
134339.267,16.113,49.316,47.363,-6.836,-56.152,0
134339.271,51.758,42.480,44.922,21.973,-1.953,0
134339.288,88.379,41.992,41.992,48.828,52.246,0
134339.292,57.617,46.387,43.457,34.668,28.320,0
134339.296,20.996,45.410,46.875,9.277,-9.766,0
134339.300,49.316,49.805,45.898,19.531,15.625,0
134339.304,77.148,54.688,43.457,54.199,62.988,0
134339.308,57.617,55.664,41.992,53.711,46.387,0
134339.312,21.973,51.758,42.969,16.602,-30.762,0
134339.315,22.461,44.434,44.434,9.766,-39.551,0
134339.319,71.289,43.457,38.086,47.363,29.785,0
134339.323,66.406,41.992,35.645,58.105,55.664,0
134339.327,13.672,38.086,41.992,21.484,18.066,0
134339.331,20.508,43.457,42.480,0.000,-23.438,0
134339.333,61.035,44.922,39.551,29.785,47.852,0
134339.337,68.359,39.062,40.039,53.711,101.562,0
134339.341,41.016,42.969,41.992,31.250,64.941,0
134339.345,14.648,46.387,40.527,8.301,18.555,0
134339.349,48.340,43.457,40.527,35.156,29.297,0
134339.353,91.309,41.016,41.016,68.848,56.152,0
134339.357,54.688,40.527,39.062,49.316,63.477,0
134339.360,23.926,41.504,44.434,12.695,37.598,0
134339.364,54.688,46.387,48.828,19.531,16.602,0
134339.368,80.078,48.828,42.480,53.223,59.082,0
134339.372,66.895,44.922,36.621,42.480,78.125,0
134339.376,24.902,44.434,39.062,13.672,28.809,0
134339.378,40.039,41.504,41.504,15.625,20.508,0
134339.382,67.383,39.062,41.992,43.457,90.820,0
134339.386,55.664,41.016,41.016,56.152,97.168,0
134339.390,18.066,44.434,42.969,26.367,25.879,0
134339.394,8.301,43.945,41.016,12.695,-37.109,0
134339.398,59.082,38.574,36.621,38.574,22.461,0
134339.401,78.125,39.062,39.551,59.570,98.145,0
134339.405,41.992,42.480,41.504,26.855,75.684,0
134339.409,13.184,44.922,42.480,-2.930,-32.227,0
134339.413,43.457,45.898,44.434,24.414,-35.645,0
134339.417,77.637,43.457,41.992,56.641,95.703,0
134339.421,43.945,44.434,39.062,44.434,98.633,0
134339.423,5.859,44.922,41.016,10.254,16.113,0
134339.427,31.738,40.039,38.086,9.766,18.555,0
134339.431,77.148,37.598,38.574,39.062,103.516,0
134339.435,55.176,39.062,43.457,47.363,148.438,0
134339.439,-3.906,45.898,42.969,19.043,64.453,0
134339.443,0.488,44.922,46.387,9.766,-6.348,0
134339.447,52.734,39.062,49.805,48.340,48.828,0
134339.451,60.547,39.062,45.898,55.176,78.613,0
134339.455,13.672,39.062,41.504,18.066,11.719,0
134339.459,-0.488,39.551,37.598,17.090,-23.438,0
134339.462,47.852,41.016,37.598,30.273,24.902,0
134339.466,84.961,40.527,39.062,39.551,59.570,0
134339.469,62.012,40.527,43.457,29.297,20.020,0
134339.473,4.395,40.527,45.410,5.371,-54.199,0
134339.476,16.113,40.039,45.898,24.414,-81.055,0
134339.480,59.570,41.016,42.480,54.199,-1.465,0
134339.484,45.898,42.480,41.504,45.410,10.742,0
134339.488,3.906,37.598,43.945,10.254,-24.414,0
134339.492,21.973,35.156,42.969,15.137,3.906,0
134339.496,65.918,39.551,40.527,52.734,63.965,0
134339.500,60.059,41.504,41.992,63.477,64.453,0
134339.504,22.949,41.504,44.922,31.250,21.484,0
134339.508,12.207,41.992,43.945,13.184,-5.859,0
134339.512,56.152,43.945,41.992,41.992,50.781,0
134339.513,73.242,41.992,38.086,52.246,94.238,0
134339.517,36.133,41.992,36.133,26.367,55.664,0
134339.521,13.184,47.363,43.457,23.926,6.348,0
134339.525,58.105,47.363,45.410,51.758,10.742,0
134339.529,88.867,40.527,35.645,53.711,44.434,0
134339.533,29.297,38.574,28.809,32.227,35.645,0
134339.536,-19.531,40.527,35.156,12.207,0.977,0
134339.540,19.531,40.527,43.945,17.578,-2.930,0
134339.544,65.918,36.621,41.504,36.621,50.293,0
134339.548,49.316,39.062,41.504,31.250,65.430,0
134339.552,5.859,41.992,44.434,4.395,13.184,0
134339.556,22.949,32.715,41.992,11.719,0.977,0
134339.558,73.242,27.344,36.621,46.875,82.031,0
134339.562,73.730,40.527,33.203,44.922,134.766,0
134339.566,18.066,43.457,38.086,26.855,62.012,0
134339.570,12.207,42.969,39.062,11.719,35.156,0
134339.574,55.664,42.969,35.645,21.973,108.398,0
134339.578,58.105,35.645,38.574,44.922,149.902,0
134339.581,16.602,36.621,35.645,28.320,66.895,0
134339.585,-3.418,40.039,35.156,11.719,-39.551,0
134339.589,44.922,36.133,37.598,22.949,19.043,0
134339.593,66.895,31.738,34.180,48.340,109.863,0
134339.597,28.320,29.785,37.109,32.227,106.934,0
134339.601,-2.930,34.668,42.969,0.977,14.160,0
134339.603,21.973,40.039,37.109,16.602,-5.859,0
134339.607,64.453,39.062,36.133,53.223,83.008,0
134339.611,52.246,38.574,41.992,50.781,58.105,0
134339.615,6.348,40.527,39.062,20.020,-13.672,0
134339.619,14.648,39.551,39.551,18.555,-7.324,0
134339.623,66.895,39.062,40.039,48.828,39.062,0
134339.627,75.684,40.527,42.969,58.105,50.781,0
134339.630,26.855,41.992,43.945,39.551,-3.418,0
134339.634,8.301,45.410,42.480,29.785,-24.414,0
134339.638,51.758,37.598,42.969,42.969,1.953,0
134339.642,68.848,33.203,41.992,51.270,44.922,0
134339.646,33.691,36.133,44.922,26.367,20.508,0
134339.649,2.441,38.086,46.875,8.789,-41.504,0
134339.653,32.227,41.992,42.480,25.391,-16.113,0
134339.657,73.730,39.551,39.062,52.734,62.988,0
134339.661,43.945,39.062,40.039,44.434,106.445,0
134339.665,-2.441,45.898,40.527,12.207,27.832,0
134339.669,20.020,47.363,41.016,18.555,-35.156,0
134339.673,66.406,42.969,44.922,49.805,44.434,0
134339.677,53.223,40.527,46.875,46.387,72.754,0
134339.681,12.207,45.410,45.410,11.230,9.277,0
134339.684,13.672,48.340,41.016,9.277,-36.133,0
134339.688,52.734,45.898,35.156,47.852,9.277,0
134339.692,57.129,38.086,38.086,48.340,90.332,1
134339.708,19.043,36.621,43.457,21.973,44.434,0
134339.712,-0.977,40.527,43.457,11.719,-26.367,0
134339.716,35.645,37.109,37.109,25.391,24.902,0
134339.720,68.359,33.691,32.715,47.852,89.844,0
134339.724,27.832,34.180,40.527,31.738,70.312,0
134339.728,-10.742,39.551,39.551,9.277,-46.875,0
134339.732,38.086,41.016,31.738,25.879,-39.062,0
134339.735,81.055,36.621,32.227,49.316,100.586,0
134339.739,39.062,37.598,35.156,37.109,93.262,0
134339.743,-1.953,43.945,36.621,12.207,-13.184,0
134339.747,20.996,39.551,37.109,14.648,6.836,0
134339.751,70.801,34.668,38.574,46.387,101.074,0
134339.753,62.500,40.039,44.922,52.734,106.934,0
134339.757,13.184,44.922,46.875,16.602,16.602,0
134339.761,9.766,48.340,39.551,8.301,-41.992,0
134339.765,69.824,50.781,37.598,42.969,15.137,0
134339.769,78.613,52.246,41.992,57.617,96.680,0
134339.773,25.879,54.199,47.852,33.691,26.367,0
134339.776,5.371,52.246,48.340,18.555,-63.965,0
134339.780,37.598,44.922,45.410,41.504,-25.879,0
134339.784,79.102,43.457,45.898,59.570,31.250,0
134339.788,48.828,42.969,45.410,29.785,-16.113,0
134339.792,3.906,39.062,42.480,-2.930,-59.570,0
134339.796,36.133,41.992,40.039,12.695,1.465,0
134339.798,85.938,43.457,41.016,49.316,32.715,0
134339.802,52.734,41.016,37.109,40.527,18.066,0
134339.806,-9.766,40.039,38.086,9.277,1.953,0
134339.810,12.207,38.574,46.387,16.113,-69.336,0
134339.814,58.594,35.156,42.969,54.688,-17.578,0
134339.818,49.805,38.086,42.480,65.430,65.918,0
134339.821,16.602,41.504,46.387,28.320,-11.719,0
134339.825,0.488,39.062,46.387,0.977,-58.105,0
134339.829,39.551,39.062,43.945,34.668,15.137,0
134339.833,68.359,38.086,42.969,62.500,55.664,0
134339.837,25.391,40.527,47.363,37.109,54.199,0
134339.841,6.348,42.969,52.246,17.090,5.859,0
134339.843,41.504,39.062,48.340,28.320,-22.461,0
134339.847,57.129,40.039,42.480,49.316,53.711,0
134339.851,25.391,44.434,48.828,43.457,62.500,0
134339.855,-15.137,44.434,53.223,12.695,-1.953,0
134339.859,11.230,38.574,48.828,12.207,-20.020,0
134339.863,63.477,37.598,43.457,45.898,84.961,0
134339.866,46.875,43.457,43.457,43.457,129.883,0
134339.870,4.883,49.316,47.852,16.602,-2.930,0
134339.874,18.555,47.363,48.828,26.367,-48.828,0
134339.878,58.105,40.039,43.457,50.781,28.320,0
134339.882,48.828,38.574,41.504,50.781,114.746,0
134339.886,11.230,44.434,42.480,20.508,78.125,0
134339.889,21.973,49.805,40.527,9.277,-5.859,0
134339.893,66.406,49.316,40.039,27.832,38.086,0
134339.897,71.289,46.875,43.945,43.945,116.211,0
134339.901,15.625,48.340,47.852,31.250,59.082,0
134339.905,-1.953,44.922,46.875,4.883,-21.484,0
134339.909,46.387,36.133,41.016,22.949,1.465,0
134339.913,70.801,36.621,37.598,48.340,41.016,0
134339.917,37.598,43.457,38.574,33.203,34.668,0
134339.921,-10.742,45.898,38.086,12.207,-27.344,0
134339.924,16.113,43.945,34.668,15.625,3.418,0
134339.928,67.383,42.969,35.645,39.551,95.215,0
134339.932,55.664,44.922,38.086,40.039,88.379,0
134339.933,17.578,46.875,39.551,8.789,19.043,0
134339.937,23.438,45.410,38.086,-2.441,4.883,0
134339.941,70.801,44.434,31.250,23.438,52.246,0
134339.945,74.219,45.898,27.832,39.062,95.703,0
134339.949,13.672,48.340,30.762,23.438,42.480,0
134339.953,7.812,46.875,35.156,9.766,-30.273,0
134339.957,62.988,41.992,38.574,25.879,26.855,0
134339.960,64.453,38.574,39.551,44.434,124.512,0
134339.964,20.020,40.039,38.086,24.902,77.637,0
134339.968,-3.906,42.969,35.156,1.465,27.832,0
134339.972,33.203,38.574,35.156,16.113,50.293,0
134339.976,71.777,31.250,40.039,41.992,82.031,0
134339.978,54.688,33.203,48.340,38.086,103.027,0
134339.982,4.883,36.133,48.828,14.648,44.922,0
134339.986,25.391,35.645,41.016,23.926,-9.766,0
134339.990,72.754,34.668,36.133,56.152,62.012,0
134339.994,52.734,38.086,37.109,51.270,99.609,0
134339.998,0.488,36.621,41.504,11.230,27.344,0
134340.002,-0.977,32.227,40.039,5.859,-27.344,0
134340.005,54.199,34.668,32.227,32.715,17.578,0
134340.009,73.730,35.645,27.344,35.645,97.168,0
134340.013,23.438,32.715,30.762,23.438,57.617,0
134340.017,-5.859,32.227,36.133,4.395,-1.465,0
134340.021,41.992,31.250,37.598,9.277,33.691,0
134340.038,75.684,30.762,35.156,32.715,104.004,0
134340.042,34.180,34.180,36.133,16.113,73.242,0
134340.046,14.648,37.109,34.668,-4.395,-31.250,0
134340.050,49.316,36.133,34.668,22.461,-21.973,0
134340.054,67.871,34.180,35.156,48.340,80.078,0
134340.058,59.082,38.086,29.297,32.227,62.012,0
134340.062,19.531,38.086,27.832,1.465,-24.414,0
134340.065,17.578,41.504,33.203,-1.465,-24.902,0
134340.069,66.895,44.922,32.715,28.809,34.668,0
134340.073,75.684,48.340,44.434,48.828,20.996,0
134340.077,22.949,47.852,57.617,23.926,-37.109,0
134340.081,12.207,42.480,53.711,12.695,-24.902,0
134340.083,66.895,43.457,44.434,44.434,43.945,0
134340.087,89.355,43.945,40.527,48.828,95.703,0
134340.091,46.875,42.480,41.992,20.508,46.875,0
134340.095,13.672,44.922,45.410,8.301,-23.926,0
134340.099,32.715,45.410,46.387,37.598,4.883,0
134340.103,81.055,42.480,44.434,64.453,79.590,0
134340.107,66.895,45.410,42.480,39.551,63.477,0
134340.110,12.695,45.898,38.574,9.277,-7.812,0
134340.114,30.273,43.945,36.133,21.973,-31.250,2
134340.118,76.660,43.457,36.133,45.898,-4.395,0
134340.122,62.012,43.945,37.598,37.598,51.270,0
134340.126,23.926,45.410,41.992,23.926,-8.301,0
134340.128,35.645,44.434,41.016,34.668,-83.496,0
134340.132,83.496,42.480,35.156,41.992,12.695,0
134340.136,75.195,40.039,33.691,46.875,91.797,0
134340.140,17.090,43.457,34.668,22.949,62.988,0
134340.144,12.207,48.340,36.621,11.719,26.367,0
134340.148,59.082,44.922,38.086,39.062,27.832,0
134340.151,75.684,41.016,36.133,51.758,51.758,0
134340.155,29.785,42.969,38.574,34.668,32.227,0
134340.159,0.000,42.480,39.062,8.789,-33.203,0
134340.163,45.410,40.527,38.086,22.949,-29.297,0
134340.167,78.613,39.062,40.039,49.316,48.828,0
134340.171,53.223,42.969,42.480,33.203,53.711,0
134340.173,20.020,41.504,42.480,7.324,-10.254,0
134340.177,23.438,35.645,38.086,17.090,-10.742,0
134340.181,65.430,36.621,36.133,42.480,60.547,0
134340.185,65.918,40.527,38.086,38.574,83.496,0
134340.189,22.461,44.434,36.133,12.695,43.457,0
134340.193,12.207,41.016,34.668,9.766,17.090,0
134340.197,63.965,39.062,33.203,38.086,56.152,0
134340.200,79.102,39.551,32.715,63.477,109.375,0
134340.204,28.320,35.645,37.109,29.785,-4.883,0
134340.208,5.371,36.133,36.621,4.395,-24.902,0
134340.212,51.270,37.109,42.480,43.945,80.078,0
134340.216,78.613,36.621,47.363,62.500,94.238,0
134340.218,36.621,39.551,48.828,21.484,83.008,0
134340.222,9.766,37.109,47.852,-11.719,51.270,0
134340.226,53.223,35.156,41.504,19.531,62.500,0
134340.230,70.801,37.109,38.086,44.434,93.750,0
134340.234,32.715,38.574,40.039,32.227,40.527,0
134340.238,8.789,38.086,41.992,8.789,-23.438,0
134340.242,31.250,37.598,40.527,12.207,-18.066,0
134340.245,73.242,39.551,36.621,45.898,-15.137,0
134340.249,64.453,39.062,36.133,51.758,-19.531,0
134340.253,25.391,37.109,36.133,14.648,-37.598,0
134340.257,22.461,37.109,29.297,2.441,-26.855,0
134340.261,48.828,32.227,24.902,37.109,41.992,0
134340.263,62.500,31.738,34.180,47.852,76.660,0
134340.267,24.902,34.668,43.945,17.578,34.180,0
134340.271,-13.184,32.227,44.922,-4.395,-50.293,0
134340.275,29.297,37.109,41.016,12.695,-21.973,0
134340.279,61.035,41.504,39.551,41.016,59.082,0
134340.283,26.367,42.480,43.945,27.832,46.387,0
134340.286,-5.371,43.457,47.363,-0.488,-24.414,0
134340.290,30.762,42.969,46.875,28.320,-33.691,0
134340.294,68.848,41.504,43.457,48.828,28.320,0
134340.298,56.152,42.969,41.992,30.762,25.879,0
134340.302,11.230,45.410,46.387,8.301,-19.043,0
134340.306,2.930,41.016,47.852,-0.977,-30.762,0
134340.308,52.246,38.574,44.434,29.785,34.668,0
134340.312,51.270,39.062,41.016,41.992,80.078,0
134340.316,11.230,44.922,45.410,12.695,-1.465,0
134340.320,6.348,47.852,51.270,10.254,-52.246,0
134340.324,61.035,49.805,52.246,39.551,-9.766,0
134340.328,105.469,49.805,48.828,49.316,28.320,0
134340.332,42.480,45.410,47.363,24.902,39.551,0
134340.336,-14.160,48.828,47.852,1.465,-16.602,0
134340.340,36.621,49.805,40.039,20.996,-3.906,0
134340.343,81.055,43.457,34.668,52.246,93.262,0
134340.347,32.715,37.598,36.133,24.414,63.477,0
134340.351,-18.066,40.039,36.133,-11.230,4.883,0
134340.355,40.527,44.434,38.574,7.324,31.250,0
134340.359,91.797,46.875,36.621,45.410,81.543,0
134340.363,46.387,50.781,35.645,41.504,72.266,0
134340.366,6.348,44.434,43.457,18.066,-27.832,0
134340.370,12.695,40.039,47.852,19.043,-65.430,0
134340.374,62.012,41.016,49.316,42.969,31.738,0
134340.378,66.895,40.039,50.293,52.246,72.266,0
134340.382,7.324,43.945,49.316,20.020,39.062,0
134340.386,7.812,44.434,41.504,16.602,29.297,0
134340.390,55.176,41.992,37.598,39.551,61.523,0
134340.394,65.430,44.434,41.992,43.945,130.371,0
134340.398,26.855,46.875,42.480,19.531,106.934,0
134340.413,23.926,48.828,42.969,-7.812,17.090,0
134340.417,53.223,45.410,39.551,21.484,9.277,0
134340.421,62.500,39.062,32.715,50.781,80.078,0
134340.425,37.109,41.504,33.691,28.320,54.688,0
134340.429,-8.301,40.527,38.086,2.930,-3.906,0
134340.433,12.695,34.668,39.062,13.184,-8.301,0
134340.437,60.059,38.574,37.598,48.340,39.062,0
134340.441,54.199,39.551,37.598,38.086,102.051,0
134340.444,13.184,35.645,36.621,-7.324,58.594,0
134340.448,15.137,37.598,36.621,6.348,48.828,0
134340.452,61.035,36.621,40.527,50.293,121.582,0
134340.456,72.754,38.574,45.410,69.824,156.250,0
134340.458,25.879,44.922,38.574,38.086,102.051,0
134340.462,2.930,46.387,30.762,-1.465,19.531,0
134340.466,45.410,47.363,34.668,26.367,23.926,0
134340.470,59.570,44.922,33.203,49.805,56.152,0
134340.474,22.461,40.527,33.691,21.973,-3.906,0
134340.478,12.695,37.598,33.691,4.883,-57.129,0
134340.482,43.457,37.109,34.180,22.461,-27.832,0
134340.485,58.105,38.086,37.109,40.527,24.414,0
134340.489,43.945,36.621,37.598,26.855,28.320,0
134340.493,8.301,38.574,43.945,3.418,-73.730,0
134340.497,18.066,40.039,43.945,14.160,-85.449,0
134340.501,62.500,36.133,38.574,47.363,33.691,0
134340.503,58.105,33.203,36.133,49.805,76.172,0
134340.507,10.742,32.715,34.668,21.973,14.648,0
134340.511,27.832,36.133,34.180,19.043,-22.461,0
134340.515,70.312,41.016,31.250,44.922,42.480,0
134340.519,58.105,39.551,33.203,53.223,66.406,0
134340.523,19.043,42.480,34.668,25.879,-11.719,0
134340.527,3.906,43.945,35.645,7.324,-18.066,0
134340.530,44.922,37.598,35.156,33.691,41.992,0
134340.534,86.426,42.969,35.645,60.059,73.730,0
134340.538,48.828,50.293,39.062,25.391,51.758,0
134340.542,-0.488,47.852,40.527,-3.418,1.953,0
134340.546,24.414,42.480,40.039,18.066,32.715,0
134340.549,69.824,38.086,37.109,43.457,102.539,0
134340.553,56.641,38.574,32.715,38.086,129.395,0
134340.557,1.465,43.457,33.203,14.160,91.309,0
134340.561,12.695,42.480,31.250,16.602,29.785,0
134340.565,66.406,41.504,29.297,42.480,71.289,0
134340.569,63.477,43.457,40.039,44.434,101.074,0
134340.573,24.902,44.434,48.340,14.160,63.965,0
134340.577,12.207,47.363,46.387,15.625,24.902,0
134340.580,41.992,45.898,42.969,47.852,-1.465,0
134340.584,65.918,36.133,43.945,40.527,79.102,0
134340.588,21.484,32.227,45.410,16.602,77.148,0
134340.592,-13.672,32.715,41.016,5.859,11.719,0
134340.594,22.461,28.320,39.062,14.160,59.082,0
134340.598,66.895,32.227,40.527,41.992,120.605,0
134340.602,50.293,39.062,34.668,34.668,86.914,0
134340.606,10.254,40.527,35.156,4.883,-2.441,1
134340.610,37.598,35.645,46.387,13.184,-23.926,0
134340.614,62.012,32.227,48.828,43.457,15.137,0
134340.618,42.480,34.668,41.504,40.527,41.992,0
134340.622,-22.461,40.527,41.016,12.207,-23.438,0
134340.626,-48.340,43.457,39.062,20.020,-57.129,0
134340.629,16.602,38.086,34.668,43.945,59.570,0
134340.633,35.645,40.527,36.621,43.457,75.195,0
134340.637,19.043,43.457,39.062,8.789,-21.973,0
134340.638,-1.953,40.527,41.016,-2.930,-59.082,0
134340.642,12.207,41.016,44.434,28.809,39.062,0
134340.646,44.434,39.551,40.527,49.316,113.281,0
134340.650,16.602,39.062,36.621,23.438,62.500,0
134340.654,-8.789,41.016,41.992,8.789,-8.789,0
134340.658,27.832,45.410,46.387,43.457,3.418,0
134340.661,65.918,50.781,40.527,60.547,65.918,0
134340.665,50.781,47.363,35.156,35.645,46.387,0
134340.669,10.254,45.410,40.527,1.953,-5.371,0
134340.673,20.508,46.387,44.434,10.742,7.324,0
134340.677,72.754,45.410,44.434,45.898,62.012,0
134340.681,54.199,44.434,42.480,37.598,92.773,0
134340.683,1.465,44.434,39.551,10.742,21.973,0
134340.687,19.531,46.387,39.062,10.742,-1.465,0
134340.691,65.918,48.340,36.621,33.691,77.148,0
134340.695,71.777,49.316,37.109,41.504,119.629,0
134340.699,31.250,49.316,41.992,21.484,82.031,0
134340.703,10.254,49.316,40.039,10.742,31.250,0
134340.707,51.270,46.387,34.668,29.297,36.133,0
134340.710,78.125,46.387,38.086,52.246,44.922,0
134340.714,40.527,45.410,42.480,21.973,56.641,0
134340.718,2.930,44.434,41.504,3.906,-3.906,0
134340.722,35.645,49.316,39.551,34.180,-15.137,0
134340.726,72.266,46.875,40.527,56.641,75.684,0
134340.728,40.039,41.992,40.527,41.504,59.570,0
134340.732,8.301,45.410,41.016,9.277,14.648,0
134340.736,36.621,42.969,43.945,12.207,40.527,0
134340.740,82.520,39.062,47.363,42.969,74.219,0
134340.744,63.477,40.039,49.316,39.062,72.266,0
134340.748,9.277,41.504,48.828,14.648,10.254,0
134340.752,13.184,42.969,47.363,3.906,-27.344,0
134340.755,68.359,41.992,46.875,25.879,35.645,0
134340.759,81.055,40.527,44.434,43.945,77.148,0
134340.763,17.578,41.992,39.551,13.184,9.277,0
134340.767,1.465,43.457,33.203,0.000,-20.020,0
134340.771,48.828,42.969,29.297,21.484,70.801,0
134340.789,71.289,40.527,25.879,34.668,116.211,0
134340.793,42.969,41.504,27.832,18.555,56.152,0
134340.797,7.812,42.480,34.180,0.977,-6.836,0
134340.801,25.391,37.109,34.668,18.555,31.738,0
134340.804,71.289,37.598,31.738,38.574,85.449,0
134340.808,62.500,39.551,33.691,29.297,66.406,0
134340.812,8.789,40.039,37.109,1.465,12.695,0
134340.816,20.020,41.504,39.062,6.348,0.000,0
134340.820,79.102,39.062,35.645,29.785,61.035,0
134340.824,58.105,36.621,33.691,32.227,93.262,0
134340.828,4.395,41.504,38.086,10.254,31.250,0
134340.832,7.324,37.109,39.062,-1.953,11.719,0
134340.838,51.270,28.809,39.062,32.227,34.180,0
134340.842,70.312,38.574,43.945,67.383,41.504,0
134340.846,22.461,56.152,43.945,31.250,28.320,0
134340.850,-12.207,65.430,34.668,-16.602,5.859,0
134340.854,32.227,62.012,27.832,5.371,43.945,0
134340.858,62.012,53.711,26.855,38.086,88.379,0
134340.862,36.133,45.898,32.227,18.066,62.988,0
134340.866,0.977,42.480,33.691,-4.395,8.301,0
134340.870,30.762,44.922,34.668,21.484,-15.137,0
134340.874,72.754,50.781,40.039,51.270,15.625,0
134340.877,58.594,51.758,35.156,41.992,44.434,0
134340.881,25.391,50.781,29.785,17.578,-10.742,0
134340.878,13.672,43.457,35.156,4.395,-67.871,0
134340.882,49.805,35.156,37.598,24.414,0.000,0
134340.886,56.152,30.762,36.621,36.621,68.848,0
134340.890,9.277,32.227,41.016,13.672,10.254,0
134340.894,4.395,38.086,47.363,6.836,-53.711,0
134340.898,52.246,39.551,48.340,40.039,-15.625,0
134340.902,63.965,39.062,45.410,57.617,45.410,0
134340.905,37.109,43.945,44.922,29.785,23.926,0
134340.909,-1.465,44.434,44.922,11.719,-30.273,0
134340.913,26.855,40.039,44.922,29.297,-13.672,0
134340.917,74.219,39.062,43.457,57.129,75.684,0
134340.921,36.621,40.039,44.922,58.594,81.055,0
134340.923,5.371,39.551,44.922,12.695,2.441,0
134340.927,33.203,39.551,45.898,7.812,5.859,0
134340.931,63.965,38.086,49.316,44.922,62.012,0
134340.935,61.523,32.715,50.781,47.852,54.199,0
134340.939,24.414,31.738,50.781,33.203,-1.953,0
134340.943,13.184,40.039,43.457,22.949,-31.250,0
134340.947,61.035,50.293,30.762,30.762,50.781,0
134340.950,76.172,55.664,25.391,44.434,77.148,0
134340.954,25.391,53.223,28.809,35.156,-14.160,0
134340.958,3.906,50.781,29.785,19.043,-52.246,0
134340.962,54.199,50.781,28.320,28.320,28.320,0
134340.966,76.172,45.410,34.180,49.805,75.195,0
134340.968,30.762,41.992,37.109,35.645,50.293,0
134340.972,1.953,45.410,31.738,19.043,9.766,0
134340.976,31.738,42.480,29.297,32.227,10.742,0
134340.980,74.707,39.551,28.809,57.129,91.309,0
134340.984,63.965,42.969,30.273,50.781,97.168,0
134340.988,13.184,43.945,33.203,21.973,-3.418,0
134340.992,24.902,43.457,36.133,34.180,-25.391,0
134340.995,82.031,44.922,39.062,67.871,51.270,0
134340.999,57.617,42.480,42.480,50.781,60.547,0
134341.003,9.277,40.039,41.504,13.184,48.828,0
134341.007,22.461,42.969,36.621,0.488,8.789,0
134341.011,57.129,42.969,33.203,18.066,-5.371,0
134341.013,62.988,41.992,31.738,37.109,35.156,0
134341.017,16.113,43.457,33.691,15.625,33.203,0
134341.021,-2.441,44.434,39.062,8.789,12.695,0
134341.025,49.805,47.852,40.039,34.668,44.434,0
134341.029,79.102,44.922,39.062,45.898,104.980,0
134341.033,35.645,38.574,43.457,34.668,87.891,0
134341.036,-8.301,36.621,44.922,10.254,36.621,0
134341.040,33.691,42.480,40.527,17.578,40.527,0
134341.044,86.914,43.945,38.574,49.316,80.566,0
134341.048,51.758,38.086,39.062,49.316,87.891,0
134341.052,-1.953,35.645,39.062,9.766,22.461,0
134341.056,15.137,35.645,37.598,2.441,-1.953,0
134341.059,67.383,34.180,35.156,40.039,50.781,2
134341.063,68.359,42.480,33.691,42.480,66.406,0
134341.067,18.555,46.387,36.621,13.184,-8.301,0
134341.071,0.977,41.992,40.527,8.789,-45.898,0
134341.075,49.316,41.016,40.527,33.691,18.066,0
134341.079,71.289,41.992,36.621,48.340,29.297,0
134341.083,30.762,47.363,36.621,28.809,-23.438,0
134341.087,7.812,45.898,41.504,9.277,-83.984,0
134341.091,42.969,39.062,39.551,22.949,-67.871,0
134341.094,81.543,39.062,39.062,53.223,33.691,0
134341.098,44.922,40.527,43.945,42.480,47.852,0
134341.102,-1.953,38.574,40.527,12.695,-22.461,0
134341.104,36.621,38.086,34.180,23.438,-1.953,0
134341.108,79.590,38.574,38.574,53.711,64.453,0
134341.112,54.199,39.062,43.457,45.898,73.242,0
134341.116,3.906,40.527,38.574,10.254,40.039,0
134341.120,6.836,43.457,29.785,7.812,16.113,0
134341.124,60.547,44.434,29.785,38.574,83.008,0
134341.128,71.777,43.945,36.133,41.504,106.934,0
134341.132,23.438,41.992,41.504,14.160,42.480,0
134341.136,0.488,39.062,39.062,5.859,9.277,0
134341.139,42.969,33.691,40.527,39.551,36.621,0
134341.143,60.059,31.738,42.480,59.570,70.801,0
134341.147,16.602,32.227,40.527,12.695,41.504,0
134341.163,-14.160,28.809,39.062,-28.320,-0.488,0
134341.167,20.996,32.227,32.715,2.441,-11.719,0
134341.171,63.477,33.203,31.738,37.109,62.988,0
134341.175,39.551,32.227,34.668,17.090,81.055,0
134341.179,9.766,37.109,35.156,-6.348,2.441,0
134341.183,28.809,35.156,35.645,18.066,-28.320,0
134341.187,62.988,32.715,30.762,47.363,13.184,0
134341.190,41.504,30.762,32.227,39.551,25.391,0
134341.194,-6.836,25.879,43.457,6.836,-4.883,0
134341.198,1.465,23.438,45.410,-3.418,-17.578,0
134341.202,47.852,26.367,38.086,20.508,56.641,0
134341.206,62.012,32.715,34.180,33.691,116.211,0
134341.208,23.438,32.715,35.645,13.672,41.504,0
134341.212,3.418,30.273,37.109,3.418,-28.320,0
134341.216,40.527,29.297,34.180,28.809,41.992,0
134341.220,73.242,31.738,34.668,51.270,109.863,0
134341.224,41.016,35.645,39.551,42.480,75.195,0
134341.228,-2.930,34.668,41.992,7.324,-8.301,0
134341.232,28.809,33.203,37.598,14.648,-1.465,0
134341.235,66.895,32.227,34.668,43.457,103.027,0
134341.239,44.434,33.203,33.691,32.227,134.766,0
134341.243,7.324,40.527,37.109,11.230,-16.602,0
134341.247,6.836,41.504,38.086,23.438,-41.016,0
134341.251,62.012,37.109,36.133,56.152,63.965,0
134341.253,70.312,40.527,36.621,55.176,39.062,0
134341.257,8.789,42.969,38.086,21.484,-10.742,0
134341.261,2.441,39.551,36.621,14.160,1.953,0
134341.265,69.824,39.551,33.691,46.875,53.711,0
134341.269,76.660,40.527,34.668,58.594,91.797,0
134341.273,31.250,40.527,41.016,32.227,24.902,0
134341.276,23.926,40.527,43.457,15.625,-62.988,0
134341.280,58.594,39.551,41.504,36.133,16.602,0
134341.284,73.242,41.016,39.062,60.547,97.656,0
134341.288,38.086,41.992,41.504,43.457,35.156,0
134341.292,18.066,38.086,42.969,5.859,-1.465,0
134341.296,35.645,36.133,41.992,12.695,56.641,0
134341.298,52.734,35.156,45.410,59.570,131.348,0
134341.302,49.316,35.645,49.316,53.711,100.586,0
134341.306,16.602,42.480,43.945,10.742,27.832,0
134341.310,30.273,43.945,42.969,12.207,13.184,0
134341.314,78.125,41.504,53.223,46.387,54.688,0
134341.318,70.801,41.992,57.129,53.223,80.566,0
134341.321,16.113,46.875,52.734,24.902,37.598,0
134341.325,14.160,48.340,47.852,18.555,11.719,0
134341.329,63.477,46.387,43.945,41.016,39.551,0
134341.333,73.730,47.852,42.480,42.480,114.258,0
134341.337,36.133,49.316,41.992,21.484,46.387,0
134341.341,7.812,50.293,41.016,14.648,-16.113,0
134341.343,42.969,49.805,40.527,36.133,25.879,0
134341.347,84.473,49.316,42.969,64.453,48.828,0
134341.351,49.316,47.852,47.363,42.969,28.320,0
134341.355,7.812,51.270,49.316,9.766,-36.621,0
134341.359,31.738,50.781,43.457,28.320,-35.156,0
134341.363,74.707,44.922,37.109,62.500,37.109,0
134341.367,65.430,44.434,36.133,51.270,53.711,0
134341.370,5.859,45.898,39.551,16.602,-13.672,0
134341.374,11.230,43.945,39.062,15.625,-40.039,0
134341.378,57.129,39.551,35.645,41.504,33.203,0
134341.382,66.895,37.598,37.109,55.176,85.938,0
134341.386,20.996,40.039,43.945,35.645,14.160,0
134341.388,8.789,41.016,42.969,1.465,-42.480,0
134341.392,54.199,35.156,36.133,11.230,13.672,0
134341.396,80.078,38.574,33.691,45.898,49.805,0
134341.400,45.410,41.992,40.039,26.367,6.836,0
134341.404,6.836,39.551,43.457,5.371,-26.367,0
134341.408,47.852,42.969,41.504,36.133,-16.602,0
134341.411,79.590,43.945,41.504,69.824,51.270,0
134341.415,41.016,40.039,44.434,55.664,51.758,0
134341.419,5.859,43.945,43.457,23.926,-17.090,0
134341.423,25.391,46.387,35.156,34.180,-13.184,0
134341.427,63.477,42.480,37.109,54.688,69.336,0
134341.431,60.059,41.992,43.457,44.922,96.680,0
134341.433,10.254,41.504,41.504,19.043,28.809,0
134341.437,4.395,41.016,39.062,16.602,-37.598,0
134341.441,52.246,41.992,37.109,46.387,-8.789,0
134341.445,53.711,43.945,39.062,58.594,46.387,0
134341.449,17.090,46.387,43.457,30.273,2.930,0
134341.453,16.602,43.457,43.457,7.324,-59.082,0
134341.456,63.965,43.457,42.969,32.715,-36.621,0
134341.460,71.289,44.434,41.504,65.430,36.621,0
134341.464,31.250,39.062,41.016,39.551,47.852,0
134341.468,11.719,35.645,45.410,-0.977,-10.254,1
134341.472,34.180,36.621,47.363,15.137,-16.113,0
134341.476,63.477,38.086,41.016,53.711,34.180,0
134341.478,48.340,39.062,37.109,37.598,47.363,0
134341.482,-1.953,42.480,39.551,3.418,-26.367,0
134341.486,15.137,42.969,36.621,15.625,-37.598,0
134341.490,58.594,38.574,32.715,45.410,38.086,0
134341.494,42.969,37.598,35.645,46.875,53.223,0
134341.498,11.719,38.574,43.945,18.555,0.977,0
134341.501,13.184,40.527,47.363,4.883,-40.039,0
134341.505,60.547,43.945,42.969,38.086,37.109,0
134341.509,74.219,43.945,39.062,54.199,106.934,0
134341.513,20.020,44.434,39.551,23.438,82.031,0
134341.517,2.441,44.434,39.062,7.812,38.086,0
134341.521,45.410,42.480,37.598,30.273,56.152,0
134341.525,77.637,45.410,37.109,44.922,122.070,0
134341.529,35.156,47.852,37.598,12.207,69.824,0
134341.533,-14.160,47.363,38.574,-14.648,-7.812,0
134341.537,17.090,42.480,38.086,8.301,21.484,0
134341.541,71.289,38.574,35.645,44.922,127.930,0
134341.545,52.246,43.457,39.551,39.551,103.027,0
134341.548,6.348,50.781,43.945,9.766,-8.789,0
134341.552,17.090,47.852,46.387,12.695,0.488,0
134341.556,51.270,43.945,44.434,54.199,29.297,0
134341.560,60.059,44.434,41.016,50.781,49.316,0
134341.564,40.527,43.457,39.551,11.719,14.160,0
134341.568,9.277,40.039,37.109,20.020,-8.301,0
134341.583,30.762,36.133,39.062,48.340,29.785,0
134341.587,54.688,38.574,41.992,53.223,68.359,0
134341.591,14.160,43.457,40.527,27.832,43.945,0
134341.595,2.441,45.898,40.039,10.742,-10.254,0
134341.599,46.875,44.922,42.480,35.645,21.484,0
134341.603,75.195,44.922,41.504,59.082,78.125,0
134341.607,34.180,43.457,38.086,38.574,66.406,0
134341.610,-4.883,42.480,40.039,12.207,34.180,0
134341.614,20.996,41.016,39.551,20.020,13.672,0
134341.618,66.895,38.574,37.598,56.641,34.668,0
134341.622,53.711,41.992,38.086,53.711,57.129,0
134341.626,18.066,43.945,36.621,7.812,5.859,0
134341.628,33.691,40.527,34.668,4.883,-43.457,0
134341.632,65.430,38.574,33.203,36.621,20.996,0
134341.636,58.105,40.039,32.227,46.387,113.281,0
134341.640,12.695,43.457,32.227,18.066,54.199,0
134341.644,23.438,44.922,31.738,2.930,-24.414,0
134341.648,68.359,42.969,27.344,33.691,2.930,0
134341.652,62.012,39.062,21.973,56.152,23.926,0
134341.656,24.414,41.016,26.855,44.922,1.953,0
134341.660,1.953,43.457,33.691,10.742,-42.969,0
134341.663,46.387,43.457,34.668,15.137,-21.973,0
134341.667,83.496,44.922,36.133,46.875,40.039,0
134341.671,51.758,46.875,38.574,37.109,46.387,0
134341.673,16.113,47.852,38.574,3.418,-1.953,0
134341.677,52.246,47.363,37.109,3.418,4.883,0
134341.681,87.402,45.898,37.109,39.062,83.984,0
134341.685,59.082,44.922,33.691,35.645,118.652,0
134341.689,6.348,42.969,33.203,4.883,47.852,0
134341.693,7.812,41.016,33.203,9.277,-3.906,0
134341.697,60.547,41.016,27.832,39.062,48.828,0
134341.701,61.035,41.016,28.320,46.875,107.422,0
134341.705,15.625,43.945,35.156,23.438,41.016,0
134341.709,13.672,45.898,39.062,18.555,-13.672,0
134341.713,74.219,42.969,41.504,47.852,58.594,0
134341.716,86.914,43.945,41.992,57.129,93.750,0
134341.718,38.574,42.969,38.574,34.668,37.109,0
134341.722,17.090,35.156,38.574,15.137,-6.836,0
134341.726,47.363,34.180,44.922,36.621,-11.719,0
134341.730,75.195,35.645,48.340,65.918,95.215,0
134341.734,56.641,37.109,41.504,51.270,122.070,0
134341.738,10.254,39.062,37.109,13.184,25.391,0
134341.742,19.043,39.062,38.086,13.184,45.898,0
134341.745,79.590,44.434,32.715,57.617,104.492,0
134341.749,76.172,43.457,29.785,65.918,108.398,0
134341.753,18.555,44.922,30.273,29.297,62.988,0
134341.757,11.719,51.270,34.668,12.695,8.301,0
134341.761,58.594,49.316,44.434,35.645,45.898,0
134341.764,72.754,50.293,46.875,54.688,99.121,0
134341.768,26.367,49.316,47.852,25.879,63.965,0
134341.772,8.301,44.922,46.387,7.324,12.207,0
134341.776,41.992,43.457,41.504,33.203,34.668,0
134341.780,64.453,39.062,37.598,55.664,106.445,0
134341.784,46.875,40.527,36.621,44.434,81.543,0
134341.788,18.066,48.828,35.156,13.184,42.480,0
134341.792,32.227,49.316,31.250,25.879,25.879,0
134341.796,71.289,42.969,31.250,56.152,42.969,0
134341.799,52.246,40.039,35.645,46.387,76.660,0
134341.803,7.812,40.039,41.992,18.555,45.898,0
134341.807,29.785,37.598,40.039,15.137,-4.395,0
134341.808,64.941,35.645,37.109,41.016,36.621,0
134341.812,40.527,38.574,38.086,45.410,76.660,0
134341.816,1.953,39.062,40.039,17.090,5.859,0
134341.820,2.441,37.109,37.598,6.836,-41.992,0
134341.824,66.895,40.527,31.738,43.457,12.695,0
134341.828,84.473,41.992,35.645,62.012,74.707,0
134341.832,16.602,42.969,44.434,24.902,17.578,0
134341.835,-9.277,40.039,45.410,4.883,-41.016,0
134341.839,45.898,37.109,45.410,32.715,0.977,0
134341.843,77.148,38.574,41.504,61.523,76.660,0
134341.847,31.250,41.016,39.551,47.363,61.035,0
134341.851,-4.395,38.086,46.387,15.625,20.020,0
134341.853,29.297,35.156,46.387,17.578,31.250,0
134341.857,76.172,42.480,44.434,45.898,58.105,0
134341.861,50.293,44.922,45.898,44.922,56.152,0
134341.865,-5.859,40.527,46.875,16.113,-7.812,0
134341.869,14.648,41.504,45.410,9.277,-13.184,0
134341.873,65.918,41.016,47.363,57.129,62.500,0
134341.877,60.059,40.527,44.434,64.453,63.965,0
134341.881,23.438,43.945,41.504,12.207,-30.273,0
134341.884,20.508,43.457,42.969,5.371,-67.871,0
134341.888,66.406,42.969,42.480,36.133,16.113,0
134341.892,74.219,44.434,40.039,47.852,103.516,0
134341.896,20.996,42.480,38.574,39.062,64.941,0
134341.913,-6.836,43.945,41.016,20.996,-8.301,0
134341.917,29.297,39.551,38.086,15.625,-17.578,0
134341.921,70.801,36.621,32.715,36.621,38.574,0
134341.925,42.969,40.527,30.273,36.133,59.570,2
134341.929,2.441,38.086,26.367,7.324,-16.113,0
134341.933,41.992,37.598,30.273,7.324,-43.457,0
134341.936,81.543,41.992,32.715,31.250,40.527,0
134341.940,58.105,45.898,32.715,36.133,84.961,0
134341.944,9.277,45.898,37.598,8.301,17.090,0
134341.948,8.789,44.922,41.504,5.371,-50.293,0
134341.952,49.805,43.457,37.109,37.109,-3.418,0
134341.956,60.059,41.016,32.715,36.621,58.105,0
134341.958,19.043,39.062,34.668,10.254,32.227,0
134341.962,-4.395,36.133,35.156,0.488,-11.230,0
134341.966,40.527,31.250,32.227,24.414,19.531,0
134341.970,62.012,29.785,29.785,44.434,92.285,0
134341.974,20.508,34.180,29.297,20.020,54.199,0
134341.978,0.000,34.180,24.902,-4.395,-19.531,0
134341.982,22.461,31.738,20.996,23.926,16.602,0
134341.985,53.711,30.273,21.973,44.434,86.914,0
134341.989,42.480,36.133,31.250,15.137,75.684,0
134341.993,-6.348,38.086,41.504,-2.441,-46.875,0
134341.997,10.254,34.180,36.133,15.625,-76.172,0
134342.001,68.848,35.156,27.344,34.180,37.598,0
134342.003,62.988,38.086,23.926,26.855,77.637,0
134342.007,20.508,42.480,23.438,0.977,11.230,0
134342.011,43.457,42.969,25.879,-3.418,-23.926,0
134342.015,73.242,38.574,26.367,26.367,34.180,0
134342.019,51.758,36.621,28.809,41.992,53.223,0
134342.023,6.348,32.227,28.809,12.695,-3.418,0
134342.027,-8.301,26.855,27.344,-8.789,-40.527,0
134342.030,38.574,28.320,26.367,20.020,-4.395,0
134342.034,63.965,35.645,26.367,45.898,66.406,0
134342.038,28.320,35.645,28.320,10.742,49.805,0
134342.042,-2.930,31.738,32.227,1.465,-9.766,0
134342.046,20.020,32.227,30.762,28.320,-8.301,0
134342.048,51.270,30.762,26.367,22.949,51.270,0
134342.052,30.273,29.785,30.762,7.324,57.129,0
134342.056,-9.277,33.691,33.691,-13.184,0.000,0
134342.060,9.766,35.156,36.621,-0.977,-46.875,0
134342.064,53.711,36.133,34.180,38.086,-8.789,0
134342.068,54.199,36.621,27.344,42.969,42.480,0
134342.072,9.277,33.691,27.344,12.207,-12.207,0
134342.075,9.277,39.062,30.273,7.812,-36.621,0
134342.079,63.477,47.852,30.762,35.645,30.273,0
134342.083,65.918,41.504,33.691,51.758,129.883,0
134342.087,19.531,37.598,38.086,17.578,134.277,0
134342.091,-15.625,38.574,38.086,-7.324,46.875,0
134342.093,14.648,37.109,33.691,14.160,54.199,0
134342.097,53.223,38.086,32.227,32.227,125.977,0
134342.101,29.297,42.480,34.180,23.926,86.426,0
134342.105,-5.859,46.387,38.574,-2.441,-14.648,0
134342.109,13.184,43.945,41.992,17.090,26.367,0
134342.113,65.430,45.410,41.992,51.758,131.348,0
134342.117,44.922,42.969,36.133,25.391,130.371,0
134342.120,-9.277,37.598,36.133,-7.324,25.391,0
134342.124,4.395,39.062,39.062,4.395,0.488,0
134342.128,54.199,39.062,42.480,37.598,76.660,0
134342.132,59.082,38.086,46.875,45.410,134.277,0
134342.136,15.137,39.551,47.363,26.367,48.340,0
134342.138,19.531,41.016,45.410,15.625,-24.414,0
134342.142,74.707,41.016,42.480,25.879,66.895,0
134342.146,76.660,39.551,44.922,46.875,141.602,0
134342.150,26.855,38.574,45.410,25.391,107.422,0
134342.154,0.000,39.551,42.480,-2.930,32.227,0
134342.158,37.109,37.109,39.062,23.438,49.316,0
134342.162,77.637,32.715,35.156,55.664,73.730,0
134342.166,52.246,36.133,38.086,39.551,44.434,0
134342.169,1.465,35.645,42.480,1.953,28.320,0
134342.173,18.066,28.809,41.992,11.230,35.645,0
134342.177,65.430,32.227,39.062,48.828,46.875,0
134342.181,48.340,35.156,36.621,47.363,54.199,0
134342.183,-1.953,33.691,37.598,16.113,-9.277,0
134342.187,6.836,34.180,39.551,20.020,-42.969,0
134342.191,62.988,37.109,38.574,53.223,13.184,0
134342.195,66.895,41.016,39.062,57.617,22.461,0
134342.199,28.809,41.992,42.480,30.273,13.672,0
134342.203,31.738,42.480,41.504,13.184,-22.949,0
134342.206,62.500,41.504,41.016,37.598,-17.090,0
134342.210,59.570,39.551,41.992,53.711,45.898,0
134342.214,27.344,42.969,40.039,27.344,57.129,0
134342.218,3.418,41.992,40.527,5.371,29.297,0
134342.222,28.809,32.715,38.574,24.414,41.992,0
134342.226,55.176,33.203,33.203,49.805,90.820,0
134342.230,29.785,40.039,36.621,36.133,83.984,0
134342.233,3.906,41.992,40.527,6.836,14.648,0
134342.237,39.551,40.039,41.016,22.461,-17.578,0
134342.241,74.707,43.457,39.551,56.641,29.785,0
134342.245,47.852,44.434,42.480,45.410,85.449,0
134342.249,10.742,44.922,45.410,14.160,43.945,0
134342.253,20.020,47.363,41.016,9.277,-23.438,0
134342.257,48.828,42.969,41.016,30.762,4.883,0
134342.261,55.176,39.551,37.598,49.805,73.730,0
134342.265,17.090,40.527,36.621,23.926,39.551,0
134342.269,-2.441,39.062,41.504,3.418,-40.527,0
134342.273,36.621,36.133,38.086,34.180,-14.160,0
134342.288,78.613,34.180,36.133,54.199,76.172,0
134342.292,45.898,38.574,40.527,31.738,44.434,0
134342.296,-8.789,42.480,41.504,8.789,-31.738,0
134342.300,24.902,40.039,41.992,23.926,-28.809,0
134342.304,64.453,40.039,37.109,57.617,39.551,0
134342.308,59.082,45.898,34.180,55.664,61.523,0
134342.312,19.043,45.410,38.086,19.531,-11.719,0
134342.316,17.090,41.504,37.109,19.043,-39.062,0
134342.319,73.730,44.922,35.645,66.406,-0.977,0
134342.323,83.008,50.781,36.621,65.918,50.781,0
134342.327,22.949,46.387,36.621,19.043,28.320,0
134342.331,21.973,40.039,37.598,20.508,-22.461,0
134342.333,69.336,41.016,34.180,47.852,26.367,0
134342.337,70.801,44.434,32.715,48.340,80.078,0
134342.341,30.762,44.922,40.527,27.344,64.453,0
134342.345,0.488,43.945,45.410,13.672,4.883,0
134342.349,42.480,42.480,43.945,38.574,22.949,0
134342.353,75.195,39.551,41.016,67.871,111.328,0
134342.357,49.316,41.504,41.016,47.852,85.938,0
134342.360,6.348,41.992,43.457,14.648,8.789,1
134342.364,21.484,38.574,41.016,22.949,4.883,0
134342.368,61.523,37.598,37.598,52.734,51.758,0
134342.372,56.152,38.086,39.551,50.781,71.777,0
134342.376,25.879,36.133,40.039,16.602,0.000,0
134342.378,20.996,31.738,44.922,5.859,-47.363,0
134342.382,45.898,29.297,44.922,34.180,-2.441,0
134342.386,38.086,30.762,40.039,44.434,68.359,0
134342.390,-6.836,34.180,41.016,10.254,20.508,0
134342.394,-14.648,36.621,47.852,-0.977,-67.383,0
134342.398,39.062,39.062,46.387,29.297,-12.207,0
134342.401,61.523,41.992,38.086,44.434,85.938,0
134342.405,17.090,39.062,40.527,24.902,68.848,0
134342.409,-14.160,38.574,44.922,-1.953,-5.859,0
134342.413,39.062,37.598,45.410,8.789,0.488,0
134342.417,75.195,35.645,48.340,38.086,62.988,0
134342.421,27.832,39.062,48.340,32.227,65.918,0
134342.423,-6.348,43.457,41.992,4.883,-4.883,0
134342.427,13.184,48.340,39.062,12.695,-0.488,0
134342.431,53.711,45.410,44.434,55.176,50.781,0
134342.435,41.504,40.527,52.246,49.316,74.707,0
134342.439,2.930,39.062,53.223,4.395,62.988,0
134342.443,14.648,40.039,52.246,4.395,-7.812,0
134342.446,58.594,38.574,53.711,46.387,51.270,0
134342.450,66.895,36.621,49.316,59.082,104.492,0
134342.454,23.926,41.504,48.828,22.461,0.977,0
134342.458,5.859,41.016,53.223,5.859,-37.598,0
134342.462,47.852,33.691,50.293,41.016,22.461,0
134342.466,66.895,38.574,45.898,67.871,67.871,0
134342.470,27.344,44.922,49.805,36.133,39.551,0
134342.474,-2.441,42.969,51.270,6.348,-19.043,0
134342.478,37.598,40.527,47.363,27.832,38.086,0
134342.481,73.242,42.480,46.387,58.105,79.590,0
134342.485,39.062,43.457,48.828,46.875,45.410,0
134342.489,-7.324,44.922,46.387,13.184,-9.766,0
134342.493,12.207,42.969,41.016,11.719,-41.504,0
134342.497,53.711,37.598,36.621,45.410,14.648,0
134342.501,44.434,36.621,34.668,45.410,65.918,0
134342.505,0.488,40.527,38.574,0.977,13.184,0
134342.509,6.836,43.945,40.527,0.000,-44.922,0
134342.513,59.082,40.039,39.062,37.598,38.574,0
134342.513,65.430,38.574,38.086,49.316,60.059,0
134342.517,17.578,38.086,38.574,17.578,-45.410,0
134342.521,9.766,38.086,39.551,-2.441,-76.172,0
134342.525,54.688,42.480,32.715,21.973,-21.973,0
134342.529,56.152,41.992,34.180,42.969,38.086,0
134342.533,14.648,44.434,40.039,19.043,41.504,0
134342.537,-7.324,47.852,31.738,-15.137,-0.977,0
134342.540,29.297,42.480,25.391,0.000,-5.859,0
134342.544,62.012,40.039,27.832,36.621,78.613,0
134342.548,39.062,43.457,35.156,28.809,120.605,0
134342.552,1.465,42.969,39.551,-0.977,14.160,0
134342.556,9.277,40.039,36.621,17.578,3.418,0
134342.558,56.641,39.551,35.645,47.363,100.098,0
134342.562,57.129,36.621,35.156,40.039,120.605,0
134342.566,7.812,38.086,38.574,11.230,55.664,0
134342.570,8.301,41.016,41.992,0.977,16.113,0
134342.574,68.848,37.598,35.645,24.414,67.871,0
134342.578,77.637,37.598,32.715,46.387,116.699,0
134342.581,15.137,35.645,36.621,26.367,81.055,0
134342.585,-12.207,34.668,36.133,3.418,-3.418,0
134342.589,33.203,37.598,26.855,21.484,16.602,0
134342.593,66.895,41.992,26.855,40.039,112.793,0
134342.597,36.621,41.504,38.086,21.973,79.590,0
134342.601,3.906,44.434,40.039,-1.953,-2.930,0
134342.603,33.691,45.898,34.668,16.602,3.906,0
134342.607,77.148,39.062,37.109,49.316,59.082,0
134342.611,54.688,39.551,41.016,53.223,66.406,0
134342.615,13.184,40.527,41.992,26.855,16.602,0
134342.619,22.949,40.039,33.203,10.254,-5.859,0
134342.623,61.035,41.992,26.367,27.344,18.555,0
134342.627,58.105,42.969,31.250,40.527,36.621,0
134342.630,5.371,42.480,35.156,14.160,34.180,0
134342.634,10.742,41.016,38.574,0.000,1.465,0
134342.638,64.453,40.039,38.086,32.227,9.766,0
134342.642,70.312,38.574,40.527,52.246,41.016,0
134342.646,25.879,38.086,40.527,22.949,13.672,0
134342.663,1.465,40.527,40.039,0.000,-24.902,0
134342.667,24.414,36.621,42.969,14.160,-11.230,0
134342.671,55.664,36.133,45.898,31.738,51.270,0
134342.675,36.621,35.645,41.992,20.996,72.754,0
134342.679,2.930,31.738,36.621,-3.418,40.527,0
134342.683,23.438,32.227,35.156,10.254,15.625,0
134342.686,58.105,34.180,34.180,40.039,44.922,0
134342.690,47.363,34.180,35.645,37.109,49.805,0
134342.694,5.371,34.668,35.156,2.930,-48.340,0
134342.698,8.301,32.715,30.762,3.418,-62.500,0
134342.702,57.129,28.809,31.738,47.363,50.293,0
134342.706,75.195,30.762,34.668,42.969,105.957,0
134342.708,29.297,32.715,37.598,1.465,52.734,0
134342.712,5.859,32.227,38.574,0.000,-24.902,0
134342.716,49.316,30.762,35.645,31.738,9.277,0
134342.720,71.289,29.297,32.227,55.664,76.172,0
134342.724,45.410,36.621,36.133,37.109,33.203,0
134342.728,10.742,40.527,38.574,9.766,-3.906,0
134342.731,44.922,35.645,30.273,26.855,65.430,0
134342.735,77.148,36.133,24.414,54.199,147.949,0
134342.739,37.109,38.086,28.809,40.039,106.445,0
134342.743,-1.953,38.086,33.203,2.441,34.180,0
134342.747,13.184,35.645,27.344,7.324,49.805,0
134342.751,57.129,37.109,21.484,51.758,117.188,0
134342.753,44.922,38.086,29.297,47.363,138.184,0
134342.757,7.812,37.598,41.016,11.719,62.012,0
134342.761,14.160,41.504,43.945,20.020,-9.277,0
134342.765,48.828,42.480,35.645,44.922,31.250,0
134342.769,62.500,39.551,28.809,51.758,71.777,0
134342.773,33.203,41.504,32.715,36.621,17.090,0
134342.776,15.137,40.527,36.133,18.066,-33.691,2
134342.780,38.574,36.133,32.227,31.738,1.465,0
134342.784,65.918,35.645,28.320,62.500,50.781,0
134342.788,37.109,38.574,32.715,38.574,21.973,0
134342.792,0.000,41.016,37.598,5.371,-12.207,0
134342.796,32.227,40.527,41.992,30.273,-12.695,0
134342.798,72.266,36.621,46.875,48.828,50.781,0
134342.802,56.152,35.645,43.457,40.527,67.871,0
134342.806,11.230,37.109,38.086,17.090,26.367,0
134342.810,16.602,38.086,37.598,21.484,22.461,0
134342.814,70.312,40.527,38.574,53.223,41.504,0
134342.818,63.965,43.457,39.551,46.387,63.965,0
134342.821,10.254,44.434,42.480,6.348,26.855,0
134342.825,9.766,44.434,42.480,10.742,-32.715,0
134342.829,60.059,43.457,37.109,44.434,-24.902,0
134342.833,76.660,40.527,35.156,54.199,19.531,0
134342.837,37.109,38.574,42.969,25.391,16.602,0
134342.841,5.859,39.062,46.875,1.953,-46.387,0
134342.843,43.457,42.969,37.598,27.344,0.488,0
134342.847,76.660,43.945,33.691,53.223,30.762,0
134342.851,45.898,43.457,39.062,36.621,22.949,0
134342.855,13.184,46.387,40.527,10.254,31.738,0
134342.859,45.898,42.969,39.062,18.555,33.691,0
134342.863,86.914,42.480,39.551,59.082,81.055,0
134342.867,57.129,43.945,41.016,56.152,103.516,0
134342.870,11.719,41.016,43.945,20.020,38.086,0
134342.874,29.297,39.551,41.016,19.043,-13.184,0
134342.878,85.938,37.109,35.156,46.387,32.715,0
134342.882,88.379,35.156,37.109,51.270,68.848,0
134342.886,35.156,35.645,42.969,19.043,17.578,0
134342.888,35.156,37.598,41.504,8.301,-36.133,0
134342.892,68.848,39.551,33.203,39.062,30.762,0
134342.896,62.500,40.527,33.203,65.918,98.145,0
134342.900,37.109,41.016,39.551,46.387,18.555,0
134342.904,18.555,43.945,43.457,7.812,-19.043,0
134342.908,45.898,42.480,43.457,26.855,33.691,0
134342.911,76.660,41.016,38.086,59.570,98.145,0
134342.915,54.199,43.457,40.527,39.062,77.148,0
134342.919,6.348,41.504,40.039,8.789,19.043,0
134342.923,23.926,37.598,33.691,20.020,25.879,0
134342.927,83.008,41.016,29.297,49.316,62.500,0
134342.931,65.430,41.504,36.621,49.316,78.613,0
134342.934,1.465,38.574,42.480,24.414,36.133,0
134342.938,12.695,40.039,36.621,11.230,16.602,0
134342.942,68.359,41.016,33.691,40.527,60.059,0
134342.946,58.105,41.992,36.133,51.758,93.750,0
134342.950,8.789,44.922,41.016,10.254,34.668,0
134342.954,4.395,43.457,41.992,-2.441,-31.738,0
134342.958,43.945,37.109,42.969,26.855,-21.484,0
134342.962,64.941,32.715,45.410,47.363,-2.441,0
134342.966,28.320,33.203,39.062,29.297,1.465,0
134342.969,4.395,36.621,38.086,10.254,-30.762,0
134342.973,31.738,35.156,42.969,30.273,-19.531,0
134342.977,61.523,36.133,41.016,61.523,69.824,0
134342.978,53.223,35.645,43.457,51.270,39.551,0
134342.982,11.230,35.645,46.387,13.184,-44.434,0
134342.986,24.902,35.645,45.410,27.344,-8.301,0
134342.990,77.637,34.668,44.922,58.594,35.645,0
134342.994,68.848,41.992,44.434,41.992,24.902,0
134342.998,15.137,47.363,47.852,15.625,-9.766,0
134343.002,14.648,46.387,47.363,20.020,-72.266,0
134343.006,62.988,41.016,45.898,45.898,-47.852,0
134343.010,80.566,39.062,44.922,55.664,39.062,0
134343.014,37.109,45.410,42.480,23.926,-13.184,0
134343.018,-3.906,41.504,41.016,-0.488,-38.574,0
134343.021,41.016,36.621,40.527,24.902,21.973,0
134343.038,79.590,38.574,38.574,50.293,50.293,0
134343.042,36.621,41.504,34.180,37.109,31.738,0
134343.046,-3.418,40.527,33.691,11.719,-29.297,0
134343.050,25.879,37.598,37.109,19.043,-18.066,0
134343.054,69.336,39.062,38.574,50.293,40.527,0
134343.058,46.875,40.039,39.551,45.410,56.641,0
134343.062,-4.395,37.109,43.945,15.625,16.113,0
134343.066,13.184,40.527,41.016,18.066,-4.395,0
134343.070,75.195,43.457,36.621,50.293,70.312,0
134343.074,68.359,44.922,40.039,63.477,109.863,0
134343.078,10.254,49.316,45.898,25.879,12.207,0
134343.081,10.254,45.410,41.016,6.836,-7.812,0
134343.083,63.965,39.062,27.832,38.086,89.355,0
134343.087,61.523,40.039,31.250,52.734,129.395,0
134343.091,4.395,42.969,38.574,23.438,60.547,0
134343.095,-12.695,38.574,36.621,1.465,22.461,0
134343.099,26.855,36.133,39.551,23.438,48.828,0
134343.103,62.012,39.551,41.016,44.434,92.773,0
134343.107,35.645,37.598,38.086,23.926,87.402,0
134343.110,-3.418,35.645,37.109,-5.859,35.156,0
134343.114,13.184,33.691,37.598,7.324,27.832,0
134343.118,63.965,33.203,39.062,32.715,48.828,0
134343.122,53.711,37.598,38.574,35.156,48.340,0
134343.126,-18.066,38.086,38.086,12.207,2.930,0
134343.128,-12.695,38.086,37.598,5.859,-36.621,0
134343.132,44.922,40.039,39.062,33.691,30.273,0
134343.136,50.293,42.480,42.969,35.156,83.008,0
134343.140,8.789,41.504,36.621,10.742,46.387,0
134343.144,-5.859,40.039,30.762,7.324,-10.254,0
134343.148,39.062,37.598,34.180,33.691,4.395,0
134343.151,58.594,36.621,37.109,46.387,49.316,0
134343.155,21.973,40.527,40.039,20.020,27.344,0
134343.159,-1.465,42.969,42.969,4.883,-28.809,0
134343.163,29.297,41.016,40.039,27.832,-29.297,0
134343.167,68.848,41.016,39.062,45.898,35.645,0
134343.171,39.062,40.527,39.062,35.645,62.012,0
134343.173,13.184,41.992,40.039,14.648,28.809,0
134343.177,50.293,46.387,39.551,19.531,2.441,0
134343.181,65.430,47.363,30.273,42.969,86.426,0
134343.185,41.992,47.363,25.391,49.805,132.812,0
134343.189,6.348,47.852,34.180,23.926,28.320,0
134343.193,14.160,48.340,37.109,3.906,8.789,0
134343.196,52.246,42.969,28.320,35.156,71.777,0
134343.200,59.570,40.527,24.414,47.363,84.961,0
134343.204,21.484,41.504,29.297,20.996,32.715,0
134343.208,-8.301,42.480,39.551,9.766,-19.531,0
134343.212,36.133,41.504,41.016,30.762,21.484,0
134343.216,76.660,38.086,39.062,48.828,93.262,0
134343.218,42.969,41.016,38.086,23.926,73.730,0
134343.222,-9.766,40.527,38.574,-1.953,-8.789,0
134343.226,22.949,35.645,37.109,17.090,-11.230,0
134343.230,68.848,34.668,36.621,42.480,45.898,0
134343.234,30.762,38.086,39.062,23.926,61.523,0
134343.238,-13.184,41.016,40.527,6.836,35.156,0
134343.241,13.184,41.016,40.527,15.625,28.809,0
134343.245,63.477,41.992,43.945,38.086,53.711,0
134343.249,56.152,42.480,43.457,39.062,67.383,0
134343.253,15.137,34.668,40.527,4.883,27.344,0
134343.257,22.949,34.668,40.527,-0.977,-13.184,0
134343.261,75.195,45.898,36.133,40.039,49.316,0
134343.263,80.078,45.898,33.691,52.734,99.609,0
134343.267,24.902,44.922,39.062,17.090,50.293,0
134343.271,0.488,46.387,41.016,7.324,-7.324,0
134343.275,35.156,43.457,37.598,36.133,10.254,0
134343.279,61.035,40.039,37.598,44.434,48.340,1
134343.283,32.227,37.598,40.527,24.902,32.227,0
134343.286,3.418,40.039,38.086,8.301,-32.227,0
134343.290,36.133,42.969,39.551,15.137,-41.016,0
134343.294,78.125,40.039,44.434,46.875,28.320,0
134343.298,49.805,41.016,41.504,50.293,50.293,0
134343.302,6.836,41.992,41.504,11.230,-1.465,0
134343.306,24.902,41.016,41.992,10.742,-34.668,0
134343.308,58.594,39.062,34.668,55.176,14.648,0
134343.312,54.688,39.062,35.645,51.270,60.059,0
134343.316,27.832,41.016,43.945,12.695,-12.207,0
134343.320,21.973,44.922,43.945,4.883,-69.824,0
134343.324,53.223,43.945,37.109,33.691,16.113,0
134343.328,72.266,40.527,41.504,51.758,91.309,0
134343.332,34.668,44.434,46.387,25.879,27.832,0
134343.336,12.207,48.340,46.875,4.883,-53.223,0
134343.339,58.594,46.875,46.387,29.785,20.020,0
134343.343,76.660,43.945,36.133,50.293,99.121,0
134343.347,36.621,43.457,31.250,15.625,50.781,0
134343.351,2.441,44.434,35.156,-11.230,-15.625,0
134343.353,20.508,44.922,34.180,1.465,-53.223,0
134343.357,68.848,42.480,32.715,27.832,33.691,0
134343.361,63.477,44.434,35.156,23.926,77.148,0
134343.365,12.695,49.316,33.691,-5.371,15.137,0
134343.369,11.230,46.387,31.738,-1.465,18.066,0
134343.373,59.082,41.992,31.738,28.320,73.242,0
134343.377,53.223,42.969,34.668,31.250,76.172,0
134343.380,-1.465,45.410,39.551,3.906,18.555,0
134343.384,-0.488,42.480,41.992,-0.488,-15.625,0
134343.388,41.016,39.062,42.969,30.273,32.715,0
134343.392,54.688,42.480,37.598,51.270,94.238,0
134343.396,23.438,42.480,38.086,15.137,51.758,0
134343.399,-7.324,41.504,40.039,-16.602,-3.906,0
134343.403,28.320,42.480,37.109,12.695,16.602,0
134343.407,63.477,41.992,34.668,40.527,62.988,0
134343.411,44.434,44.434,33.691,23.926,75.684,0
134343.415,23.438,43.945,38.574,-5.859,30.273,0
134343.419,28.320,44.922,38.574,3.418,17.578,0
134343.423,53.223,43.945,38.574,29.785,68.848,0
134343.427,47.852,43.457,41.992,34.668,89.844,0
134343.431,9.766,47.363,46.387,2.441,16.602,0
134343.434,11.230,43.457,48.828,-8.789,-31.250,0
134343.438,59.082,42.480,50.781,33.691,31.250,0
134343.442,70.312,47.852,50.781,47.363,87.402,0
134343.459,30.762,47.852,44.922,10.742,24.902,0
134343.463,18.066,43.945,42.480,-0.977,-46.387,0
134343.466,66.895,43.457,39.551,21.973,15.625,0
134343.470,75.684,46.387,36.133,29.785,79.102,0
134343.474,22.461,48.828,39.551,18.555,64.453,0
134343.478,-8.301,49.805,49.805,1.953,0.977,0
134343.482,25.879,47.363,47.363,15.137,-3.418,0
134343.486,68.359,44.922,40.039,52.246,109.863,0
134343.490,50.293,46.875,45.898,38.574,102.539,0
134343.494,9.766,46.875,47.363,-3.418,-14.160,0
134343.498,20.508,41.016,38.574,0.977,-41.504,0
134343.502,61.523,37.109,34.668,37.109,34.180,0
134343.504,49.316,40.527,33.691,38.086,81.543,0
134343.507,15.137,41.504,38.086,8.301,25.391,0
134343.511,12.207,40.527,41.992,7.812,-32.715,0
134343.515,47.363,37.598,41.504,41.992,32.227,0
134343.519,63.477,35.645,47.363,44.922,44.434,0
134343.523,25.391,40.039,46.875,16.602,-49.805,0
134343.527,0.977,47.363,45.410,4.395,-103.027,0
134343.531,32.715,46.875,48.828,27.344,-56.641,0
134343.535,62.988,46.387,49.316,54.688,19.043,0
134343.539,41.016,49.316,45.410,39.062,12.695,0
134343.543,10.742,49.316,41.992,12.695,-11.230,0
134343.547,41.992,46.387,43.457,22.461,26.367,0
134343.548,76.172,41.992,43.945,41.504,89.355,0
134343.552,54.199,43.945,44.922,29.785,82.031,0
134343.556,9.277,49.316,45.898,11.230,25.391,0
134343.560,32.227,44.922,43.945,14.160,12.695,0
134343.564,87.402,40.527,40.527,39.062,67.871,0
134343.568,66.406,43.457,36.621,39.551,48.340,0
134343.572,12.207,44.434,38.086,10.742,4.883,0
134343.576,0.488,45.410,38.574,13.184,-16.113,0
134343.580,45.898,43.457,39.551,44.922,2.930,0
134343.583,56.641,40.527,44.434,45.898,44.922,0
134343.587,11.230,45.410,41.992,21.484,33.691,0
134343.591,-4.883,49.316,40.527,11.719,-13.184,0
134343.593,49.316,51.758,42.480,26.855,17.578,0
134343.597,86.426,51.270,42.969,48.828,94.727,0
134343.601,44.434,45.410,48.828,41.016,55.664,0
134343.605,2.930,40.527,50.781,23.438,-11.230,0
134343.609,27.344,36.621,47.363,33.691,-3.906,0
134343.613,81.543,40.039,45.410,63.477,68.848,0
134343.616,48.340,46.387,44.434,60.059,111.328,0
134343.620,-5.859,48.340,45.410,32.715,56.152,0
134343.624,16.602,47.363,50.781,28.809,8.301,0
134343.628,52.734,43.945,46.387,37.598,78.125,0
134343.632,51.758,43.457,41.992,41.992,102.539,0
134343.636,11.230,43.457,44.434,16.113,30.762,0
134343.639,7.324,41.504,47.363,6.348,7.324,0
134343.643,58.594,39.551,42.969,40.527,72.754,0
134343.647,70.312,42.969,36.621,56.152,132.324,0
134343.651,22.949,51.270,40.039,28.809,98.633,0
134343.655,-1.953,48.340,47.363,8.301,42.480,0
134343.659,40.527,43.457,45.898,23.438,50.293,0
134343.663,65.430,48.340,43.945,46.875,97.168,0
134343.667,41.992,46.387,45.898,37.598,88.867,0
134343.671,11.719,43.945,43.945,10.254,32.715,0
134343.674,23.926,45.410,36.621,13.184,24.902,0
134343.678,58.105,41.504,30.762,39.062,101.074,0
134343.682,49.316,41.504,34.668,42.969,104.980,0
134343.683,5.859,42.480,35.156,18.555,37.598,0
134343.687,5.371,40.039,31.738,22.461,-2.441,0
134343.691,65.918,39.062,35.156,49.316,7.324,0
134343.695,78.125,41.016,41.504,48.828,63.965,0
134343.699,13.184,41.016,43.457,15.137,57.617,0
134343.703,0.000,38.086,39.062,2.441,-6.348,0
134343.707,64.941,36.621,37.598,35.156,4.883,0
134343.710,84.961,36.133,35.645,53.711,48.340,0
134343.714,25.391,36.133,29.785,25.391,37.598,0
134343.718,-12.207,39.062,31.250,6.348,11.230,0
134343.722,38.574,40.527,32.227,29.785,-9.766,0
134343.726,76.660,38.574,32.715,56.641,28.809,0
134343.728,42.969,39.551,39.062,43.457,66.895,0
134343.732,4.883,36.133,41.016,12.695,6.836,0
134343.736,20.996,34.180,37.109,14.648,-18.555,0
134343.740,61.035,38.086,33.203,44.434,70.312,0
134343.744,65.918,36.133,32.715,49.805,94.238,0
134343.748,13.672,38.086,32.715,21.973,16.602,0
134343.752,1.953,46.387,35.156,17.090,-34.180,0
134343.755,59.082,46.387,40.039,47.363,-24.414,1
134343.759,70.801,43.457,39.551,44.434,49.316,0
134343.763,31.738,46.875,40.039,16.602,43.457,0
134343.767,12.695,46.387,41.992,12.207,-6.836,0
134343.771,63.965,42.480,39.551,38.086,23.438,0
134343.788,93.750,42.480,37.598,59.082,73.730,0
134343.792,38.086,44.434,35.156,42.480,61.035,0
134343.796,-7.812,43.457,35.645,18.555,5.371,0
134343.800,28.809,42.969,39.551,28.320,14.648,0
134343.804,75.195,43.457,37.109,57.129,83.008,0
134343.808,45.898,47.363,37.109,46.875,60.059,0
134343.812,-4.883,49.316,40.527,10.254,-11.719,0
134343.816,19.043,43.945,38.574,21.973,-23.926,0
134343.819,82.031,41.992,34.668,59.570,72.266,0
134343.823,71.777,43.945,32.715,48.340,115.234,0
134343.827,20.996,43.945,33.203,18.066,24.902,0
134343.831,17.578,43.945,33.691,9.766,-23.438,0
134343.833,62.012,42.969,34.668,40.039,40.527,0
134343.837,82.031,44.922,34.668,67.383,99.609,0
134343.841,40.527,46.875,40.527,36.621,67.871,0
134343.845,19.043,42.480,44.922,13.184,6.348,0
134343.849,59.082,38.574,38.574,24.902,36.133,0
134343.853,67.871,41.504,33.691,37.598,70.312,0
134343.857,28.809,42.480,32.227,30.762,31.738,0
134343.860,0.488,41.992,32.715,7.324,-35.156,0
134343.864,31.250,40.039,36.133,16.602,-18.066,0
134343.868,84.961,40.039,36.621,47.363,21.484,0
134343.872,69.336,43.457,35.156,36.621,54.199,0
134343.876,20.020,45.898,34.180,7.812,40.039,0
134343.878,33.203,46.387,35.156,18.066,-30.273,0
134343.882,67.871,41.992,34.180,53.711,0.488,0
134343.886,85.938,39.062,32.715,67.871,67.871,0
134343.890,47.852,44.922,39.551,33.691,43.945,0
134343.894,-5.859,45.898,41.992,-1.953,-29.785,0
134343.898,30.273,37.109,35.156,34.668,-7.812,0
134343.902,58.105,38.574,36.621,62.988,56.152,0
134343.905,21.973,41.992,41.016,33.203,40.039,0
134343.909,-0.488,41.504,42.480,8.789,-25.879,0
134343.913,36.133,38.086,40.039,24.414,-32.227,0
134343.917,68.848,38.086,32.715,49.805,37.598,0
134343.921,54.688,39.551,31.250,33.691,61.035,0
134343.923,18.066,37.109,33.203,8.301,8.301,0
134343.927,21.484,34.668,34.180,19.531,-13.184,0
134343.931,80.078,35.156,34.668,58.105,81.055,0
134343.935,61.523,37.598,34.180,62.012,113.281,0
134343.939,-3.418,38.574,33.203,27.832,22.949,0
134343.943,5.859,38.574,33.203,11.230,-10.742,0
134343.947,59.082,35.156,30.273,31.738,30.273,0
134343.951,75.684,35.645,30.273,42.969,64.941,0
134343.955,37.109,42.969,33.691,9.766,21.484,0
134343.959,12.207,45.898,32.715,-2.930,10.254,0
134343.962,48.340,43.945,34.180,28.320,46.387,0
134343.966,73.730,44.434,40.527,55.664,72.266,0
134343.969,28.320,43.945,45.410,32.715,45.410,0
134343.973,10.254,42.969,47.363,10.254,-6.348,0
134343.977,51.270,43.457,36.133,27.344,-5.371,0
134343.980,82.520,39.062,28.320,50.781,37.598,0
134343.984,41.504,37.109,31.250,43.945,55.176,0
134343.988,-1.465,42.480,30.762,17.090,-5.859,0
134343.992,20.020,41.992,25.879,14.648,-17.578,0
134343.996,59.570,36.621,27.344,44.434,60.059,0
134344.000,54.688,38.086,31.250,45.410,80.078,0
134344.004,17.090,40.039,31.738,13.672,28.320,0
134344.008,8.301,39.062,31.738,1.953,20.508,0
134344.012,50.293,37.598,31.738,23.438,60.547,0
134344.015,70.801,37.109,27.344,45.410,83.008,0
134344.019,41.504,37.598,25.879,24.414,54.199,0
134344.023,6.348,37.598,29.297,8.789,13.184,0
134344.027,34.180,34.668,31.738,33.691,25.879,0
134344.031,68.848,30.762,31.738,52.246,73.242,0
134344.034,36.133,33.203,35.156,33.691,13.672,0
134344.038,12.207,38.086,37.109,7.324,-29.785,0
134344.042,56.152,37.109,37.109,19.531,-19.531,0
134344.046,78.613,33.691,35.156,51.758,34.180,0
134344.050,39.551,35.645,30.273,45.898,89.844,0
134344.054,-0.977,40.527,30.762,11.230,26.855,0
134344.058,8.789,41.016,37.109,20.020,-52.734,0
134344.058,59.082,36.133,35.156,47.852,6.348,0
134344.062,64.941,38.574,31.250,43.945,95.703,0
134344.066,31.738,42.480,31.738,16.113,47.852,0
134344.070,20.508,39.551,39.551,10.254,-15.137,0
134344.074,44.922,38.086,44.922,47.852,1.465,0
134344.078,63.477,38.086,41.504,70.312,88.867,0
134344.081,27.344,35.156,39.551,29.785,75.684,0
134344.085,2.441,32.227,36.621,-6.836,-17.578,0
134344.089,37.598,31.250,34.180,27.832,34.668,0
134344.093,64.941,28.809,34.180,52.246,122.070,0
134344.097,32.715,35.156,34.668,30.273,68.359,0
134344.101,3.418,38.574,35.156,9.766,9.766,0
134344.104,19.531,36.133,31.738,15.137,26.367,0
134344.108,50.781,37.109,27.344,45.898,42.480,0
134344.112,51.758,37.109,32.227,37.598,54.199,0
134344.116,8.789,35.645,38.086,1.465,0.000,0
134344.120,3.906,34.180,36.621,3.906,-9.766,0
134344.124,48.340,32.715,36.133,40.527,55.176,0
134344.128,55.176,38.086,38.086,62.500,72.266,0
134344.132,19.531,41.504,41.016,29.297,25.879,0
134344.136,8.301,38.574,41.016,-1.953,29.785,0
134344.140,46.387,41.992,38.574,25.879,61.523,0
134344.143,71.289,41.504,36.621,40.039,84.473,0
134344.147,33.203,37.109,41.016,15.137,45.410,0
134344.163,3.418,37.109,44.922,4.883,-17.578,0
134344.167,42.969,40.527,43.457,23.926,-1.465,0
134344.171,95.215,40.527,43.457,46.387,64.453,0
134344.175,57.617,42.969,42.969,48.828,64.453,0
134344.179,7.812,46.875,43.457,28.809,-21.484,0
134344.183,35.645,46.875,46.875,25.391,-46.875,0
134344.187,67.871,47.363,46.875,53.223,2.441,0
134344.190,56.152,46.875,45.410,51.270,50.293,0
134344.194,13.184,44.434,47.852,29.297,2.441,0
134344.198,13.184,44.434,47.363,22.949,-27.832,0
134344.202,68.359,45.898,44.922,38.574,55.664,0
134344.206,70.312,43.457,44.434,43.457,96.680,0
134344.208,22.461,42.969,45.898,19.531,40.527,0
134344.212,4.883,44.922,42.969,12.207,-7.812,0
134344.216,45.410,43.457,39.551,39.062,29.785,0
134344.220,74.219,43.457,43.457,62.500,76.172,0
134344.224,36.133,45.410,44.922,40.527,26.855,0
134344.228,5.371,41.992,40.039,10.742,-20.508,0
134344.232,22.461,38.574,35.156,25.391,-6.348,0
134344.236,58.105,38.574,33.203,48.828,77.637,0
134344.240,42.480,41.016,37.109,30.762,81.543,0
134344.243,2.441,41.992,43.457,-0.488,-20.020,0
134344.247,34.668,42.480,41.504,6.836,-43.945,0
134344.251,66.406,41.016,32.227,35.156,45.898,0
134344.253,41.992,41.504,25.391,41.016,72.266,2
134344.257,1.953,44.922,27.832,12.695,1.465,0
134344.261,8.789,42.480,31.738,4.395,-23.926,0
134344.265,63.477,40.527,33.203,31.250,33.203,0
134344.269,55.664,41.504,38.086,53.223,73.242,0
134344.273,11.230,39.551,40.039,33.691,31.738,0
134344.277,3.418,36.621,38.574,5.859,9.277,0
134344.280,45.898,34.180,35.156,30.762,44.434,0
134344.284,59.082,35.156,30.762,51.758,62.988,0
134344.288,25.879,38.574,33.203,30.762,24.414,0
134344.292,2.441,38.086,30.762,-1.465,5.371,0
134344.296,19.043,34.180,29.297,12.207,20.508,0
134344.298,63.965,32.227,32.715,45.898,62.988,0
134344.302,36.133,29.297,37.109,28.320,66.895,0
134344.306,-21.973,31.738,35.645,0.000,-22.949,0
134344.310,5.371,37.109,31.738,5.371,-33.691,0
134344.314,57.617,39.062,30.762,37.598,30.273,0
134344.318,46.387,43.945,32.715,38.086,19.531,0
134344.321,-10.254,41.992,33.691,-5.859,-29.297,0
134344.325,5.371,35.156,33.203,-8.789,-26.367,0
134344.329,61.523,34.668,32.227,18.555,-1.953,0
134344.333,49.805,34.668,31.738,24.902,18.555,0
134344.337,0.488,35.156,28.809,10.254,-0.977,0
134344.341,-6.348,36.133,24.902,-8.301,-73.730,0
134344.344,46.875,34.668,27.344,6.348,-64.941,0
134344.348,66.895,32.227,31.738,35.645,13.184,0
134344.352,35.156,34.180,34.180,21.973,12.695,0
134344.356,7.812,36.133,37.598,1.465,-40.039,0
134344.360,20.508,37.109,37.109,11.230,-37.598,0
134344.364,55.176,38.574,32.715,34.180,32.227,0
134344.368,36.133,36.133,34.668,38.086,57.617,0
134344.372,-3.906,37.109,35.645,7.324,-21.973,0
134344.376,14.648,39.062,31.738,0.977,-86.426,0
134344.379,69.824,38.574,33.203,40.527,-15.625,0
134344.383,56.641,40.527,36.133,52.246,35.645,0
134344.387,14.648,44.922,38.086,26.855,17.090,0
134344.388,9.766,45.410,42.969,20.508,-27.832,0
134344.392,45.898,40.527,44.434,40.527,-10.742,0
134344.396,77.637,39.551,41.016,54.199,51.270,0
134344.400,40.039,41.992,35.645,28.809,14.160,0
134344.404,12.695,45.898,40.039,20.020,-52.734,0
134344.408,39.062,47.363,40.527,38.574,-7.812,0
134344.412,65.918,48.828,35.645,42.969,83.496,0
134344.415,41.504,48.828,39.551,34.668,67.383,0
134344.419,-8.301,48.828,40.039,3.906,6.348,0
134344.423,5.371,47.852,40.039,9.277,21.484,0
134344.427,60.547,41.504,40.039,40.039,90.820,0
134344.431,58.594,39.062,36.621,39.551,59.570,0
134344.433,2.930,38.574,33.203,11.230,-12.695,0
134344.437,1.465,39.551,35.156,14.160,3.906,0
134344.441,56.152,38.086,41.016,48.828,66.895,0
134344.445,62.012,37.109,45.898,52.246,86.426,0
134344.449,12.695,41.016,48.828,35.156,15.137,0
134344.453,12.207,41.504,54.688,35.645,-12.695,0
134344.457,61.523,41.016,55.176,48.340,19.531,0
134344.460,70.801,41.992,49.316,53.223,69.336,0
134344.464,33.203,44.434,44.922,39.062,63.965,0
134344.468,7.812,46.387,39.062,17.578,-17.090,0
134344.472,52.246,43.457,35.645,26.855,-15.137,0
134344.476,93.750,46.387,34.668,56.152,80.566,0
134344.479,60.059,48.828,41.992,50.293,83.984,0
134344.483,14.160,47.852,48.828,33.691,9.766,0
134344.487,33.203,49.316,41.992,31.738,14.648,0
134344.491,80.566,44.434,40.527,42.480,90.332,0
134344.495,68.359,39.551,44.922,38.574,116.211,0
134344.499,3.418,44.434,42.480,11.230,54.688,0
134344.503,-4.395,46.875,40.527,13.672,-8.301,0
134344.507,57.617,46.875,36.133,39.062,45.898,0
134344.511,77.637,46.387,27.344,41.016,125.488,0
134344.514,23.438,44.434,30.273,12.695,64.453,0
134344.518,18.066,45.898,38.086,-0.488,3.906,0
134344.522,78.613,48.340,36.133,30.273,85.938,0
134344.538,83.984,43.457,35.156,58.105,147.461,0
134344.542,28.320,40.039,35.156,43.457,67.383,0
134344.546,1.953,42.969,31.250,9.277,7.812,0
134344.550,36.621,42.480,32.227,16.113,16.602,0
134344.554,58.105,41.016,34.668,52.734,108.398,0
134344.558,53.711,43.457,35.156,39.062,110.840,0
134344.562,16.113,44.922,34.668,5.859,-4.395,0
134344.566,9.766,42.480,30.273,15.137,1.465,0
134344.569,61.523,43.457,29.785,46.875,82.031,0
134344.573,72.266,46.387,35.156,43.457,101.562,0
134344.577,28.809,43.945,38.574,11.230,29.297,0
134344.581,6.836,41.016,39.062,0.488,-20.508,0
134344.583,56.152,37.598,37.109,32.227,32.227,0
134344.587,72.266,37.598,42.969,48.828,60.059,0
134344.591,17.090,39.551,47.852,25.391,4.395,0
134344.595,2.930,40.039,39.551,7.812,-74.219,0
134344.599,49.316,44.434,34.668,27.832,-33.691,0
134344.603,72.754,47.363,37.598,61.523,42.480,0
134344.606,32.715,46.875,42.480,51.270,22.949,0
134344.610,3.906,41.992,37.598,14.160,-14.160,0
134344.614,21.484,36.133,37.598,12.207,2.441,0
134344.618,57.617,35.156,39.551,43.945,19.531,0
134344.622,43.457,34.180,35.645,43.945,15.625,0
134344.626,-10.254,32.227,33.203,5.859,-25.879,0
134344.628,3.418,34.180,34.668,5.371,-44.922,0
134344.632,64.941,32.715,28.320,38.574,15.137,0
134344.636,65.918,33.203,19.043,42.969,89.844,0
134344.640,5.859,37.598,23.926,20.508,52.734,0
134344.644,3.418,42.480,26.367,11.230,-48.340,0
134344.648,55.664,43.945,28.809,34.180,-30.762,0
134344.652,58.594,38.574,33.691,51.270,44.922,0
134344.656,22.461,37.598,41.016,26.367,0.977,0
134344.659,0.000,38.086,47.363,13.672,-100.586,0
134344.663,44.434,38.574,42.969,34.180,-64.453,0
134344.667,77.637,38.086,36.621,43.945,44.922,0
134344.671,17.090,35.156,36.133,26.367,67.871,0
134344.673,-25.879,31.738,38.574,0.000,-6.836,0
134344.677,19.531,33.691,38.086,15.625,-49.805,0
134344.681,68.848,39.062,34.668,45.898,1.953,0
134344.685,45.410,41.504,37.598,37.109,1.953,0
134344.689,2.930,40.527,39.062,4.883,-12.695,0
134344.693,16.602,39.062,35.156,3.906,-11.230,0
134344.696,54.688,35.645,33.203,35.156,28.809,0
134344.700,59.570,35.156,37.598,47.852,66.895,0
134344.704,19.043,38.086,42.480,26.855,17.090,0
134344.708,17.090,41.504,43.945,3.906,-41.016,0
134344.712,57.129,41.016,39.062,26.367,17.578,0
134344.716,69.336,39.551,37.109,39.551,74.707,1
134344.718,30.273,39.551,33.203,15.625,30.273,0
134344.722,-2.441,37.598,25.879,3.418,20.508,0
134344.726,34.668,34.180,32.715,12.695,51.758,0
134344.730,58.594,34.668,38.574,38.574,108.398,0
134344.734,41.992,38.086,41.504,34.180,101.074,0
134344.738,14.648,37.598,46.875,3.906,38.086,0
134344.741,19.531,37.598,45.410,21.484,22.461,0
134344.745,63.965,36.133,40.527,47.852,61.035,0
134344.749,58.105,35.645,37.109,31.738,74.219,0
134344.753,4.883,35.156,35.156,5.859,6.348,0
134344.757,-1.953,31.250,36.133,6.836,-6.348,0
134344.761,48.828,30.273,37.598,34.668,42.480,0
134344.763,61.523,29.297,39.062,43.945,75.195,0
134344.767,12.695,27.832,38.574,10.254,71.289,0
134344.771,1.953,30.273,34.668,-2.930,7.812,0
134344.775,43.945,32.715,34.668,30.273,0.488,0
134344.779,66.406,33.691,36.621,50.293,70.312,0
134344.783,34.668,32.715,37.598,22.949,64.941,0
134344.786,-10.254,30.762,34.668,0.000,20.020,0
134344.790,13.672,31.738,30.273,11.719,-3.906,0
134344.794,50.293,32.227,24.414,27.832,18.066,0
134344.798,22.461,34.180,23.438,19.531,93.750,0
134344.802,-21.484,31.738,26.855,0.000,38.086,0
134344.806,-4.395,26.367,20.996,5.371,-25.879,0
134344.809,62.500,28.809,14.648,25.879,29.785,0
134344.813,66.406,34.668,22.461,30.762,39.062,0
134344.817,8.301,34.180,33.691,4.883,-33.691,0
134344.821,2.930,33.691,35.156,-2.441,-48.828,0
134344.825,57.129,35.645,29.785,32.227,-6.836,0
134344.829,69.824,37.109,25.879,54.688,15.137,0
134344.833,34.180,40.039,30.762,25.879,-20.020,0
134344.837,0.977,40.039,28.809,2.441,-67.383,0
134344.841,27.344,36.621,26.855,25.879,-4.883,0
134344.844,61.523,32.227,29.785,46.387,81.055,0
134344.848,30.273,32.227,24.902,25.391,33.691,0
134344.852,1.953,34.668,26.367,-1.953,-64.941,0
134344.853,13.184,29.297,27.344,11.230,-35.645,0
134344.857,55.664,30.273,25.879,47.363,52.246,0
134344.861,54.199,35.156,30.273,36.621,60.059,0
134344.865,13.184,39.062,35.156,11.230,-15.625,0
134344.869,18.066,38.086,38.574,25.391,-62.988,0
134344.873,65.918,32.715,36.621,53.711,11.719,0
134344.877,85.449,35.645,34.180,51.758,33.203,0
134344.880,50.293,34.180,38.574,18.555,-25.391,0
134344.884,27.344,31.738,36.621,22.461,-28.809,0
134344.888,71.777,34.180,26.855,56.152,5.859,0
134344.892,83.496,39.062,27.344,51.758,43.457,0
134344.896,44.434,41.504,29.785,17.090,25.391,0
134344.913,23.926,41.016,27.344,2.441,-19.043,0
134344.917,59.082,43.945,25.391,22.461,2.441,0
134344.921,76.172,44.434,24.902,45.410,48.828,0
134344.925,32.715,41.504,30.762,39.062,59.570,0
134344.929,0.488,37.598,33.203,18.555,7.812,0
134344.933,22.949,38.574,29.785,12.695,-30.273,0
134344.937,74.707,41.016,29.785,36.621,38.574,0
134344.941,59.570,42.969,28.320,39.551,100.098,0
134344.945,3.906,44.922,28.809,17.090,14.648,0
134344.949,15.137,39.551,30.762,27.344,-15.137,0
134344.953,71.289,33.691,32.227,50.293,61.035,0
134344.956,72.266,36.621,33.691,59.082,69.336,0
134344.959,23.926,41.016,36.133,26.855,40.527,0
134344.962,8.301,39.551,37.598,0.488,-5.859,0
134344.966,55.176,36.621,32.227,29.297,33.691,0
134344.970,75.684,31.250,29.297,55.664,113.281,0
134344.974,35.156,29.785,32.227,42.480,64.453,0
134344.978,5.859,36.621,30.273,14.648,-25.879,0
134344.982,28.809,40.527,28.809,26.367,2.930,0
134344.986,60.547,36.621,30.762,58.105,109.863,0
134344.990,37.598,37.109,32.227,50.781,83.984,0
134344.994,1.953,44.434,35.645,16.602,-22.949,0
134344.998,26.367,45.410,32.227,11.719,-10.254,0
134345.001,78.125,41.016,24.414,46.387,75.684,0
134345.003,59.570,42.969,31.250,49.805,72.266,0
134345.007,5.371,42.480,34.668,13.184,-1.953,0
134345.011,12.695,40.527,29.297,15.625,9.766,0
134345.015,62.988,38.574,28.809,62.012,83.984,0
134345.019,83.984,37.109,27.344,65.918,120.117,0
134345.023,48.340,38.086,32.715,29.297,56.641,0
134345.027,25.879,37.598,36.133,26.367,26.367,0
134345.030,64.941,39.551,31.250,49.805,99.121,0
134345.034,76.660,43.457,30.762,62.012,110.840,0
134345.038,41.016,42.969,35.645,42.969,64.453,0
134345.042,5.371,44.434,34.668,17.090,50.781,0
134345.046,26.855,44.434,30.762,42.969,50.293,0
134345.049,69.336,39.062,22.949,62.500,110.352,0
134345.053,61.035,34.180,20.020,39.551,124.512,0
134345.056,14.160,33.691,28.809,14.648,43.945,0
134345.060,27.832,33.691,32.715,16.113,45.898,0
134345.064,84.961,30.273,32.227,48.340,110.840,0
134345.068,70.801,32.715,33.203,49.316,93.262,0
134345.072,24.902,34.180,36.133,22.461,66.406,0
134345.076,18.066,37.109,34.668,8.789,62.012,0
134345.080,62.500,37.598,32.715,27.832,44.922,0
134345.084,83.008,39.551,35.156,49.805,88.867,0
134345.088,47.852,44.434,35.645,29.297,82.031,0
134345.092,28.320,42.969,29.297,13.184,21.484,0
134345.093,57.129,38.086,23.926,44.434,31.738,0
134345.097,78.613,35.156,30.273,65.430,83.008,0
134345.101,48.340,36.621,37.109,35.156,76.660,0
134345.105,10.742,37.598,42.969,6.348,10.742,0
134345.109,29.297,39.551,42.480,22.461,30.762,0
134345.113,67.871,37.109,39.551,52.246,118.652,0
134345.117,49.805,31.250,46.875,47.852,117.188,0
134345.120,15.137,32.227,47.363,15.137,44.922,0
134345.124,25.391,33.203,41.504,12.695,24.902,0
134345.128,71.777,30.273,40.527,46.387,115.723,0
134345.132,66.895,30.762,41.016,51.270,135.742,0
134345.136,13.184,37.109,40.527,21.484,62.012,0
134345.138,6.348,39.551,36.621,20.020,10.742,0
134345.142,43.945,40.039,35.645,45.410,40.039,0
134345.146,69.336,44.922,41.504,40.039,113.281,0
134345.150,24.902,43.945,43.457,20.020,116.699,0
134345.154,-15.625,41.016,37.109,15.625,40.527,0
134345.158,47.852,44.922,36.133,34.180,47.363,0
134345.162,86.426,43.457,38.086,55.664,121.094,0
134345.165,32.227,40.527,38.574,44.434,108.398,0
134345.169,-10.742,38.574,41.992,15.625,21.484,0
134345.173,18.555,42.969,39.551,24.902,20.508,0
134345.177,71.289,48.340,33.203,55.664,70.801,0
134345.181,71.289,49.316,33.691,58.594,70.801,0
134345.183,31.250,50.781,42.969,32.227,30.762,0
134345.187,24.414,49.805,48.340,24.902,-20.020,0
134345.191,72.266,50.781,41.016,58.105,39.062,0
134345.195,88.867,51.270,41.504,70.312,109.375,0
134345.199,35.645,45.898,46.387,38.086,45.898,0
134345.203,12.695,42.969,48.340,21.973,-8.301,2
134345.207,57.129,45.410,45.410,38.086,-3.906,0
134345.210,67.871,45.410,37.598,46.875,23.926,0
134345.214,29.297,43.457,35.156,28.320,1.953,0
134345.218,9.766,47.852,36.133,14.648,-59.570,0
134345.222,43.457,42.969,35.645,35.645,-31.738,0
134345.226,77.637,32.715,36.621,58.105,59.082,0
134345.228,58.594,36.133,38.086,42.480,94.238,0
134345.232,8.301,43.945,36.133,7.812,7.812,0
134345.236,10.742,41.016,34.180,18.066,-47.852,0
134345.240,58.594,34.668,35.645,62.988,10.742,0
134345.244,46.875,37.598,39.551,47.852,56.152,0
134345.248,10.742,40.527,39.062,3.906,-2.441,0
134345.252,8.789,41.504,34.180,18.066,-99.121,0
134345.255,43.945,39.062,38.574,41.016,-13.184,0
134345.259,61.035,32.227,39.551,36.133,101.074,0
134345.263,20.508,37.109,34.668,19.531,48.828,0
134345.267,-1.953,41.016,33.203,-1.953,10.742,0
134345.271,45.410,39.551,35.645,16.602,55.176,0
134345.274,78.613,42.480,33.203,38.574,112.793,0
134345.278,42.969,42.969,29.297,16.113,86.914,0
134345.282,-5.859,42.969,36.621,-3.906,23.926,0
134345.286,15.625,43.457,42.480,20.508,21.973,0
134345.290,84.473,35.156,41.504,55.176,83.984,0
134345.294,47.363,26.855,43.945,40.527,82.031,0
134345.298,-27.832,32.227,43.945,8.789,-6.836,0
134345.302,3.418,41.016,46.387,5.371,-27.344,0
134345.306,64.941,44.922,47.852,33.691,38.086,0
134345.309,53.223,43.457,41.992,34.668,77.148,0
134345.313,10.742,40.039,38.574,11.230,22.949,0
134345.317,6.836,39.062,33.203,2.930,-26.367,0
134345.333,45.898,35.645,28.320,22.949,44.434,0
134345.337,65.918,36.621,30.273,44.434,103.027,0
134345.341,26.367,35.645,33.203,22.461,24.414,0
134345.345,2.441,31.738,36.621,-3.418,-35.156,0
134345.349,17.090,34.180,35.645,20.020,16.602,0
134345.353,38.574,35.156,34.180,35.156,57.129,0
134345.356,13.184,30.273,39.551,18.555,36.621,0
134345.360,-36.621,29.297,37.598,-8.789,-12.207,0
134345.364,-4.883,32.715,33.203,0.977,-21.484,0
134345.368,48.828,34.180,29.297,39.062,7.812,0
134345.372,36.621,40.039,29.297,35.645,0.000,0
134345.376,-11.719,45.410,31.250,7.812,-60.547,0
134345.378,-14.648,44.922,31.250,8.789,-81.543,0
134345.382,32.715,44.922,33.203,40.039,-9.766,0
134345.386,26.855,41.504,38.086,44.434,22.461,0
134345.390,-30.762,35.645,37.598,9.766,-13.672,0
134345.394,-33.691,35.645,35.156,4.395,-65.918,0
134345.398,19.043,37.598,41.016,49.316,-61.035,0
134345.402,39.062,42.969,41.992,55.176,-5.371,0
134345.406,-3.906,46.875,37.598,24.414,-18.555,0
134345.410,-41.016,47.363,38.574,6.348,-77.148,0
134345.413,8.301,42.480,40.039,26.855,-79.102,0
134345.417,51.270,41.992,40.039,57.617,-6.348,0
134345.421,14.648,48.828,40.527,43.945,-4.883,0
134345.424,-16.113,50.293,41.504,8.301,-70.801,0
134345.428,16.113,46.875,41.504,20.020,-72.754,0
134345.432,61.035,44.922,40.527,60.059,20.020,0
134345.435,44.922,48.340,41.016,56.641,48.340,0
134345.439,8.789,53.711,36.621,23.438,1.953,0
134345.443,18.066,52.734,31.738,16.113,-30.273,0
134345.447,70.312,51.758,34.668,47.852,18.066,0
134345.451,79.590,50.293,36.133,69.336,70.801,0
134345.455,26.367,50.781,38.086,42.969,2.930,0
134345.459,4.883,47.363,43.457,16.602,-23.926,0
134345.463,46.875,39.551,40.039,34.668,35.645,0
134345.467,64.453,39.551,40.039,51.758,66.895,0
134345.468,34.180,38.574,41.016,33.203,62.012,0
134345.472,10.254,33.203,40.527,17.578,12.695,0
134345.476,43.457,36.133,37.109,40.527,30.762,0
134345.480,73.242,40.039,29.785,70.312,137.207,0
134345.484,52.246,43.457,28.320,58.594,116.699,0
134345.488,17.090,44.922,32.227,17.090,-14.648,0
134345.492,37.598,38.086,35.156,14.160,-47.852,0
134345.495,87.402,36.621,36.133,44.922,-14.648,0
134345.499,58.105,40.039,40.039,45.410,2.441,0
134345.503,2.930,43.457,47.363,19.043,11.719,0
134345.507,10.742,41.504,47.852,18.555,4.395,0
134345.511,59.570,34.180,38.086,53.223,62.988,0
134345.514,88.867,33.691,34.668,65.918,90.820,0
134345.518,43.945,36.621,38.574,33.691,33.203,0
134345.522,7.324,38.086,39.062,12.207,0.977,0
134345.526,57.617,36.133,36.133,39.551,32.227,0
134345.530,87.402,35.645,36.133,65.430,100.098,0
134345.534,59.570,41.992,40.039,44.434,62.500,0
134345.538,20.508,40.039,48.828,17.578,17.578,0
134345.542,47.363,37.109,48.828,30.273,-9.277,0
134345.546,89.844,39.551,41.016,50.293,15.137,0
134345.549,62.988,35.156,36.133,49.316,103.027,0
134345.553,19.531,38.574,35.645,23.926,49.316,0
134345.557,39.062,40.527,38.574,5.371,4.883,0
134345.558,86.914,38.574,39.062,41.992,87.891,0
134345.562,67.871,42.480,35.156,58.594,125.000,0
134345.566,24.414,41.992,30.273,23.438,64.453,0
134345.570,32.715,37.598,32.715,10.742,49.805,0
134345.574,70.312,36.621,36.621,31.738,96.191,0
134345.578,82.520,40.039,39.551,46.387,120.117,0
134345.582,37.598,40.527,41.504,24.902,68.848,0
134345.585,7.324,39.062,38.574,1.953,-1.953,0
134345.589,49.805,36.133,36.133,33.691,54.199,0
134345.593,79.102,36.621,32.715,74.219,137.207,0
134345.597,47.852,35.156,31.738,41.992,108.887,0
134345.601,18.555,31.250,35.156,-6.836,33.691,0
134345.603,54.688,34.668,37.598,14.160,57.617,0
134345.607,101.074,41.992,43.457,57.129,119.141,0
134345.611,87.402,42.480,43.457,49.316,110.840,0
134345.615,41.992,41.016,40.527,13.184,83.984,0
134345.619,46.875,40.527,39.062,19.043,57.129,0
134345.623,92.773,36.621,32.227,46.875,86.914,0
134345.627,80.566,34.180,30.762,42.969,112.305,0
134345.630,32.227,38.086,34.180,17.578,60.547,0
134345.634,41.016,44.434,32.715,18.066,40.039,0
134345.638,87.891,45.410,31.250,36.133,97.168,0
134345.642,90.332,43.457,32.227,49.805,125.977,0
134345.646,46.875,42.480,34.180,27.832,102.051,0
134345.648,24.902,44.922,32.227,2.441,39.062,0
134345.652,50.293,41.016,27.344,22.949,41.504,0
134345.656,76.660,36.621,27.344,46.387,111.816,0
134345.660,54.688,35.645,31.250,33.203,111.816,0
134345.664,13.184,37.598,36.621,9.766,74.707,0
134345.668,51.758,41.504,36.621,24.414,75.195,0
134345.671,100.586,37.109,34.668,55.664,79.102,0
134345.675,58.594,34.668,30.762,52.246,96.191,0
134345.679,9.766,37.109,32.715,25.879,78.125,0
134345.683,13.184,37.598,39.551,19.531,16.602,2
134345.687,62.012,37.598,39.062,41.504,40.527,0
134345.691,77.148,36.133,35.645,56.152,104.980,0
134345.708,21.484,32.715,32.715,40.039,89.844,0
134345.712,6.836,33.203,34.180,14.648,31.250,0
134345.716,61.523,35.645,36.133,30.273,86.426,0
134345.720,87.402,39.551,34.180,57.129,168.457,0
134345.724,21.484,42.480,35.156,30.273,111.816,0
134345.728,-23.438,42.480,29.785,3.906,22.461,0
134345.731,27.832,41.016,23.926,26.367,38.574,0
134345.735,66.406,39.062,28.320,45.898,108.398,0
134345.739,36.133,39.551,33.691,28.320,100.098,0
134345.743,-4.395,39.062,35.156,2.441,7.324,0
134345.747,15.137,35.156,27.832,13.672,-34.668,0
134345.751,60.059,34.668,19.043,45.898,44.922,0
134345.753,48.340,34.180,20.996,49.805,110.840,0
134345.757,0.488,33.203,27.344,22.949,83.496,0
134345.761,-1.953,33.203,28.320,19.043,41.992,0
134345.765,44.434,31.738,26.855,44.434,74.707,0
134345.769,56.152,32.715,30.273,41.504,109.863,0
134345.773,14.160,37.598,30.762,15.137,38.086,0
134345.776,4.395,41.504,34.180,9.277,-34.180,0
134345.780,54.199,41.016,33.203,41.504,32.227,0
134345.784,77.148,41.016,20.020,59.082,73.242,0
134345.788,41.992,42.969,0.000,30.762,15.625,0
134345.792,14.648,43.457,-4.883,-3.418,-0.977,0
134345.796,28.320,43.457,20.508,18.066,49.316,0
134345.798,71.777,44.922,32.715,54.199,99.121,0
134345.802,62.988,46.387,22.949,44.434,97.168,0
134345.806,15.625,41.504,34.668,14.160,50.293,0
134345.810,29.785,38.574,49.805,15.625,-2.441,0
134345.814,88.379,42.480,45.410,51.758,52.246,0
134345.818,67.871,44.434,35.645,62.500,92.773,0
134345.821,12.207,44.434,28.320,8.301,41.992,0
134345.825,4.395,43.945,31.250,-5.859,-0.488,0
134345.829,44.922,39.551,30.273,34.180,9.277,0
134345.833,75.684,39.551,25.391,37.109,83.008,0
134345.837,35.645,42.969,29.785,6.836,98.633,0
134345.841,5.371,39.551,34.180,-4.883,44.434,0
134345.843,46.387,36.133,35.156,17.578,60.547,0
134345.847,80.078,35.645,35.156,43.457,92.285,0
134345.851,31.250,38.574,35.156,29.785,66.895,0
134345.855,-10.742,41.016,40.527,6.348,24.414,0
134345.859,16.113,37.109,41.016,12.207,41.016,0
134345.863,47.363,31.738,31.738,34.180,93.262,0
134345.867,31.738,28.320,29.785,34.668,123.535,0
134345.871,-10.254,36.621,32.715,9.766,53.711,0
134345.875,-4.883,41.016,29.297,10.742,-30.762,0
134345.879,44.922,37.109,26.367,43.457,78.613,0
134345.883,57.617,41.504,36.133,46.875,124.512,0
134345.886,21.484,43.457,38.086,8.301,28.809,0
134345.888,6.348,40.527,30.273,4.883,6.348,0
134345.892,36.133,40.039,22.461,35.645,61.523,0
134345.896,59.082,46.875,22.949,57.129,116.699,0
134345.900,14.160,50.781,29.785,38.574,85.449,0
134345.904,-22.461,46.875,35.156,15.625,18.555,0
134345.908,23.926,39.062,34.180,31.738,30.273,0
134345.912,47.363,36.133,27.832,56.152,73.242,0
134345.915,1.953,41.504,29.785,36.621,40.527,0
134345.919,-17.090,41.016,37.109,-1.953,-11.230,0
134345.923,8.789,34.668,42.480,13.184,24.902,0
134345.927,49.316,33.203,43.457,51.270,90.820,0
134345.931,38.574,36.133,37.598,52.734,88.379,0
134345.933,-19.531,41.992,25.391,23.438,31.250,0
134345.937,-13.184,44.434,26.855,20.508,1.465,0
134345.941,39.551,41.016,39.551,54.688,39.062,0
134345.945,49.316,40.527,44.434,61.523,38.574,0
134345.949,12.207,43.457,33.691,23.926,-20.508,0
134345.953,1.953,40.527,34.180,10.254,-48.828,0
134345.956,34.180,37.598,43.945,34.180,-25.879,0
134345.960,51.758,42.969,50.293,49.316,16.602,0
134345.964,28.320,38.574,51.270,29.297,17.578,0
134345.968,11.719,35.645,42.480,8.789,0.488,0
134345.972,30.273,46.875,39.062,41.992,13.184,0
134345.976,49.805,51.758,40.527,63.965,55.176,0
134345.979,30.273,44.922,38.574,41.504,52.246,0
134345.983,-6.348,38.086,40.039,22.461,28.809,0
134345.987,22.949,39.062,37.598,30.762,12.207,0
134345.991,65.918,39.062,35.156,57.129,33.691,0
134345.995,41.504,34.668,42.480,47.363,87.402,0
134345.999,-4.883,36.621,42.969,17.090,36.621,0
134346.003,1.953,34.180,37.598,10.742,-23.926,0
134346.007,47.852,28.809,36.133,39.062,49.805,0
134346.011,59.082,30.762,38.086,45.898,122.559,0
134346.014,24.902,34.668,39.551,10.254,75.684,0
134346.018,6.836,41.504,37.109,-2.441,3.906,0
134346.022,52.246,41.504,33.203,35.645,18.066,0
134346.038,77.637,34.668,33.691,50.781,100.586,0
134346.042,42.480,34.180,36.621,14.648,95.215,0
134346.046,10.742,36.133,37.598,5.371,29.785,0
134346.050,31.738,35.156,36.621,26.367,14.160,0
134346.054,75.195,33.691,35.645,53.223,85.449,0
134346.058,72.754,37.109,38.086,64.941,94.727,0
134346.062,17.090,46.387,44.434,25.879,-6.348,0
134346.065,2.930,41.992,44.434,20.508,9.766,0
134346.069,57.617,31.738,36.133,53.223,92.285,0
134346.073,64.941,37.598,35.156,55.664,96.680,0
134346.077,7.324,40.039,36.621,28.320,23.438,0
134346.081,-8.301,34.180,33.691,15.137,-12.695,0
134346.083,49.805,31.250,36.133,43.945,49.805,0
134346.087,80.566,31.738,40.527,60.547,98.145,0
134346.091,44.922,37.109,41.016,32.715,77.148,0
134346.095,19.531,41.016,35.645,3.906,28.809,0
134346.099,49.316,40.527,34.668,13.672,38.574,0
134346.103,81.055,43.457,35.645,40.527,79.590,1
134346.106,62.012,47.363,35.645,26.367,31.738,0
134346.110,28.320,46.875,36.621,2.930,-54.199,0
134346.114,55.664,46.875,33.691,20.020,-13.672,0
134346.118,108.398,40.527,30.273,49.805,59.082,0
134346.122,75.195,36.621,30.273,34.180,79.590,0
134346.126,21.973,42.969,34.668,15.137,46.875,0
134346.128,42.480,46.875,38.574,26.855,-10.254,0
134346.132,82.031,45.410,37.109,47.852,68.848,0
134346.136,83.984,44.434,38.086,57.617,122.559,0
134346.140,42.480,45.410,40.527,33.691,76.172,0
134346.144,34.180,46.387,36.133,22.461,46.875,0
134346.148,62.988,42.480,35.645,53.223,64.941,0
134346.151,69.824,41.016,40.039,67.383,104.492,0
134346.155,33.203,39.062,40.039,42.969,61.035,0
134346.159,9.766,37.598,38.574,20.508,-21.484,0
134346.163,48.340,41.992,37.598,31.738,-9.277,0
134346.167,95.703,41.504,36.621,50.293,113.281,0
134346.171,70.801,41.992,37.109,34.668,104.980,0
134346.173,25.391,44.922,38.086,8.789,-15.137,0
134346.177,53.711,45.410,32.227,13.184,0.488,0
134346.181,97.656,48.340,25.879,36.133,75.195,0
134346.185,83.496,53.223,31.250,34.668,91.797,0
134346.189,58.594,55.176,37.598,15.137,54.688,0
134346.193,52.246,51.270,35.156,19.531,-3.906,0
134346.196,83.008,43.945,37.598,51.270,55.664,0
134346.200,94.238,43.945,45.410,64.453,126.953,0
134346.204,42.969,50.293,47.852,34.668,30.762,0
134346.208,32.227,44.922,40.527,9.766,-31.738,0
134346.212,83.496,37.109,29.297,41.992,56.641,0
134346.216,93.750,38.574,28.320,64.941,133.301,0
134346.219,42.969,42.969,39.551,28.809,101.562,0
134346.223,22.949,49.316,43.457,0.488,17.578,0
134346.227,51.270,44.922,33.203,27.832,23.926,0
134346.231,77.148,42.969,32.715,50.781,110.352,0
134346.235,53.223,45.410,41.992,25.391,100.586,0
134346.239,7.324,42.480,47.363,-3.418,33.203,0
134346.243,14.648,42.969,41.992,4.395,14.648,0
134346.247,56.152,40.527,30.273,35.645,33.203,0
134346.251,55.664,36.621,29.785,30.762,30.273,0
134346.254,12.695,40.527,32.715,0.488,15.625,0
134346.258,16.113,47.363,32.227,-0.977,-6.836,0
134346.262,69.824,49.316,33.691,40.039,-0.977,0
134346.263,83.008,46.387,36.621,53.223,38.574,0
134346.267,38.086,45.898,34.668,20.996,12.207,0
134346.271,3.418,44.434,39.551,10.254,-26.367,0
134346.275,37.109,39.551,38.574,20.996,14.160,0
134346.279,74.707,38.086,30.273,28.320,52.734,0
134346.283,44.434,36.621,32.227,14.648,41.016,0
134346.287,1.953,36.133,33.203,-11.230,14.648,0
134346.291,24.414,37.598,28.809,0.488,4.883,0
134346.295,74.219,38.574,26.367,35.156,31.738,0
134346.299,55.664,43.457,24.902,30.273,82.031,0
134346.302,6.348,46.387,35.156,2.441,26.855,0
134346.306,27.832,42.969,46.875,13.184,0.488,0
134346.309,78.613,41.504,40.039,47.363,59.570,0
134346.313,53.711,41.016,33.203,40.527,49.805,0
134346.317,4.395,43.945,37.109,22.461,-18.066,0
134346.321,4.395,48.828,38.574,25.391,-44.434,0
134346.325,38.086,42.969,36.621,30.762,9.277,0
134346.329,58.594,37.109,36.621,41.504,63.477,0
134346.333,20.508,36.621,39.551,23.926,37.109,0
134346.337,-4.883,38.574,39.062,7.812,-46.387,0
134346.340,41.504,44.434,36.621,29.785,-31.738,0
134346.344,75.195,45.410,36.621,54.688,72.754,0
134346.348,52.734,47.363,36.133,44.434,63.477,0
134346.352,23.926,49.316,32.715,10.742,-14.648,0
134346.353,46.875,44.922,32.715,21.484,-27.344,0
134346.357,73.242,41.992,37.598,57.129,41.504,0
134346.361,44.922,40.039,38.574,42.969,51.758,0
134346.365,17.578,41.992,38.086,1.465,-4.395,0
134346.369,21.484,44.434,41.016,-1.953,-24.902,0
134346.373,47.852,39.551,41.992,26.367,2.930,0
134346.377,50.293,40.527,31.738,32.227,24.414,0
134346.380,15.625,42.969,33.203,9.766,19.043,0
134346.384,11.230,42.480,42.480,3.906,5.371,0
134346.388,67.383,45.898,38.086,34.180,20.508,0
134346.392,91.309,45.410,36.133,57.617,74.219,0
134346.396,24.414,39.551,36.133,29.297,36.621,0
134346.413,-10.254,37.598,37.109,2.441,1.465,0
134346.417,37.109,32.715,40.039,32.715,34.180,0
134346.421,70.312,34.180,41.016,59.082,67.383,0
134346.425,31.738,41.992,37.598,37.598,71.289,0
134346.429,-20.508,45.410,36.621,8.301,24.902,0
134346.433,13.672,42.480,34.180,19.531,-0.488,0
134346.437,66.406,41.992,35.156,50.781,49.805,0
134346.440,60.059,46.387,43.945,48.340,85.938,0
134346.444,23.438,48.828,49.805,24.414,1.465,0
134346.448,2.930,47.852,49.805,23.926,-50.781,0
134346.452,38.574,45.898,46.875,55.176,13.672,0
134346.456,47.363,46.387,41.016,44.434,97.168,0
134346.458,15.137,46.387,38.574,17.090,39.062,0
134346.462,1.953,41.504,42.969,20.508,-53.711,0
134346.466,21.973,42.480,42.480,42.480,-6.836,0
134346.470,56.152,45.898,37.109,56.641,75.195,0
134346.474,27.832,45.410,35.156,32.715,62.012,0
134346.478,-11.230,44.434,35.156,15.137,-0.488,0
134346.481,29.785,38.574,36.621,29.785,-11.719,0
134346.485,63.477,35.645,41.992,46.387,44.434,0
134346.489,26.367,39.062,41.992,43.945,45.410,0
134346.493,-11.719,41.992,38.574,21.484,-66.406,0
134346.497,-0.977,39.551,35.645,7.324,-108.398,0
134346.501,44.434,36.133,32.715,29.785,3.906,0
134346.503,45.898,36.133,31.738,38.086,0.000,0
134346.507,11.230,34.180,33.203,13.672,-76.172,0
134346.511,16.602,34.668,34.668,8.301,-61.523,0
134346.515,52.246,39.062,37.109,37.109,6.836,0
