timestamps,TP9,AF7,AF8,TP10,Right AUX,Marker0
134749.299,22.461,21.973,7.812,6.836,55.176,0
134749.303,27.832,27.344,11.230,11.230,44.922,0
134749.307,25.391,26.367,3.418,15.137,49.805,0
134749.311,26.367,25.879,7.812,13.672,43.945,0
134749.315,26.367,27.832,20.996,10.742,37.598,0
134749.319,27.832,22.949,26.367,7.324,54.688,0
134749.322,31.250,23.438,30.762,16.602,40.527,0
134749.326,25.391,26.367,27.832,24.902,64.941,0
134749.330,22.461,19.531,20.996,15.625,56.152,0
134749.334,26.367,18.555,18.066,16.113,15.625,0
134749.338,40.039,19.531,14.648,29.785,29.297,0
134749.342,41.504,20.020,12.207,26.367,79.590,0
134749.359,26.367,30.273,8.789,9.766,74.707,0
134749.363,20.996,30.273,8.789,3.418,1.465,0
134749.367,22.949,28.809,11.230,9.277,24.902,0
134749.371,24.414,33.691,15.137,20.996,45.898,0
134749.374,24.902,35.645,17.090,25.391,-3.906,0
134749.378,30.273,35.156,7.324,20.508,-22.949,0
134749.382,36.133,32.227,8.789,20.508,-24.902,0
134749.386,38.574,32.715,25.391,34.180,0.977,0
134749.390,34.180,30.762,28.809,31.738,16.113,0
134749.394,29.297,25.879,24.902,14.160,-5.371,0
134749.398,33.691,27.832,24.902,17.090,3.418,0
134749.402,34.180,38.086,26.367,32.227,25.879,0
134749.404,30.762,33.203,22.461,37.598,60.059,0
134749.408,25.879,18.066,19.531,26.367,56.641,0
134749.412,23.926,16.113,16.602,16.113,21.973,0
134749.416,26.367,19.043,16.113,18.555,54.688,0
134749.420,25.391,22.461,19.043,25.879,74.707,0
134749.423,20.996,26.855,18.555,24.414,47.363,0
134749.427,14.160,29.297,16.602,15.137,5.859,0
134749.431,19.043,38.086,17.578,14.648,22.461,0
134749.435,31.738,39.062,21.484,23.438,59.082,0
134749.439,27.832,30.762,22.461,23.438,16.113,0
134749.443,16.602,25.391,20.508,11.719,-5.371,0
134749.447,19.531,27.832,17.578,14.160,20.020,0
134749.449,24.414,30.273,19.531,27.344,37.109,0
134749.453,25.879,25.879,20.996,25.391,55.176,0
134749.457,23.438,28.809,17.578,15.625,5.859,0
134749.461,23.438,36.133,17.578,15.137,-14.160,0
134749.465,25.391,33.691,19.531,24.902,8.301,0
134749.468,29.297,31.250,24.902,30.762,-15.137,0
134749.472,29.297,33.691,28.320,28.320,-19.043,0
134749.476,24.902,33.203,24.414,22.461,-28.809,0
134749.480,27.832,33.203,19.531,22.461,-50.781,0
134749.484,26.855,32.715,19.531,30.273,-6.348,0
134749.488,20.020,31.250,23.926,28.809,26.855,0
134749.492,16.602,30.273,24.902,19.043,-15.137,0
134749.494,25.879,32.227,25.391,22.949,-28.809,0
134749.498,32.715,29.785,25.879,34.180,1.465,0
134749.502,23.926,27.344,26.855,32.227,5.371,0
134749.506,19.043,29.297,28.809,24.902,2.441,0
134749.510,22.461,28.320,29.785,25.391,-19.043,0
134749.514,27.832,30.762,26.367,37.598,-24.414,0
134749.517,31.250,36.133,23.438,41.504,15.137,0
134749.521,18.066,36.621,23.926,26.855,-1.953,0
134749.525,18.555,35.645,28.809,27.344,-47.363,0
134749.529,35.156,34.668,31.738,36.133,-25.391,0
134749.533,27.344,29.297,27.832,33.691,-6.836,0
134749.537,12.695,24.902,20.508,26.367,-11.719,0
134749.539,16.113,27.344,19.531,20.996,-47.852,0
134749.543,25.391,28.809,22.949,24.902,-20.996,0
134749.547,27.344,24.902,27.832,33.203,27.344,0
134749.551,23.438,19.531,30.273,33.203,45.410,0
134749.555,24.414,21.484,27.832,26.367,34.180,0
134749.558,27.344,30.762,30.762,23.926,-4.395,0
134749.562,27.344,33.691,36.621,38.086,5.371,0
134749.566,28.809,36.133,33.691,42.480,25.879,0
134749.570,25.391,35.645,26.367,26.855,18.555,0
134749.574,19.043,31.738,24.414,24.414,28.809,0
134749.578,25.879,36.133,29.785,33.203,37.109,0
134749.582,28.320,40.039,28.320,37.109,41.016,0
134749.585,19.043,35.645,21.973,30.273,37.109,0
134749.589,18.555,28.809,24.414,20.996,15.137,0
134749.593,27.832,30.273,15.137,26.367,6.348,0
134749.597,38.086,27.344,5.859,38.574,40.039,0
134749.601,39.551,21.973,22.461,38.574,56.641,0
134749.605,37.109,29.785,25.879,28.809,23.926,0
134749.609,32.227,34.180,22.461,24.414,-17.578,0
134749.613,30.762,31.738,38.086,30.762,-27.344,0
134749.616,35.156,34.668,42.969,27.832,47.363,0
134749.620,21.973,35.156,39.062,20.996,50.781,0
134749.624,16.602,32.715,37.109,19.531,25.391,0
134749.628,28.320,33.203,30.762,27.832,52.246,0
134749.629,27.832,27.832,24.902,29.785,81.543,0
134749.633,25.879,24.902,21.973,20.996,74.219,0
134749.637,31.738,25.391,17.578,23.438,28.320,0
134749.641,26.855,29.785,18.066,29.297,42.480,0
134749.645,22.949,35.645,18.066,26.855,64.453,0
134749.649,20.508,39.062,20.508,19.043,25.391,0
134749.652,18.066,42.480,23.438,16.602,-13.672,0
134749.656,20.996,32.715,21.973,24.902,5.371,0
134749.660,24.414,27.344,25.879,33.691,68.848,0
134749.664,24.414,33.203,28.320,31.738,67.383,0
134749.668,27.344,34.180,32.715,25.391,34.180,0
134749.672,27.344,36.133,38.574,29.297,47.852,0
134749.689,29.785,37.109,36.621,40.039,79.102,0
134749.693,30.762,39.551,34.180,35.645,67.871,0
134749.697,26.855,41.992,27.832,22.949,20.996,0
134749.701,28.320,39.062,20.996,24.414,-14.648,0
134749.705,32.715,34.180,20.996,34.668,-1.953,0
134749.709,34.180,35.645,19.043,37.109,4.883,0
134749.712,33.203,38.574,15.625,22.949,-18.555,0
134749.716,35.156,36.133,18.066,18.066,-21.973,0
134749.720,34.668,35.156,24.902,32.227,-16.602,0
134749.724,33.691,33.203,30.273,41.504,-6.836,0
134749.728,32.715,29.297,34.180,34.180,1.465,0
134749.732,28.809,28.320,31.738,20.020,-1.953,0
134749.734,31.738,30.273,25.391,21.484,11.230,0
134749.738,34.180,30.762,24.414,32.227,42.969,0
134749.742,30.762,23.438,25.879,30.762,49.805,0
134749.746,35.156,27.832,27.344,28.809,42.480,0
134749.750,34.180,38.574,24.902,30.273,14.648,0
134749.754,33.203,35.645,21.484,40.039,33.203,0
134749.757,31.250,36.133,20.020,35.156,58.594,0
134749.761,24.902,35.645,18.555,17.090,33.691,0
134749.765,29.297,37.598,20.020,19.043,23.438,0
134749.769,29.785,37.598,21.484,22.949,22.461,1
134749.773,20.996,32.715,22.949,17.578,8.789,0
134749.777,18.066,28.320,20.020,17.090,5.371,0
134749.779,19.531,27.832,16.602,16.602,0.977,0
134749.783,17.578,26.855,20.996,15.625,-17.578,0
134749.787,20.508,26.367,24.414,23.926,10.254,0
134749.791,20.020,25.391,21.973,23.438,27.344,0
134749.795,14.648,29.785,22.949,17.578,-5.371,0
134749.798,25.391,37.598,24.414,22.949,2.441,0
134749.802,28.320,31.738,20.508,28.809,-3.418,0
134749.806,10.742,27.344,20.020,19.043,-4.395,0
134749.810,15.625,26.855,22.949,16.113,-36.133,0
134749.814,26.367,21.973,22.949,24.902,-52.734,0
134749.818,20.996,18.555,20.020,28.320,14.648,0
134749.822,20.996,26.367,21.484,28.809,60.059,0
134749.825,26.367,36.133,27.344,21.973,22.949,0
134749.829,27.832,39.551,26.367,19.531,-11.230,0
134749.833,31.738,34.668,19.531,25.879,24.414,0
134749.837,27.832,31.738,16.113,29.297,59.082,0
134749.841,22.949,29.785,22.461,23.438,8.789,0
134749.845,30.762,26.367,31.738,18.066,-37.598,0
134749.849,36.621,30.273,27.344,22.949,34.668,0
134749.853,29.785,35.645,16.113,29.785,89.844,0
134749.856,20.508,29.297,17.090,22.461,44.434,0
134749.860,19.531,24.902,25.391,15.137,13.184,0
134749.864,20.996,30.273,26.367,20.020,45.410,0
134749.868,20.020,33.203,24.902,29.297,49.805,0
134749.869,20.996,33.203,27.344,33.203,20.996,0
134749.873,20.996,40.039,28.320,24.414,10.742,0
134749.877,26.367,40.527,29.297,25.391,46.875,0
134749.881,32.227,29.297,30.762,38.086,43.457,0
134749.885,24.902,34.668,25.391,35.156,46.875,0
134749.888,23.438,37.598,21.484,24.414,71.777,0
134749.892,25.391,32.715,20.020,18.066,41.504,0
134749.896,24.902,40.527,18.555,25.879,80.078,0
134749.900,29.785,43.945,21.484,29.785,90.332,0
134749.904,23.438,35.156,23.926,16.113,38.574,0
134749.908,23.926,28.809,24.902,10.742,20.508,0
134749.912,31.738,32.715,23.926,18.555,25.391,0
134749.914,30.762,32.715,21.484,27.832,47.852,0
134749.918,30.273,30.762,20.508,29.785,79.590,0
134749.922,28.809,37.598,23.438,29.297,37.109,0
134749.926,27.344,40.527,27.344,35.156,5.371,0
134749.930,28.320,35.156,27.832,41.992,55.176,0
134749.933,24.902,34.180,28.320,34.668,64.941,0
134749.937,25.879,33.203,28.320,26.855,45.898,0
134749.941,26.855,34.180,27.344,30.762,14.160,0
134749.945,23.926,36.621,21.973,29.785,-1.465,0
134749.949,21.484,34.180,16.113,25.391,29.297,0
134749.953,18.066,34.180,16.113,20.996,6.836,0
134749.957,24.902,38.574,20.996,18.555,-23.926,0
134749.959,31.250,34.668,27.344,29.297,1.465,0
134749.963,26.367,28.809,28.320,34.180,5.859,0
134749.967,24.414,30.762,26.855,25.879,22.461,0
134749.971,25.879,33.691,24.414,21.484,20.508,0
134749.975,36.133,38.574,23.438,28.320,0.488,0
134749.979,45.898,41.504,23.926,41.992,-0.488,0
134749.983,30.273,32.227,22.949,37.598,-32.227,0
134749.987,20.020,28.809,21.973,24.414,-67.871,0
134749.991,26.855,32.715,22.949,25.879,-20.020,0
134749.995,26.855,31.738,26.855,37.109,10.254,0
134749.999,26.367,32.715,27.344,33.691,-1.465,0
134750.002,20.996,31.738,20.020,15.137,29.785,0
134750.004,22.949,31.250,19.531,14.160,45.898,0
134750.008,30.273,38.086,25.879,28.809,44.434,0
134750.012,25.391,37.598,22.461,26.367,50.293,0
134750.016,18.555,24.902,24.902,17.090,54.199,0
134750.020,17.578,21.973,25.879,18.555,48.828,0
134750.024,19.043,26.855,23.926,21.484,27.832,0
134750.027,22.949,29.297,31.738,28.809,23.438,0
134750.031,27.832,31.250,32.227,27.344,12.695,0
134750.035,26.367,28.320,25.879,19.043,-11.719,0
134750.039,28.320,21.973,25.391,25.391,-22.949,0
134750.043,30.273,27.832,24.902,27.832,27.344,0
134750.047,24.902,39.062,24.902,22.461,41.016,0
134750.050,25.391,39.551,23.438,18.555,18.066,0
134750.054,23.926,32.227,19.043,13.672,44.922,0
134750.058,27.344,32.715,24.902,25.879,64.453,0
134750.062,28.320,37.109,29.297,28.809,67.383,0
134750.066,20.996,34.668,25.879,20.996,46.387,0
134750.070,20.508,32.715,25.879,15.625,6.836,0
134750.074,27.832,34.668,28.320,11.719,26.367,0
134750.078,27.832,33.691,27.344,17.578,41.992,0
134750.082,20.996,36.621,23.438,20.996,8.301,0
134750.085,20.020,40.039,23.438,12.207,23.926,0
134750.089,29.785,34.180,24.414,10.742,49.805,0
134750.093,37.598,32.715,28.320,26.367,35.156,0
134750.109,23.926,31.738,28.320,37.598,22.461,0
134750.113,26.855,34.180,21.973,28.809,1.465,0
134750.117,31.250,37.598,21.484,24.902,-18.555,0
134750.121,17.090,32.715,23.438,37.109,15.137,0
134750.125,24.414,24.902,24.414,21.484,47.852,0
134750.128,26.367,24.414,25.391,-1.953,1.953,0
134750.132,15.625,37.109,31.250,2.441,-41.992,0
134750.136,21.973,39.062,35.645,22.949,21.973,0
134750.140,19.531,24.902,35.645,23.926,40.039,0
134750.144,17.578,29.297,36.621,7.812,-12.695,0
134750.148,21.973,38.086,32.715,10.254,33.691,0
134750.152,21.973,34.668,24.902,27.344,77.148,0
134750.154,29.297,32.227,20.020,23.926,62.500,0
134750.158,36.133,33.203,21.973,19.531,37.109,0
134750.162,27.832,36.133,26.855,17.578,33.203,0
134750.166,25.879,36.621,29.297,22.461,47.852,0
134750.169,30.273,34.668,28.320,28.809,49.805,0
134750.173,33.691,33.691,20.996,24.414,25.391,0
134750.177,33.691,34.180,26.855,12.695,0.977,0
134750.181,29.785,35.156,37.598,16.602,-30.762,0
134750.185,31.738,36.133,34.180,31.738,-6.348,0
134750.189,32.227,35.156,27.344,31.738,-6.836,0
134750.193,33.691,31.738,28.320,33.203,-16.113,0
134750.197,36.621,33.203,28.320,30.273,-27.832,0
134750.199,41.016,36.621,23.926,28.809,-28.320,0
134750.203,38.574,24.414,19.043,41.016,-8.789,0
134750.207,42.480,21.484,18.555,30.273,-36.621,0
134750.211,37.598,29.297,22.949,18.555,-60.059,0
134750.215,22.949,29.297,25.391,27.832,-21.484,0
134750.218,25.879,26.367,27.344,36.621,5.371,0
134750.222,32.227,27.344,27.344,33.203,-5.371,0
134750.226,35.156,28.809,25.879,23.926,-25.391,0
134750.230,36.621,29.297,20.996,25.879,-24.902,2
134750.234,32.227,30.273,15.137,34.668,-1.953,0
134750.238,33.691,28.809,18.066,28.320,12.207,0
134750.242,34.180,27.344,28.809,24.902,25.391,0
134750.244,35.645,26.367,30.273,31.738,14.648,0
134750.248,32.227,23.438,19.531,27.344,30.273,0
134750.252,29.785,28.320,18.555,26.855,77.637,0
134750.256,25.879,31.250,24.902,25.391,52.246,0
134750.260,25.879,30.273,27.832,26.855,29.785,0
134750.264,33.203,30.273,30.762,37.598,28.809,0
134750.267,31.250,28.809,29.297,43.457,24.902,0
134750.271,25.879,31.250,30.762,38.086,13.672,0
134750.275,35.156,36.621,35.645,26.855,-32.715,0
134750.279,44.434,40.039,31.250,24.902,-14.648,0
134750.283,36.621,33.691,26.855,30.762,0.000,0
134750.287,27.832,28.320,21.973,22.461,-2.441,0
134750.290,25.391,28.809,17.578,13.184,23.926,0
134750.294,31.738,30.762,20.020,26.367,20.996,0
134750.298,38.086,34.668,24.414,40.527,16.113,0
134750.302,36.621,36.133,28.809,44.922,27.344,0
134750.306,33.691,35.156,32.227,37.109,14.648,0
134750.310,36.133,37.598,32.227,26.855,12.695,0
134750.314,35.156,39.062,30.273,33.203,28.809,0
134750.318,25.879,36.621,27.344,35.645,30.273,0
134750.321,18.555,32.715,25.391,18.066,32.715,0
134750.325,22.949,33.203,24.902,8.789,56.641,0
134750.329,28.320,32.715,27.344,24.414,59.082,0
134750.333,24.414,34.180,27.344,31.738,48.340,0
134750.334,27.344,34.180,25.879,14.648,68.359,0
134750.338,33.691,31.250,27.344,13.672,57.129,0
134750.342,37.109,29.785,29.297,26.855,50.293,0
134750.346,34.668,31.738,29.297,29.297,85.449,0
134750.350,28.809,35.156,28.320,29.297,66.895,0
134750.354,26.855,26.367,25.391,25.879,41.504,0
134750.357,31.738,21.973,23.926,20.996,34.180,0
134750.361,30.762,30.762,24.902,26.367,21.973,0
134750.365,22.949,34.668,24.414,26.367,31.738,0
134750.369,17.090,32.715,27.832,20.508,13.672,0
134750.373,22.461,28.809,30.762,23.438,24.414,0
134750.377,26.367,27.344,26.367,31.738,51.270,0
134750.379,17.578,29.297,22.949,31.738,60.547,0
134750.383,12.207,33.203,23.926,17.090,42.969,0
134750.387,17.578,33.203,26.367,19.043,16.602,0
134750.391,20.996,32.715,25.879,25.879,38.574,0
134750.395,24.902,30.273,22.461,22.461,56.152,0
134750.399,20.508,27.344,23.926,15.625,32.227,0
134750.403,18.555,25.391,28.320,11.719,4.883,0
134750.406,20.508,25.879,27.344,16.113,5.859,0
134750.410,22.949,33.203,21.484,26.855,37.598,0
134750.414,19.043,34.180,17.578,27.344,38.086,0
134750.418,15.625,31.738,20.508,29.297,27.344,0
134750.422,21.973,33.691,24.414,31.250,72.754,0
134750.424,24.414,32.227,23.438,26.855,99.121,0
134750.428,25.391,27.832,27.832,31.250,49.316,0
134750.432,23.438,31.738,33.691,30.762,44.434,0
134750.436,25.391,31.738,29.785,25.879,39.551,0
134750.440,25.879,31.250,26.367,33.203,18.066,0
134750.444,20.996,33.691,27.344,36.621,23.926,0
134750.448,24.902,33.203,28.809,29.297,-2.930,0
134750.452,29.297,34.668,27.832,27.832,-15.625,0
134750.456,24.902,35.645,27.344,31.250,8.789,0
134750.460,26.855,32.715,28.320,44.434,43.945,0
134750.463,22.461,29.785,25.879,39.062,38.086,0
134750.467,17.578,32.227,24.902,21.484,13.672,0
134750.484,21.484,29.785,27.344,21.973,16.602,0
134750.488,24.414,29.297,27.344,27.344,13.672,0
134750.492,24.902,30.762,24.902,23.438,-21.973,0
134750.496,20.996,31.738,25.391,16.113,-18.555,0
134750.500,24.414,38.574,28.320,21.484,4.883,0
134750.504,29.297,37.598,28.320,34.180,-6.836,0
134750.508,24.414,32.227,23.926,34.180,5.859,0
134750.512,25.391,33.691,20.020,14.648,23.438,0
134750.516,22.949,27.832,26.367,10.254,6.836,0
134750.520,19.043,26.367,28.320,22.461,8.301,0
134750.523,18.555,28.809,22.949,24.414,18.555,0
134750.527,12.207,26.855,20.020,14.648,42.480,0
134750.530,11.719,26.855,19.043,7.812,24.902,0
134750.534,18.555,30.762,24.902,18.555,14.648,0
134750.538,15.137,37.109,24.902,30.273,54.199,0
134750.542,11.719,39.062,19.043,15.137,58.594,0
134750.546,10.742,33.691,24.902,5.859,12.207,0
134750.550,16.113,25.879,28.809,9.766,14.648,0
134750.554,24.414,27.832,26.367,21.484,68.848,0
134750.558,20.020,34.668,24.902,27.344,47.852,0
134750.562,14.648,35.645,23.926,20.508,-7.812,0
134750.565,16.602,37.109,24.902,16.602,-35.156,0
134750.569,23.926,40.527,25.879,20.020,13.184,0
134750.573,19.043,35.645,29.785,22.461,49.805,0
134750.574,10.254,26.855,33.203,17.090,23.926,0
134750.578,12.207,28.320,33.203,10.742,-22.461,0
134750.582,17.090,28.320,31.738,19.043,-4.883,0
134750.586,18.066,27.344,28.809,30.273,39.062,0
134750.590,15.625,30.762,27.832,20.020,23.926,0
134750.593,16.113,34.668,27.344,12.207,4.395,0
134750.597,28.809,35.645,23.438,24.414,26.855,0
134750.601,29.785,30.762,24.414,32.715,55.664,0
134750.605,17.578,31.738,27.832,25.879,18.066,0
134750.609,14.160,32.715,30.273,20.996,-9.766,0
134750.613,20.996,26.855,30.762,23.438,27.832,0
134750.617,26.855,28.320,29.297,30.762,63.965,0
134750.619,26.855,34.180,29.785,32.715,60.547,0
134750.623,25.391,37.109,28.320,22.461,27.344,0
134750.627,28.320,34.668,23.926,22.461,8.301,0
134750.631,35.156,30.273,22.461,36.621,22.461,0
134750.635,32.227,34.180,26.367,36.621,25.879,0
134750.639,22.949,37.109,34.668,24.414,-13.184,0
134750.642,21.484,30.273,33.691,23.438,25.879,0
134750.646,24.414,28.320,28.809,31.250,60.059,0
134750.650,17.090,32.227,25.879,22.949,10.742,0
134750.654,10.254,34.180,27.344,19.043,16.113,0
134750.658,19.043,31.738,26.855,20.996,42.480,0
134750.662,19.531,28.320,20.020,20.508,40.039,0
134750.664,13.184,32.715,25.391,26.367,49.316,0
134750.668,19.531,41.016,35.645,26.855,27.344,0
134750.672,24.414,37.109,32.715,19.043,-11.719,0
134750.676,22.949,25.391,27.344,20.508,1.465,0
134750.680,27.344,26.855,26.855,30.273,22.949,0
134750.684,31.250,32.715,24.414,22.949,13.672,0
134750.687,24.414,32.715,21.484,12.695,1.465,0
134750.691,22.949,33.203,20.020,15.625,-8.301,0
134750.695,26.367,30.273,17.090,24.414,-9.277,0
134750.699,25.391,30.273,20.508,25.391,-6.348,0
134750.703,28.809,36.133,29.297,17.578,-24.902,0
134750.707,26.855,40.527,26.855,17.090,-5.371,0
134750.709,19.531,33.203,23.926,21.973,8.301,0
134750.713,28.809,30.762,23.438,28.809,21.973,2
134750.717,35.645,30.762,21.484,24.902,16.602,0
134750.721,33.691,26.855,23.926,18.066,-29.297,0
134750.725,34.180,32.715,23.438,20.508,-17.578,0
134750.728,33.203,37.109,23.926,29.785,10.742,0
134750.732,30.273,34.180,28.320,31.250,16.602,0
134750.736,29.297,36.621,30.762,19.043,29.297,0
134750.740,34.180,42.969,26.367,19.043,43.457,0
134750.744,31.250,40.527,22.461,30.273,57.129,0
134750.748,24.902,36.133,18.555,25.879,78.613,0
134750.752,22.461,35.645,19.531,12.695,55.664,0
134750.755,25.391,32.227,21.973,13.672,40.527,0
134750.759,28.320,32.715,21.484,21.973,58.594,0
134750.763,26.855,41.504,24.902,27.344,37.598,0
134750.767,27.832,43.945,27.832,22.461,0.488,0
134750.771,37.598,45.410,30.762,20.508,6.348,0
134750.775,44.434,47.363,34.668,32.227,20.996,0
134750.779,46.387,39.551,33.203,34.180,6.836,0
134750.783,35.156,32.227,29.785,22.949,-2.930,0
134750.786,24.414,30.762,27.344,19.531,-15.137,0
134750.790,26.367,30.762,30.273,25.391,-18.555,0
134750.794,25.391,31.738,29.297,22.461,-24.902,0
134750.798,26.367,31.250,25.879,19.043,-7.324,0
134750.799,23.926,31.738,25.879,21.973,3.906,0
134750.803,23.926,28.809,24.414,23.438,-18.066,0
134750.807,34.180,27.344,25.879,33.691,10.742,0
134750.811,33.691,30.273,28.809,36.621,33.203,0
134750.815,25.879,30.762,29.785,24.902,0.000,0
134750.819,24.414,24.902,28.809,18.066,-14.648,0
134750.822,28.320,25.879,27.832,27.832,4.883,0
134750.826,32.715,33.691,27.344,32.715,13.184,0
134750.830,23.438,31.738,28.320,24.414,34.180,0
134750.834,22.461,26.367,26.855,22.949,37.109,0
134750.838,32.227,29.297,26.367,31.250,50.781,0
134750.842,36.133,33.691,26.367,35.645,69.824,0
134750.859,29.785,32.715,23.438,29.297,65.918,0
134750.863,26.367,36.133,22.461,22.461,29.785,0
134750.867,35.645,37.109,23.926,29.785,31.250,0
134750.871,35.156,31.738,23.926,39.551,58.105,0
134750.875,31.250,33.203,29.785,38.574,51.270,0
134750.879,29.297,32.715,31.250,27.832,30.762,0
134750.882,26.367,24.902,27.344,25.391,24.414,0
134750.886,22.461,21.973,23.926,29.785,61.035,0
134750.890,22.949,26.855,23.438,28.809,91.797,0
134750.894,22.461,30.762,24.902,21.484,72.754,0
134750.898,18.066,29.785,22.461,19.531,50.293,0
134750.902,24.414,32.227,21.484,26.855,56.152,0
134750.904,27.344,35.645,23.438,29.297,45.410,0
134750.908,22.949,30.273,24.902,25.391,28.320,0
134750.912,26.367,22.461,28.320,27.344,33.691,0
134750.916,36.133,21.484,28.320,34.668,45.410,0
134750.920,37.109,24.902,25.391,41.016,65.918,0
134750.924,32.227,30.273,27.832,35.645,35.156,0
134750.928,30.273,35.156,26.855,25.391,-16.113,0
134750.931,32.227,32.715,30.273,34.180,29.297,0
134750.935,40.039,33.691,34.180,46.875,68.359,0
134750.939,31.250,40.039,29.785,41.016,39.062,0
134750.943,20.020,36.621,28.809,32.227,23.438,0
134750.947,23.438,28.809,34.668,32.227,25.879,0
134750.949,24.414,24.414,36.133,34.180,39.062,0
134750.953,25.879,23.926,32.715,34.180,61.523,0
134750.957,22.461,28.320,23.926,28.320,79.590,0
134750.961,20.508,36.133,18.555,23.926,62.988,0
134750.965,31.250,36.133,27.832,29.785,43.945,0
134750.968,32.715,29.297,31.250,37.109,27.832,0
134750.972,26.367,27.832,29.297,31.738,26.367,0
134750.976,28.320,32.227,30.273,20.996,18.555,0
134750.980,31.738,37.109,33.691,25.879,-30.273,0
134750.984,25.879,31.250,28.320,26.367,5.859,0
134750.988,18.555,28.809,19.531,9.766,45.898,0
134750.992,16.602,34.668,21.973,6.348,5.859,0
134750.995,24.414,34.180,23.926,16.113,5.859,0
134750.999,29.785,32.227,21.973,23.438,15.625,0
134751.003,21.484,37.109,26.855,27.344,37.598,0
134751.007,21.973,27.832,30.273,20.020,9.766,0
134751.011,26.367,19.043,27.832,17.090,-31.250,0
134751.015,24.902,31.738,28.320,21.973,21.484,0
134751.019,20.996,38.574,30.273,23.926,48.828,0
134751.023,19.531,39.062,33.203,21.484,-17.090,0
134751.026,19.043,36.133,28.809,16.602,-44.922,0
134751.030,22.949,30.762,21.973,19.531,23.926,0
134751.034,20.508,36.621,22.461,24.414,59.570,0
134751.038,19.043,42.480,21.973,20.508,32.227,0
134751.039,27.344,38.574,21.484,13.672,13.672,0
134751.043,28.809,39.551,20.020,15.137,33.691,0
134751.047,24.414,41.016,18.555,21.973,30.762,0
134751.051,27.344,31.250,24.902,21.484,1.953,0
134751.055,32.715,31.738,31.738,16.113,1.465,0
134751.059,32.715,35.156,33.691,20.020,7.324,0
134751.062,35.645,26.367,32.715,32.715,48.340,0
134751.066,34.180,26.367,27.832,29.785,50.781,0
134751.070,28.809,33.691,19.043,18.555,-31.738,0
134751.074,32.715,36.621,16.602,23.438,-29.297,0
134751.078,32.715,29.785,16.602,30.273,13.184,0
134751.082,20.996,25.879,20.508,29.297,0.488,0
134751.084,20.508,30.762,24.414,19.531,-1.465,0
134751.088,26.367,36.621,24.414,15.625,3.906,0
134751.092,33.203,41.504,30.762,33.691,-26.855,0
134751.096,27.832,35.645,30.273,41.992,-13.672,0
134751.100,18.555,27.832,20.020,27.344,-15.625,0
134751.103,21.973,23.926,14.160,16.113,-58.105,0
134751.107,24.902,21.484,15.137,20.996,-39.551,0
134751.111,31.250,20.996,20.020,30.762,-31.250,0
134751.115,29.297,20.996,15.137,27.832,-2.930,0
134751.119,24.414,24.414,14.160,20.508,16.113,0
134751.123,33.203,23.926,20.996,14.648,-10.742,0
134751.127,36.621,23.926,25.391,20.020,20.996,0
134751.129,33.691,27.344,28.320,28.320,24.414,0
134751.133,33.691,27.832,25.879,20.508,-8.301,2
134751.137,31.738,24.902,22.949,19.043,-5.371,0
134751.141,27.832,20.996,21.973,29.785,25.391,0
134751.145,25.391,20.508,22.949,29.785,52.246,0
134751.148,21.484,21.973,24.902,23.438,0.000,0
134751.152,23.438,20.996,29.297,24.902,-41.504,0
134751.156,25.879,22.461,33.203,28.809,0.000,0
134751.160,27.344,24.414,29.297,35.156,47.852,0
134751.164,27.344,25.391,24.414,31.738,52.734,0
134751.168,25.391,27.832,21.484,22.461,36.621,0
134751.172,30.273,28.320,18.066,23.438,42.480,0
134751.175,29.297,22.949,20.508,28.809,70.801,0
134751.179,23.438,15.137,24.414,26.855,59.082,0
134751.183,22.461,16.113,22.461,18.066,50.781,0
134751.187,26.855,22.461,19.531,17.090,55.664,0
134751.191,36.621,30.762,20.508,27.344,55.664,0
134751.195,36.133,33.203,24.414,30.273,58.105,0
134751.199,31.250,23.438,28.320,23.926,-6.348,0
134751.203,29.785,21.973,24.414,22.949,-35.156,0
134751.207,29.785,29.297,20.020,35.156,5.859,0
134751.210,26.855,29.297,22.461,45.410,35.156,0
134751.214,28.809,26.855,26.367,35.156,37.598,0
134751.218,37.598,30.273,23.926,20.996,31.738,0
134751.234,31.250,32.227,25.391,21.973,47.363,0
134751.238,26.855,31.738,32.715,34.180,96.680,0
134751.242,25.391,29.785,29.297,31.738,71.777,0
134751.246,22.949,27.344,26.367,20.508,12.207,0
134751.250,27.832,26.855,23.438,22.461,33.203,0
134751.254,30.273,33.203,20.508,31.250,39.062,0
134751.257,27.344,34.668,26.367,28.320,24.414,0
134751.261,24.414,28.320,29.785,21.484,36.133,0
134751.265,24.902,28.809,26.855,23.438,45.410,0
134751.269,28.320,28.320,19.043,28.320,96.680,0
134751.273,29.785,29.297,21.484,31.250,114.258,0
134751.277,25.391,28.320,25.391,24.902,50.293,0
134751.279,29.785,29.297,25.879,20.996,6.836,0
134751.283,30.273,32.715,25.391,25.879,27.344,0
134751.287,23.926,28.809,22.949,30.762,47.852,0
134751.291,22.461,23.438,24.414,21.973,56.641,0
134751.295,19.043,27.344,25.879,18.555,45.410,0
134751.299,13.672,27.832,24.902,22.949,9.766,0
134751.302,8.301,23.926,21.484,18.066,30.273,0
134751.306,6.348,23.926,21.484,16.113,42.969,0
134751.310,8.789,24.902,26.367,12.695,11.230,0
134751.314,10.742,26.855,28.320,16.113,-3.418,0
134751.318,17.090,24.902,24.414,28.809,43.945,0
134751.322,20.020,31.738,24.414,35.645,41.504,0
134751.324,16.113,38.574,23.926,27.832,-38.086,0
134751.328,18.555,32.715,20.020,20.020,-23.438,0
134751.332,26.855,38.086,23.438,33.203,40.527,0
134751.336,26.855,46.387,28.809,42.480,49.316,0
134751.340,24.414,36.133,29.785,27.832,23.926,0
134751.343,29.785,25.879,26.367,19.531,-27.344,0
134751.347,29.785,28.320,26.367,24.414,-7.812,0
134751.351,18.555,29.297,27.344,26.367,29.297,0
134751.355,8.789,32.227,25.391,21.484,-9.766,0
134751.359,14.160,34.180,21.973,18.066,-19.531,0
134751.363,24.902,30.273,18.555,26.367,-3.418,0
134751.367,29.785,29.785,20.996,32.715,-8.301,0
134751.369,26.367,36.621,22.461,27.832,18.066,0
134751.373,26.855,37.598,29.297,24.414,47.852,0
134751.377,36.621,33.691,31.738,26.367,79.102,0
134751.381,36.133,34.668,21.973,29.785,62.988,0
134751.385,30.762,32.227,18.555,26.855,42.480,0
134751.388,26.855,33.203,17.578,17.578,33.203,0
134751.392,29.785,34.180,16.113,14.648,24.902,0
134751.396,33.203,30.273,18.555,24.902,38.086,0
134751.400,25.879,33.691,26.367,31.738,17.578,0
134751.404,20.508,37.109,30.762,24.414,22.949,0
134751.408,30.762,35.156,29.785,21.484,15.625,0
134751.412,39.062,35.156,27.344,26.855,9.766,0
134751.414,39.062,34.180,25.879,34.180,18.066,0
134751.418,35.645,35.645,26.367,34.668,-14.160,0
134751.422,32.227,43.945,23.926,25.391,-20.508,0
134751.426,31.250,46.387,18.555,19.043,-2.441,0
134751.430,27.832,39.551,14.648,24.902,-1.953,0
134751.433,21.973,39.551,17.578,21.973,39.551,0
134751.437,21.973,41.992,24.902,15.625,40.039,0
134751.441,30.273,40.527,31.738,19.043,-12.207,0
134751.445,40.039,44.922,34.668,29.297,-13.672,0
134751.449,38.086,45.898,29.297,29.785,42.969,0
134751.453,24.414,40.039,24.414,12.695,49.805,0
134751.457,18.066,40.527,22.461,10.254,10.742,0
134751.460,20.020,31.250,22.949,21.973,27.344,0
134751.464,20.996,26.367,25.391,28.320,50.781,0
134751.468,27.344,32.227,24.902,26.367,24.902,0
134751.472,25.879,33.203,23.438,21.973,-3.906,0
134751.476,20.020,36.621,26.855,26.367,42.480,0
134751.480,27.344,36.621,30.273,36.621,112.305,0
134751.484,20.996,31.250,31.250,30.762,103.516,0
134751.488,16.602,29.297,33.203,20.020,53.223,0
134751.492,23.926,38.086,36.133,22.949,76.660,0
134751.495,14.648,35.645,34.180,26.367,91.309,0
134751.499,-0.977,23.926,29.297,16.113,40.039,0
134751.503,1.465,28.809,28.320,5.859,14.160,0
134751.504,16.602,35.156,28.320,14.648,54.688,0
134751.508,20.508,30.762,27.832,29.297,73.242,0
134751.512,15.137,24.414,32.227,36.621,51.270,0
134751.516,20.020,24.902,35.156,27.832,45.898,0
134751.520,25.879,28.809,29.785,19.043,41.992,0
134751.524,26.855,24.902,20.508,23.926,42.969,0
134751.527,24.414,26.367,22.461,26.855,17.090,0
134751.531,21.973,30.762,23.926,17.090,-5.859,0
134751.535,24.902,27.344,19.043,8.301,-20.996,0
134751.539,27.832,20.996,19.531,16.602,-15.625,0
134751.543,17.578,18.066,19.531,21.973,-10.742,0
134751.547,8.301,20.020,26.367,14.648,-17.578,0
134751.550,12.207,27.832,28.809,12.207,-11.230,1
134751.553,20.508,33.691,25.391,19.043,-28.809,0
134751.557,26.367,30.273,27.832,25.391,10.742,0
134751.561,29.785,30.762,28.809,35.645,15.137,0
134751.565,29.785,33.203,22.949,30.762,15.625,0
134751.569,26.855,34.668,21.484,16.113,31.738,0
134751.573,29.297,32.227,22.949,24.414,36.133,0
134751.577,32.715,32.227,24.414,29.785,53.711,0
134751.581,30.762,37.598,23.438,20.996,53.223,0
134751.585,26.855,33.691,22.461,20.508,42.969,0
134751.589,27.832,28.809,20.020,23.926,46.387,0
134751.593,30.762,30.273,19.043,23.926,86.426,0
134751.609,32.227,34.668,25.879,22.461,65.918,0
134751.613,33.203,39.062,29.785,18.555,-3.418,0
134751.617,33.203,36.621,26.855,18.555,-0.977,0
134751.621,30.762,33.203,22.949,26.855,35.645,0
134751.625,31.250,29.785,19.531,31.250,38.086,0
134751.628,32.715,28.320,23.926,25.391,-10.254,0
134751.632,39.551,29.785,27.832,26.367,-32.715,0
134751.636,41.016,33.691,31.250,35.156,35.645,0
134751.640,27.344,38.086,33.203,36.621,48.828,0
134751.644,28.809,37.598,25.879,25.391,-17.578,0
134751.648,33.691,36.621,20.508,15.137,5.371,0
134751.652,33.691,34.668,23.438,26.367,44.434,0
134751.654,35.156,39.062,23.438,34.180,49.805,0
134751.658,36.621,45.898,22.949,23.926,52.734,0
134751.662,38.086,41.992,25.879,19.043,52.734,0
134751.666,42.480,30.273,22.949,29.785,56.152,0
134751.670,42.480,27.344,20.020,39.551,72.754,0
134751.673,35.645,31.738,24.414,24.902,43.945,0
134751.677,32.227,36.133,34.668,22.949,-6.348,0
134751.681,31.738,38.086,34.668,28.320,5.859,0
134751.685,31.250,32.227,27.344,30.273,5.859,0
134751.689,29.785,30.273,26.855,27.832,-14.160,0
134751.693,27.832,28.809,29.785,18.066,-6.348,0
134751.697,28.809,24.902,29.785,21.484,-20.508,0
134751.700,36.621,29.785,29.785,35.645,-18.555,0
134751.704,35.156,34.668,29.297,37.598,5.371,0
134751.708,29.297,32.715,22.461,26.367,2.441,0
134751.712,29.297,29.785,23.926,22.949,19.043,0
134751.716,31.738,34.180,27.344,29.297,-18.555,0
134751.720,28.809,38.086,28.809,33.691,-16.602,0
134751.724,25.879,33.203,32.227,30.762,-3.906,0
134751.728,28.320,29.785,29.785,24.902,-29.297,0
134751.731,30.273,27.344,28.320,24.414,-37.598,0
134751.735,23.926,25.879,25.391,27.344,-4.395,0
134751.739,16.602,29.785,20.020,23.926,32.227,0
134751.743,18.066,25.391,23.438,25.879,36.621,0
134751.744,24.902,23.438,26.855,31.738,-10.742,0
134751.748,24.902,32.227,28.809,32.715,-1.465,0
134751.752,15.625,32.227,29.785,27.344,28.809,0
134751.756,14.160,23.438,26.367,20.020,-3.906,0
134751.760,23.438,14.160,25.879,21.973,-36.621,0
134751.764,25.391,21.973,26.367,32.715,-20.020,0
134751.768,19.531,29.785,26.367,37.598,29.785,0
134751.772,10.254,31.738,25.391,24.902,5.371,0
134751.776,15.137,33.203,26.855,22.461,-19.043,0
134751.780,23.438,29.297,25.391,31.738,14.160,0
134751.784,15.625,32.715,22.949,27.832,41.992,0
134751.787,9.766,38.086,23.438,19.043,33.203,0
134751.789,12.207,34.668,24.902,18.066,5.371,0
134751.793,16.602,30.273,26.367,20.508,9.766,0
134751.797,26.855,32.227,26.855,30.273,62.500,0
134751.801,28.809,33.691,29.785,29.297,43.457,0
134751.805,27.344,31.738,26.855,17.090,65.430,0
134751.809,32.227,33.691,20.996,16.602,55.664,0
134751.813,27.832,33.691,20.020,21.484,31.738,0
134751.817,20.996,32.715,20.508,20.020,44.434,0
134751.820,26.367,39.551,23.926,20.508,1.465,0
134751.824,32.227,41.504,28.320,20.020,32.715,0
134751.828,28.320,34.180,26.855,25.879,68.359,0
134751.832,25.879,28.809,21.973,26.367,42.480,0
134751.834,20.508,30.273,20.996,13.672,-5.859,0
134751.838,8.789,27.832,22.949,8.789,-32.715,0
134751.842,14.648,26.855,21.484,22.461,-8.789,0
134751.846,16.602,26.855,21.973,33.691,28.320,0
134751.850,13.184,23.438,28.809,26.855,38.086,0
134751.854,13.672,28.809,30.762,20.508,12.207,0
134751.857,21.973,35.645,30.273,20.996,-7.812,0
134751.861,29.785,35.156,27.832,25.391,9.766,0
134751.865,25.879,33.203,24.414,28.320,12.695,0
134751.869,25.879,30.273,27.344,20.508,7.324,0
134751.873,29.785,31.738,26.855,14.648,-0.977,0
134751.877,33.691,33.203,24.414,15.137,41.992,0
134751.879,36.133,32.715,21.484,15.137,63.965,0
134751.883,35.156,34.180,21.973,14.648,44.434,0
134751.887,24.902,32.227,21.973,10.742,39.062,0
134751.891,20.996,27.344,21.484,13.184,51.270,0
134751.895,29.785,22.461,28.809,25.391,86.426,0
134751.898,25.391,22.949,31.738,29.785,43.945,0
134751.902,13.672,25.879,28.320,20.508,-18.066,0
134751.906,18.066,23.926,24.414,22.461,10.742,0
134751.910,21.484,29.785,26.367,34.180,69.336,0
134751.914,14.648,32.715,32.227,26.367,39.551,0
134751.918,16.602,31.250,30.273,17.578,8.789,0
134751.922,23.438,29.785,24.414,18.555,31.250,0
134751.925,24.902,27.832,23.926,23.438,63.477,0
134751.929,28.320,29.785,31.250,28.809,32.227,0
134751.933,26.855,28.809,33.691,19.531,-19.043,0
134751.937,23.926,20.996,28.320,7.812,-10.254,0
134751.941,24.414,30.762,24.902,12.695,-0.977,0
134751.945,19.531,37.109,26.367,16.602,-16.602,0
134751.949,13.672,26.855,25.879,5.371,-34.668,0
134751.953,11.719,25.391,23.438,-2.441,-19.531,0
134751.957,14.648,31.738,20.996,7.812,16.602,0
134751.960,18.066,32.227,20.996,17.578,36.133,0
134751.964,19.531,36.621,27.344,16.602,47.852,0
134751.968,19.043,32.715,28.320,11.230,37.598,0
134751.984,16.602,27.344,20.996,12.207,23.926,0
134751.988,18.066,33.203,18.555,22.461,41.016,0
134751.992,16.113,36.621,18.066,14.160,38.574,0
134751.996,10.254,31.738,19.043,-0.488,16.113,0
134752.000,14.160,24.902,22.461,7.812,38.574,0
134752.004,15.137,22.461,21.484,20.508,44.922,0
134752.007,13.672,28.809,17.578,17.090,16.602,0
134752.011,16.602,37.598,19.531,11.719,-1.953,0
134752.015,18.066,39.062,27.344,14.648,-5.859,0
134752.019,27.832,30.762,31.250,23.438,12.207,2
134752.023,29.785,26.855,27.832,30.273,44.922,0
134752.027,22.461,34.668,21.484,18.555,34.668,0
134752.029,26.367,37.109,18.555,12.207,-31.738,0
134752.033,30.273,33.203,19.531,22.461,12.695,0
134752.037,22.949,33.691,24.414,24.414,77.148,0
134752.041,19.043,39.551,27.344,21.973,76.660,0
134752.045,23.926,36.133,22.949,18.066,58.105,0
134752.048,31.250,41.504,22.949,22.949,14.648,0
134752.052,36.621,47.363,26.855,32.715,27.832,0
134752.056,31.738,36.133,26.855,26.855,40.527,0
134752.060,31.738,30.762,20.508,15.137,0.488,0
134752.064,35.156,32.227,17.090,13.184,-22.949,0
134752.068,35.645,30.273,18.066,25.391,38.086,0
134752.072,35.645,30.762,17.578,35.156,56.152,0
134752.074,27.344,34.180,17.090,32.227,10.254,0
134752.078,26.855,33.691,20.508,30.273,7.324,0
134752.082,34.180,32.715,29.297,39.551,50.293,0
134752.086,26.367,36.133,33.691,40.527,52.734,0
134752.090,19.043,33.203,30.762,30.762,4.883,0
134752.093,24.414,27.832,25.879,27.344,-50.293,0
134752.097,25.879,25.879,20.020,29.785,-21.484,0
134752.101,25.391,26.367,20.508,30.273,65.918,0
134752.105,25.879,30.273,25.391,27.344,30.273,0
134752.109,32.715,30.762,26.367,21.973,10.254,0
134752.113,41.016,29.297,25.879,24.902,57.617,0
134752.117,43.457,27.832,24.902,35.645,52.734,0
134752.119,38.574,24.902,26.367,30.273,24.902,0
134752.123,35.156,24.902,22.461,21.484,46.875,0
134752.127,40.039,24.414,17.090,23.926,75.684,0
134752.131,29.785,28.320,21.484,30.273,40.527,0
134752.135,26.367,30.762,21.484,29.297,39.062,0
134752.138,29.785,27.832,20.508,21.484,45.410,0
134752.142,22.949,27.832,23.438,17.090,63.965,0
134752.146,20.020,26.855,24.902,21.973,108.887,0
134752.150,19.043,26.855,25.879,22.461,85.938,0
134752.154,25.879,28.320,30.762,20.996,96.191,0
134752.158,30.762,29.785,30.762,19.531,72.754,0
134752.162,26.367,33.691,25.391,20.020,41.504,0
134752.165,24.902,32.227,24.902,25.879,50.781,0
134752.169,23.926,30.762,21.973,22.461,43.945,0
134752.173,17.090,36.133,21.973,15.137,32.715,0
134752.177,18.066,29.785,23.926,16.602,2.930,0
134752.181,26.367,23.438,23.926,25.391,24.414,0
134752.185,22.461,26.367,25.391,28.320,94.727,0
134752.189,18.066,24.902,26.367,18.066,93.750,0
134752.193,24.902,26.855,31.250,19.043,26.367,0
134752.197,27.344,35.156,37.598,29.297,16.602,0
134752.200,26.367,34.668,34.180,34.180,45.410,0
134752.204,27.344,34.180,31.250,29.785,23.926,0
134752.208,28.320,41.016,33.203,21.973,30.762,0
134752.209,28.320,40.527,31.250,24.902,71.777,0
134752.213,26.855,33.203,28.809,31.738,94.727,0
134752.217,20.996,27.832,32.227,24.902,69.336,0
134752.221,22.461,28.320,30.762,16.113,13.184,0
134752.225,31.250,32.227,26.367,20.508,45.898,0
134752.229,27.832,36.133,29.785,28.809,69.336,0
134752.232,20.508,36.621,25.391,25.879,50.293,0
134752.236,23.438,35.156,22.949,20.020,-6.348,0
134752.240,27.344,35.645,28.320,21.484,-15.625,0
134752.244,31.250,36.133,29.785,31.738,58.594,0
134752.248,33.691,33.691,30.762,38.574,57.617,0
134752.252,35.156,41.992,27.832,26.855,33.203,0
134752.254,36.133,41.992,24.414,17.578,31.250,0
134752.258,29.785,35.645,25.391,23.438,38.574,0
134752.262,26.855,35.156,28.809,29.297,31.250,0
134752.266,26.855,34.668,30.273,21.973,5.371,0
134752.270,24.902,32.227,26.855,11.719,-3.906,0
134752.274,23.926,29.297,24.414,17.090,9.766,0
134752.277,23.926,32.227,19.043,22.461,9.766,0
134752.281,18.555,32.227,19.043,17.090,-13.184,0
134752.285,19.531,33.691,23.438,15.137,-7.324,0
134752.289,24.414,37.109,21.484,24.414,12.695,0
134752.293,28.320,35.156,22.461,28.320,11.230,0
134752.297,22.949,30.762,22.949,21.484,11.719,0
134752.299,20.020,28.809,25.391,20.020,-19.043,0
134752.303,32.715,32.715,30.273,27.832,-26.855,0
134752.307,31.250,33.203,25.879,28.809,26.855,0
134752.311,23.438,29.297,20.996,27.832,31.738,0
134752.315,30.273,34.668,20.020,21.484,41.504,0
134752.318,36.621,38.574,20.996,13.672,21.484,0
134752.322,32.715,36.621,23.438,22.461,-8.789,0
134752.326,25.391,35.645,23.926,28.320,58.105,0
134752.330,21.484,36.621,27.832,23.926,86.426,0
134752.334,23.926,35.156,30.762,20.508,25.879,0
134752.338,25.879,34.668,29.297,23.438,0.977,0
134752.342,27.832,40.039,28.320,29.785,30.762,0
134752.345,26.855,38.574,29.297,26.367,19.043,0
134752.349,25.391,34.668,30.762,22.461,-9.766,0
134752.353,29.297,32.227,29.297,27.344,-2.441,0
134752.357,28.320,32.227,26.855,32.227,31.738,0
134752.361,29.297,30.762,29.785,35.645,20.508,0
134752.365,21.973,22.461,33.691,33.691,-28.320,0
134752.369,19.043,23.926,29.297,28.809,-8.301,0
134752.373,28.320,28.320,25.391,28.320,41.016,0
134752.377,19.531,29.785,29.297,31.738,42.480,0
134752.380,15.137,34.668,29.297,27.344,47.852,0
134752.384,26.367,35.645,26.367,24.414,36.133,0
134752.388,26.367,29.785,27.832,32.227,62.500,0
134752.405,21.973,28.809,31.250,34.180,97.656,0
134752.409,21.484,39.062,32.227,26.855,41.504,0
134752.413,23.438,45.410,28.320,23.438,1.953,0
134752.417,27.344,38.086,30.273,23.926,27.832,0
134752.421,27.832,32.227,32.715,27.832,33.691,0
134752.425,27.832,30.762,30.273,24.902,-1.465,0
134752.429,31.738,32.715,30.762,21.973,-12.207,0
134752.433,36.133,37.109,28.320,30.762,24.902,0
134752.436,41.016,40.039,22.461,41.016,32.715,1
134752.440,32.715,35.156,25.391,35.156,35.645,0
134752.444,25.879,31.738,32.227,24.902,20.996,0
134752.448,33.203,36.133,34.180,25.391,-19.531,0
134752.449,23.438,37.598,33.691,31.738,5.371,0
134752.453,14.160,33.203,34.668,32.227,42.969,0
134752.457,15.137,25.879,35.156,21.973,21.973,0
134752.461,20.020,28.320,28.809,16.113,26.855,0
134752.465,31.250,31.250,24.902,23.438,51.270,0
134752.469,32.715,28.809,26.367,29.297,48.340,0
134752.472,27.832,33.203,30.273,23.438,36.621,0
134752.476,24.902,41.992,29.297,19.531,30.273,0
134752.480,29.297,44.922,24.902,29.297,-1.465,0
134752.484,24.902,38.574,23.438,30.273,-6.836,0
134752.488,18.555,31.738,29.785,26.367,34.180,0
134752.492,24.414,30.762,36.133,23.438,13.184,0
134752.494,29.297,33.691,36.621,21.973,5.371,0
134752.498,31.250,35.645,32.227,31.738,45.410,0
134752.502,29.785,32.715,27.344,32.227,51.270,0
134752.506,28.320,35.156,29.785,24.902,47.852,0
134752.510,33.203,41.992,30.762,25.879,41.992,0
134752.513,33.203,42.969,33.203,37.598,57.129,0
134752.517,28.809,43.457,28.320,36.621,68.359,0
134752.521,27.832,44.922,25.879,22.949,40.039,0
134752.525,29.297,35.156,28.809,20.508,8.789,0
134752.529,30.762,34.180,22.461,27.344,48.340,0
134752.533,26.367,38.086,23.438,27.344,96.191,0
134752.537,21.973,35.156,31.738,21.484,55.664,0
134752.539,27.344,33.203,33.691,20.996,9.277,0
134752.543,32.715,34.180,33.691,23.926,7.324,0
134752.547,25.879,32.227,33.691,30.762,6.836,0
134752.551,18.555,28.809,34.180,30.273,-4.395,0
134752.555,24.414,37.598,34.180,26.855,-20.996,0
134752.558,30.762,47.363,31.738,26.855,-30.762,0
134752.562,20.020,41.504,25.879,30.273,-33.203,0
134752.566,17.578,34.668,21.484,26.855,-31.250,0
134752.570,24.902,35.645,23.438,17.578,3.418,0
134752.574,24.414,33.203,25.879,20.020,4.395,0
134752.578,24.902,30.273,21.973,27.832,-2.441,0
134752.582,26.367,31.250,27.344,31.250,-11.230,0
134752.584,22.949,31.738,36.621,21.484,-1.465,0
134752.588,22.949,33.203,37.109,19.043,22.461,0
134752.592,32.715,33.203,31.250,30.273,11.719,0
134752.596,30.273,32.715,26.367,31.738,32.227,0
134752.600,18.066,30.762,23.438,22.461,49.316,0
134752.603,21.973,30.762,22.949,16.113,-3.418,0
134752.607,30.273,33.691,23.438,18.555,17.578,0
134752.611,29.785,38.086,25.391,25.879,55.664,0
134752.615,26.367,41.504,24.414,24.414,36.133,0
134752.619,20.508,40.527,27.832,20.508,58.105,0
134752.623,24.414,40.527,35.645,28.809,62.012,0
134752.627,34.668,37.598,34.668,40.039,76.660,0
134752.631,32.715,34.668,28.320,39.062,94.727,0
134752.635,28.809,36.133,22.949,26.855,58.105,0
134752.639,25.391,35.645,25.879,26.367,-0.977,0
134752.642,22.949,36.133,27.344,31.250,28.809,0
134752.646,22.461,31.738,24.414,30.273,78.613,0
134752.650,20.508,26.855,27.344,23.438,26.367,0
134752.654,23.926,27.832,30.762,23.926,-2.441,0
134752.658,28.809,30.273,31.738,33.203,19.531,0
134752.662,24.414,31.250,29.785,30.273,64.941,0
134752.666,28.320,33.203,23.926,22.949,69.824,0
134752.670,26.367,31.250,24.902,16.602,25.879,0
134752.674,18.066,23.438,27.832,13.672,18.555,0
134752.674,25.391,24.414,23.438,22.461,40.039,0
134752.678,26.855,26.367,23.926,24.902,16.113,0
134752.682,20.996,30.273,32.227,20.508,20.020,0
134752.686,21.484,33.691,34.180,20.020,45.898,0
134752.690,23.438,36.621,27.344,23.926,35.156,0
134752.693,23.926,37.598,18.555,30.273,19.531,0
134752.697,24.902,35.645,19.043,26.855,-14.648,0
134752.701,23.926,32.715,20.020,15.625,-10.254,0
134752.705,27.344,32.227,24.414,20.996,40.039,0
134752.709,28.320,35.645,28.809,25.391,36.621,0
134752.713,23.926,34.668,26.855,18.066,35.156,0
134752.717,19.043,32.227,28.809,12.695,7.324,0
134752.734,20.508,35.645,31.738,16.113,-20.020,0
134752.738,25.879,37.109,30.762,25.391,12.207,0
134752.742,22.949,37.109,30.273,25.391,13.672,0
134752.746,14.648,34.180,24.902,16.113,-19.531,0
134752.750,14.648,31.738,18.066,15.137,-19.531,0
134752.754,21.484,31.738,22.461,24.902,11.230,0
134752.757,17.090,29.785,24.414,22.949,42.480,0
134752.761,14.160,20.508,21.973,11.719,43.457,0
134752.765,24.414,19.531,24.902,13.672,12.207,0
134752.769,28.320,33.203,29.785,22.461,-20.020,0
134752.773,20.020,36.133,32.227,26.855,-11.230,0
134752.777,14.648,31.738,27.344,18.066,36.621,0
134752.779,14.160,29.297,21.973,6.836,6.348,0
134752.783,15.625,29.297,26.855,15.625,0.000,0
134752.787,14.160,33.203,32.227,26.367,51.758,0
134752.791,13.672,32.715,33.691,23.438,33.203,0
134752.795,20.996,29.297,35.645,21.484,8.789,0
134752.798,25.391,34.180,35.645,25.879,-7.812,0
134752.802,17.090,37.109,34.180,27.832,-16.602,0
134752.806,10.742,30.273,34.180,24.902,-3.906,0
134752.810,15.137,29.297,32.227,19.043,-17.578,0
134752.814,25.391,30.762,29.297,20.020,-34.668,0
134752.818,36.133,37.598,32.715,31.738,9.277,0
134752.822,38.086,45.410,33.203,33.691,11.719,0
134752.824,34.180,37.109,30.273,21.484,-27.344,0
134752.828,33.691,30.762,28.320,22.461,-23.438,0
134752.832,26.367,27.344,26.855,25.391,22.461,0
134752.836,18.066,23.926,26.367,22.949,71.289,0
134752.840,24.902,26.855,27.832,21.484,64.453,0
134752.843,28.809,31.738,30.273,17.090,34.668,0
134752.847,27.344,31.738,32.227,24.902,53.711,0
134752.851,28.809,32.715,34.668,36.621,65.918,0
134752.855,26.855,35.156,37.109,29.297,34.180,0
134752.859,24.414,35.645,36.133,17.090,24.414,0
134752.863,29.297,36.621,32.715,22.461,49.805,0
134752.867,29.297,31.250,33.203,30.762,60.059,0
134752.870,22.949,26.367,33.691,23.438,72.754,0
134752.874,23.438,29.297,35.156,15.137,45.410,0
134752.878,26.367,28.809,33.691,18.066,2.930,0
134752.882,35.645,27.344,32.715,26.367,20.020,0
134752.886,35.156,29.785,34.668,33.203,20.020,0
134752.890,29.297,37.109,31.738,25.391,-29.785,2
134752.894,31.250,33.691,27.832,14.160,-21.484,0
134752.898,30.273,24.414,30.273,20.508,3.906,0
134752.902,22.461,26.367,32.227,23.438,-10.254,0
134752.905,24.414,29.297,26.855,20.508,-14.648,0
134752.909,28.320,33.203,32.715,21.484,27.344,0
134752.913,25.391,39.551,39.062,26.367,38.086,0
134752.914,27.832,40.527,30.762,31.250,27.344,0
134752.918,26.855,34.180,32.227,26.367,33.691,0
134752.922,23.926,30.762,41.016,20.020,40.527,0
134752.926,24.902,34.180,38.086,22.461,33.203,0
134752.930,30.762,35.156,32.715,29.785,15.625,0
134752.933,25.879,25.391,28.320,30.273,36.133,0
134752.937,24.414,19.531,26.855,20.508,20.508,0
134752.941,39.551,25.391,25.391,25.391,-36.133,0
134752.945,40.039,28.320,25.879,34.180,-57.129,0
134752.949,31.738,31.738,29.785,26.367,-0.977,0
134752.953,33.691,43.457,32.227,17.578,5.859,0
134752.957,30.273,40.527,27.832,14.160,-11.719,0
134752.959,29.785,36.133,17.090,20.020,27.344,0
134752.963,28.809,30.273,5.859,22.949,20.508,0
134752.967,25.391,20.020,10.742,17.578,3.906,0
134752.971,30.273,24.902,23.438,19.043,11.230,0
134752.975,29.297,26.855,25.879,25.391,3.418,0
134752.979,25.391,22.461,28.320,30.273,9.766,0
134752.982,26.367,26.367,29.785,34.668,41.504,0
134752.986,26.367,28.809,26.367,27.832,3.418,0
134752.990,33.203,25.879,28.320,24.414,-5.371,0
134752.994,38.574,26.367,35.156,33.203,40.527,0
134752.998,33.203,34.180,29.785,31.738,10.254,0
134753.002,33.691,35.156,25.879,26.855,-23.926,0
134753.004,45.410,29.785,30.273,32.227,0.488,0
134753.008,44.922,30.273,25.879,31.250,30.273,0
134753.012,29.297,31.738,22.949,24.902,56.641,0
134753.016,29.297,28.809,25.879,22.949,49.316,0
134753.020,29.785,24.414,23.438,18.555,4.883,0
134753.023,28.809,32.227,25.879,25.391,-0.488,0
134753.027,32.715,42.969,36.621,33.203,30.273,0
134753.031,22.949,36.621,38.574,23.926,42.969,0
134753.035,17.578,29.297,28.809,17.578,61.035,0
134753.039,22.461,26.367,22.949,19.531,81.543,0
134753.043,18.066,21.973,21.973,23.438,76.660,0
134753.047,13.184,23.926,20.996,19.043,37.109,0
134753.050,17.578,31.250,22.949,17.090,49.316,0
134753.054,18.555,31.738,23.926,21.973,18.066,0
134753.058,19.043,29.297,27.344,20.508,1.953,0
134753.062,18.555,32.715,28.809,17.090,57.617,0
134753.066,14.648,28.320,28.809,13.672,37.598,0
134753.070,7.324,21.973,24.414,12.207,28.320,0
134753.074,4.395,22.949,21.973,21.973,36.621,0
134753.078,6.348,19.531,27.344,25.879,41.016,0
134753.082,5.859,20.020,27.832,16.113,57.617,0
134753.085,10.254,24.902,27.832,15.137,37.109,0
134753.089,14.648,26.855,29.785,24.902,23.926,0
134753.093,11.719,31.250,27.832,31.738,75.684,0
134753.110,10.254,31.738,28.809,25.879,38.086,0
134753.114,15.137,21.484,32.227,16.602,15.137,0
134753.118,14.160,16.113,30.273,21.484,51.758,0
134753.121,12.695,21.484,31.250,33.203,39.551,0
134753.125,14.160,23.438,30.762,28.320,66.406,0
134753.129,9.277,24.414,28.809,15.625,58.594,0
134753.133,10.254,26.367,28.809,13.184,-22.461,0
134753.137,12.695,23.926,25.879,19.531,4.395,0
134753.141,14.648,24.414,23.926,27.344,30.762,0
134753.145,20.020,28.809,28.320,24.902,0.977,0
134753.149,20.020,33.691,33.203,23.926,-19.043,0
134753.153,19.531,34.180,34.180,29.297,-18.555,0
134753.154,14.648,32.715,31.250,26.367,3.906,0
134753.158,11.230,29.785,25.879,16.602,-8.789,0
134753.162,11.230,25.391,25.391,10.742,12.695,0
134753.166,13.672,30.273,23.926,15.137,41.504,0
134753.170,18.555,30.762,22.949,25.879,33.203,0
134753.174,20.020,28.320,28.809,24.902,27.832,0
134753.178,16.113,31.250,30.762,11.719,3.418,0
134753.182,18.555,31.738,30.273,13.672,8.789,0
134753.186,30.762,36.621,32.227,27.832,20.996,0
134753.190,32.715,41.504,32.227,30.273,-9.766,0
134753.194,25.879,35.645,23.926,23.438,14.160,0
134753.197,27.832,30.273,18.066,18.555,13.672,0
134753.199,33.203,33.203,25.391,27.344,-17.578,0
134753.203,32.715,36.133,30.273,36.133,11.719,0
134753.207,31.738,33.203,26.855,21.973,8.301,0
134753.211,29.785,38.574,31.738,19.043,-27.832,0
134753.215,29.785,41.504,34.668,30.273,-23.926,0
134753.218,30.273,31.250,28.809,30.762,-14.160,0
134753.222,28.320,34.180,26.367,25.879,-9.766,0
134753.226,31.738,42.480,27.344,24.902,-19.043,0
134753.230,33.691,37.598,27.344,28.809,-21.484,0
134753.234,30.762,34.668,28.809,38.086,7.324,0
134753.238,28.809,34.180,30.762,37.109,31.250,0
134753.242,22.949,31.738,30.762,23.926,2.441,0
134753.244,28.320,34.668,34.668,28.320,10.742,0
134753.248,33.691,41.504,37.598,40.527,24.902,0
134753.252,26.855,36.133,38.086,32.227,31.738,0
134753.256,19.531,20.996,39.551,21.484,30.762,0
134753.260,23.926,27.832,39.062,21.973,17.090,0
134753.263,25.391,34.180,33.691,21.484,32.715,0
134753.267,16.113,20.020,30.273,19.531,35.645,0
134753.271,20.020,18.066,33.691,16.113,14.160,0
134753.275,22.949,22.461,35.156,12.695,3.906,0
134753.279,15.137,21.973,29.785,18.066,35.645,0
134753.283,16.113,25.391,29.297,25.391,72.266,0
134753.287,17.578,26.855,32.715,23.438,61.035,0
134753.289,14.648,26.367,33.691,13.672,45.898,0
134753.293,18.066,25.879,28.320,13.672,43.945,0
134753.297,20.508,24.414,23.438,23.926,72.754,0
134753.301,17.090,29.297,24.414,21.484,70.801,0
134753.305,18.555,30.762,27.832,12.695,11.230,0
134753.308,19.043,22.949,31.250,12.207,10.254,0
134753.312,17.090,16.113,32.715,18.555,62.012,0
134753.316,18.555,23.926,32.715,21.973,55.664,0
134753.320,21.484,33.203,29.785,16.113,29.785,0
134753.324,27.832,35.156,28.809,18.066,34.180,0
134753.328,31.250,32.227,25.391,27.344,16.602,0
134753.332,33.691,34.668,20.996,29.297,-13.184,0
134753.335,35.156,40.527,25.391,24.902,-4.395,0
134753.339,36.621,36.133,29.297,27.344,18.066,0
134753.343,37.598,31.250,21.973,27.344,6.348,0
134753.347,35.645,30.762,20.996,25.391,2.441,0
134753.351,34.180,32.227,27.344,25.391,27.344,0
134753.355,31.738,33.691,27.832,21.484,35.156,0
134753.359,31.738,33.203,27.344,24.414,26.855,0
134753.363,28.320,37.109,25.879,28.320,24.414,0
134753.366,26.367,41.016,24.902,24.414,42.480,0
134753.370,26.367,35.156,25.391,19.043,26.855,0
134753.374,20.996,30.762,27.832,22.949,20.020,0
134753.378,20.020,33.203,28.809,28.809,54.688,0
134753.379,19.531,27.344,26.367,26.367,81.055,0
134753.383,16.602,26.855,21.484,16.602,85.449,0
134753.387,18.066,32.227,21.973,12.207,52.734,2
134753.391,22.949,31.738,22.949,20.020,78.125,0
134753.395,31.738,33.691,20.020,30.273,115.234,0
134753.399,34.180,41.016,22.949,28.809,78.613,0
134753.402,36.133,41.992,31.250,24.902,34.180,0
134753.406,46.875,41.016,33.691,33.203,27.344,0
134753.410,47.363,40.527,31.738,37.598,73.242,0
134753.414,38.574,35.156,36.621,30.762,60.059,0
134753.418,32.715,34.668,38.574,24.414,-10.742,0
134753.422,31.250,37.598,34.668,24.902,-21.973,0
134753.424,29.785,36.621,30.762,30.273,40.039,0
134753.428,27.344,36.133,26.855,30.762,41.992,0
134753.432,23.438,35.645,24.414,16.602,-1.953,0
134753.436,26.855,29.785,26.855,19.043,16.113,0
134753.440,32.715,30.273,30.762,30.762,53.711,0
134753.443,27.344,34.180,31.738,31.250,46.387,0
134753.447,22.949,34.668,34.180,26.855,-6.348,0
134753.451,28.809,34.180,40.527,27.344,-3.906,0
134753.455,35.645,27.832,38.574,36.133,28.809,0
134753.459,38.574,29.297,29.785,42.480,11.719,0
134753.463,32.715,39.062,24.414,32.715,0.977,0
134753.467,26.367,37.109,24.414,17.090,28.809,0
134753.484,24.902,32.715,24.414,23.438,51.270,0
134753.488,21.484,33.691,22.461,27.832,44.922,0
134753.492,24.414,34.180,25.391,23.438,27.832,0
134753.496,28.809,29.785,27.344,18.066,33.691,0
134753.500,31.738,30.762,26.367,17.090,41.992,0
134753.503,31.250,34.180,29.297,27.344,38.574,0
134753.507,33.203,31.738,31.250,29.785,49.805,0
134753.511,27.344,28.320,30.273,22.461,58.594,0
134753.515,27.832,26.367,29.297,21.973,59.570,0
134753.519,28.320,31.250,28.320,26.855,50.293,0
134753.523,21.973,33.691,29.785,28.809,48.340,0
134753.527,25.879,34.668,37.109,30.273,43.457,0
134753.529,29.297,37.598,35.645,25.879,34.668,0
134753.533,26.855,28.809,29.785,23.926,34.668,0
134753.537,25.391,23.926,29.785,31.738,53.711,0
134753.541,25.391,28.320,31.250,30.762,69.336,0
134753.545,19.531,30.762,30.273,22.949,37.109,0
134753.548,18.066,31.250,29.785,24.902,4.883,0
134753.552,20.020,32.227,29.297,28.809,9.766,0
134753.556,12.695,32.715,29.297,21.973,30.762,0
134753.560,9.766,38.086,30.273,14.160,19.531,0
134753.564,20.996,43.945,29.785,15.625,-6.836,0
134753.568,30.273,38.574,29.297,24.902,23.438,0
134753.572,15.137,33.203,27.344,24.414,37.598,0
134753.575,9.277,32.227,23.926,15.625,17.090,0
134753.579,19.043,33.691,25.391,13.184,12.207,0
134753.583,20.996,32.227,30.762,19.043,32.227,0
134753.587,18.066,32.715,30.762,20.508,42.480,0
134753.591,17.090,37.109,28.320,16.113,-3.906,0
134753.595,19.531,35.645,25.879,16.602,-13.672,0
134753.599,24.902,33.691,26.855,22.949,41.504,0
134753.603,25.879,37.109,28.809,35.645,59.570,0
134753.607,23.438,37.598,27.344,30.762,27.344,0
134753.611,21.484,31.738,28.320,14.648,-10.254,0
134753.614,26.367,28.320,28.320,20.996,22.949,0
134753.618,31.738,28.809,31.250,35.645,47.852,0
134753.619,29.297,34.668,32.227,37.598,8.301,0
134753.623,27.344,39.062,32.715,30.273,-32.227,0
134753.627,30.273,33.203,36.133,32.715,-38.574,0
134753.631,29.785,27.344,36.621,41.992,-31.738,0
134753.635,28.809,30.273,36.133,42.969,-23.438,0
134753.639,31.250,33.203,34.668,37.598,-53.223,0
134753.643,36.621,32.715,33.203,33.691,-39.551,0
134753.647,41.016,36.621,39.551,39.551,-9.766,0
134753.650,36.621,33.691,41.504,40.039,-23.926,0
134753.654,33.203,26.855,34.668,29.297,-6.836,0
134753.658,33.691,27.344,30.273,21.484,4.395,0
134753.662,38.574,32.227,30.273,28.320,7.812,0
134753.664,40.527,31.250,28.809,39.062,17.578,0
134753.668,32.227,30.762,26.855,35.645,49.316,0
134753.672,24.414,36.133,28.809,24.902,29.297,0
134753.676,20.996,33.691,28.320,21.484,17.578,0
134753.680,25.879,29.297,27.832,30.273,72.266,0
134753.683,26.855,30.273,29.785,32.227,63.965,0
134753.687,22.949,33.691,30.273,20.020,0.977,0
134753.691,23.438,37.598,29.785,14.648,-0.977,0
134753.695,19.531,34.668,30.273,20.020,27.832,0
134753.699,15.625,32.227,26.367,20.996,51.270,0
134753.703,13.672,30.762,25.879,16.113,27.344,0
134753.707,23.438,37.598,27.344,13.672,13.184,0
134753.709,32.227,48.340,28.320,22.461,58.105,0
134753.713,27.344,40.039,32.227,32.715,79.590,0
134753.717,20.020,32.715,34.180,19.531,30.762,0
134753.721,20.020,31.738,31.250,5.859,-18.555,0
134753.725,26.855,29.297,24.902,19.043,-3.906,0
134753.728,26.367,28.809,24.902,25.879,29.297,0
134753.732,17.578,31.738,30.273,18.066,26.855,0
134753.736,18.555,31.250,33.691,10.742,-15.137,0
134753.740,23.926,23.438,37.109,13.672,-29.297,0
134753.744,26.367,29.785,36.133,26.855,8.789,0
134753.748,22.949,39.551,28.809,29.785,42.480,0
134753.752,17.578,32.715,29.785,20.020,29.785,0
134753.755,17.578,28.320,32.715,15.625,-14.160,0
134753.758,23.438,33.691,33.691,26.367,-20.996,0
134753.762,26.367,38.574,33.203,32.227,2.441,0
134753.766,21.484,34.668,26.367,17.578,6.836,0
134753.770,23.926,29.297,27.344,9.277,8.789,0
134753.774,30.762,31.738,33.203,18.066,31.738,0
134753.778,26.367,34.180,34.668,23.438,32.715,0
134753.782,24.414,30.762,32.715,20.020,24.902,0
134753.786,25.879,27.344,29.785,14.648,15.625,0
134753.790,29.297,23.438,27.344,15.625,20.996,0
134753.794,29.785,24.902,32.227,25.391,16.113,0
134753.798,23.926,29.297,33.691,25.391,-12.695,0
134753.800,26.367,29.297,32.227,20.020,-15.625,0
134753.804,32.227,29.297,35.645,23.438,-13.672,0
134753.808,29.297,28.809,38.574,29.297,7.812,0
134753.812,25.879,26.855,37.598,31.738,24.902,0
134753.816,28.320,26.855,32.715,21.973,13.184,0
134753.820,25.879,29.785,27.832,11.719,-5.859,0
134753.824,28.809,36.133,31.250,23.926,10.742,0
134753.828,31.250,38.574,29.297,32.715,62.012,0
134753.832,24.902,28.809,27.344,22.461,73.242,0
134753.835,22.949,24.902,33.691,20.508,41.016,0
134753.839,29.297,26.855,35.645,35.156,55.664,0
134753.843,31.250,27.832,34.668,41.992,95.703,0
134753.859,21.973,26.855,35.645,34.668,69.336,0
134753.863,27.832,24.414,32.715,24.414,9.766,1
134753.867,36.133,30.762,27.344,25.391,14.648,0
134753.871,32.715,38.086,29.297,36.621,34.668,0
134753.875,32.715,31.250,28.809,31.250,11.230,0
134753.879,28.320,24.414,26.855,19.531,-24.902,0
134753.883,33.203,24.414,27.344,24.902,-23.926,0
134753.886,38.574,25.391,29.297,36.621,13.672,0
134753.890,32.227,27.344,30.273,37.598,-0.488,0
134753.894,30.762,25.391,27.344,26.855,-21.973,0
134753.898,31.250,21.484,24.414,21.973,-12.695,0
134753.902,28.320,25.879,21.484,26.855,56.641,0
134753.904,32.227,30.762,21.973,30.273,60.547,0
134753.908,28.809,26.855,27.832,26.367,23.438,0
134753.912,22.949,25.879,31.250,18.066,39.062,0
134753.916,32.715,26.367,30.273,21.973,39.551,0
134753.920,28.809,23.438,30.762,28.809,55.664,0
134753.923,19.043,23.926,33.203,28.320,34.180,0
134753.927,25.391,27.344,27.832,20.508,-4.395,0
134753.931,25.391,22.461,18.555,16.113,3.906,0
134753.935,20.508,22.461,20.020,23.926,17.090,0
134753.939,19.043,31.250,27.832,23.926,-7.812,0
134753.943,15.137,31.738,32.227,15.625,-3.418,0
134753.947,16.602,32.715,32.227,14.648,31.250,0
134753.949,17.578,31.738,31.250,19.043,57.617,0
134753.953,18.066,25.391,29.297,17.578,72.266,0
134753.957,14.648,22.949,24.902,11.230,60.059,0
134753.961,14.160,21.973,19.043,9.766,42.480,0
134753.965,15.137,23.926,13.672,11.719,41.504,0
134753.969,20.996,27.832,15.137,18.066,29.297,0
134753.972,19.531,27.344,17.578,18.066,5.371,0
134753.976,19.531,30.762,16.602,12.207,-1.465,0
134753.980,25.879,26.855,21.484,15.625,-1.465,0
134753.984,28.320,27.832,22.949,19.531,2.930,0
134753.988,27.832,35.645,20.996,19.531,2.930,0
134753.992,24.414,28.809,22.461,13.672,-3.906,0
134753.994,22.949,21.484,22.949,10.742,-4.395,0
134753.998,21.484,22.461,20.996,19.043,5.859,0
134754.002,20.020,26.367,22.949,20.020,16.602,0
134754.006,19.043,30.273,25.879,13.672,8.301,0
134754.010,21.484,30.762,23.926,16.113,-18.066,0
134754.013,22.949,31.250,28.320,22.949,-19.043,0
134754.017,18.066,27.832,29.785,23.926,11.719,0
134754.021,20.996,28.320,23.926,20.508,39.062,0
134754.025,26.367,33.203,21.484,19.531,-20.020,0
134754.029,30.762,31.738,20.996,22.461,-15.137,0
134754.033,34.668,33.203,21.484,28.320,71.777,0
134754.037,30.762,36.621,20.996,22.461,62.012,0
134754.041,26.855,37.109,23.438,15.137,85.938,0
134754.045,29.785,35.156,23.926,18.066,132.812,0
134754.049,30.273,33.691,27.344,27.344,118.652,0
134754.053,21.484,39.062,34.668,24.902,68.359,0
134754.056,16.602,39.551,33.691,13.672,60.059,0
134754.060,25.879,32.227,29.297,17.090,59.082,0
134754.064,26.367,28.809,27.832,26.855,46.387,0
134754.068,20.508,29.785,29.785,30.273,69.824,0
134754.072,20.996,32.227,26.855,22.461,58.594,0
134754.076,21.484,34.668,25.879,20.996,50.781,0
134754.080,25.879,35.156,33.203,33.691,75.195,0
134754.084,27.344,35.645,37.109,41.992,82.520,0
134754.084,22.461,36.621,31.250,32.227,62.988,0
134754.088,24.902,38.086,25.391,25.391,69.824,0
134754.092,24.902,32.715,27.832,29.297,79.102,0
134754.096,21.973,26.367,27.344,32.227,56.152,0
134754.100,21.484,24.902,26.855,30.273,16.602,0
134754.104,18.555,25.879,29.785,20.020,-20.508,0
134754.108,25.391,26.855,31.250,21.484,-36.621,0
134754.111,25.391,26.367,28.320,28.320,-18.066,0
134754.115,20.508,25.879,23.926,19.531,11.719,0
134754.119,19.531,24.902,23.438,9.766,9.277,0
134754.123,20.996,25.391,26.367,17.090,-1.465,0
134754.127,29.297,32.715,28.809,29.785,39.551,0
134754.129,30.762,31.250,27.344,26.367,43.457,0
134754.133,25.879,20.996,24.902,20.508,26.855,0
134754.137,27.344,20.996,27.344,23.926,32.715,0
134754.141,27.832,23.926,24.902,29.297,13.184,0
134754.145,17.090,25.879,22.949,28.320,12.207,0
134754.149,17.090,24.902,25.879,23.926,14.648,0
134754.152,27.344,23.438,28.809,22.461,-25.391,0
134754.156,28.809,27.344,29.297,26.367,-10.742,0
134754.160,26.855,26.367,23.926,28.809,38.086,0
134754.164,22.949,27.344,20.996,24.902,20.996,0
134754.168,18.066,31.250,26.855,17.578,16.602,0
134754.172,25.391,29.297,33.203,20.020,36.133,0
134754.174,27.344,30.273,32.227,26.367,66.895,0
134754.178,18.066,31.738,28.809,22.461,61.523,0
134754.182,17.090,30.273,26.367,16.113,0.000,0
134754.186,23.438,35.645,23.926,14.648,-5.859,0
134754.190,22.461,33.203,26.855,22.461,44.922,0
134754.193,19.043,29.785,32.227,26.367,72.754,0
134754.197,18.066,37.598,35.156,16.602,38.086,0
134754.201,25.879,38.086,37.109,14.648,31.738,0
134754.205,28.320,33.691,37.598,23.438,66.406,0
134754.209,16.113,32.227,33.691,33.203,64.941,0
134754.213,17.578,30.273,31.738,29.297,61.035,0
134754.217,20.020,31.250,30.273,17.578,35.645,0
134754.220,23.438,36.621,28.320,21.484,21.484,0
134754.224,27.344,41.504,30.273,26.855,9.766,0
134754.228,23.438,39.062,32.227,20.508,12.207,0
134754.232,23.438,36.621,32.227,12.207,26.367,0
134754.236,28.320,35.156,31.250,18.555,27.344,0
134754.240,31.738,31.738,30.762,31.250,16.113,0
134754.244,22.461,28.320,31.250,27.344,16.602,0
134754.248,19.531,28.809,29.297,14.648,21.973,0
134754.251,22.949,30.273,28.320,14.160,15.137,0
134754.255,23.926,31.250,28.320,23.438,27.832,0
134754.259,27.344,31.250,29.297,22.949,32.715,0
134754.263,28.809,34.180,30.273,16.602,25.391,0
134754.280,29.785,38.086,32.227,12.695,1.465,0
134754.284,34.180,41.016,34.668,19.043,-27.832,0
134754.288,34.668,38.086,32.227,26.367,-20.508,0
134754.292,35.156,30.762,32.227,23.438,-6.836,0
134754.296,28.320,22.461,31.250,17.090,-8.301,0
134754.300,20.508,21.973,31.250,15.625,-14.160,0
134754.304,27.832,32.227,34.180,24.414,-12.207,0
134754.308,23.926,34.180,34.668,22.949,-3.906,0
134754.311,18.066,29.297,29.785,10.254,-24.414,0
134754.315,21.973,29.785,29.297,11.719,-34.180,0
134754.319,17.090,32.715,37.109,24.902,15.625,0
134754.323,17.578,36.133,40.039,29.297,20.996,0
134754.324,23.926,31.738,38.574,23.926,-36.621,0
134754.328,25.879,28.320,30.273,18.066,-32.227,0
134754.332,33.691,36.621,24.414,28.809,19.043,0
134754.336,32.227,40.527,29.297,32.715,20.508,0
134754.340,25.391,32.227,26.855,15.625,3.418,1
134754.344,24.414,30.273,24.902,8.789,-21.973,0
134754.347,24.902,33.691,29.297,13.672,-2.930,0
134754.351,24.414,32.227,28.809,23.438,74.707,0
134754.355,19.531,31.738,25.879,18.066,23.926,0
134754.359,22.461,33.691,26.367,3.418,-44.434,0
134754.363,32.227,32.715,26.855,12.695,10.742,0
134754.367,32.715,30.273,31.250,26.855,62.500,0
134754.369,25.879,29.297,37.598,27.832,63.965,0
134754.373,30.762,29.297,34.668,19.531,50.781,0
134754.377,36.621,27.344,27.344,18.066,32.715,0
134754.381,32.715,26.367,29.785,29.297,18.066,0
134754.385,26.367,32.715,31.738,30.273,17.578,0
134754.388,21.484,33.203,30.273,17.578,-5.859,0
134754.392,27.832,30.273,28.320,18.555,23.438,0
134754.396,34.180,28.809,24.414,29.785,75.684,0
134754.400,25.879,33.203,27.832,27.344,42.480,0
134754.404,20.996,35.156,32.227,18.066,33.203,0
134754.408,22.461,34.180,31.250,16.602,62.988,0
134754.412,23.926,34.668,31.250,21.484,37.598,0
134754.414,30.762,29.785,31.738,30.762,21.973,0
134754.418,30.273,31.250,30.273,23.926,56.152,0
134754.422,29.785,35.156,30.273,15.137,55.664,0
134754.426,32.227,32.715,30.762,20.020,41.016,0
134754.430,36.133,31.738,32.227,28.809,59.570,0
134754.433,32.227,34.668,34.668,28.809,43.457,0
134754.437,22.461,34.180,32.715,20.996,17.578,0
134754.441,24.902,30.273,26.367,20.020,-3.906,0
134754.445,30.273,31.738,19.043,24.902,1.953,0
134754.449,31.250,35.645,20.508,29.785,37.109,0
134754.453,28.320,34.668,29.297,25.391,14.160,0
134754.457,26.855,31.738,32.715,16.113,-9.277,0
134754.459,25.391,30.273,31.250,20.508,44.922,0
134754.463,20.996,29.785,34.180,27.832,74.219,0
134754.467,22.461,25.391,38.086,23.438,45.410,0
134754.471,25.879,21.973,33.203,16.602,34.668,0
134754.475,30.762,24.414,26.855,20.508,44.922,0
134754.479,24.902,26.855,23.926,27.344,51.758,0
134754.482,15.625,34.180,25.391,26.855,49.805,0
134754.486,15.625,38.574,28.320,21.973,4.883,0
134754.490,20.020,30.273,30.762,23.438,8.789,0
134754.494,20.508,24.902,34.668,27.832,48.828,0
134754.498,14.160,21.484,34.180,25.391,18.066,0
134754.502,12.695,21.973,32.227,20.508,13.184,0
134754.506,15.137,23.438,28.809,19.531,61.523,0
134754.510,18.555,21.484,30.273,27.832,84.961,0
134754.514,20.996,22.949,35.645,32.227,61.523,0
134754.518,20.996,24.902,37.598,25.879,26.367,0
134754.522,26.855,34.180,36.621,21.484,20.508,0
134754.526,28.809,39.062,34.668,26.855,-2.441,0
134754.530,20.508,33.203,35.156,30.273,-24.414,0
134754.533,18.066,32.715,34.668,20.996,4.883,0
134754.537,16.602,29.785,28.809,16.602,28.809,0
134754.541,21.484,25.879,26.855,25.391,15.137,0
134754.545,32.227,27.344,26.367,28.320,30.273,0
134754.549,28.320,31.250,26.367,24.414,29.297,0
134754.549,18.555,30.273,31.250,22.461,37.109,0
134754.553,22.949,28.320,30.273,27.832,73.242,0
134754.557,25.391,26.855,31.250,35.156,59.570,0
134754.561,26.367,24.902,37.109,27.832,41.504,0
134754.565,24.902,27.344,34.668,14.648,35.645,0
134754.569,24.902,26.855,29.297,15.625,23.926,0
134754.573,22.949,26.855,27.344,27.344,23.926,0
134754.576,19.531,30.273,27.832,32.715,26.855,0
134754.580,22.461,34.180,30.762,25.879,26.855,0
134754.584,24.902,31.250,26.855,18.555,33.691,0
134754.588,25.879,25.879,25.879,26.367,8.789,0
134754.592,24.902,30.762,31.738,37.598,-14.160,0
134754.609,18.555,29.785,31.738,29.297,8.301,0
134754.613,17.578,20.508,32.715,18.555,6.348,0
134754.617,20.508,20.996,30.273,17.578,2.930,0
134754.621,13.672,29.785,26.367,18.066,24.902,0
134754.625,10.742,36.621,27.344,13.672,16.113,0
134754.629,18.066,37.598,29.297,8.789,42.480,0
134754.632,25.391,35.156,27.344,11.719,76.660,0
134754.636,23.926,31.250,22.949,19.531,70.801,0
134754.640,20.020,32.715,25.391,22.461,36.133,0
134754.644,21.973,38.574,32.715,17.578,9.766,0
134754.648,21.973,36.621,33.203,17.578,38.574,0
134754.652,22.461,28.320,25.391,20.020,71.777,0
134754.654,25.391,29.297,25.391,21.973,82.031,0
134754.658,22.461,32.715,31.738,13.672,13.184,0
134754.662,23.926,32.227,29.297,3.418,-33.203,0
134754.666,29.785,34.180,24.414,11.719,-11.230,0
134754.670,35.156,34.180,24.902,20.508,18.066,0
134754.673,28.320,39.062,30.762,15.137,10.254,0
134754.677,24.414,38.574,31.738,12.207,-20.508,0
134754.681,24.414,29.297,26.367,13.672,25.879,0
134754.685,18.555,29.785,27.344,20.508,32.227,0
134754.689,20.996,35.156,27.832,27.832,5.371,0
134754.693,17.090,29.297,26.367,16.602,-9.766,0
134754.697,14.160,22.949,26.855,8.789,-5.371,0
134754.699,15.137,26.367,26.855,16.113,1.465,0
134754.703,11.719,25.391,30.273,17.090,22.949,0
134754.707,15.137,27.832,34.180,14.648,44.434,0
134754.711,20.508,30.273,35.156,13.184,39.551,0
134754.715,29.297,30.762,33.203,17.090,36.621,0
134754.719,28.809,34.668,28.320,22.461,42.480,0
134754.722,16.602,28.320,21.484,15.137,43.945,0
134754.726,19.531,20.996,18.066,12.207,36.133,0
134754.730,27.344,20.508,23.926,18.555,6.836,0
134754.734,29.297,23.438,26.367,23.438,-28.320,0
134754.738,20.996,26.855,28.809,21.484,16.602,0
134754.742,19.531,31.250,35.156,15.137,2.930,0
134754.745,30.762,37.109,34.668,21.973,-13.184,0
134754.749,34.180,35.645,31.738,36.621,32.715,0
134754.753,28.809,23.926,30.273,30.273,42.480,0
134754.757,25.391,22.949,26.855,14.648,13.672,0
134754.761,26.367,27.344,27.344,20.996,-9.766,0
134754.765,27.832,27.832,30.762,33.203,3.906,0
134754.769,26.367,30.762,31.250,26.855,8.789,0
134754.773,24.902,32.715,32.227,17.090,-20.508,0
134754.776,26.367,37.109,32.227,15.137,-30.762,2
134754.780,28.809,30.273,29.785,20.508,24.414,0
134754.784,26.855,21.973,28.809,26.367,55.664,0
134754.788,30.273,25.391,31.738,24.902,30.273,0
134754.789,30.762,28.809,33.203,18.555,14.648,0
134754.793,23.926,32.715,31.738,16.602,11.230,0
134754.797,23.438,30.762,29.785,21.973,11.719,0
134754.801,20.508,26.855,26.855,18.555,16.602,0
134754.805,18.555,27.832,26.367,11.719,-14.648,0
134754.808,21.484,28.320,26.367,11.230,-29.785,0
134754.812,26.367,32.227,25.879,21.973,23.438,0
134754.816,29.297,27.832,27.344,25.391,33.691,0
134754.820,20.508,23.926,21.973,11.719,16.113,0
134754.824,17.578,24.902,18.066,8.789,33.203,0
134754.828,23.926,24.414,20.996,22.949,41.992,0
134754.832,24.414,28.320,23.438,31.250,43.945,0
134754.834,17.578,27.832,25.391,22.949,24.902,0
134754.838,20.508,28.320,27.344,18.066,14.160,0
134754.842,27.832,35.156,31.738,25.391,28.809,0
134754.846,26.367,32.227,29.297,31.250,44.922,0
134754.850,24.902,25.391,24.902,24.414,44.434,0
134754.853,23.926,24.414,21.484,16.602,7.812,0
134754.857,24.902,21.973,20.020,23.926,0.000,0
134754.861,28.320,26.855,21.973,34.668,22.949,0
134754.865,29.297,32.227,22.949,29.785,16.602,0
134754.869,27.344,27.832,23.438,16.113,21.484,0
134754.873,26.855,26.367,25.391,18.555,23.438,0
134754.877,30.762,27.344,29.297,32.227,43.457,0
134754.879,32.715,26.367,34.668,34.668,41.992,0
134754.883,32.227,28.320,33.691,23.926,9.766,0
134754.887,33.691,32.715,28.809,24.414,20.508,0
134754.891,34.668,31.738,23.926,34.668,52.734,0
134754.895,26.855,29.297,20.996,34.180,60.547,0
134754.898,25.391,20.508,22.461,23.926,39.551,0
134754.902,27.832,20.508,26.855,18.066,1.953,0
134754.906,27.344,28.809,30.762,23.926,12.695,0
134754.910,28.320,30.273,28.320,31.738,33.691,0
134754.914,22.949,27.832,28.320,29.785,5.371,0
134754.918,16.602,24.902,31.250,18.066,-0.977,0
134754.922,23.926,31.250,31.738,17.578,-3.906,0
134754.926,24.414,29.785,33.691,30.762,16.602,0
134754.930,13.672,23.926,36.621,31.738,33.691,0
134754.934,14.160,23.926,33.203,18.555,3.906,0
134754.938,22.461,24.414,26.367,15.625,9.277,0
134754.942,16.602,23.926,32.227,21.973,43.457,0
134754.945,8.789,25.391,38.086,20.508,13.184,0
134754.949,7.812,24.902,31.250,11.230,-14.648,0
134754.953,10.742,19.043,28.320,4.395,-14.160,0
134754.957,12.695,18.066,27.832,14.648,28.809,0
134754.961,11.230,27.832,27.832,24.414,69.336,0
134754.965,13.184,35.645,33.691,21.973,54.199,0
134754.969,18.066,27.832,34.180,16.113,42.480,0
134754.985,25.879,20.996,31.738,22.461,52.246,0
134754.989,27.344,25.879,33.203,29.785,29.297,0
134754.992,21.973,30.273,33.691,26.855,11.719,0
134754.996,16.602,31.250,31.250,21.973,16.113,0
134755.000,20.996,31.738,27.832,22.461,23.926,0
134755.004,22.461,28.320,28.809,33.203,27.344,0
134755.008,20.508,30.273,31.250,34.180,25.391,0
134755.012,20.996,33.203,27.344,22.461,18.066,0
134755.016,21.484,23.926,29.785,20.020,33.691,0
134755.020,22.949,20.508,30.762,24.414,57.617,0
134755.024,26.855,22.949,28.809,24.902,40.527,0
134755.028,15.625,20.996,33.203,17.578,25.879,0
134755.030,9.766,21.484,34.668,15.625,11.719,0
134755.033,20.508,29.297,33.203,23.438,33.203,0
134755.037,20.996,33.691,30.762,23.438,64.941,0
134755.041,14.160,30.273,27.832,12.207,53.711,0
134755.045,14.648,29.297,28.809,8.789,-4.395,0
134755.049,19.043,29.297,26.367,12.695,8.789,0
134755.053,20.020,25.391,24.902,19.531,39.062,0
134755.057,20.996,22.461,27.344,17.578,25.879,0
134755.061,17.090,23.438,27.344,10.254,5.859,0
134755.065,18.066,28.809,25.879,14.648,-3.906,0
134755.069,26.367,30.762,25.879,22.461,39.062,0
134755.073,25.391,29.785,28.809,22.949,50.781,0
134755.074,21.973,32.715,28.809,11.719,12.207,0
134755.078,28.320,37.109,27.832,11.719,17.578,0
134755.082,31.250,32.715,27.832,19.531,60.547,0
134755.086,27.344,34.180,28.809,23.438,70.312,0
134755.090,26.367,41.504,32.227,21.973,31.738,0
134755.094,32.715,32.227,29.297,17.090,-8.301,0
134755.097,36.133,21.973,24.902,24.902,22.949,0
134755.101,25.391,20.508,19.531,28.320,61.523,0
134755.105,20.020,23.926,16.602,19.043,23.926,0
134755.109,24.902,24.414,20.996,12.695,2.441,0
134755.113,29.785,22.949,28.320,19.043,42.480,0
134755.117,35.156,33.691,28.320,30.762,88.379,0
134755.119,34.668,36.133,29.785,33.203,77.637,0
134755.123,25.391,31.250,33.203,22.461,57.617,0
134755.127,28.809,37.598,29.297,22.461,52.246,0
134755.131,29.297,37.598,27.832,36.621,79.102,0
134755.135,23.438,32.227,29.785,32.715,94.238,0
134755.138,24.902,32.227,30.762,20.996,67.383,0
134755.142,24.414,31.738,32.227,23.438,61.523,0
134755.146,25.879,29.297,33.203,32.227,47.363,0
134755.150,25.879,33.691,33.203,32.715,53.223,0
134755.154,22.949,37.598,28.320,23.926,74.707,0
134755.158,23.438,36.133,22.461,19.043,47.852,0
134755.162,25.391,35.156,26.367,22.949,42.969,0
134755.164,22.949,33.203,31.738,27.832,68.359,0
134755.168,19.531,35.645,31.738,24.414,87.402,0
134755.172,26.367,37.109,32.227,19.531,76.660,0
134755.176,33.691,33.691,32.715,20.508,51.758,0
134755.180,30.273,33.691,28.809,25.879,47.363,0
134755.183,24.414,37.109,30.273,27.344,53.711,0
134755.187,19.531,36.133,32.715,22.949,41.016,0
134755.191,19.043,29.297,25.879,19.043,-1.465,0
134755.195,16.602,23.926,26.855,20.996,-5.371,0
134755.199,19.043,22.949,28.809,24.414,10.742,0
134755.203,21.484,24.414,28.320,20.996,-39.551,0
134755.207,23.438,28.809,25.391,17.090,-20.996,0
134755.210,24.902,31.250,22.461,22.949,14.160,0
134755.214,22.949,24.902,31.250,28.809,-8.789,0
134755.218,20.020,27.832,36.133,24.414,-48.828,0
134755.222,19.043,40.039,29.785,16.113,-72.754,0
134755.226,26.367,37.598,30.762,20.508,-23.438,0
134755.230,23.926,28.809,38.574,29.297,25.879,0
134755.234,20.996,26.367,41.016,28.320,-1.953,0
134755.238,26.367,33.691,39.062,23.926,-69.824,0
134755.242,25.879,35.645,34.180,25.391,-53.223,0
134755.245,19.531,34.180,28.809,33.691,9.766,0
134755.249,22.949,37.598,26.855,35.156,0.977,0
134755.253,24.414,40.039,29.785,25.391,-3.906,0
134755.254,26.367,37.598,29.785,23.926,31.250,0
134755.258,31.738,30.273,29.785,32.227,60.547,0
134755.262,26.855,29.297,33.203,34.180,58.105,0
134755.266,27.832,29.297,30.273,25.879,27.832,0
134755.270,32.715,24.414,30.273,19.531,51.270,0
134755.274,31.250,28.320,33.203,21.484,70.312,2
134755.277,31.250,36.133,28.809,25.391,28.320,0
134755.281,27.832,34.668,23.438,21.973,-31.250,0
134755.285,25.391,33.691,20.996,13.184,-21.973,0
134755.289,34.180,38.574,21.973,17.578,4.395,0
134755.293,38.574,39.062,24.902,26.367,45.898,0
134755.297,33.203,34.180,24.414,22.461,53.711,0
134755.299,22.461,29.785,25.879,16.602,19.043,0
134755.303,22.949,32.227,27.344,20.020,43.457,0
134755.307,22.949,33.203,27.344,28.809,47.363,0
134755.311,13.184,29.785,32.715,23.926,55.664,0
134755.315,11.719,24.902,34.668,15.137,44.434,0
134755.319,15.137,22.949,29.297,18.066,-12.207,0
134755.322,17.090,30.273,24.902,25.391,5.859,0
134755.326,16.602,33.691,23.438,30.273,46.875,0
134755.330,16.602,31.738,28.809,25.391,38.574,0
134755.334,18.066,30.762,35.156,17.578,23.438,0
134755.338,24.414,30.762,33.691,21.973,37.598,0
134755.342,25.391,31.250,35.156,28.320,78.613,0
134755.359,21.973,28.809,35.156,21.484,55.176,0
134755.363,23.438,27.832,32.715,16.602,-13.672,0
134755.367,24.414,25.879,32.715,23.438,-34.668,0
134755.371,25.391,32.227,32.227,30.273,22.949,0
134755.375,22.461,31.738,30.762,25.879,43.945,0
134755.379,16.602,20.508,33.691,17.090,8.301,0
134755.382,26.855,23.438,35.156,18.066,22.949,0
134755.386,31.738,30.273,34.180,25.391,78.613,0
134755.390,18.555,28.809,36.133,26.367,71.777,0
134755.394,19.043,29.785,36.621,19.043,18.066,0
134755.398,27.832,34.668,33.691,15.625,2.441,0
134755.402,26.855,33.691,34.180,21.973,34.668,0
134755.404,22.461,26.367,32.227,27.832,35.645,0
134755.408,20.996,28.320,34.180,25.879,9.766,0
134755.412,22.949,31.250,39.062,17.090,-1.465,0
134755.416,27.344,23.926,37.109,20.020,13.184,0
134755.420,24.902,25.391,34.180,30.273,50.781,0
134755.423,19.043,27.344,34.668,24.414,51.270,0
134755.427,17.090,22.949,39.062,18.555,19.531,0
134755.431,18.555,20.508,39.062,21.973,4.395,0
134755.435,19.531,24.414,36.133,29.297,16.113,0
134755.439,18.555,24.414,33.691,31.250,-5.859,0
134755.443,21.973,31.738,30.273,23.438,-28.320,0
134755.447,34.668,41.992,30.273,24.902,9.277,0
134755.450,37.109,33.691,32.227,32.715,31.738,0
134755.454,29.785,23.438,29.297,33.203,34.180,0
134755.458,25.879,23.926,27.832,28.320,39.551,0
134755.462,29.297,32.227,30.273,24.414,54.199,0
134755.466,34.180,37.598,34.180,25.879,31.738,0
134755.470,28.809,34.668,31.250,30.273,23.438,0
134755.474,21.973,33.691,28.320,20.508,45.410,0
134755.478,22.949,37.598,29.785,18.066,42.480,0
134755.482,25.391,35.645,28.320,28.809,15.625,0
134755.485,23.926,32.715,28.809,28.809,17.090,0
134755.489,21.484,29.297,29.297,20.996,60.547,0
134755.493,26.367,25.879,29.785,17.090,32.227,0
134755.494,31.738,29.785,26.367,19.043,30.273,0
134755.498,25.879,35.645,26.855,26.367,90.820,0
134755.502,19.531,35.645,30.273,31.738,86.426,0
134755.506,20.508,33.203,31.250,30.762,30.273,0
134755.510,23.438,35.156,32.227,28.320,11.719,0
134755.514,25.391,32.227,33.691,31.738,55.176,0
134755.517,16.602,30.762,36.621,32.715,69.824,0
134755.521,9.766,32.227,37.598,24.414,29.785,0
134755.525,11.230,29.297,34.180,18.066,-13.184,0
134755.529,15.137,26.367,28.809,21.973,25.879,0
134755.533,11.230,26.855,32.227,26.855,58.105,0
134755.537,6.348,29.785,34.668,18.066,40.039,0
134755.539,15.625,25.391,31.738,12.695,11.230,0
134755.543,20.020,27.344,32.227,15.625,-3.418,0
134755.547,22.461,37.109,32.715,20.508,52.734,0
134755.551,20.020,28.320,27.832,19.531,16.602,0
134755.555,15.137,15.137,28.809,10.254,-39.062,0
134755.558,19.531,17.578,33.691,13.672,-38.574,0
134755.562,21.484,22.461,33.203,27.832,6.836,0
134755.566,23.438,25.391,31.250,27.832,56.152,0
134755.570,23.438,25.879,26.855,12.695,-23.438,0
134755.574,25.391,20.996,27.344,9.766,-45.410,0
134755.578,31.738,21.973,27.344,22.949,2.930,0
134755.582,30.273,26.367,26.367,29.297,7.324,0
134755.584,22.461,27.344,27.832,21.973,-4.883,0
134755.588,19.043,25.391,24.414,19.043,-6.348,0
134755.592,25.879,28.320,25.391,24.902,-10.254,0
134755.596,30.273,33.203,32.715,28.320,22.949,0
134755.600,26.367,31.738,33.203,21.484,43.945,0
134755.603,22.949,28.320,32.227,13.672,17.090,0
134755.607,21.973,26.855,30.762,18.066,42.969,0
134755.611,23.926,27.832,28.320,25.391,18.555,0
134755.615,20.020,27.344,26.367,19.043,7.324,0
134755.619,18.555,24.414,28.320,13.672,60.547,0
134755.623,26.855,26.855,31.738,17.090,16.602,0
134755.627,29.297,35.156,33.203,23.438,19.531,0
134755.630,28.320,36.621,37.598,25.879,77.148,0
134755.634,33.691,31.738,35.645,19.043,61.035,0
134755.638,43.457,32.715,31.738,16.113,5.859,0
134755.642,40.039,35.156,32.227,24.902,38.574,0
134755.646,33.691,33.203,32.715,31.738,69.824,0
134755.650,34.180,28.320,33.203,24.414,19.043,0
134755.654,33.691,28.320,32.715,19.043,5.859,0
134755.658,32.227,29.785,26.855,20.508,35.156,0
134755.662,32.715,23.926,24.414,20.020,24.414,0
134755.665,25.879,19.043,27.832,17.090,15.137,0
134755.669,20.508,22.949,31.738,11.230,43.945,0
134755.673,20.020,31.738,32.715,12.695,44.922,0
134755.690,17.578,32.715,30.762,22.461,62.012,2
134755.694,17.578,29.297,28.320,22.949,39.551,0
134755.697,11.719,25.391,22.461,15.625,-7.812,0
134755.701,11.230,22.461,18.555,15.137,5.859,0
134755.705,17.090,24.902,24.414,24.414,14.648,0
134755.709,21.484,28.320,26.855,30.273,0.977,0
134755.713,28.320,26.855,24.902,20.508,-21.973,0
134755.717,28.320,18.555,25.879,11.719,-27.344,0
134755.721,26.855,15.625,28.809,18.555,9.766,0
134755.725,29.785,17.578,28.320,24.902,25.391,0
134755.729,24.414,18.066,24.414,9.277,-5.859,0
134755.733,23.438,23.926,18.555,-2.441,-8.789,0
134755.734,23.438,24.902,15.137,9.766,1.953,0
134755.738,19.043,20.996,18.555,22.949,36.621,0
134755.742,20.996,20.020,21.973,24.902,40.527,0
134755.746,26.367,27.344,19.043,25.391,16.602,0
134755.750,27.832,27.344,20.996,29.785,32.715,0
134755.754,21.973,16.113,28.320,38.574,26.367,0
134755.757,17.090,17.578,29.785,36.133,24.414,0
134755.761,19.043,23.438,26.367,19.531,8.789,0
134755.765,17.090,24.414,21.484,13.184,-19.531,0
134755.769,21.484,28.809,21.484,24.414,-26.367,0
134755.773,23.926,33.203,23.438,28.809,0.488,0
134755.777,17.578,32.227,24.414,20.508,36.621,0
134755.779,19.043,32.715,27.832,18.555,26.367,0
134755.783,19.043,33.203,24.414,19.043,29.785,0
134755.787,20.508,26.855,18.555,17.090,23.926,0
134755.791,19.531,24.902,20.996,14.648,4.883,0
134755.795,14.648,27.832,25.879,10.254,-41.016,0
134755.798,20.996,26.855,29.785,8.789,-46.387,0
134755.802,23.926,26.855,28.809,19.531,17.090,0
134755.806,19.531,29.297,26.367,17.090,44.922,0
134755.810,5.371,24.902,23.438,1.465,-18.555,0
134755.814,7.324,20.508,25.391,5.859,-37.109,0
134755.818,15.137,29.297,29.785,19.043,34.668,0
134755.822,7.812,32.227,27.344,15.625,64.941,0
134755.824,3.906,18.555,26.367,8.789,69.336,0
134755.828,10.742,15.625,24.902,11.719,43.945,0
134755.832,14.160,22.949,21.484,16.602,35.156,0
134755.836,9.277,28.320,20.996,22.461,55.664,0
134755.840,8.789,27.832,23.438,20.508,27.832,0
134755.844,8.789,24.902,25.879,15.625,8.789,0
134755.847,9.277,24.902,27.832,17.090,30.762,0
134755.851,13.184,22.949,27.832,17.090,47.852,0
134755.855,11.719,22.949,27.832,13.184,29.785,0
134755.859,9.766,27.832,28.809,8.789,-8.789,0
134755.863,10.254,27.344,27.832,10.254,6.348,0
134755.867,10.254,26.367,23.438,18.066,27.832,0
134755.870,5.371,23.926,21.484,15.625,13.184,0
134755.873,0.977,25.391,22.949,8.789,17.090,0
134755.877,6.836,29.297,25.391,9.277,33.691,0
134755.881,13.184,31.250,22.461,15.625,68.359,0
134755.885,6.348,31.738,19.531,14.648,63.477,0
134755.889,6.836,32.715,28.809,8.789,20.020,0
134755.893,19.043,27.832,29.785,9.277,12.207,0
134755.897,18.066,24.902,26.855,14.648,12.207,0
134755.901,19.531,26.855,27.832,18.555,27.344,0
134755.905,23.438,32.227,25.391,18.066,59.570,0
134755.909,25.391,38.086,25.879,18.555,60.547,0
134755.912,25.391,37.109,25.391,22.461,44.434,0
134755.915,23.926,36.621,24.414,27.344,55.664,0
134755.919,21.484,36.133,32.715,24.414,53.223,0
134755.923,22.461,33.203,32.715,21.484,35.645,0
134755.927,26.367,28.809,21.973,25.391,14.160,0
134755.931,30.762,29.297,20.996,31.250,46.875,0
134755.935,22.949,31.738,27.344,26.367,63.965,0
134755.939,20.996,29.297,27.832,18.066,19.531,0
134755.943,29.785,27.832,29.785,19.043,0.977,0
134755.947,27.344,29.785,30.762,22.461,44.434,0
134755.950,28.320,34.180,31.250,27.832,94.727,0
134755.954,28.320,42.480,36.621,24.902,92.285,0
134755.958,27.344,41.504,35.645,16.602,66.406,0
134755.959,27.832,32.227,29.785,25.391,67.383,0
134755.963,23.926,26.855,27.344,32.715,85.938,0
134755.967,25.879,30.762,27.344,18.066,61.523,0
134755.971,25.391,37.109,27.832,8.301,39.062,0
134755.975,24.414,34.668,25.879,12.695,29.785,0
134755.979,20.508,31.250,21.973,19.531,65.430,0
134755.982,13.184,33.691,25.391,10.742,91.797,0
134755.986,14.160,35.156,33.203,1.953,25.879,0
134755.990,15.625,32.715,32.715,8.301,8.789,0
134755.994,13.672,29.297,30.273,19.043,61.035,0
134755.998,16.602,28.320,30.273,22.461,53.223,0
134756.002,19.043,27.344,27.832,15.625,30.273,0
134756.004,20.508,29.297,29.785,15.137,8.301,0
134756.008,22.949,31.250,33.203,23.438,34.668,0
134756.012,22.949,30.762,30.273,26.367,75.684,0
134756.016,28.320,32.227,31.738,17.090,59.082,0
134756.020,31.250,28.320,34.668,11.230,41.992,0
134756.023,31.738,26.855,29.785,19.043,41.504,0
134756.027,30.273,26.367,27.832,22.461,32.715,0
134756.031,21.973,30.273,29.785,13.672,-18.555,0
134756.035,18.555,31.250,29.297,7.812,-20.508,0
134756.039,27.344,29.785,30.273,12.695,4.395,0
134756.043,25.391,32.227,32.715,21.484,-3.906,0
134756.047,20.020,39.062,39.551,23.438,18.066,0
134756.049,20.020,40.039,38.574,20.508,13.184,0
134756.053,23.438,34.668,36.133,22.949,-38.086,0
134756.057,31.250,30.762,31.250,31.250,-2.441,0
134756.061,20.020,29.297,22.949,28.809,48.340,0
134756.065,13.184,27.832,25.879,20.020,37.109,0
134756.068,20.508,27.344,28.320,18.555,9.277,0
134756.072,19.043,33.203,30.273,21.973,7.324,0
134756.076,16.113,34.668,33.203,25.391,25.391,0
134756.080,20.020,41.992,36.133,24.414,20.996,0
134756.084,25.391,42.480,38.086,19.043,-4.395,0
134756.088,26.367,32.715,34.668,24.414,-17.090,0
134756.092,21.973,29.785,32.227,31.738,-15.625,0
134756.095,24.902,30.762,33.691,24.414,16.602,0
134756.099,31.738,36.621,30.273,15.625,-19.043,0
134756.103,28.809,38.574,26.855,17.090,-53.711,0
134756.107,30.273,34.668,28.809,25.391,-0.488,0
134756.111,30.273,29.297,31.250,25.879,5.371,0
134756.115,26.367,35.645,31.250,20.020,-16.602,0
134756.119,31.738,41.016,34.180,21.484,-4.395,0
134756.123,31.250,37.109,39.551,30.273,41.504,0
134756.126,23.926,38.574,37.109,28.320,43.945,0
134756.130,22.461,36.133,32.715,19.043,5.859,0
134756.134,24.414,31.738,27.344,17.578,-17.090,0
134756.138,29.785,33.691,26.367,29.785,-6.348,1
134756.155,27.832,32.715,32.227,38.574,21.973,0
134756.159,20.508,32.227,30.762,30.273,24.414,0
134756.163,24.414,34.668,26.367,21.484,22.461,0
134756.167,28.809,36.621,27.832,23.926,47.852,0
134756.171,35.156,44.434,31.250,34.180,83.008,0
134756.175,28.809,42.480,32.715,28.809,23.926,0
134756.179,20.996,33.203,31.738,19.043,12.695,0
134756.183,26.855,32.227,28.320,21.973,60.059,0
134756.186,27.344,34.180,29.297,29.785,43.457,0
134756.190,20.996,32.227,29.785,28.809,32.715,0
134756.194,18.066,30.762,26.367,21.973,21.973,0
134756.198,25.391,29.297,25.391,25.391,42.480,0
134756.199,32.715,27.832,27.344,30.762,71.289,0
134756.203,26.855,28.320,31.738,29.785,78.613,0
134756.207,18.555,29.297,34.668,28.809,71.777,0
134756.211,21.973,36.133,30.273,26.367,33.203,0
134756.215,26.855,33.691,24.902,25.879,13.672,0
134756.218,26.855,30.273,25.391,27.832,48.828,0
134756.222,22.461,36.133,27.832,20.020,41.992,0
134756.226,24.902,38.086,24.902,13.184,11.719,0
134756.230,24.414,30.273,22.461,18.555,1.465,0
134756.234,17.090,27.832,25.391,24.902,15.137,0
134756.238,21.484,30.273,25.879,19.043,44.434,0
134756.242,20.508,33.203,29.785,12.207,23.926,0
134756.244,19.531,39.551,37.598,17.578,3.418,0
134756.248,23.926,35.645,37.598,26.367,39.062,0
134756.252,19.531,27.344,29.785,25.879,79.102,0
134756.256,13.184,31.250,23.926,16.602,59.570,0
134756.260,20.020,33.203,23.926,20.020,22.949,0
134756.264,19.043,32.227,22.949,27.344,60.059,0
134756.267,12.207,37.109,24.902,20.508,87.891,0
134756.271,17.578,43.457,27.832,13.184,52.246,0
134756.275,22.949,40.039,28.809,9.277,18.555,0
134756.279,21.484,38.086,29.297,11.719,52.734,0
134756.283,24.902,40.527,31.250,24.414,96.680,0
134756.287,22.461,34.180,31.250,19.043,65.918,0
134756.289,18.555,31.250,29.785,6.348,46.387,0
134756.293,21.973,33.691,29.297,14.160,60.059,0
134756.297,19.043,34.668,28.320,22.461,54.688,0
134756.301,11.719,32.227,28.809,18.066,18.555,0
134756.305,12.695,29.297,33.203,15.137,20.020,0
134756.309,18.066,34.668,33.691,19.531,20.508,0
134756.312,19.531,34.668,31.738,26.855,40.039,0
134756.316,22.949,36.133,31.738,24.902,19.043,0
134756.320,25.879,42.969,24.902,15.625,-28.809,0
134756.324,24.414,38.086,20.020,13.184,31.738,0
134756.328,24.414,33.691,21.973,16.602,40.039,0
134756.332,27.344,36.621,24.414,20.508,2.441,0
134756.334,31.250,33.203,27.344,16.602,18.555,0
134756.338,33.691,29.785,27.832,12.695,25.879,0
134756.342,33.203,35.645,30.762,17.578,3.418,0
134756.346,29.785,37.598,31.250,19.531,5.371,0
134756.350,24.902,40.039,25.391,13.672,1.465,0
134756.354,23.926,39.551,22.949,8.789,-39.551,0
134756.358,16.113,29.297,22.949,9.277,-30.762,0
134756.362,12.207,25.879,19.043,13.184,7.324,0
134756.366,14.648,28.809,18.555,14.160,6.348,0
134756.370,17.578,30.762,24.414,11.719,-17.578,0
134756.374,23.926,30.273,29.785,14.648,-25.879,0
134756.377,24.902,28.320,30.762,21.973,1.953,0
134756.380,20.996,31.738,27.344,22.949,40.039,0
134756.384,20.508,28.320,24.414,17.578,18.066,0
134756.388,24.414,24.902,25.391,16.602,-2.930,0
134756.392,22.949,23.926,28.320,26.855,33.691,0
134756.396,25.391,20.996,33.203,38.574,22.949,0
134756.400,22.949,27.832,30.273,26.367,-5.371,0
134756.404,10.254,34.180,23.438,1.465,10.254,0
134756.408,11.230,39.062,25.391,3.906,40.039,0
134756.412,13.184,36.133,23.926,11.719,89.355,0
134756.416,5.859,24.902,21.484,8.789,60.547,0
134756.419,8.789,27.344,24.414,6.348,33.691,0
134756.423,20.508,33.203,27.344,17.090,63.477,0
134756.424,19.043,28.320,29.297,29.785,49.316,0
134756.428,12.695,25.879,31.250,28.320,25.391,0
134756.432,20.508,25.391,33.203,27.832,10.742,0
134756.436,24.414,27.832,37.598,28.320,26.855,0
134756.440,25.879,33.203,38.086,36.133,61.035,0
134756.443,23.926,28.809,31.738,38.574,44.434,0
134756.447,17.090,24.414,27.832,25.879,12.695,0
134756.451,21.973,26.855,25.879,20.996,18.555,0
134756.455,29.785,27.832,26.367,32.715,24.902,0
134756.459,30.273,24.902,28.809,36.133,40.527,0
134756.463,24.902,22.461,28.809,25.391,28.809,0
134756.467,28.320,24.414,25.391,22.461,18.066,0
134756.484,34.180,29.785,27.344,28.320,38.086,0
134756.488,31.250,28.320,34.180,30.273,58.105,0
134756.492,30.273,28.320,35.645,23.438,40.039,0
134756.496,30.762,32.715,32.227,18.555,20.996,0
134756.500,26.367,31.250,27.832,17.090,20.996,0
134756.504,23.438,27.344,21.484,19.531,-2.930,0
134756.507,22.949,29.297,20.020,16.602,3.418,0
134756.511,23.438,35.156,21.973,7.812,21.484,0
134756.515,23.926,37.598,26.855,12.695,-4.883,0
134756.519,29.297,35.156,30.273,24.414,-14.648,0
134756.523,35.156,34.180,28.320,29.297,41.992,0
134756.527,25.879,37.109,20.996,21.484,43.945,0
134756.529,22.461,41.016,17.578,15.137,-17.578,0
134756.533,27.832,39.551,20.996,22.461,-7.812,0
134756.537,24.902,29.785,20.508,25.391,-0.977,0
134756.541,26.855,30.273,25.391,25.391,-3.418,0
134756.545,29.785,40.527,27.832,24.414,-30.762,0
134756.548,33.203,40.039,25.391,23.438,-16.602,0
134756.552,32.227,33.691,30.273,27.832,20.996,0
134756.556,25.391,36.621,32.715,26.855,30.762,0
134756.560,27.344,32.227,28.320,21.973,30.762,0
134756.564,30.273,27.832,23.438,22.949,6.348,0
134756.568,29.297,33.691,21.973,29.297,2.441,0
134756.572,29.297,37.598,22.949,34.180,12.207,0
134756.574,30.273,37.598,25.391,30.762,-23.926,0
134756.578,34.180,31.738,24.414,27.832,-48.828,0
134756.582,38.574,31.250,27.344,36.621,20.020,0
134756.586,33.203,30.273,34.180,38.086,80.078,0
134756.590,29.785,30.762,35.645,29.297,56.641,0
134756.594,35.156,38.086,33.203,22.949,36.133,0
134756.597,31.738,31.250,27.344,26.367,47.852,0
134756.601,29.297,25.879,20.996,31.250,69.336,0
134756.605,24.902,25.391,21.973,20.020,62.012,0
134756.609,24.414,24.902,24.902,11.719,20.020,1
134756.613,34.668,29.785,28.320,19.531,35.645,0
134756.617,28.809,34.180,29.297,26.855,59.082,0
134756.620,19.043,36.133,26.855,22.949,68.848,0
134756.624,21.484,38.574,27.344,14.160,62.500,0
134756.628,20.020,34.668,27.832,11.719,56.641,0
134756.632,16.113,27.344,23.926,15.137,69.336,0
134756.636,12.207,25.391,24.902,12.695,73.242,0
134756.640,9.277,24.902,25.879,7.324,36.133,0
134756.644,15.625,20.996,24.414,7.324,15.137,0
134756.648,16.602,17.578,22.461,13.184,47.363,0
134756.652,15.137,17.090,23.438,17.578,39.551,0
134756.655,18.066,21.484,23.438,15.137,37.598,0
134756.659,22.949,26.367,26.855,14.648,62.012,0
134756.663,27.832,26.855,26.855,17.578,76.660,0
134756.664,29.785,23.926,20.996,25.391,66.895,0
134756.668,21.973,22.949,18.555,23.438,47.363,0
134756.672,16.113,24.414,20.996,15.625,47.852,0
134756.676,24.902,24.902,24.902,20.996,75.684,0
134756.680,29.297,25.879,25.879,31.738,81.543,0
134756.684,26.855,30.273,28.320,31.738,84.473,0
134756.687,27.832,26.367,29.785,24.414,53.711,0
134756.691,27.344,23.438,29.785,20.996,-10.742,0
134756.695,22.461,26.855,27.832,23.438,0.000,0
134756.699,18.066,26.855,22.461,22.461,45.410,0
134756.703,20.020,24.414,21.973,15.625,24.902,0
134756.707,24.414,23.438,23.926,10.742,12.207,0
134756.709,24.902,22.949,25.879,19.531,50.293,0
134756.713,23.926,25.391,29.297,28.320,46.875,0
134756.717,23.438,27.832,29.785,21.973,28.320,0
134756.721,28.320,30.273,28.809,21.973,34.180,0
134756.725,30.762,33.203,32.715,32.227,35.645,0
134756.729,25.879,26.855,33.691,33.203,77.637,0
134756.732,21.973,20.508,29.297,25.879,74.219,0
134756.736,16.602,20.020,27.832,14.160,5.371,0
134756.740,24.414,21.973,25.391,15.137,1.465,0
134756.744,25.879,23.438,25.879,28.320,62.500,0
134756.748,19.043,23.438,28.809,30.273,73.730,0
134756.752,25.391,24.414,27.832,24.414,25.879,0
134756.754,34.180,26.367,28.809,22.461,32.715,0
134756.758,37.598,31.738,33.203,29.785,45.410,0
134756.762,30.273,36.133,31.250,31.738,41.016,0
134756.766,22.461,35.156,29.297,19.531,22.949,0
134756.770,29.297,37.598,30.273,16.602,-5.371,0
134756.773,30.762,35.645,24.902,25.391,40.039,0
134756.777,22.949,34.180,19.531,26.855,62.012,0
134756.781,20.020,34.180,21.973,16.113,14.648,0
134756.785,22.461,30.273,26.855,12.695,7.812,0
134756.789,22.461,32.227,32.227,19.531,11.230,0
134756.793,24.902,34.180,33.203,31.250,9.766,0
134756.797,24.902,31.738,30.273,29.297,-6.836,0
134756.800,20.996,31.250,30.762,16.113,-7.812,0
134756.804,23.438,31.738,30.762,18.066,-26.367,0
134756.808,24.414,31.250,26.855,29.785,2.441,0
134756.812,24.902,29.785,26.855,31.738,38.086,0
134756.816,26.855,33.691,30.273,23.438,22.461,0
134756.820,31.738,39.551,31.250,21.973,-4.395,0
134756.824,29.785,35.156,34.180,30.273,-13.672,0
134756.828,20.996,27.344,32.227,31.250,30.762,0
134756.832,19.531,30.762,26.367,21.484,38.086,0
134756.835,20.508,33.203,24.414,13.184,23.926,0
134756.839,20.020,32.227,24.414,15.137,17.578,0
134756.843,20.508,29.785,22.949,22.461,37.598,0
134756.859,14.648,31.738,22.949,16.602,63.477,0
134756.863,9.766,35.645,27.832,4.395,13.184,0
134756.867,13.184,39.551,35.156,9.277,-13.672,0
134756.871,15.137,36.621,30.762,15.137,24.414,0
134756.875,13.184,28.320,24.414,9.277,26.367,0
134756.879,14.160,22.949,26.367,4.395,-19.531,0
134756.882,17.578,26.855,28.809,10.742,-28.809,0
134756.886,21.484,29.297,24.902,21.484,-6.836,0
134756.890,23.926,29.785,21.973,21.973,-6.348,0
134756.894,21.973,34.180,27.344,11.230,-22.461,0
134756.898,24.902,40.527,28.320,6.348,-8.301,0
134756.902,25.391,40.039,25.879,14.648,36.621,0
134756.904,19.043,34.180,33.691,20.508,31.738,0
134756.908,14.160,30.273,33.691,12.695,-9.277,0
134756.912,10.742,29.297,26.367,6.348,-10.742,0
134756.916,16.602,29.785,29.785,16.602,22.461,0
134756.920,20.020,33.203,32.715,23.438,50.781,0
134756.924,8.301,30.762,35.156,17.578,0.000,0
134756.928,10.742,23.438,37.109,13.184,-55.664,0
134756.931,18.555,28.320,33.203,20.508,-5.371,0
134756.935,20.996,31.738,30.762,32.715,28.320,0
134756.939,23.438,29.297,36.133,33.691,-28.809,0
134756.943,24.414,32.715,36.621,23.926,-28.809,0
134756.947,29.785,36.621,30.273,24.902,42.969,0
134756.949,32.227,32.227,25.391,29.785,44.434,0
134756.953,26.855,29.297,26.367,27.832,51.758,0
134756.957,24.414,32.227,29.785,27.344,76.660,0
134756.961,24.414,32.227,26.855,24.414,44.434,0
134756.965,26.855,27.344,26.367,28.320,50.781,0
134756.968,28.809,29.297,28.320,35.645,35.156,0
134756.972,25.391,30.273,34.668,27.344,19.531,0
134756.976,26.367,30.273,37.109,21.484,69.336,0
134756.980,27.832,35.645,30.273,24.902,30.273,0
134756.984,25.879,33.203,26.855,29.785,29.785,0
134756.988,23.926,27.832,30.762,29.785,57.617,0
134756.992,21.484,36.133,30.273,21.484,7.324,0
134756.994,21.484,35.645,27.832,19.043,-0.488,0
134756.998,21.973,27.832,29.297,27.832,30.273,0
134757.002,24.414,29.297,32.715,30.273,52.246,0
134757.006,23.926,31.250,36.621,23.438,31.738,0
134757.010,22.461,31.250,33.203,23.926,10.254,0
134757.014,23.438,29.297,30.273,31.738,38.574,2
134757.017,18.555,27.832,31.250,32.227,43.945,0
134757.021,18.066,29.297,33.203,24.902,-5.859,0
134757.025,25.879,31.738,36.621,22.461,-38.574,0
134757.029,30.762,27.832,33.691,26.367,-12.207,0
134757.033,27.832,23.926,30.273,27.344,-6.348,0
134757.037,24.414,26.367,33.203,23.438,-6.836,0
134757.039,25.879,24.414,35.156,19.043,-9.277,0
134757.043,27.832,20.508,33.203,20.508,1.953,0
134757.047,24.414,21.484,32.715,28.320,13.184,0
134757.051,22.949,28.320,30.273,27.344,8.789,0
134757.055,30.762,31.250,31.250,21.484,22.461,0
134757.059,28.809,20.508,29.785,21.484,21.973,0
134757.062,24.902,26.367,25.879,31.738,23.926,0
134757.066,29.297,35.645,30.762,31.250,18.066,0
134757.070,27.832,31.738,36.133,20.508,7.812,0
134757.074,33.691,31.250,32.227,23.438,24.902,0
134757.078,37.598,31.250,26.855,31.250,34.180,0
134757.082,28.320,33.691,26.367,30.762,30.273,0
134757.084,20.996,35.645,27.832,24.902,23.926,0
134757.088,29.785,37.598,28.320,26.367,24.902,0
134757.092,36.133,33.691,27.344,33.691,42.969,0
134757.096,27.832,27.344,29.785,35.156,88.867,0
134757.100,23.438,30.273,27.344,27.832,47.852,0
134757.103,23.438,31.250,22.461,20.020,-26.367,0
134757.107,20.996,25.879,25.391,22.949,-16.602,0
134757.111,21.484,20.996,23.926,24.902,37.109,0
134757.115,21.484,22.949,20.508,19.531,41.016,0
134757.119,23.926,29.785,24.902,12.695,-22.461,0
134757.123,29.297,37.598,30.762,13.672,-19.043,0
134757.127,34.180,33.203,25.879,20.020,46.387,0
134757.129,32.715,23.926,21.973,17.090,36.133,0
134757.133,32.227,22.949,21.484,11.719,8.789,0
134757.137,40.039,22.461,22.949,17.578,23.438,0
134757.141,41.992,26.855,23.926,26.367,26.367,0
134757.145,35.156,34.180,24.902,27.832,62.012,0
134757.148,24.414,35.645,26.855,20.996,62.012,0
134757.152,24.902,36.621,31.738,17.578,-8.301,0
134757.156,29.297,32.227,31.738,19.531,-28.320,0
134757.160,25.391,24.902,25.391,20.996,70.801,0
134757.164,16.602,28.320,23.438,16.602,111.816,0
134757.168,15.625,30.273,22.461,11.719,54.199,0
134757.172,21.973,26.855,20.996,17.578,75.684,0
134757.174,26.367,26.367,23.926,29.785,125.977,0
134757.178,18.066,28.320,26.367,27.832,127.930,0
134757.182,14.648,25.879,26.367,17.578,70.801,0
134757.186,19.043,20.508,29.297,18.066,20.996,0
134757.190,20.020,22.461,29.297,30.273,65.430,0
134757.194,16.602,25.391,29.297,34.668,77.637,0
134757.198,12.695,29.297,29.297,22.461,27.832,0
134757.202,15.625,34.668,29.297,19.531,30.273,0
134757.206,23.926,36.621,30.762,30.273,59.082,0
134757.209,28.809,37.598,28.809,33.691,31.250,0
134757.213,22.461,32.227,27.832,23.438,0.977,0
134757.217,25.879,29.785,28.809,15.137,34.668,0
134757.235,34.668,32.227,25.879,17.578,56.641,0
134757.239,31.738,32.227,25.391,21.973,27.344,0
134757.242,30.273,32.715,27.344,19.043,16.113,0
134757.246,25.879,29.785,23.438,9.277,17.090,0
134757.250,23.926,31.250,22.461,9.766,46.387,0
134757.254,25.391,31.738,31.250,23.926,29.297,0
134757.258,22.461,35.645,37.109,23.926,13.672,0
134757.262,21.484,35.645,34.668,15.137,27.832,0
134757.266,16.602,23.926,29.785,12.207,26.855,0
134757.270,14.648,25.391,29.785,16.602,54.688,0
134757.274,16.113,32.227,34.180,22.949,62.988,0
134757.278,20.020,32.227,33.203,17.090,43.945,0
134757.279,23.926,31.738,27.832,11.719,29.297,0
134757.283,25.879,29.785,28.809,20.996,11.230,0
134757.287,25.391,26.855,33.691,27.344,31.738,0
134757.291,20.996,29.785,33.203,18.066,38.086,0
134757.295,27.832,39.062,30.762,15.137,-7.324,0
134757.298,32.715,39.062,26.855,19.531,0.000,0
134757.302,24.902,27.832,22.461,20.996,68.848,0
134757.306,19.531,22.949,21.484,19.043,74.219,0
134757.310,16.113,23.438,20.508,12.695,64.941,0
134757.314,14.648,25.879,20.996,6.348,23.438,0
134757.318,20.508,28.320,27.832,17.090,20.996,0
134757.322,20.508,29.785,29.785,23.926,49.805,0
134757.324,15.137,31.738,28.320,10.254,22.949,0
134757.328,12.207,30.762,28.320,5.371,28.320,0
134757.332,13.184,24.414,23.438,11.719,37.109,0
134757.336,17.578,19.531,20.508,15.625,37.109,0
134757.340,15.625,23.926,24.902,11.719,33.691,0
134757.344,16.602,29.785,23.438,8.301,15.137,0
134757.347,23.438,31.250,18.066,17.578,32.227,0
134757.351,18.066,29.785,15.625,30.762,65.918,0
134757.355,10.254,31.250,21.973,27.344,32.227,0
134757.359,13.184,37.109,25.879,19.043,9.766,0
134757.363,21.973,31.738,23.438,25.879,22.949,0
134757.367,22.949,22.461,27.832,36.133,21.973,0
134757.369,15.137,21.484,31.738,28.809,15.625,0
134757.373,14.160,26.855,27.832,15.625,-8.301,0
134757.377,23.438,26.855,25.879,20.508,-13.672,0
134757.381,26.855,22.461,25.879,30.762,13.672,0
134757.385,17.578,23.926,25.391,29.297,33.203,0
134757.388,16.113,28.809,29.785,18.066,21.484,0
134757.392,23.438,32.715,31.250,12.695,35.156,0
134757.396,27.344,26.855,27.344,20.508,58.105,0
134757.400,25.879,24.414,29.785,26.855,26.855,0
134757.404,25.391,31.250,32.715,20.020,15.137,0
134757.408,26.367,32.227,30.762,12.695,50.293,0
134757.412,25.879,30.273,27.832,18.066,36.133,0
134757.414,19.531,30.273,24.902,23.926,40.527,0
134757.418,19.043,27.344,26.367,21.484,63.477,0
134757.422,23.926,32.227,34.668,17.090,41.016,0
134757.426,23.926,30.762,35.645,18.555,44.922,0
134757.430,19.043,20.996,31.738,21.973,63.477,0
134757.433,14.648,22.461,31.250,21.973,44.922,0
134757.437,18.555,26.855,29.297,20.020,20.020,0
134757.441,26.367,26.855,25.391,20.508,10.254,0
134757.445,26.367,28.809,25.879,27.344,50.781,0
134757.449,25.391,28.809,29.785,31.250,106.445,0
134757.453,29.297,29.297,31.250,24.902,62.500,0
134757.457,32.227,35.156,30.273,21.973,-10.742,0
134757.459,31.738,36.621,29.297,27.344,30.273,0
134757.463,31.738,33.691,26.367,33.691,87.402,0
134757.467,30.762,27.832,30.273,31.250,75.195,0
134757.471,26.367,26.367,35.156,24.902,14.648,0
134757.475,27.344,25.879,34.668,30.762,16.602,2
134757.478,35.645,23.926,34.668,41.016,37.598,0
134757.482,37.598,25.391,32.715,37.109,4.883,0
134757.486,35.645,32.227,36.133,27.832,-6.348,0
134757.490,41.016,39.062,39.551,30.762,16.113,0
134757.494,42.480,34.180,34.180,37.598,24.902,0
134757.498,36.133,24.414,31.738,35.156,34.668,0
134757.502,33.691,22.461,31.250,28.809,2.441,0
134757.505,41.992,24.414,28.320,27.344,-28.809,0
134757.509,41.992,27.832,27.832,34.668,19.531,0
134757.513,33.203,26.855,32.715,41.504,34.180,0
134757.517,31.738,26.855,35.645,35.645,11.719,0
134757.521,33.691,30.273,30.762,29.297,35.645,0
134757.525,31.738,31.738,25.879,32.227,29.785,0
134757.529,24.414,29.297,25.879,35.156,27.832,0
134757.533,20.508,24.414,26.367,22.461,7.324,0
134757.537,18.555,22.949,25.879,14.648,41.016,0
134757.540,25.879,27.344,27.832,25.391,86.914,0
134757.544,29.297,27.832,28.320,31.738,70.801,0
134757.548,21.973,29.297,27.344,25.391,4.395,0
134757.549,20.996,31.738,28.320,16.602,-64.453,0
134757.553,25.879,28.320,26.367,14.160,-12.207,0
134757.557,27.832,23.438,23.438,19.531,15.625,0
134757.561,21.484,19.531,22.461,19.043,18.555,0
134757.565,18.555,20.508,22.461,12.695,7.324,0
134757.568,24.414,22.949,26.367,12.207,-9.766,0
134757.572,30.762,26.855,25.391,22.949,-0.977,0
134757.576,30.273,29.297,23.438,29.785,1.953,0
134757.580,31.250,26.367,26.367,19.043,34.180,0
134757.584,33.691,26.855,22.949,11.719,29.785,0
134757.588,36.621,31.250,23.926,20.508,19.043,0
134757.592,38.574,31.738,28.809,30.273,49.805,0
134757.609,35.645,34.668,25.879,27.344,48.828,0
134757.613,33.691,35.645,23.926,20.508,-12.695,0
134757.617,35.645,31.250,30.762,24.902,-26.855,0
134757.621,35.156,37.109,35.645,33.691,20.020,0
134757.625,35.156,42.969,31.738,30.273,55.664,0
134757.629,36.621,40.527,27.344,23.438,9.277,0
134757.632,35.156,36.133,25.879,27.344,-27.832,0
134757.636,36.133,38.086,26.855,34.180,32.227,0
134757.640,30.273,33.691,30.273,30.273,56.641,0
134757.644,25.391,26.367,35.156,22.461,5.371,0
134757.648,26.367,27.344,30.762,20.020,-1.465,0
134757.652,32.227,30.273,25.879,29.785,56.152,0
134757.654,29.785,30.762,24.902,33.203,62.012,0
134757.658,17.578,30.762,22.461,19.531,30.273,0
134757.662,15.137,30.762,23.438,11.230,48.340,0
134757.666,23.438,31.250,25.879,20.508,66.406,0
134757.670,25.879,30.762,30.273,23.926,21.973,0
134757.674,15.137,27.832,36.621,17.090,-4.883,0
134757.677,13.672,28.320,35.156,11.719,17.090,0
134757.681,18.066,22.949,29.785,12.695,51.270,0
134757.685,12.695,17.090,30.273,18.555,52.734,0
134757.689,1.465,21.973,30.273,10.254,14.160,0
134757.693,4.883,27.344,23.438,-0.977,-7.324,0
134757.697,13.184,27.832,22.949,5.371,18.555,0
134757.699,8.301,29.785,22.949,13.672,59.082,0
134757.703,8.301,26.855,25.391,14.160,32.227,0
134757.707,8.789,24.414,27.832,6.836,10.742,0
134757.711,3.418,21.484,25.391,4.883,15.625,0
134757.715,2.441,17.578,24.902,9.766,2.930,0
134757.719,4.395,20.996,28.320,14.648,10.742,0
134757.722,2.930,21.484,30.762,13.672,34.668,0
134757.726,8.301,25.391,29.297,9.766,7.324,0
134757.730,16.602,31.250,29.297,12.207,-5.859,0
134757.734,17.090,39.551,33.691,22.461,20.508,0
134757.738,16.113,44.922,31.250,20.996,-1.465,0
134757.742,15.137,30.762,22.949,10.742,-33.691,0
134757.744,18.555,18.555,18.555,11.719,-21.973,0
134757.748,23.438,19.531,20.996,23.926,17.578,0
134757.752,24.902,24.414,23.926,30.762,41.992,0
134757.756,20.996,25.879,20.020,19.043,17.090,0
134757.760,21.484,24.902,20.508,16.113,-1.465,0
134757.763,24.902,24.902,27.344,25.879,4.395,0
134757.767,19.043,26.367,28.809,22.461,3.418,0
134757.771,14.160,27.344,28.320,18.066,0.000,0
134757.775,19.043,27.832,34.180,16.113,4.395,0
134757.779,26.367,27.344,34.668,20.508,8.301,0
134757.783,26.367,25.879,30.762,28.809,20.996,0
134757.787,20.996,24.414,22.949,20.996,35.645,0
134757.789,22.949,20.996,22.461,14.648,18.555,0
134757.793,28.809,20.020,30.762,20.508,25.879,0
134757.797,31.250,25.879,30.273,29.785,49.316,0
134757.801,31.738,31.250,28.320,30.762,53.711,0
134757.805,32.715,36.133,27.832,24.414,42.480,0
134757.809,33.203,41.992,26.367,26.367,31.738,0
134757.812,36.621,37.598,26.367,35.156,56.152,0
134757.816,31.250,30.762,26.367,34.180,41.016,0
134757.820,21.484,28.809,23.926,23.438,1.465,0
134757.824,20.996,26.855,20.020,18.555,25.391,0
134757.828,23.438,24.414,19.531,23.438,74.219,0
134757.832,28.809,25.391,20.020,25.879,109.863,0
134757.834,25.879,28.809,17.090,18.066,89.844,0
134757.838,19.531,26.367,13.672,10.742,54.688,0
134757.842,24.902,27.344,18.066,22.461,59.082,0
134757.846,24.414,34.180,22.461,29.785,44.922,0
134757.850,19.043,34.180,21.973,22.461,60.547,0
134757.853,21.973,30.273,19.531,17.578,73.242,0
134757.857,29.297,29.297,21.973,23.926,48.340,0
134757.861,28.809,33.203,29.297,30.762,27.344,0
134757.865,27.344,34.668,28.809,27.832,27.344,0
134757.869,28.809,34.668,28.320,20.508,5.371,0
134757.873,29.785,37.109,30.273,20.996,-35.156,0
134757.877,29.785,38.086,29.297,28.809,-10.254,0
134757.880,25.879,37.109,27.344,27.344,24.414,0
134757.884,27.832,33.203,24.902,17.090,-14.160,2
134757.887,29.785,31.250,25.879,13.672,-39.551,0
134757.891,28.320,30.273,28.809,22.461,12.207,0
134757.895,23.438,31.250,27.344,25.391,17.578,0
134757.899,18.555,37.598,26.855,19.043,-1.953,0
134757.903,18.555,36.621,29.297,16.113,-16.113,0
134757.907,20.508,36.621,30.273,22.461,-19.043,0
134757.911,24.414,37.598,35.645,34.668,26.855,0
134757.915,24.414,30.273,35.645,24.902,26.367,0
134757.919,26.367,31.250,28.809,15.625,-36.621,0
134757.923,31.250,32.715,24.414,26.367,-15.137,0
134757.924,36.133,28.320,24.902,39.062,36.621,0
134757.928,33.203,28.809,30.273,37.598,28.809,0
134757.932,35.156,30.273,35.156,27.832,-4.395,0
134757.936,39.551,30.762,35.156,28.320,-13.184,0
134757.940,38.574,29.297,33.203,33.691,-21.973,0
134757.943,33.691,29.297,35.645,34.668,-29.297,0
134757.947,33.203,31.250,36.621,26.855,-4.395,0
134757.951,30.273,23.926,33.691,19.531,8.789,0
134757.955,23.926,17.090,29.785,21.484,36.133,0
134757.959,25.391,24.414,29.785,26.855,43.457,0
134757.963,20.996,33.691,30.762,19.531,45.410,0
134757.967,21.973,32.715,30.273,10.254,55.176,0
134757.970,26.855,32.715,32.227,21.973,68.848,0
134757.974,26.855,36.621,37.109,29.297,108.398,0
134757.978,23.438,40.527,37.109,18.066,125.000,0
134757.982,27.344,38.574,31.738,16.113,74.707,0
134757.986,36.133,27.832,30.273,26.855,81.055,0
134757.990,34.668,27.344,27.832,39.551,86.426,0
134757.994,28.809,33.203,30.762,40.527,78.125,0
134757.998,32.227,31.738,30.762,30.762,87.402,0
134758.002,37.598,27.344,30.762,30.273,55.176,0
134758.005,35.645,26.855,35.156,37.109,39.551,0
134758.009,33.691,29.297,34.668,38.574,46.387,0
134758.013,37.109,32.227,37.109,32.715,34.180,0
134758.029,43.457,33.691,39.551,26.367,2.930,0
134758.033,42.969,27.832,38.086,28.809,42.969,0
134758.037,32.715,26.367,37.109,33.203,58.105,0
134758.041,23.926,24.902,36.133,27.832,33.691,0
134758.045,20.508,23.926,34.668,22.461,12.207,0
134758.049,19.531,26.367,35.156,30.762,-5.859,0
134758.052,17.090,24.902,37.109,38.574,31.250,0
134758.056,18.555,27.832,33.691,30.273,47.852,0
134758.060,20.996,36.621,30.762,23.438,14.648,0
134758.064,25.391,40.527,32.715,27.832,-27.344,0
134758.068,33.203,34.180,33.203,37.598,6.348,0
134758.072,27.832,26.367,36.133,35.156,56.641,0
134758.074,23.926,25.391,36.133,22.949,17.578,0
134758.078,31.738,24.414,31.738,22.461,4.395,0
134758.082,37.598,26.855,29.297,27.344,38.086,0
134758.086,37.598,32.227,29.785,28.809,33.691,0
134758.090,30.273,31.738,25.879,19.531,7.812,0
134758.093,22.461,28.809,15.625,15.137,-4.883,0
134758.097,29.297,29.785,-1.465,22.461,-4.395,0
134758.101,33.691,35.156,-0.488,34.180,-14.160,0
134758.105,20.020,29.297,22.461,25.391,-54.688,0
134758.109,15.137,19.043,46.387,12.695,-68.359,0
134758.113,21.484,27.344,53.711,20.508,-27.832,0
134758.117,22.949,38.574,51.270,32.715,35.645,0
134758.119,17.090,34.668,53.223,30.762,56.641,0
134758.123,18.555,28.809,47.852,24.902,-3.418,0
134758.127,28.809,34.668,40.039,35.645,-1.953,0
134758.131,30.273,33.691,29.297,43.457,33.203,0
134758.135,29.297,27.344,22.461,39.062,39.062,0
134758.139,29.297,31.738,28.320,30.273,3.418,0
134758.143,35.156,31.738,31.250,30.273,-9.766,0
134758.147,40.527,27.344,31.250,40.039,16.602,0
134758.150,37.598,29.297,25.391,38.574,20.996,0
134758.154,37.598,27.344,19.531,26.367,15.137,0
134758.158,36.621,26.367,20.508,18.555,38.574,0
134758.162,36.133,25.391,20.508,23.438,50.781,0
134758.164,34.180,25.879,19.531,29.785,47.363,0
134758.168,29.785,27.344,21.973,27.344,22.461,0
134758.172,33.203,24.902,20.020,19.531,20.020,0
134758.176,30.273,29.785,18.555,20.020,45.410,0
134758.180,20.508,31.250,25.879,29.785,33.691,0
134758.183,20.508,28.809,28.320,27.832,18.066,0
134758.187,23.926,30.762,22.461,17.578,22.461,0
134758.191,26.367,28.809,22.949,21.484,27.344,0
134758.195,29.785,24.902,21.484,29.785,36.133,0
134758.199,34.180,25.391,19.043,28.809,41.504,0
134758.203,28.809,27.832,24.902,17.090,20.996,0
134758.207,24.414,27.344,23.438,7.324,24.414,0
134758.209,27.344,24.902,20.996,11.719,54.688,0
134758.213,24.414,22.949,26.367,16.113,56.152,0
134758.217,17.090,31.250,23.926,8.789,23.438,0
134758.221,14.160,37.598,19.043,2.441,9.277,0
134758.225,17.578,36.621,19.043,6.836,53.223,0
134758.229,18.555,39.062,21.484,14.160,72.754,0
134758.232,10.742,37.109,22.461,6.348,29.297,0
134758.236,13.184,34.180,21.973,0.000,9.766,0
134758.240,19.531,32.715,22.949,5.859,75.684,0
134758.244,19.043,29.785,25.391,19.043,98.633,0
134758.248,17.578,30.762,26.855,20.996,58.594,0
134758.252,18.555,32.227,24.902,14.160,27.344,0
134758.254,26.367,30.273,23.926,18.066,18.555,0
134758.258,20.996,34.668,23.438,23.438,63.477,0
134758.262,14.648,37.598,23.438,26.855,62.500,0
134758.266,18.555,33.691,27.344,20.020,26.855,0
134758.270,23.926,34.180,35.156,16.113,46.875,0
134758.274,30.762,33.691,39.062,25.391,48.828,0
134758.277,32.715,29.297,35.156,30.762,41.992,0
134758.281,32.715,26.855,29.297,19.531,28.320,0
134758.285,33.691,26.367,22.461,12.207,20.020,0
134758.289,33.203,27.832,17.578,18.066,41.992,0
134758.293,33.203,30.273,29.785,28.809,45.410,0
134758.297,25.879,35.645,40.039,27.832,37.598,0
134758.300,24.902,37.598,39.062,20.020,8.301,0
134758.303,25.879,35.156,41.504,21.973,-19.531,0
134758.307,22.949,35.645,31.738,29.297,-4.395,0
134758.311,20.508,39.551,23.926,26.855,20.020,0
134758.315,18.066,37.598,32.227,14.160,-12.207,0
134758.319,18.555,33.203,41.504,14.160,-83.496,0
134758.323,17.090,32.227,39.551,22.461,-85.938,0
134758.327,20.020,30.762,33.691,22.949,-44.922,0
134758.331,26.855,29.297,30.273,17.578,-7.812,0
134758.335,25.391,30.762,28.320,15.137,-14.648,0
134758.339,24.414,38.086,31.738,24.902,-20.020,0
134758.343,22.461,33.203,33.691,28.320,18.555,2
134758.359,18.555,27.832,31.738,16.602,19.043,0
134758.363,19.531,38.086,30.273,9.766,-12.207,0
134758.367,24.414,32.227,22.461,16.113,27.344,0
134758.371,25.391,21.484,17.578,23.926,89.844,0
134758.375,21.484,24.902,19.043,20.020,81.055,0
134758.378,25.391,30.273,22.461,16.113,52.734,0
134758.382,31.738,35.156,29.297,21.973,32.715,0
134758.386,29.785,36.133,31.250,28.809,56.641,0
134758.390,30.762,39.062,32.227,32.715,67.383,0
134758.394,32.227,41.016,37.109,29.297,40.039,0
134758.398,33.203,43.457,35.156,22.461,-1.953,0
134758.402,42.480,52.734,28.809,30.273,-0.977,0
134758.404,30.273,50.293,27.344,31.738,14.648,0
134758.408,23.926,35.156,27.832,21.973,34.180,0
134758.412,28.809,32.715,28.809,18.555,12.207,0
134758.416,25.391,39.062,32.715,25.391,14.648,0
134758.420,25.879,41.992,35.645,33.203,32.715,0
134758.423,25.391,39.062,37.598,31.250,-2.441,0
134758.427,29.297,35.645,41.992,30.273,-17.578,0
134758.431,33.691,36.133,44.922,35.645,-4.883,0
134758.435,34.668,37.598,47.852,41.992,19.043,0
134758.439,38.086,33.691,43.457,39.551,27.344,0
134758.443,39.551,26.855,31.738,28.320,28.320,0
134758.447,43.457,27.344,31.250,26.855,44.922,0
134758.449,45.898,32.227,40.039,36.133,11.230,0
134758.453,47.363,33.691,42.480,41.016,20.020,0
134758.457,43.457,35.156,43.457,34.180,36.133,0
134758.461,41.016,33.203,42.969,30.762,5.371,0
134758.465,41.016,33.203,34.668,39.551,10.254,0
134758.468,36.133,34.668,29.297,45.410,13.672,0
134758.472,28.320,28.320,29.785,33.691,21.484,0
134758.476,26.855,27.832,31.250,29.297,44.434,0
134758.480,31.738,35.156,32.227,33.203,40.039,0
134758.484,32.715,31.738,31.738,35.156,39.551,0
134758.488,28.320,26.367,31.738,34.180,77.148,0
134758.492,29.297,26.855,29.785,28.809,63.965,0
134758.494,35.645,35.156,31.738,34.668,33.691,0
134758.498,37.109,33.203,41.504,37.598,62.012,0
134758.502,30.762,24.414,40.527,27.832,48.340,0
134758.506,28.320,25.391,28.809,20.020,4.883,0
134758.510,34.180,30.273,22.949,15.625,24.414,0
134758.514,33.203,34.668,25.391,20.996,57.129,0
134758.517,25.879,33.691,26.855,24.902,70.801,0
134758.521,31.738,32.227,27.832,17.090,39.062,0
134758.525,38.574,38.574,32.715,16.113,3.906,0
134758.529,38.574,37.598,32.715,21.973,61.523,0
134758.533,31.250,30.273,29.785,30.762,106.445,0
134758.537,26.367,30.762,27.832,27.344,62.500,0
134758.539,25.879,38.086,27.344,19.531,45.898,0
134758.543,26.367,41.992,29.297,23.926,72.266,0
134758.547,21.973,41.992,27.344,26.367,92.773,0
134758.551,17.090,38.086,23.438,17.578,58.105,0
134758.555,20.508,34.180,21.484,4.883,16.602,0
134758.559,26.367,29.297,22.461,9.277,34.180,0
134758.563,30.762,26.855,28.809,18.555,35.156,0
134758.567,28.809,27.832,32.715,14.160,10.254,0
134758.571,26.855,28.809,31.738,3.906,-26.367,0
134758.575,25.879,26.855,28.809,4.395,0.488,0
134758.578,28.809,26.367,28.809,19.531,46.875,0
134758.582,27.832,27.344,30.273,26.367,47.852,0
134758.584,27.344,24.414,34.668,19.043,48.340,0
134758.588,35.645,26.855,34.180,20.020,30.273,0
134758.592,32.715,24.414,29.297,24.414,-4.883,0
134758.596,24.902,17.090,24.902,24.414,2.930,0
134758.600,23.438,14.648,21.484,21.973,44.922,0
134758.604,26.367,20.020,20.020,17.090,51.270,0
134758.608,27.344,26.367,19.531,18.066,22.949,0
134758.612,23.926,36.133,23.926,21.973,7.324,0
134758.615,14.648,33.691,28.809,17.578,43.945,0
134758.619,7.812,20.996,28.320,9.766,35.156,0
134758.623,13.184,20.508,26.367,11.230,5.371,0
134758.627,20.996,25.391,26.367,20.020,36.621,0
134758.629,18.066,30.273,27.344,20.508,57.129,0
134758.633,14.160,28.320,24.902,14.160,17.090,0
134758.637,16.113,22.949,26.855,13.672,-18.555,0
134758.641,17.578,25.879,28.809,16.602,27.344,0
134758.645,17.090,28.809,28.320,20.020,30.762,0
134758.648,18.066,28.320,28.809,15.625,-32.227,0
134758.652,17.090,29.297,23.926,6.836,-62.500,0
134758.656,23.438,33.203,23.926,13.672,-22.949,0
134758.660,23.926,37.109,27.832,20.996,50.293,0
134758.664,14.160,36.621,25.391,16.602,13.184,0
134758.668,14.160,34.668,22.461,11.230,-11.719,0
134758.672,17.090,33.203,26.367,11.719,11.230,0
134758.675,21.973,36.133,31.250,22.949,40.039,0
134758.679,22.461,37.598,30.762,20.020,38.086,0
134758.683,15.625,31.738,24.414,8.301,-39.551,0
134758.687,19.531,30.273,18.066,6.836,-51.270,0
134758.691,27.832,36.133,18.555,11.719,-15.625,0
134758.695,20.508,31.738,22.949,14.160,-5.371,0
134758.699,17.090,30.273,29.297,7.812,-40.527,0
134758.703,20.508,31.250,35.156,7.812,-30.762,0
134758.706,24.414,27.344,36.133,16.602,19.531,0
134758.710,20.996,29.785,29.785,17.578,20.508,0
134758.714,12.207,30.273,26.855,12.695,24.902,0
134758.718,10.742,27.344,28.320,12.695,49.805,0
134758.734,16.113,21.973,30.273,21.973,79.590,0
134758.738,10.742,20.508,27.344,23.926,55.664,0
134758.742,9.277,29.785,22.949,18.555,32.715,0
134758.746,20.020,34.180,23.926,19.043,45.898,0
134758.750,22.949,32.715,27.344,20.996,29.785,0
134758.753,22.949,36.133,31.250,28.809,25.391,0
134758.757,23.438,37.109,34.180,29.785,3.418,0
134758.761,23.926,38.086,33.203,20.508,5.371,0
134758.765,28.809,36.621,26.855,20.996,42.969,0
134758.769,32.715,33.203,23.926,30.762,26.855,0
134758.773,32.227,33.691,27.344,30.273,21.484,0
134758.777,28.320,34.180,27.344,18.066,13.672,0
134758.779,28.809,34.180,28.809,17.090,-20.020,0
134758.783,26.367,32.227,25.879,23.926,24.902,0
134758.787,20.996,27.832,27.832,26.855,67.383,0
134758.791,22.949,31.250,33.691,23.926,33.691,0
134758.795,23.926,33.203,29.297,19.531,-18.555,0
134758.798,22.949,27.344,26.367,21.973,8.789,0
134758.802,25.391,25.879,23.438,30.273,42.969,0
134758.806,23.926,26.855,25.879,31.250,38.574,0
134758.810,21.973,32.227,30.762,24.414,23.438,0
134758.814,21.973,35.156,27.832,23.438,-27.344,0
134758.818,20.996,28.320,28.320,28.320,-30.762,0
134758.822,22.461,28.320,34.180,29.785,11.719,0
134758.824,21.484,33.203,36.621,24.902,-13.672,0
134758.828,19.531,41.504,27.832,20.020,-20.508,2
134758.832,22.461,47.852,18.555,21.484,32.715,0
134758.836,21.484,40.527,19.531,22.461,57.129,0
134758.840,19.043,32.227,19.043,14.648,20.020,0
134758.844,18.555,32.227,16.113,14.160,4.395,0
134758.847,25.391,32.227,25.391,23.438,15.625,0
134758.851,29.297,33.691,31.738,21.484,34.180,0
134758.855,25.879,34.668,29.785,12.695,26.855,0
134758.859,22.949,29.785,31.250,11.719,-11.719,0
134758.863,24.902,26.367,31.250,18.066,9.766,0
134758.867,21.973,33.691,28.320,24.414,49.316,0
134758.869,16.113,40.039,29.297,22.949,29.785,0
134758.873,11.230,30.762,27.832,13.184,4.395,0
134758.877,12.695,26.367,24.902,14.648,5.859,0
134758.881,18.555,27.344,26.855,21.484,26.855,0
134758.885,17.578,22.461,28.809,19.043,11.719,0
134758.888,21.973,27.344,27.832,11.230,-14.160,0
134758.892,25.391,36.133,29.297,8.789,-5.859,0
134758.896,23.438,34.668,34.668,17.090,-1.465,0
134758.900,23.438,32.227,38.086,25.879,20.020,0
134758.904,22.461,29.297,38.086,22.461,39.062,0
134758.908,21.973,26.855,33.203,11.719,34.180,0
134758.912,29.297,29.297,28.809,15.625,23.926,0
134758.914,31.250,29.297,26.367,26.855,36.621,0
134758.918,22.461,29.785,27.344,21.973,57.129,0
134758.922,26.855,30.273,35.156,17.578,33.691,0
134758.926,33.203,33.691,35.645,19.531,29.297,0
134758.930,28.809,28.809,31.250,25.391,41.016,0
134758.933,26.367,26.367,31.738,23.926,56.641,0
134758.937,31.250,35.645,33.691,19.043,58.105,0
134758.941,35.645,32.227,35.645,20.020,41.016,0
134758.945,34.668,25.391,38.086,25.391,62.500,0
134758.949,31.250,28.320,37.598,26.855,92.285,0
134758.953,30.762,25.879,30.273,19.043,37.598,0
134758.957,31.250,23.438,24.902,17.578,19.531,0
134758.959,28.320,26.855,36.133,26.855,74.219,0
134758.963,29.297,29.785,44.434,34.668,115.723,0
134758.967,26.855,31.738,42.480,25.879,88.379,0
134758.971,23.926,26.855,37.109,16.113,39.062,0
134758.975,31.738,24.414,33.691,27.344,25.879,0
134758.979,28.320,23.926,33.691,32.227,17.578,0
134758.982,21.484,23.438,33.691,24.414,7.324,0
134758.986,19.531,21.484,34.668,18.066,-2.441,0
134758.990,15.625,20.508,34.180,20.996,21.484,0
134758.994,15.137,22.949,29.297,29.297,55.664,0
134758.998,17.090,24.414,27.344,22.949,38.086,0
134759.002,16.602,21.973,27.832,7.812,10.742,0
134759.004,14.160,26.855,29.297,10.254,22.461,0
134759.008,14.648,35.645,31.738,29.785,41.504,0
134759.012,13.184,33.203,31.738,30.762,28.809,0
134759.016,12.695,32.715,31.738,18.555,32.227,0
134759.020,20.020,33.691,34.180,18.066,65.430,0
134759.024,22.461,30.762,32.227,23.438,32.227,0
134759.028,18.066,31.738,27.344,27.344,3.906,0
134759.032,19.043,35.645,23.438,20.508,5.859,0
134759.035,21.484,34.668,21.484,10.254,5.371,0
134759.039,23.438,34.180,25.391,17.578,43.945,0
134759.043,27.344,33.203,27.832,29.785,63.965,0
134759.047,21.484,24.414,26.367,23.438,19.043,0
134759.049,18.066,20.508,28.809,13.184,8.789,0
134759.053,23.926,24.414,29.785,18.555,16.113,0
134759.057,29.785,28.809,31.250,32.715,5.859,0
134759.061,27.832,27.832,34.180,32.715,22.949,0
