timestamps,TP9,AF7,AF8,TP10,Right AUX,Marker0
214135.225,21.484,33.203,57.129,19.043,3.418,0
214135.229,10.254,32.227,46.387,8.789,-3.418,0
214135.233,17.090,27.832,37.598,17.090,3.906,0
214135.237,31.738,27.832,42.969,37.109,18.555,0
214135.241,26.367,31.250,28.809,39.062,17.578,0
214135.245,15.137,33.691,22.949,28.320,23.926,0
214135.249,23.926,36.621,49.316,23.926,47.363,0
214135.253,41.016,31.738,63.965,30.273,44.922,0
214135.257,33.203,26.367,63.965,26.855,25.391,0
214135.261,11.719,29.785,62.500,13.184,18.066,0
214135.264,15.137,32.227,53.223,14.648,22.461,0
214135.268,30.273,26.367,38.086,26.855,30.762,0
214135.270,27.832,24.902,35.645,27.344,26.367,0
214135.274,9.766,26.855,41.016,10.742,19.043,0
214135.278,14.648,30.762,52.734,4.883,31.250,0
214135.282,32.227,29.297,52.734,19.043,40.039,0
214135.286,38.574,29.297,40.039,32.715,28.320,0
214135.289,24.414,31.738,36.133,21.484,18.555,0
214135.293,18.066,33.691,41.016,13.672,31.250,0
214135.297,33.691,32.715,51.758,22.461,39.551,0
214135.301,47.363,33.691,52.734,29.297,26.367,0
214135.305,37.109,37.109,51.270,26.367,20.996,0
214135.309,19.043,33.203,41.016,16.113,27.832,0
214135.313,24.902,30.762,23.438,12.695,37.109,0
214135.314,36.621,32.715,35.156,19.531,43.945,0
214135.318,28.809,33.203,46.875,20.996,38.086,0
214135.322,18.555,37.109,49.316,16.602,37.598,0
214135.326,20.996,37.598,54.199,17.090,42.480,0
214135.330,32.227,33.203,55.176,27.832,28.809,0
214135.334,31.738,30.762,42.969,30.762,14.160,0
214135.338,14.648,31.738,42.480,17.578,10.254,0
214135.342,6.348,32.227,53.711,10.254,12.207,0
214135.346,20.020,31.738,51.270,17.578,30.273,0
214135.350,33.691,35.156,31.738,31.250,39.062,0
214135.353,25.391,36.621,30.762,20.020,39.062,0
214135.357,12.207,36.133,46.875,2.930,40.527,0
214135.359,20.020,34.180,43.945,10.254,14.648,0
214135.363,41.992,35.156,36.133,30.273,-2.930,0
214135.367,35.156,35.645,32.227,30.273,6.836,0
214135.371,17.090,35.156,43.457,13.184,20.020,0
214135.375,19.531,32.715,55.664,11.719,31.250,0
214135.379,38.086,32.715,46.387,26.367,36.133,0
214135.383,38.086,33.203,41.016,27.832,38.574,0
214135.387,18.066,32.715,47.363,11.719,28.320,0
214135.391,11.230,29.785,44.434,6.348,20.020,0
214135.395,32.227,34.668,49.805,26.855,33.203,0
214135.398,39.062,36.133,39.551,31.250,31.250,0
214135.402,19.531,33.691,25.391,12.207,17.578,0
214135.419,7.812,30.273,35.645,3.906,35.645,0
214135.423,26.367,31.250,41.016,15.137,60.547,0
214135.427,48.828,35.645,42.480,36.133,35.156,0
214135.431,33.691,30.273,35.156,34.180,9.277,0
214135.435,15.625,23.926,32.227,18.066,19.531,0
214135.439,29.297,24.414,51.270,19.531,23.438,0
214135.443,49.316,28.809,62.500,34.180,27.832,0
214135.447,42.480,30.762,44.922,34.668,29.297,0
214135.451,24.902,34.180,35.645,22.949,34.668,0
214135.455,25.879,35.156,39.551,20.508,47.852,0
214135.458,43.945,34.180,42.969,29.297,53.711,0
214135.462,47.852,35.645,45.898,36.133,45.898,0
214135.465,26.855,35.156,39.062,26.855,32.227,0
214135.469,18.555,35.645,41.992,21.484,40.527,0
214135.473,36.621,35.645,50.293,35.156,50.293,0
214135.476,45.898,35.645,48.828,47.852,37.598,0
214135.480,17.090,32.715,44.434,26.855,6.836,0
214135.484,-2.930,24.902,41.016,3.418,6.348,0
214135.488,12.207,23.438,45.898,9.766,24.414,0
214135.492,32.227,28.320,45.898,24.902,18.066,0
214135.496,28.809,32.227,40.039,22.949,1.953,0
214135.500,13.184,39.062,38.574,11.230,4.883,0
214135.504,13.672,40.039,43.457,11.719,13.184,0
214135.508,30.273,34.668,41.992,25.391,14.160,0
214135.509,23.926,33.203,38.574,24.414,1.953,0
214135.513,2.441,32.227,35.156,7.324,-1.953,0
214135.517,7.324,32.227,19.531,5.859,27.344,0
214135.521,29.785,33.691,23.438,24.902,43.457,0
214135.525,32.715,34.668,46.875,30.762,34.180,0
214135.529,14.160,36.621,55.176,19.531,39.062,0
214135.533,5.859,37.598,56.641,11.230,43.457,0
214135.537,17.578,31.250,50.781,21.484,25.879,0
214135.541,36.133,32.227,45.898,38.086,13.184,0
214135.545,24.414,37.109,46.387,24.902,7.324,0
214135.549,5.371,33.691,41.504,6.836,14.648,0
214135.552,15.137,34.180,45.898,18.066,39.062,0
214135.554,29.297,34.668,48.340,33.203,37.109,0
214135.558,21.973,33.691,40.527,27.832,20.996,0
214135.562,4.395,36.133,41.016,13.672,19.531,0
214135.566,2.441,32.715,32.227,6.836,18.555,0
214135.570,20.508,30.273,23.438,20.020,20.508,0
214135.574,22.949,33.203,30.762,28.320,7.324,0
214135.578,11.230,37.109,35.645,22.949,6.348,0
214135.582,11.719,35.645,37.598,19.043,26.855,0
214135.586,23.438,32.227,45.898,16.602,33.203,0
214135.590,30.273,32.715,50.293,20.508,26.367,0
214135.593,16.113,31.250,43.945,11.719,14.160,0
214135.597,11.719,33.691,44.434,5.371,5.371,0
214135.599,28.320,35.645,39.062,16.113,10.742,0
214135.603,35.645,33.691,31.738,21.973,13.672,0
214135.607,23.926,34.668,36.621,13.184,-1.465,0
214135.611,10.254,34.668,31.250,5.371,3.418,0
214135.615,25.879,36.133,27.832,17.090,31.250,0
214135.619,49.316,39.062,27.832,34.180,39.551,0
214135.623,32.715,35.156,34.180,25.391,24.414,0
214135.627,13.672,30.273,39.062,8.301,26.855,0
214135.631,21.484,33.203,37.109,10.254,34.668,0
214135.634,36.133,35.156,33.203,20.020,17.090,0
214135.638,36.621,32.227,31.250,22.949,4.883,0
214135.642,19.043,32.227,34.668,14.160,17.578,0
214135.644,24.902,38.574,41.504,14.160,37.598,0
214135.648,46.387,40.527,39.062,33.203,51.758,0
214135.652,48.828,42.480,22.949,40.039,57.617,0
214135.656,31.250,40.039,23.926,23.438,58.594,0
214135.660,16.602,33.691,41.016,9.277,33.691,0
214135.664,32.227,38.086,47.852,16.113,19.043,0
214135.668,46.875,39.551,42.969,24.414,18.066,0
214135.672,25.879,35.156,37.598,11.230,15.625,0
214135.676,9.277,39.062,31.738,-0.488,26.367,0
214135.679,20.996,39.062,23.926,9.766,21.484,0
214135.683,39.062,34.668,34.180,24.414,11.719,0
214135.687,32.715,32.227,40.039,24.902,9.766,0
214135.690,18.066,31.250,40.527,15.625,20.996,0
214135.694,18.555,32.227,40.039,11.230,36.133,0
214135.698,35.156,30.762,31.738,20.508,39.551,0
214135.702,45.410,32.715,30.273,24.902,35.156,0
214135.706,29.785,34.668,29.785,17.090,43.945,0
214135.710,24.414,35.645,37.109,17.090,58.105,0
214135.713,44.434,36.621,26.855,30.273,62.500,0
214135.717,54.199,33.691,19.531,38.574,59.082,0
214135.721,30.762,32.227,47.363,23.438,40.527,0
214135.725,12.695,31.738,61.035,12.207,32.227,0
214135.729,24.902,33.691,43.945,24.414,41.992,0
214135.733,30.273,30.273,26.855,30.273,30.762,0
214135.736,13.184,24.414,18.066,16.113,9.766,0
214135.740,2.441,25.879,34.668,1.953,20.996,0
214135.744,8.789,25.391,66.895,2.441,38.574,0
214135.747,25.391,23.926,63.477,16.113,24.414,0
214135.751,23.926,24.902,41.016,18.555,-7.812,0
214135.755,9.766,26.855,35.645,1.953,-3.906,0
214135.759,13.184,31.250,40.039,-2.441,16.602,0
214135.763,34.180,38.086,42.480,20.996,23.438,0
214135.767,35.645,34.180,34.668,28.320,15.625,0
214135.771,12.207,29.785,19.043,10.742,8.301,0
214135.775,3.906,29.785,20.020,0.977,21.484,0
214135.779,18.555,27.344,4.395,8.301,39.062,0
214135.794,38.086,33.691,-1.465,20.996,40.527,0
214135.798,28.320,36.621,42.480,14.160,23.438,0
214135.802,8.789,25.391,65.918,0.488,24.414,0
214135.806,19.043,22.949,59.082,2.930,37.109,0
214135.810,36.621,24.902,50.293,21.484,31.250,0
214135.814,27.344,27.832,42.969,20.996,29.297,0
214135.818,11.719,31.738,39.551,6.836,42.480,0
214135.822,22.461,34.180,41.504,11.719,47.852,0
214135.826,42.480,32.715,36.621,28.809,42.480,0
214135.830,37.598,28.809,30.762,33.203,30.762,0
214135.833,11.719,31.250,34.180,17.578,20.020,0
214135.837,12.207,37.598,45.410,18.066,21.484,0
214135.839,34.668,38.086,51.270,28.809,37.109,0
214135.843,30.273,28.320,41.992,25.391,30.762,0
214135.847,7.324,24.902,37.598,11.719,18.066,0
214135.851,3.906,28.809,28.320,5.859,32.715,0
214135.855,24.414,26.367,19.043,20.020,41.016,0
214135.859,37.598,26.367,28.809,32.227,29.297,0
214135.863,23.438,27.344,39.062,22.461,17.578,0
214135.867,10.742,28.809,33.203,13.184,21.973,0
214135.871,19.531,31.250,24.902,21.484,33.691,0
214135.875,35.156,30.762,43.457,33.203,32.715,0
214135.878,23.438,32.227,55.176,26.367,18.555,0
214135.882,9.277,34.180,50.293,10.742,15.137,0
214135.884,21.973,35.645,42.480,11.230,23.926,0
214135.888,40.039,35.156,38.086,24.414,28.320,0
214135.892,38.086,33.203,31.738,32.715,20.508,0
214135.896,20.508,32.227,30.762,23.438,18.066,0
214135.900,19.531,29.785,34.668,19.043,22.949,0
214135.904,36.621,29.297,26.367,33.203,29.785,0
214135.908,41.016,28.809,30.273,34.668,20.996,0
214135.912,19.531,29.297,38.574,14.160,10.254,0
214135.916,16.113,34.668,37.598,9.766,37.109,0
214135.920,38.086,39.551,47.852,25.879,51.270,0
214135.923,43.945,34.180,45.410,32.715,36.621,0
214135.927,29.297,32.715,36.133,28.320,37.598,0
214135.929,13.672,34.180,40.039,15.625,38.086,0
214135.933,20.020,29.785,42.969,12.207,40.527,0
214135.937,37.598,28.809,44.434,25.879,37.109,0
214135.941,29.785,31.738,36.133,22.461,24.414,0
214135.945,17.578,35.156,33.691,11.230,40.527,0
214135.949,20.508,34.180,39.551,13.672,51.270,0
214135.953,37.109,33.691,32.715,27.832,32.227,0
214135.957,43.945,36.621,25.391,39.062,23.438,0
214135.961,29.297,37.598,30.273,29.297,41.016,0
214135.964,26.855,38.086,43.945,22.461,53.711,0
214135.968,45.410,41.504,46.387,32.715,42.480,0
214135.972,55.664,40.039,40.527,40.527,40.527,0
214135.977,36.133,37.109,40.527,33.691,31.250,0
214135.981,18.555,34.668,39.062,14.648,9.766,0
214135.985,29.785,31.738,36.621,8.301,16.113,0
214135.989,39.062,26.367,27.832,20.508,23.438,0
214135.993,29.785,25.879,39.551,21.973,16.113,0
214135.997,20.020,34.180,41.992,17.578,23.926,0
214136.001,31.738,39.062,25.879,22.461,38.086,0
214136.005,51.270,37.109,36.133,33.203,34.180,0
214136.009,41.992,37.598,41.016,33.691,22.949,0
214136.013,21.484,37.109,37.109,20.020,22.949,0
214136.017,17.578,35.645,41.016,11.230,29.297,0
214136.020,32.715,34.180,41.016,24.902,34.180,0
214136.019,39.551,33.203,25.391,41.992,21.973,0
214136.023,23.438,37.598,18.555,36.133,19.043,0
214136.027,14.160,35.156,33.691,22.949,30.762,0
214136.031,28.809,27.832,47.852,27.344,43.457,0
214136.035,39.062,29.785,55.176,39.062,41.992,0
214136.039,25.879,34.180,53.711,33.691,19.043,0
214136.043,17.578,35.645,39.551,24.414,24.414,0
214136.047,26.367,31.250,23.438,23.926,35.645,0
214136.051,44.434,34.180,16.602,33.203,25.879,0
214136.055,41.016,40.527,27.832,35.645,27.832,0
214136.058,20.996,34.668,45.898,17.578,41.504,0
214136.062,23.438,32.227,52.246,9.277,49.316,0
214136.065,42.969,35.156,49.805,20.508,33.203,0
214136.069,38.086,36.621,41.504,23.438,15.137,0
214136.073,19.043,36.133,31.738,9.766,20.996,0
214136.077,16.113,36.621,29.297,0.977,31.738,0
214136.080,30.762,37.109,36.621,14.648,38.086,0
214136.084,38.574,33.691,35.645,28.809,30.273,0
214136.088,23.438,34.668,30.273,21.484,25.879,0
214136.092,16.113,36.133,28.809,11.230,33.203,0
214136.096,34.668,36.621,23.926,26.367,38.574,0
214136.100,48.828,40.527,31.738,41.504,41.504,0
214136.104,34.668,39.551,42.969,29.785,32.715,0
214136.108,17.090,38.086,42.480,17.578,34.180,0
214136.110,17.578,33.691,38.574,18.555,33.691,0
214136.114,32.227,29.785,33.203,30.762,25.879,0
214136.118,28.320,31.738,28.320,30.273,33.691,0
214136.122,11.719,29.785,38.086,18.555,24.902,0
214136.126,16.602,28.320,49.805,17.578,12.207,0
214136.130,35.156,25.879,48.340,24.902,14.160,0
214136.133,40.039,29.785,47.852,33.203,9.277,0
214136.137,31.250,37.598,57.617,29.297,17.090,0
214136.141,27.832,38.086,51.270,20.020,37.109,0
214136.145,37.109,32.227,34.180,25.879,45.410,0
214136.149,41.504,24.902,26.855,29.297,28.809,0
214136.153,27.832,26.367,24.414,19.531,11.719,0
214136.169,16.602,31.250,24.414,12.207,20.996,0
214136.173,24.414,30.273,29.785,18.066,29.785,0
214136.177,31.250,33.691,33.691,30.273,38.086,0
214136.181,19.531,35.645,34.668,20.996,23.438,0
214136.185,7.812,32.227,23.438,10.742,7.812,0
214136.189,17.090,32.715,26.855,19.043,27.344,0
214136.193,38.574,34.668,50.293,38.086,44.434,0
214136.197,34.180,31.738,54.199,36.621,28.809,0
214136.201,15.625,29.785,42.969,18.066,12.695,0
214136.205,21.973,31.250,37.109,18.555,25.391,0
214136.208,36.133,31.250,35.156,28.320,31.738,0
214136.212,33.203,33.203,25.879,33.691,18.066,0
214136.215,21.973,32.227,18.066,20.020,15.625,0
214136.219,16.602,30.273,26.855,7.324,24.902,0
214136.222,25.879,32.227,48.828,20.020,31.738,0
214136.226,34.668,30.762,47.852,24.414,25.879,0
214136.230,20.020,32.227,38.574,13.184,18.066,0
214136.234,9.766,34.180,40.039,8.301,25.391,0
214136.238,26.367,35.645,36.133,16.113,32.227,0
214136.242,42.480,36.133,35.645,25.879,30.273,0
214136.246,29.297,31.250,16.113,19.531,19.531,0
214136.250,20.508,38.574,11.719,16.113,21.973,0
214136.254,32.715,42.480,28.320,29.297,45.410,0
214136.258,34.668,28.320,32.227,29.785,28.809,0
214136.259,22.461,24.902,29.297,16.113,5.371,0
214136.263,7.812,28.320,27.344,5.859,12.207,0
214136.267,13.672,30.273,43.945,6.348,8.789,0
214136.271,33.691,31.738,40.039,19.043,12.695,0
214136.275,36.133,32.227,35.156,25.391,20.020,0
214136.279,18.066,33.203,43.457,12.207,14.648,0
214136.283,16.113,36.621,50.781,7.812,30.762,0
214136.287,34.180,37.109,47.852,22.461,58.105,0
214136.291,36.621,29.785,26.367,22.949,34.180,0
214136.295,23.926,32.715,19.043,13.184,3.418,0
214136.298,16.113,39.062,31.250,10.254,13.184,0
214136.302,24.902,32.715,34.180,18.555,13.672,0
214136.304,41.504,30.762,43.945,34.668,5.859,0
214136.308,33.691,35.156,30.762,31.738,21.973,0
214136.312,19.531,38.574,16.602,22.461,40.527,0
214136.316,26.367,38.086,39.062,22.461,35.156,0
214136.320,37.598,32.227,42.969,26.855,29.297,0
214136.324,34.668,27.832,39.062,26.367,42.480,0
214136.328,22.461,31.738,33.203,16.113,35.645,0
214136.332,17.090,35.645,22.949,10.742,26.855,0
214136.336,30.273,34.180,33.691,21.973,31.250,0
214136.340,44.434,35.645,42.480,30.273,19.043,0
214136.343,25.879,33.203,32.227,15.625,14.648,0
214136.347,14.160,32.227,23.926,7.812,44.922,0
214136.350,34.180,37.598,30.273,18.555,58.105,0
214136.353,47.363,40.527,43.945,29.297,32.715,0
214136.357,23.926,33.691,41.504,17.090,14.160,0
214136.361,-1.953,24.414,26.855,-3.906,5.859,0
214136.365,5.859,25.391,28.809,2.441,17.578,0
214136.369,20.508,28.809,35.156,17.090,24.414,0
214136.373,14.648,30.273,34.180,16.113,7.812,0
214136.377,3.418,31.738,32.715,9.766,-0.488,0
214136.381,13.672,36.133,38.086,16.113,19.531,0
214136.385,41.504,39.551,31.738,33.691,39.062,0
214136.389,47.363,36.133,23.438,36.621,44.434,0
214136.392,29.297,36.621,33.203,21.973,42.480,0
214136.394,22.949,36.621,35.645,15.625,33.691,0
214136.398,40.039,33.203,30.762,27.344,34.180,0
214136.402,46.387,36.621,29.785,33.203,35.156,0
214136.406,23.438,36.133,30.273,19.043,23.926,0
214136.410,15.625,34.668,31.250,14.160,28.809,0
214136.414,31.738,36.621,28.809,25.879,39.062,0
214136.418,41.016,35.645,33.691,37.598,31.250,0
214136.422,30.762,34.180,37.598,38.086,23.926,0
214136.425,15.137,32.227,34.180,16.113,20.020,0
214136.429,21.484,29.785,37.109,6.348,28.809,0
214136.433,41.992,30.273,37.598,21.973,20.996,0
214136.437,38.086,33.203,29.785,22.461,2.930,0
214136.441,25.391,40.039,35.645,17.090,20.508,0
214136.445,27.832,42.969,44.922,16.602,42.480,0
214136.448,34.180,32.715,41.504,17.090,33.203,0
214136.452,34.668,30.273,38.574,20.996,26.367,0
214136.456,18.555,35.645,40.527,13.672,27.344,0
214136.460,9.766,31.738,39.551,6.836,20.996,0
214136.464,27.344,30.762,35.156,20.020,21.973,0
214136.468,39.551,36.133,34.180,32.227,20.508,0
214136.472,22.949,37.598,37.598,23.438,15.137,0
214136.476,8.789,35.645,37.109,12.207,24.902,0
214136.480,24.414,36.621,33.203,22.949,41.504,0
214136.484,41.992,35.645,35.645,37.109,37.109,0
214136.484,32.715,33.691,38.574,29.297,22.461,0
214136.488,20.020,38.574,42.969,23.438,22.949,0
214136.492,30.762,40.527,55.176,33.691,32.227,0
214136.496,46.875,38.086,42.480,40.039,30.273,0
214136.500,39.062,38.574,31.250,26.367,16.602,0
214136.504,23.926,39.062,35.645,13.672,22.949,0
214136.508,24.902,37.598,32.227,14.648,36.133,0
214136.512,40.039,36.133,18.066,30.762,42.480,0
214136.516,50.781,41.016,13.672,42.969,45.898,0
214136.520,35.156,41.992,36.621,28.809,38.086,0
214136.523,28.320,37.598,55.664,16.602,43.457,0
214136.527,48.340,40.527,56.152,31.250,58.594,0
214136.544,57.129,40.039,43.457,38.086,50.293,0
214136.548,42.480,40.039,40.039,24.902,31.738,0
214136.552,30.273,41.992,36.621,19.531,35.645,0
214136.556,32.227,39.551,25.879,24.902,41.504,0
214136.560,45.410,39.062,21.973,39.551,52.246,0
214136.564,38.574,42.480,31.250,44.434,45.898,0
214136.568,14.648,41.504,51.758,30.762,29.297,0
214136.572,12.207,36.621,53.223,22.461,27.832,0
214136.576,24.902,30.762,40.039,28.809,24.414,0
214136.580,22.949,26.367,29.785,28.809,10.254,0
214136.583,6.836,31.250,11.230,17.090,14.648,0
214136.587,10.254,36.621,15.625,15.137,38.086,0
214136.589,33.691,37.109,39.062,26.855,48.340,0
214136.593,41.016,33.203,32.715,34.180,28.320,0
214136.597,23.438,33.691,21.973,21.973,18.555,0
214136.601,20.020,41.504,37.109,19.043,31.738,0
214136.605,36.621,41.992,39.062,30.762,40.527,0
214136.609,46.875,35.645,24.414,39.062,39.062,0
214136.613,30.762,33.691,26.367,23.438,32.715,0
214136.617,15.137,34.180,35.156,7.812,33.691,0
214136.621,23.438,29.785,34.668,16.602,35.645,0
214136.625,42.480,30.273,37.109,33.691,35.156,0
214136.629,41.016,35.156,45.410,31.738,20.020,0
214136.632,20.508,36.133,30.762,12.695,14.160,0
214136.635,25.391,39.551,26.855,11.230,39.062,0
214136.638,41.504,36.621,36.133,23.438,28.320,0
214136.642,38.574,30.762,42.480,24.414,10.742,0
214136.646,19.531,31.250,47.852,13.672,20.996,0
214136.650,14.160,31.250,45.898,9.277,34.180,0
214136.654,35.156,33.203,39.062,21.973,42.969,0
214136.658,41.992,33.203,37.109,29.297,41.992,0
214136.662,21.484,32.227,20.020,21.484,34.180,0
214136.666,15.137,35.156,5.859,10.742,20.508,0
214136.670,28.809,34.668,32.715,14.160,12.695,0
214136.674,41.016,33.691,47.852,28.809,17.578,0
214136.677,27.344,33.691,43.457,22.461,17.578,0
214136.680,12.695,33.203,43.457,8.301,27.832,0
214136.683,26.367,33.691,40.527,14.648,41.992,0
214136.687,42.969,34.180,34.180,26.855,34.668,0
214136.691,41.992,36.133,25.879,28.320,16.602,0
214136.695,25.879,40.039,32.227,16.113,6.836,0
214136.699,18.066,35.156,24.414,9.766,7.812,0
214136.703,34.668,32.227,19.531,25.879,19.043,0
214136.707,40.527,35.156,39.062,29.297,22.461,0
214136.711,15.625,29.785,39.551,5.859,13.672,0
214136.715,9.766,27.832,34.668,-0.977,23.926,0
214136.719,32.227,32.715,35.156,18.555,35.156,0
214136.722,43.457,36.621,15.625,32.715,30.762,0
214136.724,25.879,37.598,6.348,20.508,20.508,0
214136.728,14.648,35.156,32.227,2.930,21.973,0
214136.732,26.367,31.738,54.688,5.859,28.320,0
214136.736,32.715,27.832,56.152,14.648,22.461,0
214136.740,18.066,25.391,39.062,12.207,12.207,0
214136.744,2.930,27.832,31.250,1.465,13.184,0
214136.748,9.277,27.344,43.457,3.418,36.133,0
214136.752,33.691,29.785,38.086,18.066,57.129,0
214136.756,36.621,31.738,26.855,22.461,18.555,0
214136.760,21.484,32.227,31.738,20.020,-4.395,0
214136.764,21.973,36.133,26.855,18.066,12.207,0
214136.767,41.992,31.250,14.160,30.273,13.184,0
214136.769,54.199,37.109,23.926,45.898,17.578,0
214136.773,36.621,42.969,32.715,34.180,33.203,0
214136.777,20.996,29.297,32.227,18.066,50.293,0
214136.781,37.109,26.855,48.340,25.879,52.246,0
214136.785,52.246,34.668,54.199,35.156,39.551,0
214136.789,35.156,31.250,43.457,20.020,27.344,0
214136.793,25.879,33.691,35.156,5.859,29.297,0
214136.797,38.574,38.574,27.832,9.277,33.691,0
214136.801,48.340,32.715,20.508,21.484,27.832,0
214136.805,35.156,29.785,22.949,22.949,19.531,0
214136.808,19.043,34.668,28.320,8.789,29.297,0
214136.812,27.344,36.133,35.156,5.859,40.527,0
214136.815,43.945,37.109,30.273,24.902,32.715,0
214136.819,47.363,43.945,41.504,40.039,34.180,0
214136.822,29.297,43.457,44.434,24.414,38.086,0
214136.826,14.648,34.180,27.832,3.418,24.414,0
214136.830,29.785,32.227,21.973,13.184,20.996,0
214136.834,36.133,31.738,16.602,24.902,8.301,0
214136.838,18.555,35.156,26.367,18.555,12.207,0
214136.842,11.230,38.086,36.133,17.090,31.738,0
214136.846,23.926,35.645,45.898,27.832,31.250,0
214136.850,39.062,37.109,48.828,32.715,37.598,0
214136.854,22.949,35.156,41.504,15.137,20.508,0
214136.858,1.465,30.273,32.715,-0.977,7.324,0
214136.874,18.555,30.273,31.250,8.789,26.367,0
214136.878,42.480,32.227,39.062,27.832,25.879,0
214136.882,30.762,31.250,35.645,24.902,7.812,0
214136.886,13.672,32.715,33.691,8.789,19.531,0
214136.890,22.461,35.156,36.621,14.160,31.738,0
214136.894,41.504,34.668,32.227,29.785,29.297,0
214136.898,38.086,30.762,22.461,29.297,24.414,0
214136.902,20.508,28.320,23.926,17.578,10.742,0
214136.906,19.531,26.855,32.227,14.160,10.742,0
214136.909,34.668,27.832,33.203,27.344,23.438,0
214136.913,39.551,32.227,31.738,37.109,27.344,0
214136.917,29.297,35.156,25.879,32.715,36.621,0
214136.906,24.902,40.039,20.996,27.832,38.574,0
214136.909,35.156,40.039,36.133,40.527,43.457,0
214136.913,43.457,32.715,47.363,45.898,54.688,0
214136.917,28.320,29.297,42.480,26.367,37.598,0
214136.921,17.090,32.227,40.039,13.184,24.902,0
214136.925,33.691,35.156,28.809,27.344,34.668,0
214136.929,56.152,37.598,30.273,50.293,38.086,0
214136.933,41.992,32.715,36.133,42.969,32.227,0
214136.937,20.996,32.227,32.715,26.367,40.527,0
214136.941,27.344,37.598,43.945,30.273,54.199,0
214136.945,41.504,32.227,45.898,40.039,40.039,0
214136.949,44.434,28.809,26.367,41.504,26.855,0
214136.966,24.902,29.297,24.902,30.273,17.090,0
214136.970,16.113,30.762,35.156,19.531,12.207,0
214136.974,32.715,34.180,32.227,30.273,33.203,0
214136.978,44.434,37.598,25.391,46.875,28.320,0
214136.981,30.273,36.133,26.367,36.621,15.137,0
214136.985,13.184,30.273,33.203,15.137,35.156,0
214136.989,25.391,29.785,34.668,19.043,46.875,0
214136.993,50.293,33.691,36.621,38.086,41.992,0
214136.997,40.527,34.668,32.715,33.691,34.180,0
214137.001,20.020,34.668,22.461,23.438,42.480,0
214137.005,31.738,34.668,23.926,25.391,62.988,0
214137.009,50.293,35.156,34.668,34.180,57.617,0
214137.009,41.016,36.621,28.320,29.785,33.691,0
214137.013,26.367,41.016,28.320,18.555,38.086,0
214137.017,27.832,42.969,31.738,19.043,54.688,0
214137.021,32.715,34.668,32.715,30.273,41.504,0
214137.025,30.273,33.203,35.156,34.668,30.762,0
214137.029,15.137,35.645,37.109,18.555,28.320,0
214137.033,8.789,34.668,43.457,9.277,24.414,0
214137.037,21.973,36.133,48.340,23.926,24.902,0
214137.041,40.527,41.504,48.340,41.992,21.484,0
214137.045,26.367,40.039,34.668,27.344,21.484,0
214137.048,11.230,34.668,26.367,11.719,34.180,0
214137.052,30.273,34.180,22.461,24.414,46.875,0
214137.054,49.316,36.133,19.043,41.504,41.992,0
214137.058,41.992,40.039,23.926,41.992,30.273,0
214137.062,23.926,35.645,22.949,23.438,28.809,0
214137.066,24.414,31.738,25.879,11.230,37.109,0
214137.070,41.504,32.227,41.992,18.066,39.551,0
214137.074,45.898,32.715,42.969,29.785,36.621,0
214137.078,39.062,38.574,35.156,27.344,45.410,0
214137.082,32.227,39.551,35.156,14.160,47.852,0
214137.086,39.062,32.227,34.668,21.973,54.688,0
214137.090,46.875,33.203,37.109,41.016,73.242,0
214137.093,27.832,36.133,26.367,27.344,47.852,0
214137.097,18.066,37.598,12.695,16.602,42.480,0
214137.099,31.250,37.109,21.973,26.367,51.270,0
214137.103,41.992,33.691,47.363,33.691,22.461,0
214137.107,35.645,37.109,52.246,27.832,23.438,0
214137.111,26.367,41.504,46.387,14.160,35.645,0
214137.115,35.156,37.598,36.621,15.137,30.273,0
214137.119,47.852,32.227,34.668,25.391,26.367,0
214137.123,50.293,43.457,44.434,34.180,31.738,0
214137.127,34.668,46.875,38.086,22.949,35.645,0
214137.131,23.926,34.668,28.320,7.324,24.902,0
214137.135,38.574,32.227,32.715,19.043,23.438,0
214137.138,41.016,34.668,33.691,23.926,16.602,0
214137.142,21.484,35.645,28.320,6.348,17.090,0
214137.144,18.555,36.133,31.738,0.488,38.086,0
214137.148,39.551,41.016,42.480,16.602,41.016,0
214137.152,48.340,43.945,33.203,27.832,30.762,0
214137.156,35.645,41.992,17.090,20.996,37.109,0
214137.160,26.367,41.504,23.438,18.555,45.898,0
214137.164,32.227,40.527,39.551,22.949,41.992,0
214137.168,48.340,40.039,35.156,33.691,33.203,0
214137.172,41.504,41.016,18.555,31.738,32.227,0
214137.176,22.949,38.574,19.531,12.207,36.621,0
214137.180,30.762,38.574,33.203,16.602,47.852,0
214137.183,47.852,41.992,37.109,32.227,41.016,0
214137.187,36.621,41.016,37.109,31.250,34.180,0
214137.191,16.602,37.109,30.762,17.578,44.434,0
214137.194,26.855,41.504,22.949,22.949,28.809,0
214137.198,45.410,46.387,34.180,39.551,19.043,0
214137.202,39.062,40.039,50.781,28.320,28.809,0
214137.206,22.949,38.086,48.340,11.719,38.086,0
214137.210,23.926,39.062,39.062,13.672,33.203,0
214137.214,36.133,34.180,30.273,25.391,28.320,0
214137.218,36.621,31.250,28.809,29.297,20.996,0
214137.222,19.043,27.344,30.762,13.184,3.418,0
214137.226,7.812,25.879,28.809,3.418,8.301,0
214137.230,21.484,33.203,32.715,16.113,21.484,0
214137.234,35.645,34.180,33.203,32.715,22.949,0
214137.234,26.855,31.738,22.461,32.715,21.484,0
214137.238,19.043,32.715,15.625,20.508,35.156,0
214137.242,27.832,34.180,22.461,18.066,48.340,0
214137.246,41.016,33.691,38.086,27.344,38.574,0
214137.250,36.621,37.109,38.574,27.344,29.297,0
214137.254,20.508,43.945,30.762,15.137,33.203,0
214137.258,17.578,40.527,38.086,9.277,35.645,0
214137.262,32.227,35.156,32.227,22.949,37.109,0
214137.266,39.062,38.086,20.508,34.180,31.738,0
214137.269,23.438,36.621,23.438,19.531,27.344,0
214137.273,20.996,34.668,27.344,12.207,43.457,0
214137.277,42.480,38.086,35.645,28.809,58.105,0
214137.294,52.246,36.133,37.598,40.527,50.781,0
214137.298,40.527,40.039,39.551,41.992,45.410,0
214137.302,22.949,37.109,34.668,31.738,42.480,0
214137.306,27.344,27.344,26.855,32.227,45.410,0
214137.310,50.293,32.227,24.414,52.734,58.105,0
214137.314,41.504,34.180,23.926,51.758,48.828,0
214137.318,21.484,32.715,28.320,29.297,38.086,0
214137.322,29.297,34.668,39.551,21.484,43.457,0
214137.326,49.805,36.133,37.598,40.527,51.758,0
214137.330,48.340,37.109,36.621,42.969,45.410,0
214137.333,30.762,39.551,39.551,26.855,36.621,0
214137.337,24.414,38.574,22.949,21.484,37.598,0
214137.339,30.762,32.715,20.996,26.855,32.715,0
214137.343,39.062,35.645,35.645,37.109,26.855,0
214137.347,22.949,37.598,40.527,29.297,30.762,0
214137.351,8.301,33.691,35.645,12.695,36.621,0
214137.355,26.855,33.203,29.297,22.461,46.387,0
214137.359,45.410,33.691,33.203,41.504,47.363,0
214137.363,31.738,36.133,35.645,32.227,38.086,0
214137.367,16.602,35.156,24.414,19.043,42.969,0
214137.371,24.902,28.809,23.926,18.066,45.410,0
214137.374,35.645,27.344,35.645,23.438,33.203,0
214137.378,27.832,25.879,39.551,24.902,27.344,0
214137.382,13.184,21.973,40.527,15.137,57.617,0
214137.384,20.508,24.902,40.527,17.090,54.199,0
214137.388,39.551,26.855,28.320,32.227,11.230,0
214137.392,42.969,30.273,30.273,37.109,15.625,0
214137.396,35.645,38.086,46.387,23.438,29.297,0
214137.400,28.809,35.156,40.039,11.719,27.344,0
214137.404,39.062,27.344,37.598,21.484,21.973,0
214137.408,47.363,24.414,40.527,31.738,17.090,0
214137.412,25.879,25.879,35.645,22.949,17.578,0
214137.416,12.695,27.344,37.598,13.184,30.273,0
214137.420,28.320,27.832,42.480,19.043,44.922,0
214137.423,45.410,31.738,43.945,37.109,44.434,0
214137.427,34.668,38.086,40.527,36.621,33.691,0
214137.430,13.184,34.180,33.203,22.461,23.926,0
214137.434,24.902,32.715,29.785,29.297,23.926,0
214137.438,46.387,39.062,35.645,44.922,28.320,0
214137.442,40.039,39.551,41.504,41.992,29.297,0
214137.446,17.090,33.691,37.598,20.508,27.832,0
214137.449,13.672,27.344,26.855,9.277,29.297,0
214137.453,32.715,27.344,23.926,22.461,40.039,0
214137.457,34.180,28.320,37.109,27.344,35.645,0
214137.461,15.625,27.832,36.621,7.324,32.715,0
214137.465,11.719,31.250,36.133,0.488,52.246,0
214137.469,29.785,34.668,44.922,14.648,49.805,0
214137.473,42.969,38.574,41.016,26.367,16.602,0
214137.474,27.832,37.598,36.621,22.949,14.160,0
214137.478,20.508,41.016,35.156,16.113,41.016,0
214137.482,38.086,40.527,33.691,26.855,56.152,0
214137.486,48.828,33.203,36.133,40.039,38.574,0
214137.490,37.109,34.180,28.320,35.645,21.484,0
214137.494,23.926,34.668,28.320,24.902,19.531,0
214137.498,26.367,30.762,38.086,24.902,11.719,0
214137.502,43.945,33.203,35.645,32.715,20.996,0
214137.506,40.527,33.691,33.691,30.273,26.855,0
214137.510,17.090,32.227,31.738,14.648,33.691,0
214137.513,20.020,35.645,40.527,9.766,43.457,0
214137.517,38.086,36.621,52.246,29.297,50.781,0
214137.519,41.992,38.574,42.969,43.457,44.922,0
214137.523,24.414,38.574,11.230,25.391,20.020,0
214137.527,13.672,34.180,-7.324,10.742,18.555,0
214137.531,27.344,29.785,24.902,20.996,24.414,0
214137.535,38.574,29.297,55.176,28.320,23.926,0
214137.539,29.297,32.227,55.176,23.926,29.785,0
214137.543,21.973,36.621,45.410,15.625,44.434,0
214137.547,36.133,37.598,42.969,21.484,51.270,0
214137.551,50.781,36.133,43.945,32.715,44.434,0
214137.555,42.969,32.715,32.715,26.855,33.691,0
214137.558,33.203,37.109,20.508,19.043,32.715,0
214137.562,32.227,37.598,23.926,20.020,34.668,0
214137.564,39.551,30.273,30.273,31.738,34.180,0
214137.568,35.156,27.832,27.344,34.180,33.203,0
214137.572,12.695,28.320,23.926,18.555,31.738,0
214137.576,14.160,31.250,27.344,16.113,49.316,0
214137.580,40.527,38.574,41.016,36.133,68.359,0
214137.584,42.480,39.062,32.227,42.480,48.828,0
214137.588,18.066,32.227,27.344,22.949,29.297,0
214137.592,12.207,28.320,23.926,12.695,34.668,0
214137.596,27.832,26.367,7.812,21.973,35.645,0
214137.599,39.551,28.320,25.879,28.809,26.367,0
214137.603,32.715,32.227,42.969,24.902,25.879,0
214137.607,21.484,36.133,40.039,11.719,40.039,0
214137.609,24.902,37.109,36.621,15.625,35.645,0
214137.613,45.898,35.645,34.668,37.109,31.738,0
214137.617,43.457,36.621,40.527,35.645,27.344,0
214137.621,19.043,38.574,48.828,17.090,15.137,0
214137.625,21.484,41.504,41.016,19.531,27.832,0
214137.629,34.668,33.203,28.320,27.832,23.926,0
214137.633,33.203,31.250,33.691,27.344,8.301,0
214137.637,18.555,38.574,38.086,17.090,21.484,0
214137.641,14.648,38.086,24.414,11.719,39.551,0
214137.645,36.621,40.039,20.508,27.832,59.570,0
214137.648,54.688,41.016,28.320,40.527,57.129,0
214137.652,40.039,38.086,34.180,32.227,42.480,0
214137.656,22.949,37.109,47.852,21.484,40.527,0
214137.660,29.297,32.715,40.039,20.508,35.645,0
214137.664,43.457,30.762,21.484,32.227,37.598,0
214137.667,37.598,33.691,25.391,36.621,39.062,0
214137.671,21.973,34.180,37.598,23.438,30.762,0
214137.675,26.367,35.156,40.039,26.367,35.156,0
214137.679,42.969,35.645,33.691,37.598,53.711,0
214137.683,39.551,34.180,34.180,34.180,35.645,0
214137.687,19.531,33.691,39.062,14.648,13.672,0
214137.691,17.090,32.715,47.852,4.395,24.414,0
214137.695,35.156,36.621,41.992,22.461,29.297,0
214137.699,33.691,36.133,32.227,25.391,12.207,0
214137.714,17.578,31.738,33.203,12.207,15.625,0
214137.718,15.137,31.738,38.574,8.301,36.621,0
214137.722,28.809,33.691,32.227,24.414,44.434,0
214137.726,40.039,35.645,15.137,37.109,33.203,0
214137.730,29.785,38.086,30.762,36.133,30.762,0
214137.734,20.508,36.621,42.969,23.926,34.180,0
214137.738,30.762,37.109,26.855,24.902,22.949,0
214137.742,43.945,36.133,26.855,40.039,15.625,0
214137.746,28.809,30.762,31.738,31.250,9.277,0
214137.750,7.812,30.762,26.367,15.625,18.555,0
214137.753,13.184,27.832,20.508,19.531,27.832,0
214137.757,32.227,27.344,28.809,33.691,30.273,0
214137.759,28.809,30.273,31.738,33.691,33.203,0
214137.763,12.695,30.762,31.738,21.484,24.414,0
214137.767,16.113,30.273,39.551,19.531,26.367,0
214137.771,34.180,33.691,45.898,34.668,36.621,0
214137.775,40.039,36.133,45.410,41.016,29.785,0
214137.779,23.926,33.203,37.598,28.809,19.043,0
214137.783,17.578,33.203,37.109,20.996,15.625,0
214137.787,33.691,35.156,37.598,31.738,22.949,0
214137.791,41.504,35.156,32.715,41.504,23.438,0
214137.795,29.297,40.039,31.738,33.203,22.461,0
214137.798,19.043,41.504,30.273,24.414,35.645,0
214137.802,23.438,34.668,19.531,21.973,32.715,0
214137.805,42.969,35.645,28.809,39.062,24.902,0
214137.809,39.551,35.156,39.551,36.133,18.066,0
214137.812,17.578,33.691,32.715,8.789,12.207,0
214137.816,22.461,36.133,33.203,13.184,24.902,0
214137.820,47.363,38.574,31.738,33.691,33.203,0
214137.824,45.410,37.109,27.832,32.227,26.367,0
214137.828,20.020,36.133,25.391,16.113,26.855,0
214137.832,17.578,35.156,16.113,13.184,44.434,0
214137.836,32.227,35.156,26.855,20.020,43.945,0
214137.840,34.668,32.227,53.223,21.484,28.809,0
214137.844,23.438,33.691,51.270,13.184,37.109,0
214137.848,16.602,41.016,38.086,7.812,32.227,0
214137.850,24.414,38.574,32.227,14.648,15.625,0
214137.854,34.180,34.180,29.785,25.879,16.602,0
214137.858,27.344,31.738,27.344,26.855,27.344,0
214137.862,22.949,31.738,28.320,20.508,46.875,0
214137.865,25.391,39.062,25.879,9.766,41.016,0
214137.869,37.598,47.852,24.414,17.578,29.297,0
214137.873,39.062,49.316,28.809,23.926,21.484,0
214137.877,15.625,43.945,27.832,6.836,9.277,0
214137.881,8.789,38.086,29.785,4.395,12.207,0
214137.885,26.855,30.762,28.809,21.973,17.090,0
214137.889,33.203,29.785,20.996,31.250,9.766,0
214137.893,14.160,31.250,22.949,18.066,8.301,0
214137.895,10.742,30.762,28.809,13.184,24.414,0
214137.899,32.227,32.227,32.227,28.809,40.527,0
214137.903,39.551,33.203,35.645,32.715,31.738,0
214137.906,22.949,32.715,36.621,20.996,26.367,0
214137.910,9.766,31.250,26.855,9.277,33.203,0
214137.914,22.949,30.762,18.066,18.555,38.574,0
214137.918,39.062,30.273,13.184,38.086,44.434,0
214137.922,26.367,30.273,10.742,27.832,37.598,0
214137.926,10.254,32.715,21.484,7.812,30.273,0
214137.930,22.461,34.668,37.109,12.207,40.039,0
214137.934,41.992,32.715,38.574,27.832,46.387,0
214137.938,40.527,30.762,33.203,31.250,29.785,0
214137.939,22.461,31.250,41.504,13.184,22.461,0
214137.943,19.531,32.715,38.086,2.930,31.738,0
214137.947,37.109,30.273,35.645,16.113,38.086,0
214137.951,43.945,31.738,38.086,28.809,33.203,0
214137.955,28.320,36.621,35.645,21.973,28.320,0
214137.959,20.508,33.691,29.297,13.184,24.902,0
214137.963,36.133,31.250,26.855,22.461,25.391,0
214137.967,47.852,32.715,28.809,34.668,25.879,0
214137.970,29.297,32.715,20.020,28.320,7.324,0
214137.974,15.137,32.715,25.879,17.090,5.371,0
214137.978,27.832,33.691,36.621,24.414,17.578,0
214137.982,42.480,31.738,31.738,38.574,17.090,0
214137.984,35.645,30.273,26.367,34.668,6.836,0
214137.988,19.531,33.203,22.461,20.020,8.789,0
214137.992,16.113,31.738,19.043,11.719,16.602,0
214137.996,32.227,34.180,22.949,23.926,16.113,0
214138.000,38.574,39.551,33.691,32.715,8.789,0
214138.004,20.508,34.668,25.879,17.090,16.113,0
214138.008,15.137,32.227,21.973,7.812,34.180,0
214138.011,35.156,34.180,33.203,23.926,26.855,0
214138.015,44.434,31.738,34.668,33.691,0.488,0
214138.019,24.414,30.762,33.203,20.996,-1.465,0
214138.023,15.625,33.203,31.250,14.160,19.043,0
214138.027,29.297,33.203,33.203,20.020,29.785,0
214138.044,40.527,34.668,36.621,32.227,41.016,0
214138.048,33.203,35.645,34.180,30.273,45.410,0
214138.052,14.648,30.762,25.391,11.719,21.484,0
214138.056,22.461,30.762,35.645,17.090,10.254,0
214138.060,45.410,34.668,43.945,36.621,14.160,0
214138.064,44.434,36.621,36.621,33.691,28.809,0
214138.067,25.879,39.551,33.203,15.625,50.781,0
214138.071,29.785,40.039,32.227,15.137,38.086,0
214138.075,48.828,36.133,28.320,35.156,19.043,0
214138.079,48.828,37.598,26.855,36.133,17.578,0
214138.083,29.785,38.574,28.809,23.926,22.461,0
214138.087,22.461,35.156,25.879,24.414,33.203,0
214138.089,38.086,35.156,28.809,35.645,43.457,0
214138.093,41.016,35.645,31.738,38.574,45.898,0
214138.097,25.879,37.598,36.133,29.297,40.527,0
214138.101,24.414,39.551,47.363,20.020,43.945,0
214138.105,33.203,36.621,44.434,24.902,41.504,0
214138.109,38.086,33.691,30.273,37.109,38.086,0
214138.112,29.785,36.133,19.531,28.320,35.156,0
214138.116,18.066,36.621,25.391,12.695,30.273,0
214138.120,28.809,34.180,33.691,17.090,38.086,0
214138.124,45.898,32.715,26.855,30.762,36.133,0
214138.128,37.109,35.645,25.391,29.785,21.973,0
214138.132,22.949,36.133,38.086,20.020,29.785,0
214138.134,27.832,33.691,38.086,16.113,38.574,0
214138.138,43.945,34.668,39.062,26.367,44.922,0
214138.142,42.969,35.645,42.969,31.250,33.691,0
214138.146,23.926,34.180,39.062,22.949,18.555,0
214138.150,15.137,32.227,32.227,14.648,32.715,0
214138.154,26.855,34.180,30.762,24.902,49.316,0
214138.158,39.551,34.180,31.250,35.645,32.715,1
214138.161,21.973,34.668,35.156,19.531,25.879,0
214138.165,9.766,36.621,31.250,5.371,44.434,0
214138.169,27.832,38.574,30.762,12.207,43.945,0
214138.173,50.293,39.551,41.504,31.250,24.414,0
214138.177,41.016,39.062,42.969,34.180,21.484,0
214138.181,21.484,36.133,31.250,21.973,39.551,0
214138.185,30.762,34.180,24.414,23.926,53.223,0
214138.188,50.293,35.156,36.621,39.551,43.457,0
214138.192,45.410,37.598,29.297,38.574,33.691,0
214138.196,24.414,41.016,23.926,20.508,36.621,0
214138.200,20.508,38.086,34.668,16.602,38.574,0
214138.204,37.598,33.691,31.250,30.273,41.504,0
214138.208,39.551,35.156,27.832,35.156,37.598,0
214138.212,21.484,35.645,28.320,20.020,38.574,0
214138.216,18.066,35.645,23.926,11.230,54.688,0
214138.220,32.227,35.156,25.391,20.996,51.758,0
214138.224,41.992,34.668,26.855,30.273,13.672,0
214138.225,31.250,34.668,21.484,22.949,2.930,0
214138.229,18.555,33.691,22.949,14.160,22.949,0
214138.233,31.738,37.109,34.180,22.461,39.062,0
214138.237,51.270,39.551,39.062,38.574,37.598,0
214138.241,45.410,37.109,30.273,34.180,37.598,0
214138.245,31.738,38.086,33.691,24.414,43.945,0
214138.249,36.133,38.086,41.992,24.414,43.945,0
214138.253,54.688,37.109,30.762,36.133,56.152,0
214138.256,60.059,42.480,33.203,49.316,61.523,0
214138.260,36.133,42.969,38.086,36.621,49.805,0
214138.264,25.391,38.574,25.391,21.484,54.199,0
214138.268,38.574,34.180,24.902,31.738,49.805,0
214138.269,38.086,30.762,39.551,35.645,28.809,0
214138.273,20.020,33.203,37.598,23.438,28.809,0
214138.277,7.324,31.738,34.180,13.184,29.785,0
214138.281,19.531,29.297,36.133,20.996,30.762,0
214138.285,34.180,28.809,38.574,30.273,27.832,0
214138.289,23.926,30.762,37.109,22.949,20.508,0
214138.293,12.695,33.203,39.551,16.602,24.902,0
214138.297,24.902,35.156,41.992,23.926,35.645,0
214138.300,44.434,37.598,40.039,39.551,40.527,0
214138.304,40.039,39.551,32.227,40.039,36.133,0
214138.308,21.484,41.504,18.555,22.949,30.762,0
214138.312,20.508,37.598,22.461,20.996,37.109,0
214138.314,37.598,33.203,33.203,34.180,44.434,0
214138.318,39.062,31.738,42.480,34.668,33.203,0
214138.322,16.113,31.250,44.922,22.461,27.832,0
214138.326,9.766,29.785,40.527,16.113,28.320,0
214138.330,33.203,25.391,34.180,25.391,30.762,0
214138.334,42.969,31.738,28.320,29.297,28.320,0
214138.338,23.926,41.504,28.809,18.555,32.715,0
214138.342,15.625,35.156,28.809,12.207,43.457,0
214138.346,29.297,32.715,28.320,24.902,50.781,0
214138.350,38.574,32.715,21.973,33.691,52.734,0
214138.354,28.320,31.738,21.973,22.949,38.086,0
214138.357,14.648,34.668,29.297,12.695,20.508,0
214138.360,24.414,35.156,34.668,22.461,26.855,0
214138.363,47.852,36.133,39.062,40.039,38.574,0
214138.367,39.551,35.156,24.902,35.645,34.180,0
214138.371,13.184,31.250,19.043,17.578,23.438,0
214138.375,15.625,32.227,33.203,17.090,40.039,0
214138.379,37.109,32.227,31.738,35.645,54.688,0
214138.383,36.621,27.344,24.414,33.203,35.645,0
214138.387,15.625,26.367,22.461,14.648,24.902,0
214138.391,13.672,30.762,0.488,11.230,30.273,0
214138.395,31.250,30.273,8.789,22.949,29.785,0
214138.399,36.621,23.926,34.180,30.273,15.137,0
214138.403,20.508,23.438,39.062,18.066,12.695,0
214138.406,5.859,22.461,39.062,-0.488,17.090,0
214138.410,17.090,24.414,38.574,4.395,29.297,0
214138.414,36.621,30.762,40.039,22.949,36.621,0
214138.418,23.438,27.832,37.109,20.996,28.320,0
214138.421,6.348,26.367,27.832,10.742,27.832,0
214138.425,13.672,30.762,22.949,13.672,19.043,0
214138.429,31.738,32.715,21.973,26.855,15.137,0
214138.433,34.180,33.691,19.043,34.180,26.367,0
214138.437,20.996,37.598,18.066,26.855,36.133,0
214138.441,23.438,36.621,27.344,25.879,49.805,0
214138.445,38.086,33.203,32.227,37.109,46.875,0
214138.449,40.527,32.227,31.738,37.109,38.574,0
214138.465,26.367,35.156,31.250,21.973,37.109,0
214138.468,18.066,39.551,25.879,15.137,36.133,0
214138.472,35.156,41.992,28.809,34.180,37.598,0
214138.476,48.828,39.551,32.227,43.457,34.668,0
214138.480,27.832,38.086,24.414,23.438,29.297,0
214138.484,18.555,37.109,24.902,11.230,41.504,0
214138.488,37.598,35.156,32.715,18.066,43.457,0
214138.492,51.758,35.645,33.691,33.691,30.273,0
214138.496,40.527,34.180,25.879,31.250,25.879,0
214138.500,23.438,35.156,16.602,20.508,24.414,0
214138.504,25.879,36.133,21.973,24.414,27.832,0
214138.508,41.016,33.203,34.180,36.133,34.668,0
214138.509,40.039,29.785,41.504,40.039,34.668,0
214138.513,20.996,32.227,25.879,26.367,31.250,0
214138.517,22.949,37.109,15.137,22.461,41.504,0
214138.521,43.457,36.621,39.551,39.062,46.387,0
214138.525,45.410,31.738,46.387,43.457,27.832,0
214138.529,28.809,29.297,43.457,28.320,25.879,0
214138.533,20.508,30.762,41.504,18.555,30.762,0
214138.537,29.785,30.273,34.180,26.367,27.344,0
214138.541,41.992,32.715,33.203,37.598,25.879,0
214138.545,32.227,36.133,39.551,30.273,28.809,0
214138.548,18.555,37.598,33.691,21.484,38.574,0
214138.552,27.344,35.156,26.367,25.879,35.645,0
214138.554,42.480,32.227,39.062,32.227,22.461,0
214138.558,39.062,34.180,50.293,27.832,16.602,0
214138.562,20.996,33.691,42.969,11.719,15.137,0
214138.566,20.508,31.250,28.320,8.301,23.438,0
214138.570,37.598,31.738,25.879,24.902,27.344,0
214138.574,38.574,32.227,31.250,29.785,31.250,0
214138.578,24.414,31.738,29.785,15.625,36.133,0
214138.582,25.391,31.738,26.855,13.184,36.621,0
214138.586,41.992,29.785,24.414,27.832,44.434,0
214138.590,41.992,27.344,18.066,36.621,39.062,0
214138.594,26.367,30.273,22.949,27.344,39.062,0
214138.597,21.973,34.180,27.832,22.949,51.758,0
214138.600,30.762,30.273,27.832,30.273,55.176,0
214138.604,41.992,26.367,28.809,34.668,43.945,0
214138.608,34.668,31.250,28.809,28.809,43.945,0
214138.612,18.066,34.668,28.809,15.625,42.480,0
214138.616,21.484,32.715,31.250,12.695,28.320,0
214138.620,36.133,29.785,25.391,23.926,16.113,0
214138.624,34.180,28.809,16.602,27.832,5.859,0
214138.628,16.602,33.203,12.207,14.160,14.160,0
214138.632,19.043,32.715,22.461,13.184,30.273,0
214138.635,44.434,35.156,40.527,34.180,35.645,0
214138.639,46.387,36.621,34.668,41.016,31.738,0
214138.643,21.484,29.297,17.578,18.555,30.273,0
214138.646,13.184,28.320,20.996,6.348,32.715,0
214138.650,30.762,31.250,38.086,20.996,27.832,0
214138.654,44.922,32.227,42.969,35.156,19.531,0
214138.658,30.762,32.715,41.992,29.785,20.508,0
214138.662,17.578,33.203,39.551,17.578,25.879,0
214138.666,29.785,37.109,38.574,30.273,38.086,0
214138.670,46.387,37.109,36.621,45.898,42.969,0
214138.674,40.527,36.621,30.762,41.016,35.156,0
214138.678,24.414,35.645,29.785,26.855,39.551,0
214138.681,25.879,29.297,37.598,20.996,47.852,0
214138.685,40.527,26.855,41.504,33.203,34.180,0
214138.689,39.551,23.438,37.109,37.109,20.508,0
214138.689,25.879,27.832,32.227,23.438,35.645,0
214138.693,25.391,34.180,35.156,20.996,34.668,0
214138.697,43.457,32.715,34.180,38.086,34.180,0
214138.701,51.270,35.156,26.855,42.480,37.109,0
214138.705,33.203,41.016,29.297,24.414,22.949,0
214138.709,29.297,41.992,37.598,16.602,37.109,0
214138.713,46.875,39.551,26.855,23.438,46.875,0
214138.717,44.434,32.715,13.672,23.926,21.973,0
214138.721,23.438,29.297,25.391,14.160,9.277,0
214138.725,13.672,35.156,35.156,10.742,21.973,0
214138.728,24.902,36.133,28.809,20.996,26.367,0
214138.732,43.945,34.668,29.297,33.691,22.461,0
214138.734,40.039,38.574,37.109,36.133,26.367,0
214138.738,20.508,37.598,37.109,24.414,33.203,0
214138.742,18.555,34.180,36.621,20.996,42.969,0
214138.746,32.715,33.691,32.715,31.738,46.387,0
214138.750,37.109,33.691,29.297,36.621,23.438,0
214138.754,26.367,34.180,37.598,25.391,16.113,0
214138.758,24.902,34.180,37.598,19.043,33.203,0
214138.762,40.527,31.738,31.738,31.738,33.691,0
214138.766,48.828,31.250,26.855,40.527,25.879,0
214138.770,32.715,34.668,25.879,26.367,38.574,0
214138.774,23.438,41.016,32.715,13.672,52.246,0
214138.777,44.434,42.480,40.039,29.785,57.129,0
214138.794,55.176,36.621,37.598,43.457,47.852,0
214138.798,39.062,34.180,30.273,27.832,26.367,0
214138.802,22.461,36.621,32.715,14.648,26.855,0
214138.806,25.879,33.691,31.250,18.555,28.809,0
214138.810,39.062,31.738,20.020,34.180,17.578,0
214138.814,33.691,35.156,8.301,37.598,24.414,0
214138.818,13.184,32.227,13.672,20.020,20.996,0
214138.822,14.160,26.367,29.785,15.625,17.578,0
214138.826,37.109,26.855,42.969,30.273,38.086,0
214138.829,34.668,31.250,47.852,29.785,30.762,0
214138.833,14.648,36.133,49.805,16.113,12.207,0
214138.837,17.578,37.598,49.316,18.555,25.391,0
214138.839,34.180,34.180,33.203,28.320,41.504,0
214138.843,42.480,31.250,21.973,32.715,39.551,0
214138.847,26.367,30.273,28.809,25.391,32.715,0
214138.851,14.160,29.297,33.691,17.578,34.180,0
214138.855,27.832,29.297,35.156,25.879,31.250,0
214138.859,43.457,31.738,35.645,38.086,28.320,0
214138.863,30.762,33.691,26.367,34.180,19.043,0
214138.867,13.672,38.574,24.902,21.973,19.531,0
214138.871,22.949,38.086,28.320,26.367,38.574,0
214138.874,39.062,33.691,27.832,36.133,41.016,0
214138.878,34.668,35.645,35.156,33.691,31.250,0
214138.882,18.066,35.156,29.785,24.902,35.156,0
214138.884,19.531,36.621,18.555,25.391,48.828,0
214138.888,36.133,37.109,27.832,34.180,38.574,0
214138.892,32.227,34.180,35.156,28.320,12.695,0
214138.896,14.160,33.691,30.762,16.113,12.695,0
214138.900,17.578,38.086,32.227,14.648,35.645,0
214138.904,30.273,35.156,32.227,21.973,36.133,0
214138.908,38.574,32.227,28.320,35.156,31.738,0
214138.912,23.926,37.109,15.137,27.832,38.086,0
214138.916,13.184,38.086,7.324,12.695,34.180,0
214138.919,27.344,33.691,17.578,20.996,30.273,0
214138.923,41.016,32.227,36.133,36.133,25.391,0
214138.927,37.109,41.016,51.270,35.156,23.438,0
214138.929,17.090,41.016,55.664,18.555,14.160,0
214138.933,16.113,33.691,46.875,11.230,14.648,0
214138.937,33.203,31.738,38.086,26.367,16.602,0
214138.941,28.809,28.320,39.062,27.344,9.766,0
214138.945,10.254,27.344,42.480,14.160,27.344,0
214138.949,14.160,28.809,33.691,17.578,46.875,0
214138.953,36.133,29.297,23.438,35.645,44.922,0
214138.957,40.527,33.691,20.020,39.062,34.668,0
214138.961,23.438,38.574,26.855,22.949,30.762,0
214138.965,15.625,38.086,40.527,12.207,37.598,0
214138.969,24.902,36.621,44.434,18.066,37.109,0
214138.972,40.527,40.527,43.945,33.203,45.898,0
214138.974,32.227,39.551,41.992,23.926,61.523,0
214138.978,13.184,33.691,30.273,9.766,51.758,0
214138.982,21.484,34.180,23.926,18.555,39.062,0
214138.986,35.645,36.621,23.438,31.738,30.762,0
214138.990,26.367,34.180,21.484,24.902,14.648,0
214138.994,9.277,31.738,24.902,13.672,12.695,0
214138.998,17.090,35.645,22.461,13.184,30.762,0
214139.002,41.016,40.039,17.090,27.344,44.434,0
214139.006,42.480,39.062,23.926,35.645,26.855,0
214139.010,24.414,40.039,46.875,22.461,15.137,0
214139.013,16.113,36.133,50.293,11.719,35.156,0
214139.017,25.879,32.227,45.410,21.484,31.738,0
214139.019,30.273,31.738,38.086,26.367,3.906,0
214139.023,14.648,33.691,31.250,12.695,6.836,0
214139.027,4.395,32.227,33.691,5.371,2.930,0
214139.031,18.066,30.762,36.621,17.090,3.906,0
214139.035,39.062,38.086,33.203,32.715,23.926,0
214139.039,35.645,41.992,19.043,32.715,32.227,0
214139.043,17.578,37.598,21.973,19.531,39.551,0
214139.047,23.926,32.227,39.551,15.137,52.246,0
214139.051,41.992,32.227,46.875,29.297,46.387,0
214139.055,30.762,32.227,41.016,27.832,25.391,0
214139.059,12.695,31.250,35.156,10.742,20.996,0
214139.062,14.648,30.273,33.203,7.812,21.484,0
214139.065,32.715,31.738,33.691,21.973,24.902,0
214139.069,39.551,38.574,41.504,31.250,28.320,0
214139.073,26.855,40.039,32.227,21.973,38.086,0
214139.077,22.461,36.133,10.254,17.578,52.246,0
214139.081,36.133,34.180,17.578,27.344,49.316,0
214139.085,43.945,37.109,34.668,36.133,35.645,0
214139.088,30.762,40.039,42.480,27.344,30.762,0
214139.092,21.484,38.574,42.480,14.648,33.691,0
214139.096,41.016,38.086,42.969,29.297,46.875,0
214139.100,53.223,35.156,38.086,43.945,49.805,0
214139.104,39.062,31.738,26.367,33.203,41.504,0
214139.108,28.320,33.203,30.762,22.949,50.781,0
214139.111,36.133,38.574,40.527,34.668,56.152,0
214139.115,49.316,41.504,32.227,51.758,53.223,0
214139.118,38.574,39.062,30.273,49.805,28.320,0
214139.122,17.090,37.598,35.645,29.785,15.625,0
214139.126,20.020,37.598,32.227,22.949,18.555,0
214139.130,38.574,37.109,38.086,42.969,6.836,0
214139.134,39.062,35.645,42.480,45.898,1.953,0
214139.138,22.461,34.668,37.598,31.250,6.836,0
214139.142,19.531,35.156,37.109,27.832,25.879,0
214139.146,38.086,38.086,35.156,36.621,44.922,0
214139.150,50.781,37.109,32.715,44.922,47.852,0
214139.154,36.621,34.180,33.203,37.109,39.062,0
214139.169,22.949,35.156,37.598,26.855,34.180,0
214139.173,36.621,33.691,43.457,30.273,49.316,0
214139.177,52.734,34.668,40.039,38.574,54.688,0
214139.181,37.598,36.621,28.809,30.273,35.645,0
214139.185,21.973,35.645,24.414,17.090,30.762,0
214139.189,31.738,36.621,31.250,20.996,49.316,0
214139.193,44.922,38.086,38.574,33.691,64.453,0
214139.197,36.133,34.180,44.922,33.691,39.062,0
214139.201,17.578,28.809,42.969,18.555,17.578,0
214139.205,23.926,31.738,40.039,20.508,36.133,0
214139.208,35.156,32.227,35.156,32.715,42.969,0
214139.212,40.527,37.109,32.227,39.062,39.062,0
214139.214,29.297,40.527,20.508,31.250,36.133,0
214139.218,12.695,34.668,10.254,18.066,20.996,0
214139.222,21.484,28.809,37.109,22.461,14.648,0
214139.226,30.762,26.855,52.734,33.691,26.367,0
214139.230,23.926,30.762,44.922,29.297,36.133,0
214139.234,13.184,31.250,35.645,13.672,27.832,0
214139.238,22.461,27.832,32.715,13.672,32.715,0
214139.242,41.016,30.273,32.715,28.320,37.109,0
214139.246,35.645,34.180,28.320,31.738,31.738,0
214139.250,19.043,34.180,28.320,23.926,29.785,0
214139.253,21.484,32.227,34.180,23.438,46.387,0
214139.257,41.016,30.762,30.762,36.133,62.012,0
214139.259,41.504,33.691,28.320,39.551,43.457,0
214139.263,23.438,37.598,18.555,28.320,41.992,0
214139.267,21.973,40.039,23.926,24.414,54.688,0
214139.271,36.133,38.574,45.410,31.250,41.504,0
214139.275,39.551,35.156,41.504,32.715,28.320,0
214139.279,23.926,35.156,34.668,20.508,21.484,0
214139.283,11.230,34.668,36.133,11.230,11.230,0
214139.287,26.855,33.691,37.109,20.996,26.367,0
214139.291,42.480,33.691,31.738,33.203,41.016,0
214139.295,27.832,34.668,22.461,27.344,25.879,0
214139.298,15.137,36.621,23.438,18.555,26.367,0
214139.302,26.855,36.621,30.762,27.344,41.992,0
214139.304,40.527,30.762,31.738,35.645,27.832,0
214139.308,26.855,24.902,31.250,23.926,0.488,0
214139.312,11.719,27.344,39.551,11.230,2.930,0
214139.316,18.555,26.855,39.062,10.254,19.531,0
214139.320,34.180,27.832,25.879,22.461,29.785,0
214139.324,38.574,32.715,26.855,30.273,32.227,0
214139.328,26.367,35.645,38.574,22.461,27.832,0
214139.332,22.949,36.133,42.480,14.648,38.086,0
214139.336,37.109,35.156,40.039,26.367,55.664,0
214139.340,45.410,34.668,38.574,39.062,47.852,0
214139.343,26.367,35.156,32.227,32.227,24.414,0
214139.347,11.719,37.598,24.902,22.949,21.484,0
214139.349,22.949,32.715,31.250,26.367,31.738,0
214139.353,42.969,34.180,36.621,37.109,41.016,0
214139.357,33.691,38.086,28.320,25.879,29.785,0
214139.361,15.137,35.156,25.879,10.254,21.484,0
214139.365,24.414,35.156,32.227,17.578,36.133,0
214139.369,41.992,36.621,32.715,33.203,39.062,0
214139.373,34.180,36.621,22.461,33.691,25.879,0
214139.377,12.695,37.598,16.113,20.996,20.020,0
214139.381,11.719,34.668,21.973,18.555,25.391,0
214139.385,31.738,32.227,34.668,34.668,26.855,0
214139.388,34.180,35.156,38.574,35.645,21.973,0
214139.392,16.602,36.621,36.621,16.113,25.879,0
214139.396,14.160,36.621,47.852,8.789,33.691,0
214139.399,30.273,36.621,43.457,21.973,33.691,0
214139.403,41.016,32.715,28.809,29.297,19.531,0
214139.407,27.344,30.273,26.367,13.184,13.184,0
214139.411,15.625,32.715,24.414,0.977,17.090,0
214139.415,27.344,37.109,24.902,12.207,13.672,0
214139.419,38.574,34.180,20.020,28.320,16.602,0
214139.423,29.785,32.715,20.020,17.090,19.531,0
214139.427,16.602,36.133,38.086,7.324,25.391,0
214139.431,22.461,31.250,43.457,15.625,37.109,0
214139.435,36.621,27.832,38.574,30.273,52.734,0
214139.438,31.250,27.832,38.086,32.227,25.391,0
214139.439,13.184,28.320,38.574,20.508,-6.348,0
214139.443,18.555,33.203,35.156,22.949,4.883,0
214139.447,38.574,37.598,33.691,35.645,21.973,0
214139.451,36.621,35.156,26.855,34.180,26.855,0
214139.455,18.555,29.297,24.902,20.020,25.391,0
214139.459,19.531,33.203,36.621,16.113,31.738,0
214139.463,38.086,37.109,39.551,30.273,45.898,0
214139.467,46.387,33.203,32.227,36.621,48.828,0
214139.471,28.809,32.715,32.227,24.414,26.367,0
214139.475,18.066,33.691,33.203,17.090,13.184,0
214139.478,32.227,37.598,40.039,27.344,19.043,0
214139.482,45.410,36.133,43.457,42.969,19.043,0
214139.485,35.156,32.715,36.133,38.574,23.926,0
214139.489,13.184,27.344,20.996,20.508,24.414,0
214139.493,19.531,30.762,25.391,25.879,31.250,0
214139.497,41.992,38.086,33.203,39.062,30.762,0
214139.501,37.109,35.156,29.785,33.203,14.160,0
214139.505,17.578,33.203,44.434,16.602,10.254,0
214139.509,18.555,34.668,43.945,10.254,31.738,0
214139.513,36.621,34.668,34.180,21.973,44.434,0
214139.517,41.992,33.691,35.645,31.738,34.668,0
214139.521,27.344,35.645,31.250,20.020,38.086,0
214139.525,22.949,37.598,28.320,10.742,44.922,0
214139.528,34.180,36.133,26.855,16.602,48.340,0
214139.545,44.434,37.109,18.555,29.785,43.945,0
214139.548,38.574,41.016,24.414,26.855,34.180,0
214139.552,17.090,37.598,31.250,10.742,25.391,0
214139.556,18.066,33.203,32.227,10.254,34.668,0
214139.560,33.691,32.227,33.691,21.973,39.062,0
214139.564,29.785,30.273,32.715,20.996,25.879,0
214139.568,13.184,32.227,33.691,10.254,24.902,0
214139.572,14.648,33.691,35.645,12.207,36.621,0
214139.576,35.645,30.762,28.320,24.414,39.551,0
214139.580,36.621,28.320,18.555,24.902,10.742,0
214139.584,19.531,30.762,22.461,10.254,10.742,0
214139.588,17.090,33.203,28.320,6.348,42.969,0
214139.589,38.574,35.645,37.109,27.344,37.598,0
214139.593,51.270,37.598,45.410,42.969,17.578,0
214139.597,33.203,34.180,33.691,23.926,22.461,0
214139.601,16.602,28.809,27.344,8.789,37.598,0
214139.605,29.297,28.320,32.227,23.438,52.246,0
214139.609,46.387,32.227,30.762,37.598,54.688,0
214139.613,38.086,33.203,28.809,31.738,36.133,0
214139.617,24.902,34.668,33.691,18.555,22.461,0
214139.621,31.738,36.133,42.480,26.367,39.062,0
214139.624,49.316,39.551,29.297,40.039,50.781,0
214139.628,41.992,39.062,12.695,34.180,34.180,0
214139.632,16.113,32.227,35.156,23.926,27.832,0
214139.636,19.531,29.785,43.945,20.996,35.156,0
214139.640,40.039,28.320,34.668,31.250,32.715,0
214139.644,43.457,31.250,38.086,40.527,15.625,0
214139.648,26.367,37.109,37.109,28.809,5.371,0
214139.652,21.484,35.156,44.434,20.996,24.902,0
214139.656,39.062,33.691,51.270,30.762,36.621,0
214139.659,44.922,34.180,44.922,41.992,29.785,0
214139.663,28.809,34.180,37.598,36.133,31.250,0
214139.667,14.648,31.738,29.297,20.508,39.062,0
214139.671,19.043,29.297,26.855,22.461,40.039,0
214139.675,35.156,31.250,35.156,38.086,32.227,0
214139.679,28.809,32.227,27.832,35.156,16.113,0
214139.679,13.184,31.738,27.832,19.043,14.160,0
214139.683,19.531,28.809,40.039,18.555,29.297,0
214139.687,35.156,28.809,40.527,28.320,36.621,0
214139.691,31.250,27.832,29.785,24.414,24.414,0
214139.695,15.625,27.344,31.250,11.230,25.391,0
214139.699,20.508,34.180,34.180,13.672,41.992,0
214139.703,38.086,34.180,29.785,29.785,28.320,0
214139.707,42.969,31.738,27.344,37.598,16.602,0
214139.711,27.832,33.691,20.508,21.973,20.020,0
214139.715,20.508,36.133,17.090,8.789,28.320,0
214139.719,35.645,36.133,29.297,19.043,36.133,0
214139.722,47.852,33.203,34.668,28.809,32.227,0
214139.724,31.250,35.156,37.109,20.508,33.203,0
214139.728,17.578,35.645,43.945,7.812,37.109,0
214139.732,29.297,32.227,41.016,11.719,31.738,0
214139.736,43.945,36.133,34.668,29.297,34.180,0
214139.740,30.273,35.156,28.320,25.879,32.227,0
214139.744,8.301,32.715,22.461,11.230,19.043,0
214139.748,13.184,35.645,19.531,11.719,6.348,0
214139.752,29.785,34.180,20.020,21.973,6.348,0
214139.756,30.762,32.227,23.438,26.367,10.254,0
214139.760,13.184,31.738,27.832,15.625,15.137,0
214139.764,9.766,34.180,31.250,14.160,40.527,0
214139.767,30.762,35.156,37.598,32.227,47.852,0
214139.769,36.133,35.156,41.992,36.621,16.602,0
214139.773,16.602,35.645,36.621,21.973,15.625,0
214139.777,11.719,33.203,32.715,16.602,39.551,0
214139.781,30.273,31.738,30.273,26.367,47.363,0
214139.785,43.945,34.180,34.668,37.109,47.852,0
214139.789,30.762,35.645,28.809,36.133,43.457,0
214139.793,20.020,39.062,19.043,28.320,46.387,0
214139.797,29.297,38.086,33.691,26.855,54.199,0
214139.801,37.109,30.273,42.969,32.227,40.039,0
214139.805,29.297,27.832,31.250,30.762,26.855,0
214139.809,13.184,32.227,29.297,19.043,23.438,0
214139.812,17.090,30.762,35.156,18.066,41.992,0
214139.814,40.039,31.250,39.551,33.691,37.598,0
214139.818,44.434,35.645,36.621,36.621,16.113,0
214139.822,28.809,37.598,34.180,23.438,31.738,0
214139.826,31.250,41.504,45.410,25.879,53.711,0
214139.830,48.340,41.992,46.875,39.551,45.410,0
214139.834,49.805,35.156,37.598,41.992,20.996,0
214139.838,35.156,34.180,26.855,26.855,11.719,0
214139.842,21.484,37.109,14.648,14.648,22.461,0
214139.846,31.250,34.180,19.531,23.438,39.062,0
214139.850,48.828,33.691,25.391,38.086,34.180,0
214139.853,37.109,37.598,40.039,33.203,26.855,0
214139.857,21.484,39.062,49.805,17.090,41.016,0
214139.861,31.738,39.062,44.922,20.020,52.734,0
214139.864,50.781,35.645,40.039,40.039,43.457,0
214139.868,43.945,33.203,29.785,40.039,31.738,0
214139.872,25.879,38.086,30.273,21.973,27.832,0
214139.876,28.809,37.109,31.250,19.043,39.062,0
214139.880,46.387,35.156,28.809,32.227,45.898,0
214139.884,47.852,36.621,30.762,35.156,33.203,0
214139.888,26.855,35.645,30.762,23.438,24.902,0
214139.892,24.902,34.668,33.691,20.996,36.133,0
214139.896,46.387,34.180,41.016,33.203,58.105,0
214139.900,54.199,33.203,36.621,43.457,41.992,0
214139.904,35.156,32.715,18.555,33.203,15.137,0
214139.919,20.996,31.738,17.090,16.113,27.832,0
214139.923,31.250,28.809,29.785,19.531,37.109,0
214139.927,52.246,32.715,29.297,42.480,42.480,0
214139.931,46.875,36.133,27.344,44.922,44.922,0
214139.935,26.367,29.785,36.133,26.855,43.945,0
214139.939,29.297,26.855,39.551,27.344,52.734,0
214139.943,47.363,31.250,39.551,38.086,51.270,0
214139.947,51.270,37.598,42.969,38.574,36.621,0
214139.951,29.785,35.156,43.945,27.832,33.203,0
214139.955,14.160,27.832,36.133,18.066,28.320,0
214139.959,29.785,28.809,31.250,32.227,30.273,0
214139.962,35.156,30.762,29.785,41.504,42.969,0
214139.966,18.066,29.785,35.156,26.367,37.109,0
214139.969,11.719,28.809,38.086,14.648,26.855,0
214139.973,24.902,29.297,31.738,20.996,31.738,0
214139.977,43.457,31.738,28.809,33.691,36.621,0
214139.981,37.598,33.203,25.879,28.809,27.344,0
214139.985,25.879,35.645,31.250,20.508,28.809,0
214139.989,38.086,34.180,35.645,27.832,36.133,0
214139.993,52.246,31.250,38.086,40.039,41.992,0
214139.997,40.527,32.227,32.715,36.621,41.992,0
214140.001,21.484,35.156,21.973,16.113,33.203,0
214140.005,26.367,39.062,25.391,11.230,37.109,0
214140.009,38.086,37.598,32.715,22.461,33.203,0
214140.010,32.715,35.156,30.762,22.461,21.973,0
214140.014,17.578,36.621,25.879,9.766,16.113,0
214140.018,17.090,36.621,27.344,6.836,23.438,0
214140.022,35.645,34.668,30.762,23.926,40.527,0
214140.026,43.457,34.668,27.344,32.227,39.062,0
214140.029,23.438,34.180,26.367,20.996,37.598,0
214140.033,14.160,35.645,22.461,12.207,42.969,0
214140.037,28.809,35.156,29.297,22.461,37.598,0
214140.041,39.062,32.715,35.645,33.691,25.391,0
214140.045,24.414,32.227,34.180,23.926,18.555,0
214140.049,13.184,32.715,32.715,14.648,20.508,0
214140.053,24.414,33.203,29.297,22.461,29.297,0
214140.054,37.598,34.668,34.668,34.180,31.738,0
214140.058,32.227,35.156,37.109,27.344,22.949,0
214140.062,15.625,34.668,36.621,12.695,38.574,0
214140.066,18.555,35.156,33.203,13.184,47.852,0
214140.070,39.062,36.621,25.391,28.320,28.320,0
214140.074,38.086,38.574,26.367,32.227,20.508,0
214140.078,22.949,42.969,34.180,21.973,14.160,0
214140.082,21.484,41.016,39.551,20.020,8.789,0
214140.086,33.691,35.645,35.156,26.855,19.043,0
214140.090,45.898,34.668,35.156,35.645,32.715,0
214140.093,33.691,38.086,42.969,35.156,41.992,0
214140.097,17.090,40.039,39.551,19.531,41.504,0
214140.101,25.879,35.156,36.133,16.602,34.668,0
214140.105,41.016,33.203,32.227,33.203,12.695,0
214140.109,32.715,36.621,20.996,30.762,0.977,0
214140.113,20.020,39.062,28.320,18.066,19.531,0
214140.117,20.020,35.645,42.480,19.043,25.879,0
214140.121,28.809,30.762,43.945,29.297,20.996,0
214140.125,30.762,32.227,33.691,31.250,24.902,0
214140.129,16.602,34.668,18.555,23.438,29.785,0
214140.132,19.531,33.691,23.926,21.484,34.668,0
214140.136,44.922,34.180,36.133,33.203,35.156,0
214140.140,51.270,34.668,42.969,39.551,20.020,0
214140.144,30.762,31.738,39.551,26.367,13.184,0
214140.144,26.367,31.738,35.156,21.973,30.762,0
214140.148,41.992,33.203,37.109,36.133,44.434,0
214140.152,48.828,30.762,33.203,41.016,32.227,0
214140.156,36.133,30.762,33.203,29.297,12.207,0
214140.160,24.902,34.668,31.250,13.184,12.207,0
214140.164,38.574,36.621,30.762,20.508,26.367,0
214140.168,54.688,34.180,27.344,39.551,28.809,0
214140.172,44.922,35.645,16.602,31.738,26.367,0
214140.176,26.367,38.086,26.367,17.578,33.691,0
214140.180,27.832,34.668,20.508,21.973,40.527,0
214140.183,46.387,32.227,9.277,40.527,49.316,0
214140.187,47.363,30.273,25.391,44.922,49.805,0
214140.189,24.902,27.832,43.457,26.855,51.758,0
214140.193,18.066,27.832,47.363,24.902,60.059,0
214140.197,38.086,28.809,41.992,35.156,59.082,0
214140.201,44.922,27.832,40.527,32.715,34.180,0
214140.205,29.785,32.227,34.180,26.367,28.809,0
214140.209,25.391,32.227,30.762,19.043,34.668,0
214140.213,39.551,26.367,29.297,25.879,38.574,0
214140.217,48.340,26.367,27.832,37.109,39.551,0
214140.221,29.785,28.320,29.297,21.973,25.879,0
214140.225,18.555,28.320,28.320,7.812,19.043,0
214140.229,29.785,26.367,27.344,16.113,24.902,0
214140.232,48.828,31.738,34.668,34.668,34.668,0
214140.235,49.316,41.992,35.156,37.598,29.297,0
214140.239,24.902,38.086,27.344,19.043,28.320,0
214140.243,20.020,30.762,26.367,13.184,44.434,0
214140.246,41.016,33.691,29.785,31.250,51.758,0
214140.250,39.062,35.156,32.227,37.109,36.133,0
214140.254,14.648,29.785,33.203,19.043,28.320,0
214140.258,13.672,29.297,17.578,14.160,46.387,0
214140.262,36.133,29.785,22.461,33.691,41.016,0
214140.266,41.016,28.320,40.039,39.551,15.625,0
214140.270,23.438,32.715,36.621,23.438,9.277,0
214140.274,13.184,31.738,40.527,7.812,13.672,0
214140.278,25.879,29.785,43.945,13.672,24.414,0
214140.294,42.969,30.273,45.410,29.297,29.297,0
214140.298,33.691,32.227,39.551,26.367,37.109,0
214140.302,18.066,34.180,33.691,11.230,45.410,0
214140.306,26.855,34.668,24.902,15.625,41.016,0
214140.310,43.457,34.668,11.230,34.180,18.555,0
214140.314,32.227,32.227,9.766,27.344,-5.859,0
214140.318,9.277,33.691,29.785,10.742,0.000,0
214140.322,10.742,30.273,48.340,7.324,22.461,0
214140.326,26.855,25.879,40.039,22.461,37.598,0
214140.330,27.344,29.297,28.809,26.367,39.551,0
214140.334,12.695,32.227,36.133,13.184,37.598,0
214140.337,12.695,33.203,31.738,14.160,39.551,0
214140.339,34.668,33.691,25.391,31.250,49.316,0
214140.343,41.992,33.691,32.715,41.016,45.410,0
214140.347,20.996,32.227,37.109,27.344,15.137,0
214140.351,11.719,31.250,24.414,17.578,7.324,0
214140.355,27.344,29.297,21.484,26.855,20.996,0
214140.359,41.992,31.250,35.645,41.016,30.762,0
214140.363,29.297,31.250,37.109,36.133,27.344,0
214140.367,18.555,33.691,33.691,23.438,32.227,0
214140.371,30.273,37.598,19.043,30.273,51.758,0
214140.375,41.016,33.691,18.555,41.504,43.457,0
214140.379,38.574,35.645,25.879,41.016,24.902,0
214140.382,20.508,37.598,18.555,26.367,41.504,0
214140.385,17.578,34.180,31.738,17.090,48.828,0
214140.389,40.527,33.203,41.992,30.762,43.945,0
214140.393,47.363,34.180,33.203,37.598,43.945,0
214140.396,33.203,35.645,25.391,27.832,42.969,0
214140.400,31.738,38.574,23.438,21.484,55.664,0
214140.404,41.992,36.133,25.879,27.832,63.477,0
214140.408,51.270,33.691,32.227,38.574,57.129,0
214140.412,40.039,39.062,28.320,32.227,45.410,0
214140.416,26.367,39.551,22.949,18.555,32.715,0
214140.420,37.109,37.109,21.973,20.508,42.969,0
214140.424,51.270,34.668,32.227,34.180,45.898,0
214140.428,38.574,33.691,36.621,30.273,23.438,0
214140.429,19.531,32.715,30.273,13.184,20.508,0
214140.433,26.367,33.203,26.855,15.625,30.762,0
214140.437,42.480,35.156,31.738,29.785,26.367,0
214140.441,38.574,34.180,33.691,31.738,11.230,0
214140.445,23.926,33.691,30.762,20.020,8.301,0
214140.449,25.879,35.645,28.320,15.625,27.344,0
214140.453,48.828,40.039,31.738,32.227,50.781,0
214140.457,57.617,44.434,24.902,42.480,43.945,0
214140.461,31.250,37.109,13.184,21.973,29.785,0
214140.465,10.254,26.855,18.555,4.395,35.645,0
214140.468,26.367,27.832,23.438,18.555,31.738,0
214140.472,41.504,31.250,26.367,32.227,18.066,0
214140.474,28.809,30.762,32.227,22.949,21.973,0
214140.478,18.066,33.203,38.086,13.184,26.855,0
214140.482,26.367,34.180,43.945,18.555,33.691,0
214140.486,42.969,33.691,43.457,34.668,45.410,0
214140.490,34.668,32.227,36.133,34.180,31.250,0
214140.494,14.160,30.762,27.832,20.020,22.949,0
214140.498,16.602,29.297,28.809,20.996,36.621,0
214140.502,35.645,30.273,17.578,33.691,35.156,0
214140.506,37.598,32.227,19.531,36.621,12.207,0
214140.510,19.043,32.227,33.203,20.996,10.254,0
214140.513,19.043,34.180,37.598,13.672,37.598,0
214140.517,34.180,32.227,44.922,27.344,51.758,0
214140.519,41.992,28.320,42.969,37.109,38.086,0
214140.523,26.367,29.785,33.691,28.320,20.996,0
214140.527,14.648,30.762,23.438,13.184,33.203,0
214140.531,31.738,28.809,25.879,20.508,44.434,0
214140.535,43.457,30.273,28.320,31.250,21.484,0
214140.539,28.809,34.668,22.461,23.438,1.953,0
214140.543,13.184,34.668,23.438,14.648,15.137,0
214140.547,22.949,31.738,21.973,14.160,42.480,0
214140.550,39.551,30.762,21.484,24.414,45.898,0
214140.554,32.715,31.250,35.645,28.320,20.020,0
214140.558,11.230,29.785,44.922,15.137,17.578,0
214140.562,9.766,25.879,41.016,10.742,19.043,0
214140.566,25.391,27.832,36.133,21.973,14.160,0
214140.570,22.461,27.344,34.180,26.855,12.695,0
214140.574,8.301,29.785,23.438,16.602,17.090,0
214140.578,10.742,33.203,16.113,12.207,25.391,0
214140.582,29.297,30.273,23.438,25.879,35.156,0
214140.586,41.992,32.715,23.926,42.480,39.062,0
214140.589,33.691,39.551,19.043,37.598,37.109,0
214140.593,21.973,40.039,34.668,22.949,44.434,0
214140.597,34.180,37.109,52.246,23.438,30.762,0
214140.601,47.852,35.645,52.246,35.156,18.066,0
214140.605,31.738,33.203,42.480,26.367,13.184,0
214140.609,16.113,32.715,32.227,5.371,17.578,0
214140.611,20.508,29.785,32.715,12.207,33.691,0
214140.615,36.133,29.297,32.227,36.133,35.156,0
214140.618,37.109,33.203,26.855,33.203,30.762,0
214140.622,23.438,35.156,20.020,20.020,34.180,0
214140.626,25.879,34.668,20.996,21.484,36.133,0
214140.630,38.574,33.203,34.180,28.809,33.203,0
214140.634,38.086,31.738,38.086,30.762,16.113,0
214140.638,22.949,32.227,33.203,21.973,15.137,0
214140.642,20.508,32.715,34.180,13.184,27.344,0
214140.646,31.738,31.738,36.133,20.508,31.250,0
214140.650,40.039,30.273,34.668,38.086,36.133,0
214140.654,27.832,32.715,17.090,32.715,36.133,0
214140.670,12.695,33.691,16.113,18.066,34.180,0
214140.673,22.949,32.227,33.691,21.973,40.039,0
214140.677,35.645,29.785,32.227,30.762,33.203,0
214140.681,23.926,29.297,27.344,23.438,19.043,0
214140.685,13.184,32.715,25.391,15.137,31.250,0
214140.689,20.508,31.738,30.273,15.137,33.203,0
214140.693,31.738,28.809,40.039,20.508,29.297,0
214140.697,31.738,28.809,38.574,25.879,25.879,0
214140.701,17.090,32.227,33.203,14.160,27.344,0
214140.705,14.648,31.738,37.109,15.137,33.691,0
214140.709,30.762,31.738,33.203,31.250,23.926,0
214140.712,38.574,32.715,27.344,35.645,22.461,0
214140.714,25.879,31.738,29.785,23.438,21.973,0
214140.718,15.625,32.715,30.273,10.254,24.414,0
214140.722,35.156,34.668,21.973,20.996,43.457,0
214140.726,53.711,36.133,20.508,42.480,45.898,0
214140.730,41.016,36.621,31.250,38.086,41.016,0
214140.734,31.250,38.086,34.180,26.855,53.223,0
214140.738,41.504,38.574,37.598,36.621,51.270,0
214140.742,52.246,36.133,36.621,48.340,36.621,0
214140.746,41.504,31.250,29.785,45.410,28.320,0
214140.750,21.484,31.738,24.902,28.809,28.320,0
214140.754,22.949,31.250,24.902,20.508,38.086,0
214140.757,42.969,31.250,27.832,34.668,42.969,0
214140.759,42.480,32.227,32.227,42.480,31.738,0
214140.763,20.996,31.738,29.785,25.391,34.180,0
214140.767,19.043,32.227,26.855,15.137,48.828,0
214140.771,35.645,34.668,33.203,30.762,40.527,0
214140.775,40.527,34.668,29.297,42.480,33.691,0
214140.779,29.297,35.645,29.785,36.133,33.691,0
214140.783,23.438,37.109,30.762,27.832,30.273,0
214140.787,33.691,32.715,26.367,30.273,33.203,0
214140.791,44.434,31.738,26.367,37.109,38.574,0
214140.795,35.645,33.691,28.809,26.855,34.668,0
214140.798,23.438,35.156,36.621,17.090,36.621,0
214140.802,32.715,35.645,46.387,25.879,45.898,0
214140.804,49.316,33.691,40.039,38.574,44.434,0
214140.808,41.016,34.668,27.344,35.156,37.109,0
214140.812,21.484,37.598,27.344,22.461,43.945,0
214140.816,21.484,34.180,21.973,20.508,52.246,0
214140.820,43.945,31.738,20.508,37.598,42.480,0
214140.824,46.875,33.203,29.297,43.457,31.738,0
214140.828,22.949,33.203,27.344,27.832,35.156,0
214140.832,21.484,33.203,20.508,21.973,47.852,0
214140.836,40.527,34.668,20.020,31.250,29.785,0
214140.840,46.387,35.156,34.668,37.598,11.230,0
214140.843,31.738,37.109,45.898,27.832,19.043,0
214140.847,21.973,38.086,41.504,14.648,25.391,0
214140.851,36.621,39.062,37.598,23.438,41.992,0
214140.855,52.734,38.086,31.738,41.016,36.133,0
214140.859,38.574,34.668,29.785,33.203,27.344,0
214140.863,19.531,33.691,42.480,17.090,40.039,0
214140.867,25.879,34.668,41.992,23.438,46.387,0
214140.871,44.922,35.156,29.785,43.457,56.152,0
214140.874,39.062,33.691,34.668,42.480,45.410,0
214140.878,15.625,33.691,45.898,22.949,21.484,0
214140.882,13.672,36.133,45.410,18.555,33.691,0
214140.886,31.250,34.668,41.992,37.109,37.109,0
214140.890,31.738,34.180,35.645,43.945,25.391,0
214140.894,12.695,32.227,25.879,28.320,24.902,0
214140.894,7.324,29.297,25.391,18.555,28.809,0
214140.898,22.461,30.273,39.062,24.902,28.809,0
214140.902,34.668,33.203,41.016,32.227,18.066,0
214140.906,24.902,32.715,32.715,20.996,8.301,0
214140.910,14.648,30.762,29.785,8.301,23.926,0
214140.914,24.414,31.250,29.785,14.648,46.387,0
214140.918,41.504,31.738,32.227,35.156,56.152,0
214140.922,36.133,32.715,29.785,33.203,39.062,0
214140.926,20.996,34.668,33.691,14.160,27.832,0
214140.930,27.832,34.668,31.738,19.043,40.039,0
214140.933,45.898,35.645,8.789,36.621,40.039,0
214140.937,43.945,34.180,7.812,33.203,26.855,0
214140.939,25.391,32.715,34.668,19.043,18.555,0
214140.943,20.996,31.250,42.969,19.531,37.598,0
214140.947,34.180,26.367,37.109,28.809,45.410,0
214140.951,39.062,27.832,32.227,32.227,34.180,0
214140.955,29.297,34.180,36.621,27.832,28.320,0
214140.959,25.879,33.203,38.574,20.996,18.555,0
214140.963,38.574,31.250,34.668,25.879,24.414,0
214140.967,50.781,35.645,30.762,34.180,26.367,0
214140.971,38.574,37.598,26.367,29.297,24.414,0
214140.975,25.391,35.645,17.090,17.090,39.551,0
214140.978,34.668,36.621,13.184,20.508,43.945,0
214140.982,49.316,35.156,34.180,35.645,39.062,0
214140.985,43.945,33.203,43.945,35.156,33.691,0
214140.988,29.785,39.551,42.969,25.879,41.504,0
214140.992,30.762,38.574,49.805,23.438,51.270,0
214140.996,44.922,32.227,45.898,32.227,40.039,0
214141.000,43.457,30.273,34.668,33.203,24.902,0
214141.004,21.973,28.809,27.832,11.719,18.066,0
214141.008,18.555,31.250,27.344,4.395,37.598,0
214141.012,34.180,33.691,29.297,20.996,56.152,0
214141.016,39.062,32.715,32.715,29.785,43.457,0
214141.020,25.391,35.645,21.484,19.043,35.156,0
214141.024,19.531,35.156,19.531,9.277,39.062,0
214141.027,34.180,34.668,36.621,19.043,44.922,0
214141.044,45.410,35.645,40.039,32.715,45.898,0
214141.048,33.691,34.668,39.062,26.367,26.367,0
214141.052,20.020,36.133,40.527,14.160,16.602,0
214141.056,26.855,35.156,41.016,21.484,33.691,0
214141.060,43.945,30.762,36.621,36.621,50.293,0
214141.064,37.598,29.297,31.250,37.598,48.828,0
214141.068,19.531,31.250,35.645,27.344,38.574,0
214141.072,24.902,33.203,34.668,20.020,47.363,0
214141.076,43.457,33.691,26.855,28.320,44.434,0
214141.080,40.527,32.227,20.508,34.180,21.484,0
214141.083,19.043,31.250,27.344,21.973,20.020,0
214141.087,13.184,32.715,40.039,14.648,31.738,0
214141.090,29.297,32.227,32.227,26.855,41.992,0
214141.093,37.109,29.785,29.785,34.668,33.203,0
214141.097,22.949,27.344,35.156,22.949,21.484,0
214141.101,17.090,30.273,32.227,12.695,28.320,0
214141.105,31.250,33.203,35.645,23.926,36.133,0
214141.109,44.922,33.691,35.645,40.527,28.809,0
214141.113,34.180,31.738,31.738,33.203,17.090,0
214141.117,18.066,31.250,31.738,18.066,28.320,0
214141.121,29.297,34.668,32.227,21.484,40.039,0
214141.125,50.781,35.156,27.344,33.203,37.109,0
214141.129,46.875,32.715,21.484,31.250,38.574,0
214141.133,27.832,32.227,26.855,20.996,51.758,0
214141.134,23.438,33.203,33.203,19.043,60.059,0
214141.138,40.039,34.180,36.133,25.879,41.016,0
214141.142,44.922,36.621,41.016,28.320,20.996,0
214141.146,27.832,37.598,40.039,18.555,27.344,0
214141.150,21.973,36.133,34.668,8.301,46.875,0
214141.154,36.621,32.715,33.203,20.508,46.875,0
214141.158,47.852,33.203,28.320,40.527,31.250,0
214141.162,32.715,35.645,27.344,29.785,18.555,0
214141.166,19.531,37.109,30.273,17.578,24.414,0
214141.170,29.785,33.691,21.973,25.391,43.457,0
214141.173,43.457,34.180,29.297,36.133,31.250,0
214141.177,35.156,36.133,41.016,31.250,18.066,0
214141.180,16.602,30.273,41.504,18.555,16.113,0
214141.184,22.461,28.320,46.387,19.531,13.672,0
214141.188,45.410,28.320,47.852,37.598,27.832,0
214141.192,45.410,27.344,35.645,42.480,26.855,0
214141.196,26.367,31.250,28.320,27.344,28.320,0
214141.200,24.414,34.668,34.180,16.113,41.992,0
214141.203,38.086,31.250,41.016,23.926,44.922,0
214141.207,43.945,29.785,38.574,34.180,38.574,0
214141.211,29.785,32.227,37.598,27.832,35.156,0
214141.215,16.602,30.762,33.203,17.578,36.621,0
214141.219,32.715,30.273,22.461,27.832,40.039,0
214141.223,48.828,34.180,29.785,43.945,46.387,0
214141.224,29.785,35.156,38.086,33.691,44.434,0
214141.228,9.766,32.227,40.039,20.996,41.504,0
214141.232,19.043,29.297,37.109,28.809,42.969,0
214141.236,37.598,28.320,36.133,43.945,34.180,0
214141.240,31.250,26.855,35.645,38.574,23.926,0
214141.244,13.184,29.297,33.203,24.414,24.902,0
214141.248,17.578,28.809,27.832,25.879,29.785,0
214141.252,36.621,27.344,30.762,38.086,37.598,0
214141.256,37.109,29.297,37.598,40.039,28.320,0
214141.260,18.555,28.320,30.273,25.879,22.461,0
214141.263,16.113,25.391,31.250,19.531,20.020,0
214141.267,33.691,25.391,32.227,26.855,14.648,0
214141.269,41.992,26.855,31.250,31.250,8.789,0
214141.273,27.832,27.344,33.691,17.578,3.906,0
214141.277,24.902,32.715,30.762,14.648,28.320,0
214141.281,42.480,35.645,31.250,32.715,50.781,0
214141.285,50.293,30.273,33.203,39.062,39.551,0
214141.289,34.668,28.320,25.879,26.367,33.203,0
214141.293,17.090,27.832,23.926,12.695,29.297,0
214141.297,24.902,29.785,27.832,21.973,38.574,0
214141.301,44.434,33.691,35.645,39.062,46.387,0
214141.305,39.062,35.645,48.340,36.133,33.691,0
214141.308,18.555,34.180,44.922,22.461,31.738,0
214141.312,16.113,30.762,44.434,15.137,30.273,0
214141.316,32.227,28.809,44.434,27.344,25.879,0
214141.320,39.062,32.715,40.039,36.621,33.691,0
214141.324,21.973,31.738,40.527,22.461,39.551,0
214141.328,13.672,29.297,38.574,11.230,22.461,0
214141.331,27.832,31.738,38.574,19.043,26.367,0
214141.335,36.621,28.809,33.691,30.762,37.598,0
214141.339,21.973,28.809,32.715,24.414,19.531,0
214141.343,12.207,31.738,43.457,17.090,6.348,0
214141.347,22.461,28.809,43.457,24.902,10.742,0
214141.351,33.203,28.320,27.832,30.762,15.137,0
214141.355,20.996,31.250,20.020,21.484,18.066,0
214141.359,1.465,32.227,25.391,8.301,25.391,0
214141.359,3.906,29.785,29.785,10.254,33.691,0
214141.363,20.020,26.367,30.273,22.461,36.621,0
214141.367,22.461,29.785,29.785,23.438,39.551,0
214141.371,7.812,33.691,34.668,12.695,29.297,0
214141.375,8.789,33.691,37.598,10.742,28.320,0
214141.379,32.227,31.738,31.738,19.043,39.062,0
214141.383,40.039,26.855,31.250,24.414,32.715,0
214141.387,26.367,27.832,36.621,12.207,42.969,0
214141.391,21.973,31.738,36.133,7.324,42.480,0
214141.395,34.668,31.738,29.297,20.020,30.762,0
214141.398,48.340,33.203,25.879,32.227,38.086,0
214141.402,35.156,35.645,23.926,25.879,30.273,0
214141.419,14.648,29.297,29.785,13.184,38.086,0
214141.423,29.297,23.438,36.133,25.879,65.430,0
214141.427,36.133,25.391,27.344,33.203,32.227,0
214141.431,16.113,34.180,16.113,19.531,-9.277,0
214141.435,2.441,40.039,18.066,4.395,-0.977,0
214141.439,6.348,35.156,26.367,3.906,15.625,0
214141.443,18.066,34.180,28.809,15.137,20.508,0
214141.447,17.578,34.180,33.203,17.090,0.977,0
214141.451,4.883,33.203,36.621,4.883,-10.254,0
214141.455,6.348,33.691,31.738,1.953,0.488,0
214141.458,33.203,35.156,32.715,20.020,9.766,0
214141.462,44.434,33.691,32.227,27.344,7.812,0
214141.465,28.320,35.645,29.297,17.090,10.742,0
214141.469,20.020,36.621,35.156,6.348,30.762,0
214141.473,31.738,33.691,36.621,13.672,48.828,0
214141.477,47.852,35.156,26.855,30.762,33.691,0
214141.481,39.062,37.598,27.344,25.879,21.484,0
214141.485,19.531,35.645,41.504,12.695,37.598,0
214141.489,27.832,34.180,47.852,20.996,50.781,0
214141.493,47.852,37.598,41.992,41.992,51.270,0
214141.497,39.551,39.551,33.691,41.504,38.574,0
214141.500,14.160,35.645,33.203,27.832,32.715,0
214141.504,14.648,29.297,36.621,27.344,37.109,0
214141.508,34.180,28.320,34.180,41.992,44.434,0
214141.509,36.133,32.715,31.250,44.922,41.992,0
214141.513,21.484,33.203,41.016,26.367,37.598,0
214141.517,19.531,31.738,44.434,20.020,40.527,0
214141.521,41.016,34.180,34.668,37.109,45.410,0
214141.525,54.688,36.621,35.156,46.875,40.039,0
214141.529,38.574,33.691,40.039,30.762,23.438,0
214141.532,27.344,32.227,40.039,15.625,32.227,0
214141.536,43.945,35.156,39.062,24.414,38.086,0
214141.540,58.594,34.180,36.621,35.156,26.855,0
214141.544,42.480,33.691,34.180,27.344,8.789,0
214141.548,22.949,37.598,28.320,16.602,10.742,0
214141.552,22.949,37.598,26.367,20.508,29.297,0
214141.554,28.320,31.738,30.762,33.203,23.438,0
214141.558,23.438,32.715,23.926,40.039,19.043,0
214141.562,6.836,34.668,23.926,24.902,33.203,0
214141.566,9.277,35.156,35.156,14.160,35.156,0
214141.570,29.297,33.691,42.480,24.902,37.109,0
214141.574,31.250,33.203,45.898,30.273,36.133,0
214141.577,20.996,38.574,42.969,22.461,26.367,0
214141.581,26.367,40.527,37.598,16.113,40.527,0
214141.585,39.551,35.645,38.574,23.926,40.039,0
214141.589,47.852,33.691,28.320,30.273,13.672,0
214141.593,38.086,34.668,20.508,22.461,12.207,0
214141.597,28.320,36.621,24.902,10.742,24.902,0
214141.600,38.574,38.574,24.902,9.766,27.832,0
214141.604,55.664,38.086,30.273,21.484,28.809,0
214141.607,47.852,38.574,36.133,22.461,30.762,0
214141.611,28.320,38.086,31.250,14.648,32.715,0
214141.615,33.203,36.621,26.855,21.484,35.645,0
214141.619,45.898,36.133,32.715,40.527,40.039,0
214141.623,41.504,38.086,31.738,43.457,36.133,0
214141.627,26.855,40.039,32.227,27.832,36.133,0
214141.631,21.973,36.133,27.344,22.949,46.875,0
214141.635,30.762,28.320,13.672,31.250,55.664,0
214141.639,32.227,25.391,27.832,34.180,50.293,0
214141.643,13.184,25.879,41.504,24.414,36.133,0
214141.644,4.395,27.832,46.387,14.648,25.391,0
214141.648,25.391,31.250,48.828,27.832,26.367,0
214141.652,41.504,31.738,40.527,38.574,40.527,0
214141.656,29.785,32.715,26.855,25.879,35.156,0
214141.660,22.461,34.668,23.438,17.578,29.785,0
214141.663,37.598,36.133,31.250,23.438,39.062,0
214141.667,54.199,39.551,34.180,33.203,42.969,0
214141.671,48.340,42.480,29.297,27.832,45.410,0
214141.675,27.344,39.551,26.855,9.277,36.133,0
214141.679,24.414,36.133,25.879,7.324,22.949,0
214141.683,40.527,38.086,22.949,24.414,29.785,0
214141.687,39.551,41.016,28.809,29.785,27.344,0
214141.689,18.555,38.574,30.273,14.160,14.648,0
214141.693,10.742,36.133,22.949,8.301,26.855,0
214141.697,25.391,39.062,26.855,25.879,40.039,0
214141.701,32.227,39.062,27.832,34.180,17.578,0
214141.705,11.719,35.156,24.902,19.531,14.648,0
214141.709,3.906,34.668,33.691,11.719,33.203,2
214141.713,22.461,34.668,38.086,21.973,39.551,0
214141.717,38.086,32.227,26.855,30.762,34.180,0
214141.721,29.785,32.227,19.043,24.902,22.949,0
214141.724,15.137,32.227,28.320,15.625,28.809,0
214141.728,26.855,32.715,41.992,16.113,40.039,0
214141.732,50.293,33.691,45.410,28.809,38.086,0
214141.734,45.410,33.691,37.598,27.832,25.879,0
214141.738,32.227,34.668,34.180,15.137,27.344,0
214141.742,37.109,32.715,36.621,13.184,35.645,0
214141.746,56.641,32.227,35.645,30.273,42.969,0
214141.750,58.105,33.691,31.250,38.574,36.621,0
214141.754,32.227,30.762,26.855,26.855,34.668,0
214141.758,21.973,31.738,22.949,19.043,36.133,0
214141.762,32.227,34.180,28.809,27.832,30.273,0
214141.766,37.598,35.645,39.551,39.062,26.855,0
214141.769,16.113,34.668,41.504,24.902,20.020,0
214141.773,-2.441,30.762,30.762,9.277,28.320,0
214141.777,13.672,29.297,31.250,18.555,41.504,0
214141.781,33.691,31.738,39.551,34.668,28.320,0
214141.785,20.508,28.320,36.621,28.320,14.648,0
214141.789,10.254,30.273,27.832,16.602,28.809,0
214141.793,23.926,35.645,30.273,22.461,31.738,0
214141.797,38.574,30.273,37.109,33.203,25.879,0
214141.801,32.227,27.832,38.086,33.203,26.855,0
214141.804,16.113,29.785,34.668,21.973,21.484,0
214141.808,19.531,30.273,32.227,19.043,25.391,0
214141.812,36.133,29.785,32.715,29.785,44.922,0
214141.816,34.180,29.297,25.879,33.691,47.363,0
214141.820,19.043,30.273,21.973,23.926,41.992,0
214141.824,17.578,31.250,19.043,20.020,36.133,0
214141.841,35.156,32.715,19.531,28.320,26.855,0
214141.845,50.293,36.621,30.273,38.574,30.273,0
214141.848,39.062,37.109,35.156,29.297,33.691,0
214141.852,20.996,33.203,31.738,13.184,49.316,0
214141.856,30.273,32.227,28.320,20.020,54.688,0
214141.860,50.781,33.203,24.902,38.574,30.273,0
214141.864,42.480,32.227,18.555,32.715,27.344,0
214141.868,22.949,30.762,23.926,10.254,33.203,0
214141.872,27.344,29.297,21.484,7.812,38.086,0
214141.876,43.945,28.320,17.090,27.344,37.598,0
214141.880,43.945,29.785,36.133,33.691,27.344,0
214141.884,28.809,30.762,42.969,17.578,37.109,0
214141.885,21.973,28.320,33.203,11.719,47.852,0
214141.889,35.645,28.809,29.785,27.832,51.270,0
214141.893,40.527,31.738,28.320,37.109,42.480,0
214141.897,25.879,30.273,21.484,26.855,29.785,0
214141.901,20.996,31.250,23.926,17.578,38.574,0
214141.904,34.180,34.668,29.297,25.391,50.781,0
214141.908,48.828,37.109,31.250,36.621,47.852,0
214141.912,37.109,37.109,19.531,26.855,36.133,0
214141.916,25.391,33.691,20.508,13.184,42.969,0
214141.920,36.133,35.156,35.156,20.020,68.848,0
214141.924,50.781,36.133,37.109,34.180,64.941,0
214141.928,44.922,35.156,36.621,33.691,48.340,0
214141.930,31.250,41.992,38.086,26.367,64.453,0
214141.934,36.621,41.016,35.645,30.273,63.477,0
214141.937,52.734,31.250,32.715,40.527,43.945,0
214141.941,51.758,31.738,31.738,42.480,34.180,0
214141.945,33.203,33.203,36.621,28.809,34.180,0
214141.949,27.344,32.715,36.621,17.090,40.527,0
214141.953,41.992,33.203,23.438,24.414,37.109,0
214141.957,43.945,32.227,17.090,31.738,35.156,0
214141.961,20.508,34.668,26.367,20.508,23.438,0
214141.965,8.789,34.180,41.992,12.207,14.648,0
214141.969,27.344,34.180,44.434,24.902,28.809,0
214141.973,40.527,33.691,37.109,35.645,35.156,0
214141.975,23.438,32.715,33.203,26.855,31.738,0
214141.979,15.625,34.668,27.344,18.066,40.039,0
214141.983,30.273,34.180,27.832,22.949,53.223,0
214141.987,42.480,32.715,24.414,35.156,48.340,0
214141.990,35.156,34.180,14.160,37.598,30.762,0
214141.994,20.508,34.180,32.715,24.902,31.250,0
214141.998,22.461,33.691,50.293,20.020,30.273,0
214142.002,40.039,35.645,44.434,30.762,23.438,0
214142.006,44.434,37.109,37.109,36.133,26.855,0
214142.010,20.508,32.715,33.691,20.020,25.879,0
214142.014,11.230,30.273,31.250,4.395,18.555,0
214142.018,27.832,31.250,35.156,15.137,26.855,0
214142.021,38.086,30.273,36.133,30.273,29.297,0
214142.025,24.414,30.762,29.785,22.461,16.602,0
214142.029,12.207,32.227,22.949,13.184,27.344,0
214142.033,23.438,32.715,20.508,21.973,45.898,0
214142.037,36.621,30.762,18.066,34.668,43.945,0
214142.041,31.250,31.738,20.508,29.297,27.344,0
214142.045,13.184,29.297,31.250,9.766,13.672,0
214142.048,13.184,27.344,31.250,4.395,12.695,0
214142.052,32.227,27.832,28.320,20.508,17.090,0
214142.056,30.273,30.273,30.762,28.320,12.695,0
214142.060,14.648,33.691,34.180,18.555,19.043,0
214142.064,17.578,30.762,33.691,12.695,31.250,0
214142.066,32.715,26.855,25.879,20.020,22.949,0
214142.070,37.109,27.344,27.832,24.902,19.043,0
214142.074,17.090,26.855,24.414,10.254,26.367,0
214142.078,13.672,27.344,22.461,8.301,21.484,0
214142.082,35.156,32.227,30.273,26.855,21.973,0
214142.086,42.480,30.273,24.414,35.156,20.996,0
214142.089,25.879,27.344,26.855,24.414,22.461,0
214142.093,7.812,25.391,33.691,5.859,21.973,0
214142.097,15.137,22.949,35.156,7.812,19.531,0
214142.101,40.039,27.832,34.668,25.391,30.762,0
214142.105,32.227,32.227,31.250,23.926,22.949,0
214142.109,8.789,30.762,24.414,5.371,4.395,0
214142.110,13.672,28.809,29.785,9.277,14.648,0
214142.114,34.180,28.320,33.691,26.855,32.227,0
214142.118,31.738,27.832,28.809,26.367,26.367,0
214142.121,11.719,26.367,30.762,13.672,16.602,0
214142.125,15.137,27.344,28.320,13.672,29.297,0
214142.129,38.574,29.785,30.273,30.273,32.715,0
214142.133,43.945,30.273,27.832,32.715,20.508,0
214142.137,24.902,29.297,23.438,19.043,20.020,0
214142.141,18.555,29.785,30.273,19.043,29.297,0
214142.145,40.039,33.691,44.434,33.203,32.715,0
214142.149,50.293,32.227,54.688,38.574,16.113,0
214142.153,24.414,27.832,44.434,17.090,8.301,0
214142.170,11.230,28.320,33.691,0.000,13.672,0
214142.174,21.973,27.344,34.180,8.301,20.508,0
214142.178,37.109,28.320,29.297,27.832,26.367,0
214142.182,35.645,29.297,25.391,28.320,24.414,0
214142.185,20.020,29.785,38.086,13.672,44.434,0
214142.189,24.414,31.250,32.227,14.160,51.758,0
214142.193,43.457,31.738,25.879,25.879,33.691,0
214142.197,41.992,33.203,33.203,26.855,14.648,0
214142.201,16.602,27.832,30.273,9.277,12.695,0
214142.205,11.230,24.902,28.320,3.418,25.879,0
214142.209,29.297,25.879,36.133,18.555,22.949,0
214142.213,37.598,29.297,38.574,27.344,16.602,0
214142.215,24.902,31.738,37.598,22.461,24.414,0
214142.218,16.602,29.785,32.715,18.066,28.809,0
214142.222,25.391,27.344,23.438,27.344,28.320,0
214142.226,38.086,29.785,25.879,37.598,30.273,0
214142.230,31.738,33.203,34.180,31.738,30.762,0
214142.234,14.160,31.250,39.062,20.508,28.320,0
214142.238,22.461,32.227,43.945,23.438,30.762,0
214142.242,39.551,30.762,37.598,36.621,26.855,0
214142.246,33.203,29.297,30.273,33.203,18.066,0
214142.250,17.578,32.227,33.203,14.648,22.949,0
214142.254,15.625,34.180,37.598,11.230,26.855,0
214142.258,35.645,37.109,39.551,25.879,29.297,0
214142.260,44.922,38.086,33.691,36.133,25.879,0
214142.264,20.020,33.691,25.391,20.996,14.648,0
214142.267,7.812,28.809,20.996,10.742,4.395,0
214142.271,26.367,26.855,16.113,26.367,11.719,0
214142.275,41.504,29.785,23.438,40.039,28.320,0
214142.279,26.367,31.738,31.738,30.762,22.461,0
214142.283,11.230,32.227,35.156,14.648,21.973,0
214142.287,25.879,31.250,29.785,19.043,32.715,0
214142.291,42.480,27.832,21.484,31.738,28.320,0
214142.295,31.250,28.320,24.902,24.414,17.090,0
214142.299,18.555,30.762,36.133,13.184,25.879,0
214142.303,28.809,29.297,38.574,21.484,39.551,0
214142.306,42.969,27.344,36.133,33.203,32.227,0
214142.310,36.133,31.250,34.180,25.879,24.902,0
214142.314,18.555,31.738,33.203,10.742,33.691,0
214142.318,20.020,29.297,36.621,16.602,49.805,0
214142.321,40.039,31.250,38.574,35.156,51.758,0
214142.325,41.992,31.738,32.715,35.645,21.484,0
214142.329,20.508,31.738,27.344,18.555,18.555,0
214142.333,21.973,34.180,28.809,9.277,44.434,0
214142.337,41.504,34.180,34.180,23.438,49.316,0
214142.341,46.387,31.738,31.738,29.785,27.832,0
214142.345,36.621,34.180,31.738,25.879,20.996,0
214142.349,28.809,37.109,35.645,22.461,40.039,0
214142.350,37.109,34.668,38.574,25.391,41.016,0
214142.354,47.852,32.715,34.668,35.156,25.391,0
214142.358,38.574,35.645,15.137,34.180,28.320,0
214142.362,18.555,38.086,18.555,20.508,46.387,0
214142.365,20.996,34.180,33.691,14.648,44.922,0
214142.369,39.551,34.180,39.551,30.762,32.715,0
214142.373,35.645,34.180,40.039,32.227,20.996,0
214142.377,19.043,33.691,36.621,14.160,25.879,0
214142.381,23.438,34.180,42.480,14.160,48.828,0
214142.385,46.875,33.691,45.898,30.273,52.734,0
214142.389,54.688,37.109,38.086,40.039,43.457,0
214142.393,33.203,37.598,28.809,26.367,26.855,0
214142.395,19.043,34.668,25.391,13.184,17.578,0
214142.398,33.691,34.180,28.320,22.949,22.949,0
214142.402,46.387,36.621,36.621,33.691,28.320,0
214142.406,30.273,37.598,42.969,23.438,27.832,0
214142.410,13.672,33.691,41.504,9.766,28.809,0
214142.414,20.996,28.320,36.133,14.648,39.062,0
214142.418,37.109,26.855,37.598,29.297,33.203,0
214142.422,31.738,30.762,33.203,30.762,24.902,0
214142.426,20.020,36.133,26.855,20.996,32.227,0
214142.430,29.785,36.621,23.926,21.973,43.457,0
214142.434,48.828,34.668,24.414,37.109,58.105,0
214142.438,44.922,30.273,27.832,39.062,41.016,0
214142.440,24.902,29.297,29.297,22.949,31.738,0
214142.444,16.602,30.762,30.273,15.625,37.598,0
214142.448,28.320,30.273,26.855,29.785,36.133,0
214142.452,37.598,32.715,29.785,41.016,23.438,0
214142.456,20.996,36.133,25.391,23.926,10.254,0
214142.460,12.207,37.109,20.020,12.695,25.391,0
214142.464,32.227,33.203,24.414,26.855,50.293,0
214142.468,46.875,26.855,29.297,37.109,38.574,0
214142.472,33.691,29.785,30.762,27.344,24.414,0
214142.476,20.508,33.691,36.621,17.578,39.062,0
214142.479,28.809,32.227,41.504,22.949,33.691,0
214142.483,46.875,31.250,37.109,31.250,21.484,0
214142.485,41.016,32.715,32.227,27.832,23.926,0
214142.488,20.508,32.715,21.484,15.625,25.391,0
214142.492,26.855,35.156,22.461,21.484,27.344,0
214142.496,43.945,35.156,32.715,36.133,26.367,0
214142.500,36.133,30.273,30.273,31.738,10.254,0
214142.504,16.602,28.320,32.227,20.020,9.277,0
214142.508,16.113,31.250,36.621,19.043,29.785,0
214142.512,26.367,30.273,37.109,26.855,32.227,0
214142.516,32.227,27.832,39.551,40.039,18.066,0
214142.520,22.461,27.344,33.691,32.715,18.555,0
214142.524,12.695,29.785,22.461,20.020,37.109,0
214142.527,32.715,33.691,31.250,31.250,55.664,0
214142.531,54.199,32.227,39.062,41.992,51.758,0
214142.535,37.109,27.344,31.738,30.273,24.902,0
214142.538,18.555,26.367,27.344,10.742,10.254,0
214142.542,31.250,29.785,28.809,10.742,21.484,0
214142.546,49.316,30.762,25.879,26.367,27.832,0
214142.550,46.387,31.738,21.484,24.414,26.367,0
214142.554,24.414,35.645,15.137,4.395,15.625,0
214142.558,23.438,37.598,23.926,6.348,18.555,0
214142.562,43.457,35.645,47.363,23.438,33.691,0
214142.566,36.133,30.762,45.410,24.414,27.832,0
214142.570,7.324,24.902,37.598,16.113,16.113,0
214142.574,0.488,23.926,30.762,13.672,18.066,0
214142.589,23.926,25.879,26.367,26.367,25.391,0
214142.593,36.621,27.344,22.949,41.504,17.090,0
214142.597,23.926,30.273,20.996,33.203,11.719,0
214142.601,15.625,33.203,29.785,19.531,20.020,0
214142.605,27.344,34.180,30.762,21.973,23.926,0
214142.609,51.758,32.715,26.855,36.621,24.414,0
214142.613,51.758,31.250,25.391,33.691,19.531,0
214142.617,33.203,30.762,20.996,13.672,18.066,0
214142.621,40.527,32.227,13.184,14.648,39.551,0
214142.625,57.617,34.180,10.742,26.855,48.340,0
214142.629,44.434,33.691,18.555,21.484,30.273,0
214142.632,25.391,35.645,29.785,9.277,32.715,0
214142.635,27.344,38.086,39.062,11.719,47.852,0
214142.639,35.645,36.621,33.691,25.391,40.039,0
214142.642,30.762,32.715,26.367,32.227,14.648,0
214142.646,8.301,31.738,28.320,20.508,4.395,0
214142.650,0.977,30.273,31.250,12.207,17.578,0
214142.654,16.602,28.809,31.738,25.391,24.414,0
214142.658,29.785,28.809,28.809,40.039,15.137,0
214142.662,22.461,30.273,29.297,31.738,19.043,0
214142.666,9.766,36.133,31.250,13.672,32.715,0
214142.670,20.020,35.645,36.621,19.531,35.645,0
214142.674,41.504,34.180,36.621,37.109,38.086,0
214142.678,39.062,39.551,26.367,31.250,32.715,0
214142.680,20.020,36.621,21.484,13.184,28.809,0
214142.683,21.484,32.715,23.438,13.672,42.969,0
214142.687,40.039,32.715,20.996,25.391,37.598,0
214142.691,42.480,32.227,22.949,25.391,20.020,0
214142.695,23.926,33.691,30.273,10.254,13.184,0
214142.699,19.043,32.715,35.156,1.953,11.719,0
214142.703,38.086,35.156,39.551,15.137,27.832,0
214142.707,44.434,37.109,29.785,23.926,22.461,0
214142.711,22.949,31.738,16.113,6.836,-6.836,0
214142.715,10.254,32.227,25.879,-0.977,6.836,0
214142.719,23.926,35.156,34.668,11.719,24.414,0
214142.723,38.086,33.691,23.438,28.809,9.277,0
214142.724,27.344,32.715,13.672,30.762,6.836,0
214142.728,20.996,33.691,24.902,23.926,31.250,0
214142.732,32.715,34.668,39.062,30.273,49.805,0
214142.736,45.898,32.715,41.016,40.039,43.945,0
214142.740,44.434,34.180,40.527,39.551,40.527,0
214142.744,24.414,36.133,40.527,23.926,42.480,0
214142.748,19.043,35.156,34.180,16.113,38.086,0
214142.752,39.062,35.156,26.855,36.133,38.574,0
214142.756,44.922,38.086,27.832,46.387,42.480,0
214142.760,28.320,41.504,35.156,32.227,46.875,0
214142.764,19.531,39.062,33.691,24.414,52.734,0
214142.767,36.621,37.109,28.320,37.598,60.547,0
214142.772,45.898,35.156,24.902,38.086,59.082,0
214142.776,30.273,37.598,21.973,20.996,45.898,0
214142.779,23.926,41.504,31.250,15.137,50.293,0
214142.783,31.738,37.109,35.645,19.043,64.941,0
214142.787,37.109,34.668,31.250,22.949,57.129,0
214142.791,28.320,36.621,31.250,18.066,33.203,0
214142.795,12.695,36.621,35.645,4.395,5.371,0
214142.799,17.578,34.180,34.180,6.836,-5.859,0
214142.803,34.180,33.691,30.273,23.926,-1.953,0
214142.807,29.297,33.203,30.273,22.461,-1.465,0
214142.811,15.137,33.691,29.297,8.789,4.883,0
214142.815,19.531,33.691,25.391,9.277,22.461,0
214142.815,36.621,34.180,29.785,26.367,27.832,0
214142.819,42.480,32.227,27.832,30.273,28.320,0
214142.822,28.809,29.297,16.113,21.484,40.527,0
214142.826,23.438,30.762,27.832,18.555,48.340,0
214142.830,35.156,29.785,39.062,25.879,45.410,0
214142.834,46.875,31.250,27.832,41.504,40.527,0
214142.838,32.227,30.273,28.809,33.203,34.668,0
214142.842,18.555,29.297,39.551,20.996,33.691,0
214142.846,31.250,29.297,47.852,24.414,38.086,0
214142.850,44.434,27.344,39.062,26.367,28.809,0
214142.854,31.250,30.762,21.484,17.578,12.695,0
214142.858,11.230,32.227,20.020,5.859,15.137,0
214142.860,25.879,34.180,35.156,13.184,34.180,0
214142.864,48.828,34.180,39.062,28.320,33.203,0
214142.868,39.551,33.691,30.762,26.367,20.020,0
214142.872,20.020,33.691,30.762,18.066,33.203,0
214142.876,25.879,34.668,16.602,20.996,46.875,0
214142.880,45.410,33.691,11.719,36.621,46.387,0
214142.884,43.945,29.297,28.809,40.527,39.062,0
214142.888,21.484,28.320,34.180,21.484,16.113,0
214142.891,9.766,26.855,36.621,11.230,2.441,0
214142.895,24.902,25.391,33.203,22.461,11.719,0
214142.899,38.086,26.855,27.344,30.762,12.695,0
214142.903,26.367,33.691,28.809,24.414,3.418,0
214142.920,18.066,38.086,28.809,16.113,13.184,0
214142.924,34.668,34.668,25.391,24.902,35.645,0
214142.928,50.293,35.156,26.367,42.480,40.039,0
214142.931,43.945,35.156,28.320,41.016,39.062,0
214142.935,30.273,31.738,31.250,24.902,53.223,0
214142.939,33.691,35.645,27.832,24.414,66.895,0
214142.943,48.340,36.621,28.809,38.574,56.641,0
214142.947,43.457,28.320,28.320,40.039,39.551,0
214142.951,22.949,25.879,25.879,27.344,43.945,0
214142.955,17.090,31.250,35.156,20.996,44.434,0
214142.959,34.668,34.668,39.551,36.133,21.973,0
214142.963,40.039,33.203,38.574,44.922,7.324,0
214142.965,20.020,31.250,35.645,28.809,19.043,0
214142.968,10.254,29.297,33.203,16.113,33.691,0
214142.972,22.949,25.879,33.691,23.438,34.180,0
214142.976,35.156,22.949,29.785,38.574,33.691,0
214142.980,25.879,25.879,23.438,34.180,42.480,0
214142.984,10.742,29.785,24.414,18.555,41.016,0
214142.988,18.066,26.367,29.785,17.578,24.414,0
214142.992,36.621,27.832,33.203,29.297,21.973,0
214142.996,25.391,26.855,31.250,20.996,13.672,0
214143.000,5.371,24.414,33.203,3.906,5.371,0
214143.004,11.230,25.879,35.645,3.906,9.766,0
214143.007,25.879,23.438,35.645,19.043,11.719,0
214143.009,25.391,25.391,35.156,27.832,6.348,0
214143.013,10.742,28.809,36.621,16.113,3.418,0
214143.017,9.277,27.344,39.551,13.672,14.160,0
214143.021,29.785,29.785,42.969,31.738,31.250,0
214143.025,44.434,35.645,33.691,42.480,32.715,0
214143.029,29.297,33.691,20.020,32.227,29.297,0
214143.033,16.113,26.855,27.832,19.531,41.016,0
214143.037,27.344,24.414,31.738,20.996,45.898,0
214143.041,44.922,25.879,25.879,37.598,48.340,0
214143.045,33.203,26.855,29.297,34.180,35.645,0
214143.048,17.090,27.344,42.480,20.996,17.578,0
214143.052,35.156,30.273,41.016,26.855,28.809,0
214143.056,58.594,33.203,36.621,42.480,28.809,0
214143.059,48.828,32.715,39.062,40.039,15.137,0
214143.063,21.973,31.250,32.227,17.578,22.461,0
214143.067,20.020,29.785,23.438,13.184,37.598,0
214143.071,36.621,28.809,23.926,28.809,48.340,0
214143.075,40.527,28.809,28.809,38.086,45.898,0
214143.079,23.438,31.250,26.855,27.832,36.133,0
214143.083,14.648,31.738,22.949,16.602,46.387,0
214143.087,29.297,26.855,30.762,26.367,56.641,0
214143.091,41.504,29.785,37.109,35.156,56.152,0
214143.095,24.414,33.691,37.598,26.367,37.109,0
214143.098,7.812,32.715,39.062,16.113,15.137,0
214143.100,18.066,32.715,31.738,20.020,16.602,0
214143.104,34.668,36.133,25.879,30.273,17.578,0
214143.107,30.273,38.086,30.273,29.297,13.184,0
214143.111,9.277,32.227,38.086,5.859,5.371,0
214143.115,7.324,27.832,33.203,-5.371,9.277,0
214143.119,27.344,28.320,22.949,13.184,30.273,0
214143.123,28.320,27.832,17.578,17.578,22.949,0
214143.127,11.719,30.762,21.484,7.812,18.066,0
214143.131,17.578,35.645,33.203,12.207,29.785,0
214143.135,33.203,37.109,37.109,24.414,21.973,0
214143.139,38.086,36.621,27.344,29.785,10.254,0
214143.143,22.461,36.133,28.320,16.113,8.301,0
214143.144,12.207,34.180,33.203,-0.488,12.695,0
214143.148,32.715,34.668,26.367,9.766,19.531,0
214143.152,47.363,35.645,24.902,26.855,17.578,0
214143.156,32.715,34.180,29.297,22.461,12.695,0
214143.160,20.508,34.180,25.391,16.113,25.391,0
214143.164,36.621,37.598,23.438,27.832,45.410,0
214143.168,52.734,38.574,33.203,42.480,45.898,0
214143.172,46.387,38.086,37.109,36.133,40.039,0
214143.176,33.203,43.945,32.227,28.809,53.711,0
214143.180,33.203,40.039,21.484,28.320,51.758,0
214143.183,47.852,33.691,17.090,39.062,47.363,0
214143.187,44.434,34.180,22.949,42.969,45.410,0
214143.189,22.461,37.598,24.902,30.762,30.273,0
214143.193,18.555,36.133,27.832,23.438,19.531,0
214143.197,36.621,35.645,35.645,38.574,25.391,0
214143.201,45.410,39.062,37.598,44.922,29.297,0
214143.205,21.484,36.133,30.273,20.020,24.902,0
214143.209,8.789,34.668,30.273,12.207,29.297,0
214143.213,26.855,35.645,28.809,24.414,44.922,0
214143.217,36.133,36.133,25.391,30.273,47.852,0
214143.221,23.438,33.203,29.785,25.391,39.062,0
214143.225,16.602,35.645,32.715,21.484,32.227,0
214143.228,30.762,38.574,30.273,29.785,17.090,0
214143.232,47.852,36.621,22.949,39.551,16.113,0
214143.234,44.434,40.527,32.227,42.480,22.461,0
214143.238,30.273,41.504,43.457,31.250,25.391,0
214143.242,25.391,36.133,37.598,23.926,22.461,0
214143.246,41.016,36.133,31.738,35.645,28.320,0
214143.250,43.457,37.109,27.832,39.551,25.879,0
214143.254,26.367,34.180,28.320,26.855,22.461,0
214143.258,22.949,33.203,32.227,20.020,27.832,0
214143.262,31.250,31.738,33.691,28.320,34.668,0
214143.266,38.086,32.715,33.691,41.504,45.898,0
214143.270,27.832,35.156,35.156,35.156,49.805,0
214143.273,14.648,33.203,36.133,19.531,38.574,0
214143.277,28.809,36.621,37.598,24.902,37.109,0
214143.281,43.457,37.598,31.250,37.109,37.598,0
214143.285,34.180,38.086,24.902,29.297,27.832,0
214143.289,20.020,36.621,29.785,12.207,29.297,0
214143.293,28.320,36.133,31.738,14.160,46.875,0
214143.297,42.480,35.156,28.320,26.367,37.109,0
214143.301,35.156,32.227,24.414,23.438,6.836,0
214143.305,16.113,34.668,29.297,13.184,7.812,0
214143.309,13.672,34.180,22.949,11.230,24.902,0
214143.313,33.691,33.203,18.555,23.926,33.691,0
214143.316,32.715,34.180,31.250,30.273,24.902,0
214143.320,12.695,35.156,35.156,14.160,38.574,0
214143.324,13.184,37.598,30.762,6.348,54.199,0
214143.340,31.738,34.180,30.273,21.973,41.504,0
214143.343,41.504,30.273,33.691,35.645,27.832,0
214143.347,26.855,31.738,33.203,26.367,13.672,0
214143.351,16.602,34.180,36.133,15.137,19.531,0
214143.355,25.391,32.227,37.598,19.531,30.273,0
214143.359,44.922,33.691,45.410,33.203,27.344,0
214143.363,38.574,38.574,43.945,29.297,29.297,0
214143.367,13.672,35.645,34.180,12.207,37.598,0
214143.371,15.625,33.691,34.668,15.625,38.086,0
214143.375,34.668,33.691,31.738,33.691,42.480,0
214143.379,38.086,34.180,27.344,38.574,48.340,0
214143.383,23.926,36.133,25.879,29.297,46.875,0
214143.384,20.996,35.645,31.738,24.414,55.664,0
214143.388,39.062,35.645,36.133,36.621,54.199,0
214143.392,49.316,35.645,31.250,49.316,38.574,0
214143.396,23.438,31.250,30.273,30.762,29.297,0
214143.400,6.836,28.320,33.203,16.602,31.738,0
214143.404,22.461,28.809,37.598,30.273,41.992,0
214143.408,36.621,27.832,42.969,37.598,47.852,0
214143.412,22.949,28.809,40.039,25.391,28.320,0
214143.416,10.254,28.809,31.738,14.648,7.812,0
214143.420,22.949,29.297,30.273,18.555,15.137,0
214143.424,44.434,34.668,36.621,36.133,29.297,0
214143.427,38.574,33.691,38.574,34.668,33.691,0
214143.429,16.602,29.297,21.484,13.672,35.645,0
214143.433,18.066,30.273,13.672,12.695,40.039,0
214143.437,37.109,31.738,27.832,31.250,32.715,0
214143.441,38.574,30.762,39.062,32.715,23.926,0
214143.445,22.949,36.133,45.410,20.020,21.973,0
214143.449,19.043,39.551,40.039,14.648,22.949,0
214143.453,31.738,29.297,31.250,18.066,20.508,0
214143.457,41.504,26.855,28.809,25.879,14.648,0
214143.461,25.391,33.203,24.902,13.184,12.695,0
214143.465,15.137,32.715,22.461,-1.953,24.902,0
214143.468,31.738,30.762,27.832,10.254,34.668,0
214143.472,44.434,35.156,32.227,29.297,26.855,0
214143.474,34.668,37.598,34.180,30.273,22.461,0
214143.478,24.414,33.691,34.668,20.508,32.715,0
214143.482,33.203,30.762,35.645,22.949,46.387,0
214143.486,46.387,31.738,25.391,37.598,64.941,0
214143.490,37.109,31.250,13.184,36.621,50.293,0
214143.494,16.113,29.297,23.438,22.949,27.832,0
214143.498,17.090,28.809,41.504,24.414,38.086,0
214143.502,33.203,29.785,41.504,37.598,35.156,0
214143.506,34.668,31.738,30.762,43.457,27.344,0
214143.510,20.996,33.691,37.598,34.668,42.480,0
214143.513,17.090,33.203,40.039,26.855,42.480,0
214143.517,27.344,27.344,37.109,30.273,18.555,0
214143.521,34.180,22.461,32.227,34.668,15.137,0
214143.525,21.973,25.879,27.832,25.879,20.508,0
214143.529,16.602,30.762,27.832,18.555,28.320,0
214143.533,33.691,34.180,29.297,25.879,42.480,0
214143.537,48.340,35.156,29.297,40.039,49.805,0
214143.541,35.645,31.250,27.344,37.109,44.922,0
214143.545,21.484,32.715,34.180,22.461,48.828,0
214143.549,29.297,37.598,37.598,26.367,61.035,0
214143.552,44.922,36.621,33.203,38.086,53.711,0
214143.556,43.457,32.227,30.273,34.180,24.902,0
214143.560,23.438,32.715,29.785,14.160,19.531,0
214143.564,20.996,35.156,26.367,9.277,33.203,0
214143.564,42.480,34.668,22.949,26.367,24.902,0
214143.568,43.457,34.668,24.414,30.762,1.465,0
214143.572,24.414,39.062,30.762,18.555,-0.977,0
214143.576,19.043,39.551,32.715,11.230,13.672,0
214143.580,31.250,33.203,31.250,18.066,23.438,0
214143.584,42.969,30.273,29.785,33.203,17.578,0
214143.588,34.668,32.715,24.414,32.715,22.949,0
214143.592,24.902,33.203,26.855,19.043,43.945,0
214143.596,33.691,32.715,33.691,19.043,52.246,0
214143.599,49.805,34.668,35.156,37.109,48.828,0
214143.603,44.922,40.527,34.180,41.504,38.574,0
214143.607,19.531,37.598,29.785,20.020,19.043,0
214143.609,17.578,27.832,31.250,11.719,13.672,0
214143.613,40.039,25.391,33.691,30.762,20.020,0
214143.617,39.551,28.320,32.227,34.180,15.137,0
214143.621,21.484,32.715,32.227,17.578,23.926,0
214143.625,22.461,32.715,31.738,13.672,30.762,0
214143.629,41.016,30.273,37.109,31.250,31.250,0
214143.633,47.363,33.203,35.645,41.992,33.203,0
214143.637,30.273,31.738,34.180,29.297,23.926,0
214143.641,20.020,28.809,29.785,21.484,40.527,0
214143.645,33.691,31.250,22.949,28.809,58.105,0
214143.648,47.363,30.762,26.367,33.691,49.805,0
214143.652,35.645,28.320,28.809,24.414,35.156,0
214143.655,18.066,30.762,26.855,12.695,36.621,0
214143.658,26.367,35.156,30.273,22.461,46.875,0
214143.662,43.457,36.621,38.086,39.551,34.180,0
214143.666,34.180,31.738,36.621,38.574,22.461,0
214143.670,19.531,30.762,27.832,26.855,27.832,0
214143.674,27.832,32.227,28.809,26.367,38.086,0
214143.678,43.457,30.273,33.691,38.574,45.410,0
214143.682,41.992,29.785,29.785,36.621,36.621,0
214143.686,23.438,31.738,27.832,18.066,34.180,0
214143.690,20.996,35.156,27.832,12.207,35.156,0
214143.694,39.551,36.133,34.180,24.902,27.344,0
214143.698,51.758,33.203,36.133,36.133,24.414,0
214143.714,37.598,33.691,33.691,25.879,21.484,0
214143.718,20.020,35.156,37.109,14.160,24.414,0
214143.722,33.691,37.109,31.250,25.391,36.621,0
214143.726,54.199,37.109,25.879,38.574,32.227,0
214143.730,41.504,36.621,32.227,34.180,17.578,0
214143.734,20.020,34.668,35.645,17.578,14.648,0
214143.738,24.414,32.227,26.855,14.648,25.391,0
214143.742,42.480,31.738,22.461,29.297,36.621,0
214143.746,40.527,33.203,32.227,33.691,39.551,0
214143.750,15.625,31.250,32.715,14.648,36.621,0
214143.754,12.207,30.762,38.086,9.277,47.363,0
214143.757,38.086,34.180,42.480,27.344,57.617,0
214143.759,40.527,30.762,31.738,29.297,29.297,0
214143.763,16.602,28.320,22.461,13.184,2.441,0
214143.767,16.602,31.250,26.855,10.742,8.301,0
214143.771,35.645,32.227,32.227,28.320,23.926,0
214143.775,43.457,33.203,31.738,33.691,17.090,0
214143.779,30.273,35.645,30.762,20.996,6.836,0
214143.783,20.020,37.598,27.832,13.672,16.113,0
214143.787,28.320,35.645,30.762,21.973,40.527,0
214143.791,39.062,31.738,37.109,36.133,50.781,0
214143.795,25.879,31.250,36.621,33.203,41.504,0
214143.798,10.742,29.297,31.738,19.531,38.574,0
214143.802,24.414,31.250,29.297,22.461,46.875,0
214143.805,46.875,32.227,34.668,38.574,50.781,0
214143.809,44.434,31.250,34.180,36.621,29.297,0
214143.813,26.855,33.203,27.832,18.066,15.625,0
214143.816,26.855,36.133,28.320,15.625,23.438,0
214143.820,41.992,34.180,35.156,31.250,25.391,0
214143.824,41.504,30.273,34.668,34.180,18.066,0
214143.828,22.949,29.297,27.344,26.367,25.391,0
214143.832,17.578,30.762,30.273,24.414,46.875,0
214143.836,30.273,30.273,30.762,30.762,53.223,0
214143.840,38.574,28.320,24.414,40.039,45.410,0
214143.844,26.367,33.691,24.902,34.668,34.668,0
214143.848,12.207,33.691,33.203,15.137,30.762,0
214143.849,20.508,31.738,41.504,18.555,42.969,0
214143.853,36.621,33.691,45.410,37.109,58.594,0
214143.857,22.461,29.297,43.457,31.738,47.363,0
214143.861,7.324,26.855,41.016,17.090,6.836,0
214143.865,17.090,29.297,37.109,17.578,0.000,0
214143.869,36.621,31.738,33.691,30.273,18.555,0
214143.873,37.109,31.738,29.297,34.180,31.250,0
214143.877,21.484,34.180,23.438,22.949,40.527,0
214143.881,20.508,36.621,22.949,17.090,43.457,0
214143.885,36.621,33.691,25.879,28.320,41.992,0
214143.888,41.504,34.180,31.738,31.738,30.762,0
214143.892,22.461,34.668,32.715,14.648,23.926,0
214143.895,15.625,33.691,29.785,5.371,30.273,0
214143.898,32.715,32.715,29.785,17.578,38.574,0
214143.902,44.434,30.273,30.762,32.227,36.133,0
214143.906,35.156,36.133,31.738,31.738,31.738,0
214143.910,21.484,41.016,36.133,23.926,38.574,0
214143.914,23.926,36.621,27.344,21.973,34.668,0
214143.918,35.645,32.227,26.855,31.738,32.227,0
214143.922,29.785,32.227,36.621,29.297,42.969,0
214143.926,17.090,34.180,23.926,17.578,44.434,0
214143.930,22.461,31.738,22.461,21.973,40.039,0
214143.934,43.457,31.250,39.551,37.598,40.527,0
214143.937,46.875,33.203,40.039,40.039,38.574,0
214143.939,30.762,35.156,35.645,30.273,47.852,0
214143.943,24.902,33.691,38.086,26.855,67.383,0
214143.947,36.621,30.762,40.527,33.203,60.059,0
214143.951,46.875,32.227,38.086,39.551,41.016,0
214143.955,33.203,38.086,36.133,31.250,43.945,0
214143.959,20.508,39.551,35.645,17.578,39.062,0
214143.963,35.156,41.504,33.203,23.438,24.902,0
214143.967,49.316,42.969,28.320,29.297,19.531,0
214143.971,39.551,41.504,26.855,19.531,10.254,0
214143.975,24.902,40.527,20.508,12.695,17.578,0
214143.979,27.832,37.109,20.996,19.531,34.180,0
214143.982,44.434,37.598,24.902,37.109,49.316,0
214143.986,44.434,39.062,22.461,40.527,55.664,0
214143.990,25.879,39.062,23.926,30.762,60.547,0
214143.994,22.461,35.645,26.855,23.926,58.105,0
214143.998,36.621,33.691,27.344,35.156,44.922,0
214144.002,41.992,35.645,28.809,40.527,28.320,0
214144.005,21.484,36.621,25.879,20.996,2.441,0
214144.009,8.789,34.180,20.508,5.371,-4.395,0
214144.013,25.391,30.762,23.438,16.602,10.254,0
214144.017,35.156,29.785,25.391,30.273,9.277,0
214144.021,20.508,27.832,20.996,22.949,13.184,0
214144.025,8.789,29.297,18.555,12.695,29.785,0
214144.029,25.879,32.227,27.832,21.484,46.387,0
214144.044,48.828,34.668,36.133,41.992,50.293,0
214144.048,39.551,36.133,33.691,39.062,44.922,0
214144.052,26.367,35.156,33.691,24.902,52.734,0
214144.056,31.250,32.715,31.250,19.531,51.270,0
214144.060,48.340,32.227,23.926,32.227,45.898,0
214144.064,54.199,35.156,18.555,40.527,41.504,0
214144.068,39.062,38.086,20.508,29.297,30.273,0
214144.072,37.109,38.086,27.344,23.926,32.227,0
214144.076,50.293,37.598,30.762,34.180,42.480,0
214144.080,51.270,39.551,32.227,39.551,33.691,0
214144.084,32.715,40.527,27.344,22.461,18.066,0
214144.087,22.949,37.109,20.508,9.277,19.043,0
214144.090,37.598,33.203,19.531,17.578,24.902,0
214144.094,47.852,33.203,20.996,28.320,29.297,0
214144.098,34.180,36.133,16.113,22.461,41.016,0
214144.102,20.020,37.109,16.602,13.184,50.781,0
214144.106,28.809,34.668,28.320,29.785,46.387,0
214144.110,43.945,34.668,33.691,44.922,34.180,0
214144.114,35.645,32.227,25.391,28.809,18.555,0
214144.117,18.066,30.273,27.832,11.230,17.090,0
214144.121,24.414,31.738,31.738,15.137,14.648,0
214144.125,42.480,31.738,27.344,29.785,-0.488,0
214144.129,39.551,32.227,12.207,31.738,0.000,0
214144.133,25.391,33.691,9.277,22.461,15.137,0
214144.134,27.832,32.227,24.414,22.461,24.902,0
214144.138,46.387,31.738,24.902,33.691,39.551,0
214144.142,55.664,34.668,17.578,40.527,46.387,0
214144.146,40.527,35.645,24.902,36.621,45.898,0
214144.150,27.344,32.227,23.438,27.832,57.129,0
214144.154,41.504,31.250,18.066,32.715,67.383,0
214144.158,49.316,32.227,23.438,45.410,50.781,0
214144.162,30.273,29.297,25.879,39.062,22.461,0
214144.166,19.043,32.227,27.832,20.996,14.160,0
214144.170,28.809,35.645,27.832,19.043,17.578,0
214144.173,41.992,34.668,24.414,33.691,34.180,0
214144.177,36.133,31.250,20.996,32.227,28.809,0
214144.179,21.973,32.227,20.020,15.137,22.949,0
214144.183,30.762,36.133,20.020,19.043,39.551,0
214144.187,56.641,38.574,25.391,41.992,50.293,0
214144.191,64.941,40.039,24.902,51.758,54.199,0
214144.195,43.945,41.504,24.414,39.062,55.176,0
214144.199,33.691,35.645,25.879,27.344,65.430,0
214144.203,47.852,31.738,24.902,36.133,65.430,0
214144.207,59.570,36.133,21.484,44.922,41.016,0
214144.211,44.434,38.086,19.531,31.738,23.926,0
214144.214,30.762,39.551,27.344,19.531,28.320,0
214144.218,43.945,40.039,37.109,28.320,35.645,0
214144.222,52.734,39.062,35.645,38.086,24.902,0
214144.224,38.574,40.039,32.227,34.180,17.578,0
214144.228,25.391,37.598,25.879,25.879,33.691,0
214144.232,30.762,35.156,16.113,27.344,43.945,0
214144.236,44.922,36.621,20.996,37.109,50.781,0
214144.240,43.945,37.598,24.414,42.480,43.457,0
214144.244,26.367,34.180,24.902,32.715,32.227,0
214144.248,24.414,31.250,29.297,27.344,49.316,0
214144.252,37.598,29.785,30.273,36.133,55.176,0
214144.256,44.922,31.250,19.043,37.109,43.945,0
214144.260,30.273,34.668,21.973,22.949,34.180,0
214144.263,24.902,37.109,32.715,13.184,39.551,0
214144.267,42.480,38.086,29.785,20.996,41.016,0
214144.271,50.293,41.016,28.809,36.133,30.273,0
214144.275,31.738,38.086,25.391,22.949,22.461,0
214144.279,19.043,35.156,21.973,2.930,27.344,0
214144.283,33.203,38.086,20.508,14.160,49.805,0
214144.286,43.945,36.621,21.973,29.297,57.129,0
214144.290,31.738,34.180,24.902,24.414,50.781,0
214144.294,21.484,34.668,23.438,15.137,46.387,0
214144.298,31.250,36.133,26.855,20.020,53.711,0
214144.302,41.504,31.738,28.320,38.086,48.828,0
214144.306,35.645,29.785,27.832,39.551,21.484,0
214144.310,14.160,32.715,32.227,20.508,7.324,0
214144.314,6.836,30.762,29.785,13.672,3.906,0
214144.314,22.461,28.320,26.855,26.367,1.465,0
214144.318,28.809,31.250,27.832,34.668,-2.441,0
214144.322,13.672,34.180,22.949,21.973,-0.488,0
214144.326,11.719,37.109,29.785,19.043,19.043,0
214144.330,29.297,38.574,35.156,28.320,39.551,0
214144.334,38.086,36.133,23.926,29.785,44.922,0
214144.338,26.367,34.180,22.949,22.461,42.969,0
214144.342,17.090,36.133,28.320,13.672,39.062,0
214144.346,27.832,38.574,28.809,15.137,33.203,0
214144.349,43.945,37.109,20.020,31.738,31.738,0
214144.353,33.203,36.133,17.578,32.715,30.762,0
214144.357,12.207,37.109,25.391,14.160,23.926,0
214144.359,15.137,39.551,26.855,10.254,23.926,0
214144.363,29.297,38.086,25.879,17.578,24.414,0
214144.367,25.391,36.133,20.508,16.113,13.672,0
214144.371,8.789,36.621,16.113,6.348,5.371,0
214144.375,9.277,35.645,15.137,3.418,16.602,0
214144.379,27.344,33.203,15.137,15.625,34.180,0
214144.383,37.109,35.645,16.113,24.414,39.062,0
214144.387,28.320,37.109,24.414,19.043,48.340,0
214144.391,22.949,42.969,29.297,19.531,68.359,0
214144.395,37.109,46.387,15.137,28.320,68.848,0
214144.398,42.480,37.109,13.184,31.250,48.340,0
214144.402,27.832,36.133,22.461,29.297,28.809,0
214144.405,11.230,40.527,21.973,16.602,27.832,0
214144.409,14.648,39.551,24.902,13.672,29.785,0
214144.412,32.227,38.574,25.879,28.320,3.418,0
214144.416,29.785,41.992,18.555,25.879,-8.301,0
214144.420,16.113,43.945,20.996,13.672,9.277,0
214144.424,21.973,43.457,30.273,17.090,28.320,0
214144.428,35.156,39.062,27.344,28.320,30.762,0
214144.432,33.691,35.156,20.996,35.645,27.344,0
214144.436,21.484,37.109,19.531,30.273,31.738,0
214144.440,20.020,35.156,20.508,24.414,40.039,0
214144.444,34.180,35.645,20.020,33.203,45.410,0
214144.448,45.410,39.062,16.113,38.574,41.016,0
214144.464,28.809,35.645,20.996,29.297,33.203,0
214144.468,19.531,38.086,31.250,24.902,38.574,0
214144.472,35.156,40.527,30.762,30.273,43.457,0
214144.476,41.504,33.203,28.809,31.738,28.320,0
214144.480,25.391,35.156,27.832,25.879,17.090,0
214144.484,9.277,40.527,27.344,16.602,37.109,0
214144.488,20.020,41.016,27.344,21.973,51.270,0
214144.492,39.062,40.039,23.926,39.551,27.832,0
214144.496,36.621,36.133,25.879,38.086,17.090,0
214144.500,23.926,37.109,27.344,19.043,25.391,0
214144.503,27.832,41.992,32.715,17.578,41.992,0
214144.507,43.945,41.016,29.297,34.180,47.852,0
214144.511,47.363,43.945,15.625,41.016,33.203,0
214144.514,30.762,45.898,12.207,29.297,27.832,0
214144.518,19.531,40.039,18.555,20.020,23.926,0
214144.522,32.715,39.062,23.926,27.344,1.953,0
214144.526,41.504,38.086,15.625,35.156,-8.301,0
214144.530,29.785,41.992,20.996,25.879,3.418,0
214144.534,17.090,44.434,31.738,13.184,19.531,0
214144.538,23.926,40.039,30.762,20.020,33.691,0
214144.542,38.574,39.551,29.785,33.203,41.016,0
214144.546,30.273,38.086,24.414,27.344,41.992,0
214144.550,16.113,39.062,26.855,18.555,48.340,0
214144.554,20.508,36.621,27.832,21.973,56.641,0
214144.555,38.086,35.645,25.879,33.203,62.988,0
214144.559,39.062,41.992,18.555,35.156,53.711,0
214144.563,19.043,42.969,13.672,21.484,28.320,0
214144.566,12.695,37.598,18.555,14.648,20.020,0
214144.570,29.785,33.203,23.438,25.879,18.066,0
214144.574,39.062,36.621,26.367,31.738,16.113,0
214144.578,25.879,43.457,22.461,14.648,19.531,0
214144.582,20.020,43.945,16.602,7.812,20.508,0
214144.586,32.715,37.598,18.555,20.508,28.320,0
214144.590,45.410,36.621,20.996,29.785,28.809,0
214144.594,37.598,39.062,20.508,29.297,26.367,0
214144.598,25.879,38.086,18.066,20.996,44.434,0
214144.600,35.645,36.133,17.578,27.344,58.105,0
214144.603,54.688,38.086,21.484,42.969,55.664,0
214144.607,44.922,38.574,17.578,35.156,55.664,0
214144.611,28.320,38.574,15.625,14.648,42.969,0
214144.615,33.691,37.598,23.926,13.672,26.855,0
214144.619,45.898,36.621,22.461,28.809,31.250,0
214144.623,47.363,41.016,22.461,37.598,26.855,0
214144.627,34.668,39.551,23.926,29.297,27.344,0
214144.631,28.809,36.621,20.996,13.672,26.367,0
214144.635,44.922,34.180,24.414,16.602,31.250,0
214144.639,49.316,33.691,24.414,30.273,40.527,0
214144.642,27.832,38.086,24.902,25.879,39.551,0
214144.644,19.531,37.109,26.855,17.578,38.086,0
214144.648,36.621,37.598,28.809,25.879,36.133,0
214144.652,45.898,38.086,32.715,41.016,28.809,0
214144.656,25.879,32.715,33.203,36.133,19.043,0
214144.660,11.719,31.738,24.902,20.996,18.555,0
214144.664,24.902,36.133,18.066,22.461,27.344,0
214144.668,40.527,38.574,20.020,29.297,33.691,0
214144.672,38.574,42.480,24.902,23.438,21.973,0
214144.676,25.879,42.480,26.855,9.277,17.578,0
214144.680,28.320,37.109,22.949,7.812,31.738,0
214144.683,52.246,39.062,24.414,23.926,49.316,0
214144.687,60.547,41.504,27.832,34.668,62.500,0
214144.689,34.668,38.574,26.855,20.508,64.453,0
214144.693,17.090,34.668,20.996,9.766,50.781,0
214144.697,33.203,31.738,25.879,24.414,44.434,0
214144.701,43.457,34.180,29.785,36.133,51.758,0
214144.705,26.855,36.621,28.809,27.344,28.320,0
214144.709,14.160,33.691,28.320,17.578,6.348,0
214144.713,21.973,35.156,23.926,22.461,18.555,0
214144.717,40.527,39.551,25.879,34.668,24.902,0
214144.721,36.133,41.016,28.809,28.320,23.926,0
214144.725,15.625,36.621,25.879,13.184,31.738,0
214144.728,17.090,32.227,26.367,17.578,45.898,0
214144.732,36.133,32.227,24.902,33.691,49.316,0
214144.736,40.039,34.668,18.555,35.645,42.480,0
214144.740,25.391,36.621,25.391,22.949,37.598,0
214144.744,24.414,36.133,33.691,20.508,39.551,0
214144.748,41.016,37.109,31.738,37.598,56.641,0
214144.752,37.598,35.156,31.250,41.992,51.758,0
214144.756,12.695,28.809,24.414,22.461,33.203,0
214144.759,8.301,34.180,17.578,14.648,29.785,0
214144.763,26.855,38.574,21.973,25.391,27.832,0
214144.767,38.574,36.133,21.973,32.227,15.625,0
214144.771,28.809,35.156,23.926,20.996,6.836,0
214144.775,18.066,34.180,30.762,10.254,16.113,0
214144.779,31.250,33.203,33.203,26.367,36.621,0
214144.779,50.293,33.203,28.809,45.410,49.316,0
214144.783,44.434,37.598,15.625,44.434,39.551,0
214144.787,26.855,35.156,13.672,30.762,35.645,0
214144.791,30.762,33.203,14.160,28.809,51.758,0
214144.795,48.828,37.109,19.043,41.504,51.270,0
214144.799,41.016,37.598,28.809,37.598,25.391,0
214144.803,19.531,37.598,26.855,16.602,3.418,0
214144.807,18.555,35.156,30.762,12.695,16.113,0
214144.811,33.203,34.180,37.109,25.391,25.879,0
214144.815,37.109,31.738,33.691,26.855,8.301,0
214144.818,22.949,32.227,23.926,15.625,5.859,0
214144.822,17.578,37.109,20.020,17.090,33.203,0
214144.839,36.133,39.062,18.066,36.621,59.082,0
214144.843,43.457,38.574,17.090,41.504,44.434,0
214144.847,24.902,37.598,21.973,28.809,17.090,0
214144.851,17.090,40.039,29.785,22.461,30.762,0
214144.855,31.250,41.016,27.832,30.273,52.734,0
214144.859,44.434,38.574,18.555,39.551,45.410,0
214144.863,34.180,40.039,15.137,34.180,34.668,0
214144.867,16.602,39.062,16.113,16.113,36.621,0
214144.871,23.438,38.574,21.484,18.066,45.898,0
214144.875,41.992,41.016,22.949,33.203,44.922,0
214144.878,38.086,37.109,20.020,30.762,22.949,0
214144.882,20.996,36.133,19.043,15.137,10.254,0
214144.885,21.973,39.551,20.508,10.742,21.973,0
214144.889,33.203,36.621,20.508,21.484,29.785,0
214144.893,36.133,34.668,18.555,27.832,9.766,0
214144.897,22.461,37.109,21.973,22.949,3.906,0
214144.901,14.160,40.039,24.414,14.648,12.207,0
214144.905,23.926,38.574,20.508,20.996,11.230,0
214144.908,39.062,40.527,22.949,35.156,21.973,0
214144.912,34.668,43.457,26.855,30.762,28.320,0
214144.916,20.996,44.434,23.438,21.484,21.484,0
214144.920,28.320,40.039,24.414,26.855,28.809,0
214144.924,42.480,33.691,26.367,39.551,29.785,0
214144.928,38.086,33.691,15.137,36.133,25.879,0
214144.930,20.020,36.621,15.625,18.066,46.875,0
214144.934,18.066,37.109,25.879,18.555,57.617,0
214144.938,34.668,36.621,25.391,29.785,37.109,0
214144.942,38.086,37.109,28.320,33.691,20.020,0
214144.946,21.484,36.133,31.738,25.879,21.484,0
214144.950,16.113,34.668,32.715,16.113,30.273,0
214144.953,32.227,32.715,31.738,26.367,32.715,0
214144.957,42.480,35.156,25.391,35.156,30.762,0
214144.961,29.297,37.109,19.043,20.996,30.762,0
214144.965,16.113,37.598,23.438,9.277,33.691,0
214144.969,28.809,36.621,22.949,20.508,39.062,0
214144.973,47.852,35.645,22.949,36.133,34.668,0
214144.977,33.691,37.598,25.879,29.297,15.625,0
214144.981,17.090,41.992,24.902,18.066,13.184,0
214144.985,28.809,42.969,26.367,25.391,37.598,0
214144.989,45.898,40.039,21.484,39.062,47.852,0
214144.993,39.062,41.504,16.113,36.621,27.832,0
214144.997,22.461,41.992,23.926,20.020,14.648,0
214145.001,26.367,38.086,32.715,20.996,27.832,0
214145.005,52.246,35.156,29.785,42.480,49.805,0
214145.009,58.594,38.086,23.926,48.340,48.340,0
214145.013,29.297,42.969,20.508,25.391,26.855,0
214145.016,9.766,43.457,24.902,10.742,19.531,0
