timestamps,TP9,AF7,AF8,TP10,Right AUX,Marker0
213709.598,12.207,31.738,30.762,18.555,19.531,0
213709.602,40.527,33.691,34.668,32.715,21.973,0
213709.606,40.039,33.691,40.527,35.156,21.484,0
213709.610,12.695,38.086,45.410,25.879,16.113,0
213709.614,27.832,40.039,43.945,18.066,16.113,0
213709.618,45.410,35.156,36.621,28.320,30.762,0
213709.621,38.086,34.180,29.785,34.668,37.109,0
213709.625,27.344,32.715,26.367,17.090,21.484,0
213709.629,18.066,30.762,32.227,3.906,16.113,0
213709.633,23.438,30.762,36.621,14.648,21.973,0
213709.637,31.738,35.645,35.156,31.250,17.090,0
213709.641,21.973,38.086,31.738,21.484,12.695,0
213709.645,7.812,30.273,34.668,10.254,23.926,0
213709.648,44.434,26.367,43.457,24.902,46.387,0
213709.652,34.668,24.902,49.805,40.527,27.344,0
213709.656,5.859,22.461,44.434,29.297,3.906,0
213709.660,14.648,22.949,38.086,9.766,15.137,0
213709.664,2.930,21.973,35.645,8.301,29.297,0
213709.668,18.066,20.996,44.434,22.461,42.480,0
213709.672,30.273,24.414,44.922,31.738,37.109,0
213709.676,5.371,27.344,35.156,20.508,24.414,0
213709.680,19.531,29.297,29.297,17.090,28.320,0
213709.684,56.641,31.250,32.227,28.809,39.062,0
213709.688,38.086,32.227,29.297,34.668,30.273,0
213709.688,14.160,31.250,16.113,22.949,16.113,0
213709.692,16.602,34.180,22.461,17.578,42.969,0
213709.696,29.297,38.574,33.203,35.156,45.410,0
213709.700,34.180,32.227,41.992,40.039,11.230,0
213709.703,35.645,27.344,41.016,25.391,13.672,0
213709.707,21.973,33.203,36.621,15.625,25.391,0
213709.711,20.508,36.621,32.227,21.973,26.367,0
213709.715,41.992,32.715,24.414,29.297,36.133,0
213709.719,20.508,30.762,22.949,21.973,48.828,0
213709.723,-0.977,32.227,26.367,12.695,46.875,0
213709.727,20.020,35.156,31.738,15.625,31.738,0
213709.731,46.875,37.109,39.062,30.762,23.438,0
213709.733,30.762,34.180,39.062,32.715,31.738,0
213709.737,22.461,34.180,32.227,18.066,51.270,0
213709.741,28.809,36.133,22.461,14.648,55.176,0
213709.745,32.715,34.180,24.414,30.762,44.434,0
213709.749,47.852,29.785,27.344,40.039,41.992,0
213709.753,16.113,25.391,28.809,30.273,37.109,0
213709.757,-15.625,27.832,33.203,13.184,35.156,0
213709.760,0.000,29.785,32.715,19.043,45.898,0
213709.764,34.180,28.320,36.133,30.762,36.133,0
213709.768,26.367,26.367,37.109,19.043,20.996,0
213709.772,5.859,33.203,35.645,4.395,37.598,0
213709.776,31.738,38.086,40.527,15.625,54.199,0
213709.778,47.852,33.691,38.574,37.109,40.039,0
213709.782,30.762,35.156,29.297,31.250,38.086,0
213709.786,-3.418,33.203,21.973,10.254,41.992,0
213709.790,6.836,28.320,24.414,8.789,37.109,0
213709.793,43.457,26.855,38.086,26.367,17.578,0
213709.797,23.926,27.832,41.504,27.832,4.883,0
213709.801,-13.672,31.250,36.133,13.184,11.719,0
213709.805,6.348,30.273,36.621,3.418,17.090,0
213709.809,31.250,28.320,43.457,16.602,30.273,0
213709.813,34.180,30.273,40.527,33.203,32.715,0
213709.817,13.672,30.273,27.344,6.348,26.367,0
213709.821,-14.648,28.320,32.227,-19.043,28.320,0
213709.823,-6.348,25.879,39.062,-1.953,37.598,0
213709.827,5.859,22.949,26.367,16.602,46.875,0
213709.831,-2.930,23.926,21.973,12.695,20.996,0
213709.835,-6.348,24.414,29.297,-2.441,-9.277,0
213709.839,22.461,23.926,35.156,3.418,6.348,0
213709.843,44.922,30.762,32.227,28.320,32.227,0
213709.846,18.066,34.668,30.762,38.574,31.250,0
213709.850,5.859,33.203,42.480,15.625,22.461,0
213709.854,7.324,34.668,49.805,11.719,27.832,0
213709.858,36.621,40.039,43.945,27.832,28.320,0
213709.862,51.270,49.805,29.297,33.691,26.855,0
213709.866,34.180,47.852,28.320,22.461,27.832,0
213709.869,27.832,31.738,30.762,4.395,29.785,0
213709.873,29.297,25.879,27.832,24.414,37.598,0
213709.877,28.320,33.203,24.902,42.480,41.992,0
213709.881,5.371,35.645,27.344,30.273,29.785,0
213709.885,5.371,37.109,36.621,24.902,18.555,0
213709.889,24.414,34.180,36.133,32.227,26.855,0
213709.892,45.410,32.715,30.762,42.480,35.645,0
213709.896,28.320,35.645,27.344,40.039,48.340,0
213709.900,2.930,39.062,26.855,19.043,53.711,0
213709.904,20.020,36.621,27.832,14.160,39.062,0
213709.908,30.762,34.668,25.391,33.203,35.156,0
213709.912,25.879,39.062,28.320,40.527,26.855,0
213709.928,23.926,34.668,26.855,26.855,18.555,0
213709.932,20.020,36.133,32.227,18.066,32.227,0
213709.936,27.832,41.504,35.645,33.203,31.250,0
213709.940,38.086,36.621,24.902,35.645,17.090,0
213709.944,33.691,35.645,23.438,23.438,17.578,0
213709.948,19.043,37.109,29.297,14.160,23.926,0
213709.952,34.668,34.180,32.715,14.160,28.320,0
213709.955,19.043,32.715,26.855,23.438,16.602,0
213709.959,2.930,33.203,30.273,17.090,19.531,0
213709.963,7.812,35.156,41.992,8.789,31.738,0
213709.967,32.715,37.109,44.434,18.555,34.668,0
213709.971,40.039,34.668,38.086,36.621,39.551,0
213709.974,11.230,32.715,29.785,27.832,33.203,0
213709.978,14.648,37.109,10.742,10.254,26.855,0
213709.981,24.902,35.645,12.695,13.184,31.250,0
213709.985,31.250,33.691,41.504,25.391,36.133,0
213709.989,29.785,36.133,52.246,25.879,15.625,0
213709.993,18.555,38.574,46.387,13.184,4.395,0
213709.997,9.766,41.992,51.270,10.254,19.043,0
213710.001,10.254,39.062,47.852,14.160,29.785,0
213710.005,21.973,32.227,26.367,14.160,26.855,0
213710.009,17.090,27.344,24.414,5.859,18.555,0
213710.013,10.254,30.273,24.902,3.418,31.738,0
213710.017,28.320,34.668,13.672,20.020,50.293,0
213710.018,52.734,34.668,29.785,36.621,44.434,0
213710.022,36.133,32.227,41.016,29.297,40.039,0
213710.026,12.207,33.203,30.762,17.090,47.363,0
213710.030,26.855,37.598,39.551,33.203,45.410,0
213710.034,36.621,32.715,48.340,35.645,37.109,0
213710.038,26.855,28.809,41.016,20.508,21.484,0
213710.041,8.301,34.668,38.086,15.625,16.113,0
213710.045,30.273,36.133,30.762,20.508,34.668,0
213710.049,52.246,36.133,8.789,33.691,38.086,0
213710.053,26.367,41.504,18.555,38.086,29.297,0
213710.057,15.137,38.086,41.992,29.785,43.457,0
213710.061,23.926,28.809,45.410,25.391,42.480,0
213710.064,30.762,30.273,54.199,35.156,41.504,0
213710.068,32.715,32.715,54.688,42.969,52.734,0
213710.071,27.344,30.762,41.992,33.691,37.109,0
213710.075,18.555,31.738,36.621,19.531,16.113,0
213710.079,31.250,32.227,36.621,20.996,25.391,0
213710.083,39.551,31.250,35.645,36.133,31.250,0
213710.087,8.301,33.691,29.297,27.832,23.438,0
213710.091,5.371,39.062,25.879,16.602,38.574,0
213710.095,32.227,44.434,39.551,23.438,52.734,0
213710.099,57.617,43.945,58.105,37.598,48.828,0
213710.103,53.223,41.016,54.688,37.109,27.832,0
213710.107,23.438,39.551,33.203,25.879,23.438,0
213710.109,19.531,38.086,18.066,18.066,48.340,0
213710.113,34.180,35.645,26.367,32.715,50.781,0
213710.117,32.227,38.574,38.086,40.039,32.715,0
213710.121,20.508,41.016,49.805,23.926,36.621,0
213710.125,19.043,37.109,55.664,12.695,43.457,0
213710.129,27.832,33.203,47.363,24.414,37.598,0
213710.133,35.645,33.691,37.109,39.551,37.109,0
213710.137,42.480,37.109,35.645,32.715,29.297,0
213710.141,25.879,42.480,40.527,16.113,20.508,0
213710.144,12.695,43.457,36.621,11.719,12.695,0
213710.148,21.484,34.180,26.367,20.508,20.996,0
213710.152,17.578,28.320,19.531,21.973,27.832,0
213710.153,4.883,30.273,19.531,11.719,18.066,0
213710.157,18.555,32.227,32.227,9.766,44.434,0
213710.161,49.316,30.762,46.875,19.043,57.129,0
213710.165,44.434,31.250,43.457,22.949,31.738,0
213710.169,2.930,29.785,35.645,11.719,15.625,0
213710.172,-3.906,31.738,39.551,7.812,16.113,0
213710.176,25.391,44.922,43.945,27.344,30.273,0
213710.180,38.086,48.828,36.133,33.691,28.809,0
213710.184,18.066,40.527,29.297,15.137,16.113,0
213710.188,15.625,34.180,27.344,9.277,21.484,0
213710.192,34.668,33.203,31.738,21.973,36.621,0
213710.196,29.785,32.227,44.434,33.691,32.227,0
213710.198,31.250,29.785,40.527,23.926,13.184,0
213710.202,34.668,30.273,25.879,10.254,24.902,0
213710.206,25.879,29.785,27.832,17.090,37.109,0
213710.210,30.762,32.715,39.062,34.668,46.875,0
213710.214,20.020,38.086,52.734,34.668,57.129,0
213710.218,10.254,36.621,54.688,19.043,49.316,0
213710.222,30.273,34.180,51.758,18.066,43.457,0
213710.226,55.664,35.156,49.805,27.832,37.598,0
213710.230,40.527,34.668,39.551,32.715,19.043,0
213710.233,21.973,27.832,13.184,17.090,9.277,0
213710.237,7.324,26.855,13.672,3.418,23.438,0
213710.241,20.020,34.180,42.969,16.113,36.621,0
213710.243,31.250,34.668,43.945,29.785,53.223,0
213710.247,26.367,34.668,39.551,18.555,44.922,0
213710.251,37.109,41.504,41.016,12.695,17.578,0
213710.255,35.156,40.527,33.203,25.879,24.414,0
213710.259,33.691,40.527,29.785,41.016,40.527,0
213710.263,24.902,40.527,30.273,35.156,41.504,0
213710.267,20.508,35.645,44.922,24.902,50.781,0
213710.270,33.691,35.645,46.875,30.762,57.617,0
213710.274,53.223,38.574,39.551,41.016,43.457,0
213710.278,33.691,38.086,35.156,40.527,39.551,0
213710.282,11.230,33.691,38.086,26.855,38.086,0
213710.286,15.137,33.691,46.387,23.926,37.109,0
213710.303,37.109,36.133,43.457,32.227,43.945,0
213710.307,38.086,32.715,41.992,30.273,37.109,0
213710.311,21.484,38.086,39.551,20.508,29.297,0
213710.315,28.809,42.969,34.180,20.020,35.156,0
213710.318,38.574,36.621,30.762,34.668,40.527,0
213710.322,48.828,37.598,23.926,46.875,35.645,0
213710.326,34.180,43.457,27.832,34.668,42.480,0
213710.330,11.230,45.410,49.805,20.508,54.688,0
213710.334,19.531,41.992,51.758,29.297,44.434,0
213710.338,23.926,35.645,34.180,33.203,26.855,0
213710.342,12.695,33.691,24.414,20.996,15.137,0
213710.346,-0.977,34.180,31.738,12.207,0.000,0
213710.348,-0.488,37.598,33.691,20.508,2.441,0
213710.352,42.969,38.086,24.414,33.691,13.184,0
213710.356,58.594,38.086,27.344,27.344,15.137,0
213710.360,13.672,37.109,34.668,13.184,16.602,0
213710.364,15.625,39.551,49.805,21.973,39.062,0
213710.368,41.504,42.480,54.688,36.621,55.176,0
213710.371,41.992,39.551,49.316,41.504,52.246,0
213710.375,32.715,37.109,51.758,33.203,58.594,0
213710.379,28.809,35.156,45.410,22.461,57.617,0
213710.383,58.594,31.250,41.016,37.598,44.434,0
213710.387,84.473,33.203,36.133,50.781,35.156,0
213710.391,30.762,35.156,36.133,37.109,33.691,0
213710.393,-9.766,32.227,49.316,19.531,29.297,0
213710.397,25.391,35.645,53.223,24.902,22.461,0
213710.401,39.551,38.086,50.781,46.875,27.832,0
213710.405,19.043,37.109,41.504,38.574,22.949,0
213710.409,21.484,41.016,34.668,19.043,26.367,0
213710.413,39.062,41.992,42.969,32.715,47.852,0
213710.416,45.410,35.645,52.734,50.781,48.828,0
213710.420,32.715,39.062,48.828,47.363,55.176,0
213710.424,14.648,39.062,41.992,25.879,73.730,0
213710.428,16.113,32.227,43.457,22.461,59.082,0
213710.432,46.387,32.715,40.039,44.434,42.480,0
213710.436,42.969,34.180,35.645,43.457,44.922,0
213710.438,19.531,35.156,35.645,20.996,42.969,0
213710.442,25.391,33.691,43.945,13.184,36.133,0
213710.446,36.133,32.227,42.969,24.902,32.227,0
213710.450,44.434,37.598,32.227,39.551,36.133,0
213710.454,24.902,43.457,18.555,31.738,36.621,0
213710.458,28.809,41.016,27.344,16.602,37.109,0
213710.461,39.551,36.133,45.898,28.809,41.992,0
213710.465,47.363,36.133,42.969,46.875,56.641,0
213710.469,41.016,34.180,41.016,41.504,46.875,0
213710.473,20.508,28.809,43.945,27.344,29.785,0
213710.477,10.742,29.785,38.086,27.832,41.504,0
213710.481,26.367,33.203,33.203,40.527,38.086,0
213710.484,43.457,34.180,41.504,44.922,27.832,0
213710.488,16.602,36.621,37.598,29.297,23.926,0
213710.492,4.883,35.156,23.438,17.578,20.020,0
213710.496,36.133,40.039,30.762,32.715,42.969,0
213710.500,50.781,42.480,49.805,45.898,51.758,0
213710.503,35.645,30.273,50.293,31.738,28.809,0
213710.507,15.625,25.391,41.504,22.461,41.992,0
213710.511,28.809,24.902,42.480,29.785,69.336,0
213710.515,47.363,27.344,48.340,42.480,67.871,0
213710.519,41.504,33.691,43.945,42.480,50.781,0
213710.523,21.973,34.180,38.086,26.855,48.828,0
213710.527,17.578,35.156,44.434,22.461,52.734,0
213710.528,32.715,37.598,32.715,28.320,27.832,0
213710.532,26.367,39.551,26.367,24.414,14.648,0
213710.536,6.836,42.480,35.156,13.672,30.273,0
213710.540,15.137,41.016,25.391,13.672,42.969,0
213710.544,29.297,36.621,29.297,31.738,44.434,0
213710.548,28.320,37.598,37.598,35.645,44.434,0
213710.551,36.621,37.109,39.551,17.578,44.434,0
213710.555,29.297,37.109,38.086,14.648,41.504,0
213710.559,20.020,38.574,36.621,31.250,49.316,0
213710.563,44.434,36.621,38.574,39.551,44.922,0
213710.567,41.992,37.109,41.016,28.809,26.367,0
213710.571,14.648,41.992,41.504,23.438,33.203,0
213710.574,19.531,39.062,40.039,26.855,27.344,0
213710.578,36.621,33.691,41.992,31.250,14.160,0
213710.582,30.273,39.551,42.480,27.344,27.832,0
213710.586,21.484,38.086,41.992,3.906,34.668,0
213710.590,13.672,27.344,31.738,-0.488,29.785,0
213710.594,26.367,25.879,28.809,22.949,29.785,0
213710.598,34.180,27.344,37.598,22.949,25.879,0
213710.602,9.766,28.320,42.969,11.719,30.273,0
213710.606,3.418,32.715,46.387,19.531,47.852,0
213710.610,38.086,28.809,52.246,29.785,55.664,0
213710.614,33.691,24.414,39.062,36.133,47.852,0
213710.617,12.695,30.762,26.367,21.484,34.668,0
213710.633,0.488,33.691,27.344,5.371,21.973,0
213710.637,7.812,31.738,24.902,21.973,31.250,0
213710.641,26.855,29.785,33.691,29.297,30.762,0
213710.645,9.277,29.785,45.410,11.719,21.973,0
213710.649,1.953,26.367,41.016,1.465,24.414,0
213710.653,23.926,28.320,39.551,13.672,25.391,0
213710.657,20.508,30.273,35.156,33.203,18.066,0
213710.661,18.066,28.809,22.461,22.461,8.301,0
213710.665,20.996,31.738,23.926,-0.488,18.066,0
213710.669,18.066,33.203,37.109,6.348,37.598,0
213710.672,40.527,32.715,36.133,25.879,43.457,0
213710.676,63.965,38.086,27.832,28.809,46.387,0
213710.678,37.598,44.434,26.855,22.949,55.176,0
213710.682,25.879,43.457,28.809,21.484,49.805,0
213710.686,57.129,44.434,45.410,38.574,33.691,0
213710.690,47.852,41.992,50.781,50.781,19.531,0
213710.693,20.508,37.598,39.062,24.414,15.137,0
213710.697,8.789,37.598,35.645,5.371,19.531,0
213710.701,32.227,37.598,38.086,9.277,30.273,0
213710.705,40.527,34.668,38.086,20.020,26.367,0
213710.709,19.531,36.133,30.273,20.996,27.832,0
213710.713,13.672,34.180,21.973,6.836,37.109,0
213710.717,26.367,29.785,28.809,10.254,47.363,0
213710.721,29.785,31.738,24.902,33.691,65.430,0
213710.723,7.324,32.715,18.555,30.762,48.828,0
213710.727,4.883,37.598,32.715,12.695,30.273,0
213710.731,21.484,38.574,42.969,12.207,25.391,0
213710.735,21.484,31.250,41.016,19.531,21.484,0
213710.739,7.812,29.297,34.180,24.902,13.184,0
213710.742,1.953,28.320,23.926,8.789,4.395,0
213710.746,19.531,30.273,27.344,0.488,14.648,0
213710.750,43.457,32.715,34.668,19.531,37.109,0
213710.754,30.762,32.715,27.344,33.691,41.504,0
213710.758,21.484,36.621,33.691,23.926,42.480,0
213710.762,19.531,42.969,39.551,15.137,59.082,0
213710.766,36.133,41.992,25.391,30.273,70.801,0
213710.768,51.270,41.504,30.273,49.805,59.082,0
213710.772,46.875,45.410,42.480,41.504,46.875,0
213710.776,41.016,42.969,34.180,21.484,58.594,0
213710.780,24.902,38.574,28.320,28.320,58.105,0
213710.783,28.809,36.621,24.414,44.922,41.504,0
213710.787,39.062,39.062,24.902,36.621,15.137,0
213710.791,19.043,41.016,32.715,20.020,10.254,0
213710.795,14.160,36.621,32.715,20.996,39.551,0
213710.799,32.227,30.762,36.133,32.227,44.434,0
213710.803,35.156,30.273,38.086,35.156,28.320,0
213710.807,18.555,31.738,23.926,22.461,36.133,0
213710.811,10.742,30.273,14.160,7.812,49.316,0
213710.813,33.691,29.785,34.668,20.020,55.176,0
213710.817,31.250,29.785,50.293,35.645,44.434,0
213710.821,11.719,32.227,48.340,27.344,34.180,0
213710.825,24.414,30.273,42.480,11.230,39.062,0
213710.829,16.602,29.785,37.109,19.531,41.504,0
213710.833,7.324,28.320,38.574,37.109,44.922,0
213710.837,9.766,23.926,31.250,27.344,33.203,0
213710.841,12.695,27.344,25.879,15.137,30.762,0
213710.845,27.344,31.250,31.250,19.043,47.852,0
213710.849,45.898,31.738,31.250,34.668,42.480,0
213710.853,37.598,32.227,30.273,41.504,18.555,0
213710.856,24.414,36.133,36.621,23.926,15.137,0
213710.859,26.367,36.133,32.715,6.836,25.879,0
213710.863,39.551,33.203,25.391,20.020,35.645,0
213710.867,47.363,34.668,28.809,39.551,32.715,0
213710.871,21.973,36.133,33.203,27.832,39.062,0
213710.875,17.090,32.227,30.273,15.137,46.875,0
213710.879,32.227,30.762,37.109,24.902,26.855,0
213710.883,41.992,39.551,41.016,33.691,11.719,0
213710.887,29.785,45.410,20.996,22.949,11.230,0
213710.891,10.254,41.016,27.344,6.836,21.484,0
213710.895,18.555,33.691,44.922,11.230,26.367,0
213710.899,27.832,31.250,32.227,24.902,28.320,0
213710.902,16.602,33.203,27.832,26.855,30.762,0
213710.904,11.230,39.062,31.738,17.578,34.180,0
213710.907,25.391,41.504,24.414,15.137,37.598,0
213710.911,42.480,41.992,28.320,29.297,26.367,0
213710.915,43.945,40.039,29.785,29.297,19.531,0
213710.919,17.578,32.227,26.367,6.348,17.090,0
213710.923,-0.488,28.320,27.832,-0.977,23.926,0
213710.927,17.578,28.320,20.508,19.043,35.645,0
213710.931,17.090,29.785,25.879,27.344,20.020,0
213710.935,3.418,33.691,27.832,11.230,9.766,0
213710.939,7.324,35.156,22.461,-0.488,23.926,0
213710.943,27.832,35.156,33.203,15.625,43.945,0
213710.947,39.551,40.527,35.156,32.715,44.434,0
213710.948,32.715,47.852,32.715,27.344,27.832,0
213710.952,21.973,47.363,29.785,18.066,29.785,0
213710.956,27.344,43.457,31.738,20.508,39.062,0
213710.960,45.410,39.062,31.250,32.227,42.969,0
213710.964,45.410,36.621,18.066,33.203,40.527,0
213710.967,37.598,38.086,7.324,21.484,37.598,0
213710.971,34.180,40.527,7.812,17.578,42.969,0
213710.975,39.062,39.062,30.273,31.738,54.199,0
213710.979,48.340,36.621,52.246,41.016,50.781,0
213710.983,29.785,35.645,53.711,22.949,41.504,0
213710.987,30.273,35.156,53.711,11.719,43.457,0
213710.991,52.734,33.203,56.641,27.832,55.664,0
213710.993,38.574,26.855,47.363,37.109,58.594,0
213710.997,13.184,24.902,32.227,23.438,49.805,0
213711.001,9.766,24.902,27.832,13.184,41.016,0
213711.005,29.297,26.367,39.062,19.043,47.363,0
213711.008,45.410,25.879,50.781,34.668,49.316,0
213711.012,34.668,27.344,49.805,34.180,43.945,0
213711.016,28.809,27.344,41.504,14.648,40.527,0
213711.020,41.016,27.832,36.621,20.020,36.133,0
213711.024,41.992,39.062,32.227,40.039,32.715,0
213711.028,23.438,42.969,32.227,41.016,19.043,0
213711.032,7.324,33.203,41.504,22.461,13.184,0
213711.036,14.648,28.320,40.039,16.602,22.461,0
213711.053,40.039,32.227,40.039,34.668,33.203,0
213711.057,43.457,39.062,50.293,35.645,28.320,0
213711.061,20.996,33.203,46.387,8.789,24.414,0
213711.065,16.113,29.785,40.039,-7.812,36.621,0
213711.069,28.809,29.297,40.039,11.230,43.457,0
213711.072,44.434,31.250,33.691,28.320,40.039,0
213711.076,52.734,35.645,32.227,23.926,36.133,0
213711.080,18.066,35.645,35.645,14.160,36.621,0
213711.084,3.906,35.645,24.902,19.043,35.645,0
213711.088,32.715,34.668,20.508,33.691,36.133,0
213711.092,28.320,37.109,26.855,32.227,39.062,0
213711.096,16.113,34.668,21.484,20.508,27.832,0
213711.100,23.926,29.297,27.832,20.020,22.949,0
213711.103,34.668,28.809,44.434,26.855,29.297,0
213711.107,31.250,32.715,43.945,23.438,20.996,0
213711.111,18.066,32.715,41.504,14.160,13.672,0
213711.115,18.066,32.715,27.832,19.531,26.367,0
213711.119,31.738,33.691,14.648,36.621,33.203,0
213711.123,34.180,32.227,33.203,35.156,32.715,0
213711.127,15.137,36.133,41.016,11.230,30.762,0
213711.131,4.883,33.203,29.297,-1.465,19.531,0
213711.135,21.973,24.414,28.809,11.719,14.648,0
213711.139,24.414,25.879,33.203,24.902,15.625,0
213711.143,20.020,26.855,30.762,14.160,8.789,0
213711.143,14.648,24.414,29.785,1.953,2.441,0
213711.147,4.883,24.902,24.902,6.348,14.160,0
213711.151,29.297,29.297,30.762,22.949,31.738,0
213711.155,23.438,33.203,37.598,21.973,11.230,0
213711.159,-3.418,33.203,27.832,1.953,-8.301,0
213711.163,2.930,27.344,20.020,0.488,3.418,0
213711.167,15.137,18.555,25.879,18.555,17.090,0
213711.170,12.695,18.066,38.574,25.391,22.461,0
213711.174,1.953,22.461,32.227,8.789,2.930,0
213711.178,1.953,23.438,25.391,-2.930,-0.488,0
213711.182,19.043,24.902,31.250,18.066,18.555,0
213711.186,28.320,27.344,27.344,33.203,13.672,0
213711.188,5.859,18.555,24.414,15.137,2.441,0
213711.192,7.324,18.066,31.738,3.418,11.230,0
213711.196,25.391,26.855,24.902,20.020,33.203,0
213711.200,20.020,25.391,12.695,35.645,35.645,0
213711.204,13.184,25.391,22.461,28.809,24.414,0
213711.207,-4.395,25.879,34.668,16.602,24.414,0
213711.211,7.324,22.461,37.598,20.996,35.156,0
213711.215,25.391,22.949,34.668,30.762,41.504,0
213711.219,15.625,25.391,38.086,25.391,32.227,0
213711.223,0.000,23.438,42.969,13.184,28.320,0
213711.227,0.488,21.484,35.156,6.348,30.762,0
213711.231,21.973,26.855,38.574,18.066,17.090,0
213711.233,27.832,25.879,34.668,24.414,8.301,0
213711.237,5.371,19.043,7.812,7.324,16.602,0
213711.241,2.930,23.438,10.742,2.441,36.621,0
213711.245,23.438,26.855,35.645,17.090,31.738,0
213711.249,26.855,22.949,41.504,20.996,14.648,0
213711.253,13.184,24.414,39.062,11.719,21.973,0
213711.257,14.160,26.855,39.062,10.254,32.227,0
213711.261,21.973,25.391,34.668,19.043,33.691,0
213711.265,21.484,24.902,35.156,25.879,32.227,0
213711.269,11.719,27.832,40.039,25.391,35.156,0
213711.272,7.324,25.391,30.762,12.207,35.156,0
213711.276,13.184,19.531,24.414,6.836,26.367,0
213711.278,13.184,20.020,21.973,20.996,23.926,0
213711.282,8.301,23.438,22.461,16.602,21.973,0
213711.286,-4.883,23.438,29.297,-4.395,16.113,0
213711.290,4.883,22.949,26.367,-0.488,24.414,0
213711.294,25.879,24.902,24.414,17.090,32.227,0
213711.298,21.973,24.902,29.785,20.020,33.691,0
213711.301,6.348,30.273,38.086,9.766,36.133,0
213711.305,-1.465,27.832,44.434,-0.977,26.367,0
213711.309,6.348,19.531,41.016,2.930,12.695,0
213711.313,16.113,20.020,30.762,11.230,18.555,0
213711.317,4.395,22.461,22.949,1.465,31.738,0
213711.321,-8.789,22.461,25.391,-10.254,42.480,0
213711.325,2.441,23.438,31.250,-0.977,33.203,0
213711.329,23.438,28.809,34.668,20.508,29.785,0
213711.333,15.625,29.785,31.250,19.043,21.973,0
213711.337,-2.930,28.809,27.832,2.441,7.812,0
213711.341,2.930,23.926,26.367,3.418,18.555,0
213711.345,22.949,24.414,26.855,20.020,18.066,0
213711.349,20.508,30.273,38.086,24.414,8.301,0
213711.353,0.977,30.273,45.410,7.812,13.672,0
213711.357,4.883,28.320,35.645,3.906,30.273,0
213711.360,28.320,33.691,27.344,21.973,41.504,0
213711.364,32.715,36.133,31.738,27.344,41.504,0
213711.368,16.113,30.273,38.574,16.113,31.250,0
213711.368,7.812,30.273,32.715,9.766,32.227,0
213711.372,23.438,31.738,31.250,17.090,40.039,0
213711.376,38.574,26.855,41.504,24.414,34.180,0
213711.380,19.043,22.949,32.227,15.137,34.668,0
213711.384,2.930,28.809,30.273,5.371,45.410,0
213711.387,16.113,34.180,42.969,14.160,48.340,0
213711.391,23.926,28.809,42.480,27.344,40.039,0
213711.395,19.043,22.949,35.156,25.879,25.391,0
213711.399,10.254,26.855,29.297,11.719,26.855,0
213711.403,11.719,28.320,28.320,14.160,45.410,0
213711.407,31.250,34.180,22.461,38.086,53.711,0
213711.411,48.828,42.969,21.484,40.039,52.734,0
213711.428,35.156,39.062,40.039,17.090,55.176,0
213711.432,13.184,33.691,59.570,9.766,55.176,0
213711.436,25.391,31.250,54.688,24.414,26.855,0
213711.440,34.668,27.344,41.504,35.645,6.348,0
213711.444,21.484,27.344,43.945,25.879,5.371,0
213711.448,20.020,28.809,49.316,15.137,14.160,0
213711.451,36.133,32.227,53.711,33.203,34.180,0
213711.455,48.828,34.668,45.898,50.781,30.762,0
213711.459,42.969,38.574,38.574,43.457,21.484,0
213711.463,34.668,39.062,41.016,24.902,36.133,0
213711.467,32.715,35.156,41.504,28.320,48.340,0
213711.471,28.809,31.738,42.969,43.457,35.645,0
213711.473,20.508,29.785,36.621,35.645,22.949,0
213711.477,13.672,32.227,34.668,23.438,28.809,0
213711.481,19.043,34.180,42.969,21.973,35.156,0
213711.485,35.156,33.203,46.875,37.598,41.016,0
213711.489,38.086,38.086,32.227,45.898,31.738,0
213711.493,18.555,36.621,28.320,27.832,19.531,0
213711.497,11.230,30.762,46.875,23.438,35.645,0
213711.501,29.297,33.203,48.828,39.551,38.574,0
213711.504,39.062,34.668,41.504,41.504,30.762,0
213711.508,20.996,30.762,41.992,23.926,35.645,0
213711.512,9.277,27.344,41.992,9.766,35.156,0
213711.516,28.320,25.391,40.039,14.160,34.668,0
213711.518,33.691,28.320,38.574,34.180,35.645,0
213711.522,17.090,32.715,34.180,27.344,40.039,0
213711.526,9.766,33.203,32.715,9.277,43.945,0
213711.530,28.809,35.156,41.504,22.461,30.762,0
213711.534,50.781,38.086,45.898,35.645,20.508,0
213711.538,39.551,35.156,40.039,21.973,17.578,0
213711.542,19.043,33.203,44.434,5.371,20.996,0
213711.545,32.227,34.668,45.410,3.906,33.203,0
213711.549,45.410,33.691,36.133,19.531,46.875,0
213711.553,31.738,33.203,38.574,22.949,42.969,0
213711.557,13.672,32.227,36.133,7.324,26.367,0
213711.561,17.578,31.738,20.996,4.883,41.992,0
213711.564,33.691,32.227,18.066,19.531,44.922,0
213711.568,36.133,34.180,34.668,29.785,20.996,0
213711.571,23.438,32.715,39.062,20.996,15.137,0
213711.575,11.230,29.297,34.180,10.742,26.855,0
213711.579,12.207,28.809,37.598,22.949,38.086,0
213711.583,31.738,31.738,36.133,36.621,35.645,0
213711.587,36.133,37.598,30.762,34.668,37.109,0
213711.591,12.207,36.621,23.926,19.531,44.922,0
213711.595,12.695,32.227,30.273,10.742,43.945,0
213711.599,30.273,31.250,33.691,23.438,44.922,0
213711.603,25.879,33.203,29.785,24.902,33.203,0
213711.607,15.625,38.574,36.133,9.277,37.598,0
213711.608,19.043,41.016,35.645,4.883,45.410,0
213711.612,35.645,42.969,28.809,23.438,33.691,0
213711.616,57.617,45.898,35.645,36.621,33.691,0
213711.620,35.645,35.645,36.621,19.531,20.020,0
213711.624,8.301,23.438,32.715,3.418,19.531,0
213711.628,28.320,21.484,32.715,11.230,22.949,0
213711.631,41.016,25.391,38.574,22.461,12.695,0
213711.635,20.508,30.273,41.016,16.602,19.043,0
213711.639,5.371,32.715,40.039,10.254,31.250,0
213711.643,24.902,39.551,48.828,20.508,38.574,0
213711.647,43.457,43.457,45.898,38.574,40.527,0
213711.651,26.855,37.109,31.250,33.203,33.203,0
213711.653,1.953,32.715,33.691,10.742,23.926,0
213711.657,4.883,27.344,39.062,12.207,29.297,0
213711.661,25.391,23.926,41.504,33.691,41.016,0
213711.665,27.832,23.438,37.109,27.344,37.598,0
213711.669,9.766,25.879,35.156,7.812,38.574,0
213711.672,11.719,28.320,41.016,4.883,41.016,0
213711.676,36.133,29.785,42.480,21.484,32.715,0
213711.680,35.156,33.203,32.227,31.250,32.715,0
213711.684,19.043,31.738,19.043,12.695,20.996,0
213711.688,16.602,33.691,25.879,5.371,11.719,0
213711.692,26.367,35.645,41.504,18.555,24.414,0
213711.696,34.180,30.762,42.480,24.902,23.438,0
213711.698,22.461,30.273,33.203,17.090,15.625,0
213711.702,17.578,33.691,42.969,9.277,27.832,0
213711.706,28.320,34.180,47.852,15.137,49.316,0
213711.710,41.992,33.691,38.574,27.344,42.969,0
213711.714,25.879,33.691,39.551,22.461,23.926,0
213711.718,-4.883,34.180,37.598,6.836,19.043,0
213711.721,-2.441,40.039,32.715,10.254,12.695,0
213711.725,17.090,36.621,41.016,26.855,9.277,0
213711.729,20.020,28.320,39.062,27.832,14.648,0
213711.733,0.488,28.809,23.926,9.277,20.508,0
213711.737,0.488,33.203,32.715,10.254,30.273,0
213711.741,20.020,36.621,34.180,27.832,51.270,0
213711.744,20.508,34.180,20.508,28.320,38.086,0
213711.748,11.230,32.227,21.973,15.137,15.625,0
213711.752,15.625,33.203,23.926,9.766,36.621,0
213711.756,23.438,34.180,33.203,18.555,41.016,0
213711.759,37.598,40.039,38.574,29.297,21.973,0
213711.763,24.414,43.945,27.832,20.020,25.879,0
213711.767,4.395,37.598,30.273,-0.977,34.180,0
213711.771,32.715,39.062,36.133,3.418,24.414,0
213711.775,48.828,41.992,28.809,23.926,16.602,0
213711.779,33.691,40.039,26.855,21.973,22.949,0
213711.783,22.461,37.598,21.484,4.883,36.621,0
213711.787,12.207,35.156,21.484,3.906,47.363,0
213711.803,29.785,36.621,30.762,28.320,66.406,0
213711.807,37.598,34.668,32.715,41.016,53.711,0
213711.811,17.090,31.738,37.109,29.297,36.621,0
213711.814,8.789,31.738,42.969,22.949,56.152,0
213711.818,21.973,29.297,46.387,39.062,70.312,0
213711.822,26.855,26.367,40.527,44.922,52.246,0
213711.826,5.371,29.785,29.297,20.996,17.578,0
213711.830,-2.930,33.691,32.227,13.672,12.695,0
213711.834,26.855,35.156,39.551,28.320,26.855,0
213711.838,35.156,33.203,43.945,34.180,14.648,0
213711.842,9.766,33.691,37.109,25.391,17.578,0
213711.846,7.812,37.109,35.156,14.160,33.691,0
213711.848,23.926,37.598,43.945,20.508,27.344,0
213711.852,34.668,32.715,42.969,33.203,18.555,0
213711.856,26.855,30.273,39.062,24.902,19.043,0
213711.860,9.277,33.203,30.273,7.324,25.391,0
213711.864,22.461,39.062,30.273,11.230,40.039,0
213711.868,40.527,41.016,29.785,28.809,48.340,0
213711.872,31.738,37.598,23.926,32.715,38.574,0
213711.876,17.090,41.504,31.738,19.531,36.133,0
213711.880,15.137,45.898,41.504,13.184,49.805,0
213711.883,32.715,46.387,47.363,24.414,53.223,0
213711.887,40.039,44.434,36.621,33.691,36.621,0
213711.891,26.855,36.133,31.738,24.414,33.203,0
213711.893,15.625,32.227,34.180,15.625,43.457,0
213711.897,21.484,35.645,33.203,30.762,51.758,0
213711.901,37.598,36.621,41.504,48.340,55.176,0
213711.905,35.156,38.574,37.109,46.387,46.875,0
213711.909,18.555,36.133,20.508,28.320,36.133,0
213711.912,17.090,34.668,27.832,24.414,45.410,0
213711.916,38.086,39.062,47.363,37.109,58.105,0
213711.920,30.762,41.992,47.363,33.691,34.668,0
213711.924,-3.906,43.457,44.922,11.230,16.113,0
213711.928,0.488,37.109,42.480,1.953,24.414,0
213711.932,25.879,29.297,37.109,22.461,23.926,0
213711.936,31.250,31.738,39.551,37.598,22.461,0
213711.938,13.184,34.180,39.062,25.879,26.367,0
213711.942,10.254,35.156,38.574,17.578,38.086,0
213711.946,31.738,37.109,41.992,29.297,44.922,0
213711.950,41.016,32.227,41.504,34.180,40.527,0
213711.953,26.855,33.691,30.273,22.949,39.551,0
213711.957,17.578,39.062,27.832,13.184,52.246,0
213711.961,31.250,38.086,30.762,19.043,64.941,0
213711.965,52.246,34.180,26.855,35.156,56.152,0
213711.969,34.668,32.227,28.320,31.738,44.434,0
213711.973,9.766,30.273,31.250,13.672,34.180,0
213711.977,19.531,33.691,32.227,15.625,33.203,0
213711.981,44.922,38.086,29.785,34.180,33.691,0
213711.983,43.945,33.203,32.227,35.645,24.902,0
213711.987,18.066,33.203,38.086,17.090,30.273,0
213711.991,16.113,32.715,35.156,7.324,44.922,0
213711.995,20.020,29.297,38.574,19.043,33.691,0
213711.999,20.996,29.297,40.527,30.273,16.113,0
213712.002,16.113,31.250,37.109,22.949,17.578,0
213712.006,10.742,32.715,39.551,14.648,27.344,0
213712.010,25.879,35.156,41.504,23.438,39.551,0
213712.014,37.109,35.156,45.410,33.203,29.297,0
213712.018,20.020,33.203,42.480,22.949,15.625,0
213712.022,4.883,35.645,40.039,9.277,17.578,0
213712.026,16.602,33.691,41.992,14.648,27.832,0
213712.028,33.203,33.203,44.922,26.367,27.832,0
213712.032,30.273,37.109,43.457,19.531,7.812,0
213712.036,25.391,38.574,43.945,4.395,11.230,0
213712.040,24.902,36.621,48.828,5.859,29.785,0
213712.043,31.250,36.133,49.316,25.391,43.945,0
213712.047,32.227,28.809,29.785,25.391,47.852,0
213712.051,12.207,25.391,17.090,12.207,44.434,0
213712.055,8.789,28.809,33.691,7.812,45.410,0
213712.059,26.855,31.738,42.969,17.578,37.109,0
213712.063,47.363,38.086,37.598,32.227,25.879,0
213712.067,30.273,34.668,36.621,24.414,22.949,0
213712.071,2.441,26.855,37.598,12.207,24.902,0
213712.074,20.508,29.785,37.109,19.043,31.250,0
213712.078,39.062,35.156,40.039,36.133,30.273,0
213712.082,25.391,32.715,43.457,30.273,15.625,0
213712.086,7.812,30.273,40.527,7.324,13.184,0
213712.090,11.719,29.785,35.156,1.465,30.273,0
213712.094,27.832,28.320,26.855,21.484,36.621,0
213712.098,28.320,34.180,28.320,28.320,18.555,0
213712.102,11.719,36.621,43.945,11.230,19.043,0
213712.106,20.508,31.250,43.457,13.672,45.410,0
213712.109,42.480,31.738,39.551,31.250,53.223,0
213712.113,36.621,34.668,46.387,34.180,39.551,0
213712.117,17.578,35.645,42.480,18.066,34.668,0
213712.133,13.184,33.691,29.785,8.789,35.645,0
213712.137,23.438,32.715,23.926,20.020,33.691,0
213712.141,30.762,28.809,26.367,29.785,25.391,0
213712.145,18.555,30.762,19.531,20.020,21.484,0
213712.149,8.301,34.668,14.648,7.812,28.809,0
213712.152,20.020,31.250,41.016,14.648,31.738,0
213712.156,32.715,30.273,60.547,31.250,32.715,0
213712.160,29.297,35.645,59.570,33.691,24.902,0
213712.164,9.277,36.621,55.664,20.020,35.156,0
213712.168,7.812,31.738,45.410,15.137,55.176,0
213712.172,24.902,31.250,34.180,30.273,37.109,0
213712.176,15.137,30.273,28.809,29.785,7.324,0
213712.178,1.953,32.227,31.250,14.648,7.324,0
213712.182,6.348,33.203,33.691,8.301,16.602,0
213712.186,19.531,29.785,36.133,13.672,20.996,0
213712.190,25.391,29.785,33.691,21.484,4.883,0
213712.194,16.602,31.250,15.137,7.812,2.441,0
213712.198,3.906,31.738,19.531,-3.418,15.137,0
213712.202,13.672,33.691,42.480,14.160,25.879,0
213712.206,28.809,32.715,38.574,28.809,30.762,0
213712.209,15.625,27.344,35.156,20.020,23.438,0
213712.213,4.883,29.785,36.133,6.348,36.621,0
213712.217,21.484,35.645,37.109,15.137,51.758,0
213712.221,39.062,31.738,41.016,31.250,40.039,0
213712.223,31.250,27.832,33.203,28.320,38.574,0
213712.227,10.254,28.809,20.508,19.531,43.457,0
213712.231,4.883,27.832,29.297,16.602,41.504,0
213712.235,26.855,28.320,36.133,24.414,35.645,0
213712.239,35.645,31.738,14.648,24.414,19.043,0
213712.242,12.207,30.762,17.578,11.230,23.926,0
213712.246,12.695,34.668,38.086,5.371,41.992,0
213712.250,37.598,40.039,36.133,17.090,39.062,0
213712.254,33.691,35.156,32.227,30.762,32.227,0
213712.258,11.230,30.762,31.250,16.602,11.230,0
213712.262,3.418,31.738,31.250,4.395,8.301,0
213712.266,17.578,30.762,27.344,18.555,36.621,0
213712.268,27.344,22.949,21.484,25.391,31.738,0
213712.272,15.625,20.996,24.902,11.719,15.137,0
213712.276,-0.488,29.785,30.762,0.000,32.227,0
213712.280,16.113,32.715,35.645,14.160,37.598,0
213712.284,33.203,27.832,36.621,32.715,26.367,0
213712.288,16.113,24.902,17.578,29.785,18.555,0
213712.292,2.441,24.414,15.625,16.113,22.949,0
213712.295,13.184,28.320,33.203,13.184,35.645,0
213712.299,25.391,27.832,35.645,24.414,28.320,0
213712.303,23.438,28.320,32.715,31.738,15.625,0
213712.307,10.742,33.203,31.738,19.043,22.461,0
213712.311,2.441,34.668,37.598,13.184,31.250,0
213712.314,15.625,32.227,34.180,22.949,25.879,0
213712.318,25.879,32.227,21.484,26.855,18.066,0
213712.322,15.137,31.738,22.461,18.555,15.625,0
213712.326,3.418,31.738,28.809,7.324,26.367,0
213712.330,22.949,36.621,36.621,17.578,43.457,0
213712.334,44.922,37.109,38.086,34.668,38.086,0
213712.338,24.902,35.156,30.762,20.996,30.273,0
213712.342,4.395,35.645,30.273,5.371,32.227,0
213712.345,19.043,37.598,28.320,12.207,36.621,0
213712.349,38.086,42.480,18.555,23.438,43.457,0
213712.353,32.715,43.945,19.043,22.461,44.434,0
213712.357,20.996,38.574,26.855,8.301,38.574,0
213712.358,17.578,34.180,26.367,2.441,34.180,0
213712.362,27.832,32.715,35.645,17.090,42.969,0
213712.366,26.855,25.879,39.062,24.414,41.016,0
213712.370,12.207,24.902,35.645,19.043,43.945,0
213712.374,5.371,37.598,28.320,2.930,45.410,0
213712.378,4.883,45.410,17.578,-1.953,18.066,0
213712.382,12.695,39.551,19.531,14.648,5.371,0
213712.386,1.465,35.156,22.461,4.883,11.230,0
213712.389,-11.230,36.133,26.367,-15.137,8.789,0
213712.393,0.488,35.156,28.320,-4.395,14.648,0
213712.397,20.996,33.691,32.715,19.531,23.926,0
213712.401,15.137,37.109,35.156,16.113,2.930,0
213712.403,-0.488,41.504,36.621,-0.977,3.418,0
213712.407,18.066,41.504,36.133,8.301,28.320,0
213712.411,39.062,37.109,28.320,26.367,29.785,0
213712.415,30.762,37.109,29.785,23.438,23.926,0
213712.419,13.672,38.574,34.668,6.348,20.996,0
213712.423,13.184,35.156,37.109,5.371,19.531,0
213712.427,21.484,29.785,31.738,18.555,23.926,0
213712.431,23.926,30.762,36.621,24.902,28.320,0
213712.435,15.137,36.133,43.945,10.742,25.879,0
213712.438,7.812,34.180,42.969,-1.465,24.414,0
213712.442,16.602,27.344,45.898,8.301,30.762,0
213712.446,33.691,32.227,40.527,25.391,46.387,0
213712.448,32.227,36.133,34.668,19.043,46.387,0
213712.452,5.859,28.809,31.738,3.418,34.668,0
213712.456,1.953,24.902,30.273,13.184,35.645,0
213712.460,18.555,29.297,32.227,23.438,21.484,0
213712.464,15.137,34.180,32.227,17.090,16.113,0
213712.467,-3.418,27.344,35.645,8.789,19.043,0
213712.471,7.812,22.461,37.598,10.254,21.973,0
213712.475,31.250,24.414,35.645,26.855,38.086,0
213712.479,17.090,25.879,30.273,23.926,25.879,0
213712.483,-4.883,27.832,26.367,0.488,4.883,0
213712.487,0.000,35.156,35.156,-4.395,18.555,0
213712.491,20.996,32.227,35.156,13.184,24.414,0
213712.492,28.809,28.320,28.809,23.926,10.254,0
213712.496,9.277,30.762,25.391,8.789,9.277,0
213712.500,-3.906,29.297,29.785,-0.488,23.926,0
213712.504,13.672,28.320,36.621,13.184,30.762,0
213712.508,27.832,31.738,17.090,20.996,30.273,0
213712.512,26.367,40.039,9.277,16.113,18.066,0
213712.516,17.090,40.527,20.508,3.418,1.953,0
213712.520,11.719,36.133,25.879,1.953,9.277,0
213712.524,28.809,33.203,43.945,19.043,6.836,0
213712.528,28.320,31.250,52.246,20.020,-7.324,0
213712.531,5.859,29.785,40.039,5.371,-2.930,0
213712.535,5.371,30.273,34.668,8.789,15.625,0
213712.552,22.461,27.832,38.086,25.391,26.855,0
213712.556,29.297,29.297,25.879,27.832,22.949,0
213712.560,15.137,36.133,13.184,14.648,18.555,0
213712.564,9.277,35.645,26.367,9.277,22.461,0
213712.568,26.855,35.645,38.574,22.949,36.133,0
213712.572,31.738,40.039,32.715,34.668,48.340,0
213712.576,19.531,41.504,33.691,27.832,56.152,0
213712.580,10.742,38.086,42.480,15.625,46.387,0
213712.584,15.625,34.668,34.180,21.484,27.832,0
213712.587,25.391,30.762,29.297,35.156,21.973,0
213712.591,18.555,26.367,33.691,27.832,13.672,0
213712.595,7.324,27.832,29.785,16.113,7.812,0
213712.597,16.602,31.738,24.902,19.531,21.973,0
213712.601,37.109,30.762,30.273,28.809,27.344,0
213712.605,27.344,29.785,31.250,26.855,5.371,0
213712.609,8.301,30.762,25.879,12.695,3.418,0
213712.613,13.672,33.203,33.691,13.672,20.996,0
213712.617,31.250,37.109,39.551,31.738,33.203,0
213712.621,32.715,34.668,34.668,36.621,36.133,0
213712.625,18.555,31.738,39.551,23.438,29.297,0
213712.629,7.324,29.297,32.715,12.695,35.156,0
213712.633,21.973,25.879,27.344,20.508,55.176,0
213712.636,37.598,26.367,39.551,35.156,40.527,0
213712.640,20.020,34.180,25.391,28.809,16.602,0
213712.642,12.207,37.598,17.578,16.602,35.156,0
213712.646,25.879,31.250,35.645,20.020,56.152,0
213712.650,37.109,29.297,44.434,34.180,44.922,0
213712.654,40.039,31.250,45.898,30.762,25.879,0
213712.658,29.785,32.715,46.387,21.973,31.738,0
213712.662,17.090,30.762,38.086,25.391,47.363,0
213712.666,26.855,27.832,25.391,26.367,40.527,0
213712.670,29.297,29.297,24.902,19.531,24.902,0
213712.674,12.207,35.156,30.762,9.766,27.832,0
213712.678,15.625,33.203,39.551,7.812,20.020,0
213712.681,35.156,28.809,34.668,22.461,11.230,0
213712.685,38.086,31.250,34.668,30.273,17.578,0
213712.688,23.438,33.691,49.805,19.043,22.949,0
213712.691,17.578,36.621,50.293,10.254,34.180,0
213712.695,27.344,35.156,45.410,17.090,36.133,2
213712.699,41.016,34.180,40.527,29.785,31.738,0
213712.703,29.785,35.645,32.227,24.414,31.738,0
213712.707,14.648,38.086,25.391,10.254,28.320,0
213712.711,24.902,36.621,30.762,18.555,33.691,0
213712.715,42.969,30.762,38.574,38.086,32.715,0
213712.719,44.922,30.762,40.039,34.668,16.602,0
213712.723,19.531,38.086,34.180,17.090,28.809,0
213712.727,18.066,37.598,21.973,15.625,42.969,0
213712.730,42.969,32.227,26.855,23.438,37.109,0
213712.733,37.598,32.715,33.691,22.949,31.250,0
213712.737,16.113,35.645,39.062,17.578,28.320,0
213712.741,9.766,38.086,39.551,11.230,30.273,0
213712.745,22.949,35.156,40.039,20.508,26.855,0
213712.749,34.180,31.250,47.852,33.203,33.203,0
213712.753,20.996,35.156,46.387,20.020,40.527,0
213712.756,8.789,36.133,38.574,2.441,33.203,0
213712.760,27.832,32.715,37.109,12.695,31.250,0
213712.764,40.039,35.645,37.109,29.297,26.367,0
213712.768,31.250,39.062,24.414,21.973,11.719,0
213712.772,20.996,38.574,28.320,6.348,8.789,0
213712.776,19.531,34.668,47.852,16.113,17.578,0
213712.780,35.156,41.016,54.199,39.062,29.785,0
213712.783,36.133,46.387,41.992,38.086,20.020,0
213712.787,11.230,36.133,35.645,15.625,17.090,0
213712.791,6.836,32.227,42.969,10.254,35.156,0
213712.795,29.785,35.645,38.086,25.879,44.922,0
213712.799,34.668,37.109,29.785,31.250,37.598,0
213712.803,16.602,38.574,25.879,14.160,21.484,0
213712.807,7.812,39.062,24.902,4.883,25.879,0
213712.811,26.855,37.109,33.691,22.461,41.016,0
213712.815,34.668,38.086,31.738,31.738,48.340,0
213712.819,18.555,44.434,21.973,22.949,49.805,0
213712.823,12.695,41.016,33.203,18.555,58.105,0
213712.823,26.367,33.203,40.039,21.484,41.992,0
213712.827,34.668,33.691,33.691,27.344,25.391,0
213712.831,21.484,33.203,34.668,22.949,31.250,0
213712.834,5.371,30.273,41.504,15.625,23.438,0
213712.838,10.742,29.297,42.969,21.484,20.996,0
213712.842,29.785,30.762,39.062,34.668,19.531,0
213712.846,33.691,35.156,32.715,39.551,23.926,0
213712.850,16.602,35.645,24.414,24.902,31.250,0
213712.854,11.230,33.691,21.484,14.160,32.715,0
213712.858,30.762,30.273,25.879,29.297,45.410,0
213712.862,31.250,26.855,30.762,31.738,34.180,0
213712.866,13.672,30.273,36.133,16.602,29.297,0
213712.883,11.230,35.156,32.715,9.277,41.992,0
213712.887,30.273,31.250,27.832,17.578,49.316,0
213712.891,39.062,26.855,35.156,23.438,46.875,0
213712.895,16.602,28.809,35.156,7.324,36.621,0
213712.898,3.418,26.367,29.297,-3.906,26.367,0
213712.902,17.578,29.297,29.297,11.719,27.344,0
213712.906,31.738,33.203,34.180,33.691,41.016,0
213712.910,16.113,27.832,32.227,29.785,46.387,0
213712.914,3.906,24.902,24.902,15.625,32.715,0
213712.918,10.742,25.391,24.902,18.066,21.484,0
213712.922,23.926,26.855,38.086,36.133,35.156,0
213712.926,27.344,26.855,48.828,37.109,37.598,0
213712.928,11.719,33.203,44.922,21.973,32.227,0
213712.932,13.672,41.504,43.945,24.414,35.156,0
213712.936,30.273,35.156,34.180,37.598,30.762,0
213712.940,29.785,27.832,28.809,38.086,17.090,0
213712.943,16.602,31.250,37.109,28.809,29.785,0
213712.947,8.789,29.297,36.621,20.996,46.875,0
213712.951,20.020,22.461,32.227,19.043,32.715,0
213712.955,28.320,21.484,37.598,27.832,30.273,0
213712.959,9.766,26.367,39.062,16.113,31.250,0
213712.963,-3.418,29.785,31.250,-2.441,11.230,0
213712.967,9.277,28.320,40.527,7.812,4.883,0
213712.971,24.902,31.738,43.457,27.344,8.301,0
213712.973,17.090,32.715,27.832,22.949,15.137,0
213712.977,-1.953,28.809,25.391,3.418,21.484,0
213712.981,1.953,25.879,31.738,7.812,19.531,0
213712.985,29.297,25.391,34.668,26.367,24.902,0
213712.988,35.156,27.832,31.250,26.855,41.992,0
213712.992,16.602,31.738,32.715,13.672,50.781,0
213712.996,24.414,35.645,38.086,9.277,55.664,0
213713.000,48.828,36.133,38.086,29.297,55.664,0
213713.004,51.270,36.133,30.762,42.969,56.152,0
213713.008,33.203,36.621,30.273,28.320,62.500,0
213713.012,27.344,42.480,40.527,16.602,52.734,0
213713.016,46.875,47.363,46.387,27.832,41.016,0
213713.018,52.246,39.062,39.062,41.016,42.480,0
213713.022,34.180,29.785,30.273,29.785,25.879,0
213713.026,17.090,29.785,28.809,14.160,11.230,0
213713.030,17.090,30.762,27.832,20.996,34.180,0
213713.033,34.668,30.273,29.785,40.039,39.551,0
213713.037,28.320,30.273,27.344,36.621,33.203,0
213713.041,12.207,30.762,23.438,20.508,44.434,0
213713.045,12.695,29.297,30.273,16.602,41.016,0
213713.049,31.250,32.715,37.598,29.785,39.062,0
213713.053,35.156,37.598,37.109,33.203,46.387,0
213713.057,20.508,40.527,32.715,24.414,50.293,0
213713.061,24.902,43.945,33.203,25.879,51.270,0
213713.063,35.645,35.156,31.738,34.668,47.363,0
213713.067,39.551,29.297,28.320,36.621,42.969,0
213713.071,28.809,32.227,29.297,24.902,31.250,0
213713.075,29.297,35.156,22.949,18.066,28.809,0
213713.078,33.203,35.645,32.715,25.391,41.016,0
213713.082,38.574,37.109,39.551,35.645,45.410,0
213713.086,39.062,39.551,33.691,37.109,49.316,0
213713.090,25.879,35.645,34.180,21.484,53.711,0
213713.094,33.203,32.227,39.551,19.531,55.176,0
213713.098,42.480,33.691,43.457,34.668,34.180,0
213713.102,37.598,39.062,33.203,36.133,20.996,0
213713.106,20.996,40.039,29.785,22.461,30.273,0
213713.108,11.719,32.715,33.691,11.719,21.973,0
213713.112,23.438,29.297,40.527,26.855,14.160,0
213713.116,36.133,32.715,41.504,37.598,23.926,0
213713.120,17.578,32.227,44.434,18.555,25.879,0
213713.123,5.371,28.809,44.434,8.789,33.691,0
213713.127,32.227,31.738,33.691,26.855,44.922,0
213713.131,35.645,33.691,36.133,36.133,26.855,0
213713.135,16.113,34.180,46.875,23.926,19.531,0
213713.139,14.648,34.668,51.758,16.602,38.574,0
213713.143,29.297,35.156,51.758,22.461,48.828,0
213713.147,41.992,39.062,45.410,35.645,44.922,0
213713.151,30.273,37.109,39.062,30.762,41.016,0
213713.153,10.742,36.133,29.785,12.207,40.527,0
213713.157,10.254,34.180,29.297,16.113,31.738,0
213713.161,28.320,29.785,39.062,32.227,25.879,0
213713.165,35.645,35.156,29.785,33.691,21.973,0
213713.169,12.695,35.156,21.973,18.555,7.812,0
213713.172,5.859,31.738,34.180,11.719,27.832,0
213713.176,28.320,32.227,41.992,24.902,46.387,0
213713.180,38.574,33.203,37.109,30.762,30.762,0
213713.184,25.879,34.668,33.691,16.113,21.973,0
213713.188,20.020,37.109,23.926,12.695,41.016,0
213713.192,34.180,38.574,20.020,24.414,62.012,0
213713.196,44.922,37.598,41.504,30.762,38.574,0
213713.198,27.832,37.598,36.133,23.926,14.648,0
213713.202,10.254,39.551,24.902,9.277,13.184,0
213713.206,21.484,36.133,41.504,12.207,20.020,0
213713.210,31.250,33.691,45.898,26.855,22.949,0
213713.214,10.254,32.227,35.645,20.020,10.742,0
213713.217,-4.883,35.645,23.438,3.906,20.020,0
213713.221,8.789,40.527,24.902,12.207,42.969,0
213713.225,28.809,35.156,25.879,28.809,41.992,0
213713.229,34.180,36.621,19.531,33.203,21.973,0
213713.233,16.113,38.086,25.879,21.973,22.461,0
213713.237,4.395,30.273,26.855,9.766,28.320,0
213713.241,20.508,28.809,27.344,20.996,30.762,0
213713.244,32.715,31.738,35.645,29.785,23.438,0
213713.248,23.926,34.180,35.156,17.090,18.555,0
213713.252,5.859,34.668,30.762,7.812,23.926,0
213713.256,7.812,29.297,37.109,17.090,16.602,0
213713.260,25.391,28.320,36.621,33.691,9.766,0
213713.264,18.066,31.738,23.438,25.879,11.719,0
213713.268,1.465,31.738,25.879,6.348,17.578,0
213713.271,16.602,33.203,24.414,10.742,29.297,0
213713.275,40.527,34.180,22.461,27.344,40.039,0
213713.279,30.273,39.551,36.621,34.180,41.504,0
213713.283,8.789,42.969,36.133,20.996,29.785,0
213713.287,11.719,33.203,29.785,12.695,17.090,0
213713.304,27.344,28.320,34.180,23.438,15.137,0
213713.308,25.391,28.809,32.227,27.344,24.902,0
213713.312,9.766,30.273,25.879,8.789,37.598,0
213713.316,3.418,31.250,32.227,-0.488,38.086,0
213713.320,26.367,31.738,25.391,18.555,30.762,0
213713.324,41.016,37.109,23.438,38.086,27.832,0
213713.328,17.578,38.086,32.715,26.367,19.043,0
213713.331,9.277,37.598,35.645,10.742,9.766,0
213713.335,22.461,37.109,35.156,17.578,17.578,0
213713.339,33.691,33.203,37.109,31.738,33.691,0
213713.343,23.926,31.738,34.180,23.438,42.969,0
213713.347,9.766,28.320,27.832,1.465,32.227,0
213713.348,22.461,25.879,37.109,4.395,39.062,0
213713.352,32.715,28.809,33.203,24.902,45.898,0
213713.356,25.391,32.227,25.879,21.973,26.855,0
213713.360,10.254,33.691,31.738,6.836,21.484,0
213713.364,7.812,33.691,32.227,2.930,22.949,0
213713.367,25.391,37.109,27.832,16.602,16.602,0
213713.371,25.879,35.156,22.949,22.461,10.254,0
213713.375,7.324,34.180,23.438,12.207,11.719,0
213713.379,3.906,38.574,29.297,9.277,24.414,0
213713.383,21.973,36.133,34.668,17.578,32.715,0
213713.387,34.180,32.715,40.039,27.344,29.297,0
213713.391,22.949,33.203,32.715,16.602,30.273,0
213713.393,7.324,32.227,20.508,-1.465,41.504,0
213713.397,15.625,38.574,20.020,10.254,46.387,0
213713.401,36.133,41.504,31.738,31.250,31.738,0
213713.405,23.438,34.180,41.016,26.367,25.391,0
213713.408,5.371,32.227,40.527,9.766,24.414,0
213713.412,27.832,33.203,38.086,5.371,19.531,0
213713.416,38.574,31.738,33.203,23.438,31.738,0
213713.420,26.367,33.203,27.832,26.367,43.945,0
213713.424,14.160,38.086,29.785,8.789,55.176,0
213713.428,15.625,38.086,29.785,6.836,43.945,0
213713.432,34.180,34.668,25.879,21.973,12.695,0
213713.436,40.527,40.039,25.391,32.227,18.066,0
213713.438,33.203,46.875,25.391,21.973,43.945,0
213713.442,24.414,41.992,17.578,14.648,44.922,0
213713.446,29.785,36.133,17.090,29.297,41.504,0
213713.450,39.062,34.668,23.926,39.062,47.363,0
213713.454,25.391,32.715,26.855,31.250,44.434,0
213713.458,11.230,27.832,37.598,18.066,32.715,0
213713.462,20.996,30.762,48.340,23.438,30.273,0
213713.466,40.039,31.738,46.875,39.551,35.156,0
213713.470,32.715,28.320,41.016,33.203,27.832,0
213713.474,11.230,30.273,37.598,17.578,23.926,0
213713.478,24.414,27.832,28.809,18.066,32.227,0
213713.481,39.551,29.785,30.273,35.645,52.246,0
213713.483,27.344,32.227,36.621,41.016,47.852,0
213713.487,14.160,32.227,20.508,20.508,29.297,0
213713.491,15.137,33.203,20.996,13.672,41.504,0
213713.495,30.762,30.762,36.133,28.320,47.363,0
213713.498,39.551,35.645,33.691,37.109,19.043,0
213713.502,25.391,39.551,35.645,24.902,9.766,0
213713.506,15.625,33.691,35.156,6.836,20.020,0
213713.510,18.555,32.227,29.785,14.648,22.461,0
213713.514,27.344,31.250,33.203,26.855,22.949,0
213713.518,21.973,31.250,31.738,18.066,14.648,0
213713.522,11.719,32.715,29.785,4.395,21.484,0
213713.526,21.973,33.691,36.133,9.277,42.480,0
213713.529,30.762,33.203,35.156,25.391,25.391,0
213713.533,24.414,31.738,24.902,26.855,7.324,0
213713.537,9.277,35.156,23.926,12.207,20.020,0
213713.541,23.438,41.016,38.574,13.672,41.992,0
213713.545,41.016,40.527,44.434,35.156,54.199,0
213713.549,23.926,32.715,40.039,35.645,38.574,0
213713.553,11.230,31.738,35.645,18.066,15.137,0
213713.556,7.812,32.715,33.203,10.742,22.949,0
213713.560,21.973,30.762,35.156,22.949,32.227,0
213713.564,33.691,31.250,34.180,29.297,38.574,0
213713.568,16.602,31.738,30.273,14.160,46.387,0
213713.572,5.859,34.668,31.250,7.812,26.367,0
213713.573,24.414,41.504,24.414,23.926,21.973,0
213713.577,39.551,41.504,25.879,37.598,33.691,0
213713.581,23.438,35.645,41.992,27.344,34.668,0
213713.585,10.254,39.062,37.598,8.789,41.992,0
213713.588,19.043,41.992,23.438,6.348,38.086,0
213713.592,30.762,38.086,29.785,22.949,25.879,0
213713.596,28.809,35.156,36.133,22.461,22.949,0
213713.600,15.625,33.203,35.156,5.859,24.414,0
213713.604,7.812,34.668,41.992,5.371,41.504,0
213713.608,23.438,34.668,41.992,22.461,53.223,0
213713.612,41.016,33.203,37.109,34.668,37.109,0
213713.616,21.484,32.227,37.109,19.531,12.695,0
213713.633,10.742,31.738,39.062,11.719,21.484,0
213713.637,24.414,32.227,33.203,25.879,43.457,0
213713.641,33.203,32.227,22.949,34.180,41.504,0
213713.645,25.391,34.668,26.855,28.809,29.785,0
213713.648,16.602,37.109,29.297,20.508,34.668,0
213713.652,25.879,34.180,23.926,26.855,52.734,0
213713.656,37.598,30.273,34.668,37.598,34.668,0
213713.660,27.832,30.273,36.621,29.297,7.324,0
213713.664,8.789,31.250,30.762,6.348,8.789,0
213713.668,16.113,29.785,33.203,2.441,14.648,0
213713.672,35.645,29.297,29.785,21.484,19.043,0
213713.676,27.832,36.133,24.902,25.879,31.250,0
213713.678,8.301,30.762,29.785,8.789,37.598,0
213713.682,12.695,24.902,36.621,-1.465,42.969,0
213713.686,27.344,26.855,36.621,11.230,39.062,0
213713.690,23.926,27.344,35.156,21.973,29.297,0
213713.693,10.254,30.273,30.762,10.742,34.180,0
213713.697,7.812,33.691,21.484,5.859,53.711,0
213713.701,25.391,34.180,21.484,24.902,62.500,0
213713.705,41.016,33.691,34.180,40.527,41.504,0
213713.709,36.621,40.527,46.875,32.715,23.438,0
213713.713,22.949,41.016,49.805,20.020,27.832,0
213713.717,22.461,34.668,43.457,23.438,36.133,0
213713.721,33.203,32.227,40.039,40.527,38.086,0
213713.723,20.020,28.320,35.156,35.156,36.621,0
213713.727,-0.488,26.855,30.762,14.648,36.621,0
213713.731,5.371,30.273,37.109,7.324,35.645,0
213713.735,27.832,33.203,34.180,18.555,32.227,0
213713.739,26.367,32.715,31.738,25.879,29.785,0
213713.742,8.301,35.645,29.785,12.695,41.992,0
213713.746,5.371,36.133,22.949,8.301,46.875,0
213713.750,20.996,30.273,31.738,23.926,35.645,0
213713.754,30.762,30.273,37.598,29.297,31.250,0
213713.758,19.531,32.227,36.133,16.113,36.133,0
213713.762,8.789,29.785,38.086,0.000,38.086,0
213713.766,19.531,32.227,36.133,6.836,38.086,0
213713.770,32.227,35.645,31.250,25.879,24.902,0
213713.774,20.020,34.180,23.926,19.531,12.207,0
213713.777,5.859,31.738,29.297,5.371,18.066,0
213713.781,17.578,32.715,31.250,12.207,22.461,0
213713.785,31.250,29.785,25.391,27.832,25.879,0
213713.789,18.555,27.832,29.297,28.809,23.438,0
213713.793,7.324,32.715,36.621,20.020,24.902,0
213713.797,8.301,33.203,41.504,23.438,40.527,0
213713.801,20.020,32.715,40.527,30.273,42.969,0
213713.805,19.531,33.203,36.133,22.461,27.344,0
213713.809,7.324,32.715,24.902,10.254,21.973,0
213713.813,10.254,32.227,22.461,7.812,27.832,0
213713.813,26.367,33.691,33.203,23.438,22.949,0
213713.817,34.180,32.227,43.457,36.621,20.020,0
213713.821,17.090,28.809,37.598,24.414,24.902,0
213713.825,7.812,28.809,34.180,12.207,28.320,0
213713.829,25.391,30.762,43.457,24.414,34.180,0
213713.832,38.574,35.645,41.504,34.180,32.227,0
213713.836,27.832,39.062,32.715,23.926,30.762,0
213713.840,15.625,35.645,32.227,12.207,33.691,0
213713.844,21.484,30.762,31.250,6.348,35.156,0
213713.848,36.621,28.809,35.156,18.066,37.598,0
213713.852,30.273,32.227,38.574,24.414,34.668,0
213713.856,13.184,33.691,27.344,8.789,23.438,0
213713.859,13.184,30.762,26.367,4.395,27.344,0
213713.862,25.879,28.320,37.109,18.555,38.086,0
213713.866,28.809,33.203,34.180,23.438,41.016,0
213713.870,14.160,38.574,28.320,9.766,36.621,0
213713.874,15.625,35.645,42.969,5.859,26.855,0
213713.878,35.645,33.691,49.805,23.926,31.738,0
213713.882,41.992,33.691,42.480,32.227,34.180,0
213713.886,26.855,35.156,39.551,21.484,35.156,0
213713.890,15.625,38.574,39.551,10.254,44.922,0
213713.894,22.949,31.738,34.668,13.672,42.480,0
213713.898,35.156,27.344,34.668,28.320,41.504,0
213713.901,24.414,33.691,39.551,27.344,30.273,0
213713.903,7.324,31.738,38.086,11.230,0.000,0
213713.907,11.230,26.855,36.133,11.230,12.695,0
213713.911,28.809,30.273,28.809,29.297,31.738,0
213713.915,23.926,34.668,31.250,23.926,24.414,0
213713.919,13.672,36.133,45.898,7.812,32.715,0
213713.923,13.184,36.621,46.875,10.254,44.434,0
213713.927,19.043,32.227,31.250,20.996,35.645,0
213713.931,26.855,30.762,30.762,28.809,22.949,0
213713.934,15.137,38.574,41.992,20.996,31.250,0
213713.938,12.695,39.062,36.133,11.230,42.969,0
213713.942,31.738,31.738,34.180,24.414,50.293,0
213713.946,38.574,32.227,37.109,34.668,38.574,0
213713.948,19.531,31.738,33.691,21.484,17.578,0
213713.952,17.090,32.715,33.691,10.742,20.996,0
213713.956,30.762,36.621,24.414,17.090,29.785,0
213713.960,36.133,33.203,29.785,27.344,20.508,0
213713.963,35.156,33.691,38.086,24.902,37.598,0
213713.967,19.531,38.574,27.344,12.695,58.105,0
213713.971,14.648,33.203,28.320,15.625,41.992,0
213713.975,36.621,31.250,44.434,34.668,27.344,0
213713.979,44.434,34.668,49.316,42.480,29.297,0
213713.983,21.484,33.691,39.062,27.344,42.480,0
213713.987,19.043,34.180,36.133,20.020,43.457,0
213713.991,39.062,37.598,41.016,28.320,33.203,0
213713.995,51.270,41.016,26.367,33.203,25.879,0
213713.999,36.133,43.945,10.742,21.484,26.367,0
213714.003,18.066,41.016,21.484,4.395,38.086,0
213714.007,31.738,40.527,35.645,7.812,39.062,0
213714.011,43.457,40.527,35.645,22.949,25.391,0
213714.015,38.086,40.527,29.785,20.996,32.715,0
213714.018,24.902,41.992,34.180,8.301,48.340,0
213714.022,22.949,38.574,36.621,14.648,59.082,0
213714.026,39.062,38.086,31.250,37.109,63.965,0
213714.030,34.180,41.016,30.762,38.086,48.340,0
213714.034,17.090,43.457,40.039,24.902,35.645,0
213714.038,14.160,35.156,42.969,21.484,38.574,0
213714.053,26.855,32.227,37.598,30.273,42.969,0
213714.057,30.273,37.109,32.715,36.621,35.156,0
213714.061,11.719,32.715,23.438,22.949,33.203,0
213714.065,10.742,30.273,25.391,12.695,32.715,0
213714.069,19.531,27.832,36.133,17.578,22.949,0
213714.073,19.531,27.344,34.180,28.320,20.508,0
213714.077,14.648,35.645,27.344,19.043,20.508,0
213714.081,4.395,36.621,30.273,-0.977,19.531,0
213714.084,10.254,32.715,38.574,7.324,27.344,0
213714.088,22.461,30.273,39.062,22.461,41.992,0
213714.092,16.113,30.762,41.992,18.555,38.574,0
213714.096,6.836,33.203,43.945,6.836,49.805,0
213714.098,14.648,35.645,38.086,11.230,69.824,0
213714.102,35.645,35.156,36.133,31.250,33.203,0
213714.106,28.809,33.691,31.738,27.344,9.277,0
213714.110,9.766,32.715,16.602,9.766,15.137,0
213714.114,21.484,40.527,28.809,18.066,11.230,0
213714.117,39.551,43.945,46.387,32.715,19.531,0
213714.121,32.227,31.738,46.387,29.297,21.484,0
213714.125,17.090,28.320,41.992,18.066,18.066,0
213714.129,20.020,29.785,34.668,12.695,28.320,0
213714.133,28.809,28.809,37.598,20.996,43.457,0
213714.137,34.180,30.762,42.480,31.250,39.551,0
213714.141,26.855,37.109,36.621,25.391,36.133,0
213714.143,18.066,37.109,37.109,18.555,63.965,0
213714.147,31.250,32.715,36.621,26.367,67.871,0
213714.151,46.875,35.156,36.133,45.898,43.457,0
213714.155,39.062,35.645,39.551,41.992,34.180,0
213714.158,20.996,35.156,33.203,23.438,38.574,0
213714.162,20.996,35.645,26.367,20.996,41.504,0
213714.166,38.574,30.762,31.738,35.156,28.320,0
213714.170,38.574,28.809,41.992,36.133,25.879,0
213714.174,21.973,32.227,28.809,13.672,32.715,0
213714.178,20.508,35.645,20.508,7.324,34.180,0
213714.182,36.133,37.109,26.855,20.508,34.180,0
213714.186,44.434,35.645,27.832,26.855,27.344,0
213714.188,30.762,34.180,31.738,16.113,32.227,0
213714.192,15.137,32.227,36.133,5.859,36.621,0
213714.196,30.762,34.668,35.645,18.555,35.156,0
213714.200,34.668,35.645,32.715,30.762,30.762,0
213714.204,9.277,30.762,20.996,13.184,19.043,0
213714.207,-2.441,29.785,14.648,-0.977,8.789,0
213714.211,14.648,28.809,30.762,12.695,14.160,0
213714.215,39.551,33.691,31.250,34.668,19.531,0
213714.219,27.832,36.133,29.785,34.668,10.254,0
213714.223,4.883,30.273,37.598,13.672,16.113,0
213714.227,9.766,33.691,34.668,11.230,41.504,0
213714.231,29.785,41.016,32.227,25.879,40.527,0
213714.233,31.738,43.457,30.273,32.227,33.203,0
213714.237,16.113,39.062,30.762,20.508,40.527,0
213714.241,16.602,33.691,35.645,12.207,43.457,0
213714.245,37.109,33.691,37.598,22.949,42.969,0
213714.249,41.504,33.691,32.715,33.203,40.039,0
213714.253,20.020,31.250,29.297,20.996,33.691,0
213714.257,3.906,28.809,27.832,7.324,20.996,0
213714.261,12.695,33.203,32.715,18.555,16.113,0
213714.265,30.762,38.086,34.668,29.785,13.184,0
213714.269,24.414,37.598,34.668,22.461,21.484,0
213714.273,11.719,34.668,35.156,10.254,36.133,0
213714.276,20.996,31.250,36.621,14.160,36.621,0
213714.278,34.180,33.203,40.527,34.180,42.969,0
213714.282,33.203,36.133,40.039,38.574,49.805,0
213714.286,15.625,32.715,28.809,18.555,47.363,0
213714.290,13.184,35.156,24.902,13.672,41.992,0
213714.294,34.180,40.039,29.785,30.273,32.715,0
213714.298,35.645,36.621,29.785,31.738,26.367,0
213714.302,11.230,36.133,32.715,15.625,20.020,0
213714.306,13.184,33.691,33.203,9.766,19.043,0
213714.310,32.227,30.762,38.086,20.508,32.227,0
213714.314,34.668,35.156,33.203,30.762,40.039,0
213714.318,21.484,35.156,26.367,23.438,29.297,0
213714.321,-0.488,32.227,28.809,13.672,15.625,0
213714.323,10.742,37.598,36.133,24.414,15.137,0
213714.327,31.250,35.645,40.527,37.109,20.508,0
213714.331,20.996,30.273,44.922,27.344,22.461,0
213714.334,15.625,31.250,38.086,11.719,25.879,0
213714.338,21.484,30.762,28.320,15.137,29.297,0
213714.342,24.902,31.738,36.133,30.762,27.832,0
213714.346,21.484,30.762,33.691,29.785,34.668,0
213714.350,4.395,31.738,32.715,10.254,33.203,0
213714.354,6.836,34.668,41.504,7.324,18.555,0
213714.358,30.762,33.203,41.504,26.367,23.926,0
213714.362,35.156,34.180,37.598,33.691,30.273,0
213714.366,13.184,35.156,33.691,14.160,20.508,0
213714.383,9.277,32.227,38.086,6.348,22.949,0
213714.387,28.320,34.180,44.434,25.391,30.273,0
213714.391,42.969,42.480,45.410,39.062,31.250,0
213714.395,34.668,43.457,42.969,27.344,33.203,0
213714.398,16.602,34.668,27.344,7.812,34.668,0
213714.402,21.973,31.250,21.973,14.160,59.570,0
213714.406,35.645,34.180,21.484,24.414,58.105,0
213714.410,27.832,33.691,24.414,16.602,19.531,0
213714.414,10.742,33.691,33.691,5.371,6.836,0
213714.418,12.695,34.668,42.480,11.230,13.184,0
213714.422,30.273,38.086,45.898,29.297,21.484,0
213714.426,34.668,40.039,33.203,27.832,17.090,0
213714.428,17.090,34.668,33.691,8.789,15.625,0
213714.432,8.789,33.203,41.504,8.301,24.902,0
213714.436,23.926,30.273,35.645,21.484,29.785,0
213714.440,28.809,26.855,28.320,29.785,26.367,0
213714.443,10.742,26.855,24.414,16.113,31.738,0
213714.447,6.348,27.344,30.273,4.395,40.039,0
213714.451,21.973,31.738,41.504,21.484,36.621,0
213714.455,34.180,37.109,34.668,33.203,37.109,0
213714.459,28.320,32.715,20.996,20.508,35.156,0
213714.463,2.930,23.926,23.438,5.371,44.434,0
213714.467,2.441,22.949,32.715,9.766,47.363,0
213714.471,27.344,28.809,37.598,26.367,32.227,0
213714.473,22.461,29.785,35.645,25.391,21.484,0
213714.477,4.883,31.250,32.715,6.836,13.184,0
213714.481,16.602,34.180,31.250,7.324,17.090,0
213714.485,33.203,34.180,21.973,25.391,25.879,0
213714.488,29.785,33.203,20.508,26.855,28.320,0
213714.492,15.137,32.715,24.902,10.742,30.762,0
213714.496,10.742,32.715,28.320,8.301,45.410,0
213714.500,20.996,30.273,31.738,18.555,44.434,0
213714.504,25.879,30.762,29.297,22.461,20.020,0
213714.508,9.277,32.715,27.832,8.789,8.301,0
213714.512,0.488,33.203,32.715,-0.488,17.578,0
213714.516,17.578,31.738,38.086,13.184,29.297,0
213714.518,27.832,30.762,36.621,25.391,27.832,0
213714.522,11.719,29.297,22.949,17.578,24.414,0
213714.526,2.441,29.297,19.531,7.324,34.180,0
213714.529,19.531,28.320,17.578,13.672,20.508,0
213714.533,33.691,26.855,23.438,28.320,6.836,0
213714.537,30.762,27.832,32.715,26.367,27.344,0
213714.541,12.207,26.855,32.715,11.719,32.715,0
213714.545,12.695,25.391,39.551,12.207,33.203,0
213714.549,37.109,31.738,45.898,35.645,36.621,0
213714.553,38.086,36.621,41.504,41.992,27.832,0
213714.557,19.531,36.621,35.645,22.461,23.438,0
213714.561,10.254,33.691,32.715,10.742,31.738,0
213714.563,21.973,27.832,35.645,19.043,27.344,0
213714.567,35.645,29.297,37.598,34.180,21.973,0
213714.571,25.879,33.203,32.227,28.320,31.738,0
213714.575,15.625,33.691,28.809,21.484,46.875,0
213714.578,24.414,34.668,30.273,31.250,57.129,0
213714.582,43.457,35.156,38.086,44.922,55.664,0
213714.586,46.387,41.016,40.527,42.480,50.293,0
213714.590,17.090,38.086,33.203,25.879,52.734,0
213714.594,10.742,26.367,27.344,21.484,49.805,0
213714.598,36.133,25.391,29.297,32.715,38.574,0
213714.602,28.809,29.297,31.738,31.250,37.598,0
213714.606,10.254,30.273,36.133,16.602,33.203,0
213714.608,17.578,34.180,34.668,14.648,18.066,0
213714.612,30.273,37.598,32.227,26.367,17.090,0
213714.615,30.762,38.086,32.227,25.391,21.484,0
213714.619,19.531,45.410,31.738,8.789,26.367,0
213714.623,19.043,43.945,32.227,1.465,32.715,0
213714.627,33.203,31.738,28.320,12.207,40.039,0
213714.631,33.203,27.344,18.555,25.879,44.434,0
213714.635,20.996,31.738,22.461,23.438,41.016,0
213714.639,23.438,31.250,40.039,13.672,61.035,0
213714.643,28.809,27.832,39.062,19.531,63.477,0
213714.647,27.832,29.785,27.832,34.668,30.762,0
213714.651,20.508,33.203,24.902,34.180,26.855,0
213714.653,6.348,31.738,28.809,20.020,34.180,0
213714.657,14.648,31.738,32.715,20.996,24.414,0
213714.661,33.691,31.738,29.785,35.645,17.578,0
213714.665,35.156,33.203,29.785,33.203,25.879,0
213714.669,19.043,34.668,35.645,20.996,22.949,0
213714.673,20.996,33.203,45.410,24.902,24.902,0
213714.677,40.039,35.645,46.387,40.039,40.527,0
213714.680,39.062,36.621,39.551,37.598,33.691,0
213714.684,19.043,31.250,27.344,16.602,20.020,0
213714.688,11.719,30.273,23.926,9.277,30.273,0
213714.692,27.832,31.738,38.574,20.508,40.039,0
213714.696,34.668,27.344,38.086,30.762,22.461,0
213714.699,27.832,30.762,31.250,23.438,11.230,0
213714.703,20.508,37.109,38.086,14.160,20.020,0
213714.707,21.973,35.645,41.992,20.508,35.645,0
213714.711,37.109,35.156,47.363,33.203,54.688,0
213714.715,31.250,38.574,45.898,27.832,36.133,0
213714.719,15.137,35.645,39.062,8.789,21.484,0
213714.723,18.555,31.250,34.180,4.883,47.852,0
213714.726,30.273,32.227,36.621,19.531,45.410,0
213714.730,24.902,33.691,40.527,24.902,-1.465,0
213714.734,11.230,32.715,33.691,9.766,-5.859,0
213714.738,9.277,30.762,32.227,6.348,17.578,0
213714.742,20.996,26.367,39.062,21.973,22.949,0
213714.744,30.762,30.762,35.645,26.855,22.949,0
213714.748,20.508,39.062,25.391,8.789,27.344,0
213714.752,6.348,37.598,32.715,0.000,35.645,0
213714.756,13.184,37.109,42.480,13.672,38.086,0
213714.760,29.297,40.039,42.969,29.297,40.039,0
213714.764,21.484,35.156,41.016,23.438,29.297,0
213714.767,5.371,31.738,37.598,6.836,27.344,0
213714.771,16.113,31.738,39.062,6.836,37.598,0
213714.775,32.715,29.297,32.715,22.949,36.621,0
213714.779,21.484,28.809,17.578,26.855,31.250,0
213714.783,10.254,30.762,20.996,16.602,29.785,0
213714.787,11.719,29.297,30.762,15.625,45.410,0
213714.803,15.137,27.344,38.086,26.855,39.551,0
213714.807,20.508,26.367,42.969,28.320,19.531,0
213714.811,16.113,29.297,33.203,15.625,10.742,0
213714.815,7.812,34.180,30.273,0.977,4.883,0
213714.819,17.090,33.691,37.109,8.301,10.254,0
213714.823,30.273,35.645,33.691,24.902,27.832,0
213714.827,18.555,33.203,30.273,13.184,31.738,0
213714.831,7.324,30.273,27.344,3.418,38.086,0
213714.835,25.391,31.738,30.273,21.973,40.039,0
213714.838,47.363,33.203,34.180,37.109,27.832,0
213714.842,29.785,35.156,33.691,28.320,40.527,0
213714.846,15.625,35.156,36.621,18.555,42.480,0
213714.848,34.668,38.086,38.574,27.344,36.621,0
213714.852,47.363,38.086,34.668,40.039,46.387,0
213714.856,43.945,36.621,33.691,37.598,45.898,0
213714.859,20.996,37.598,28.320,19.531,35.645,0
213714.863,17.578,35.645,16.113,16.113,32.227,0
213714.867,35.645,32.227,20.020,28.320,30.273,0
213714.871,32.227,34.180,28.320,29.297,33.203,0
213714.875,20.996,39.551,26.367,20.996,42.480,0
213714.879,18.555,39.551,28.320,15.137,34.668,0
213714.883,29.785,38.086,32.227,21.484,17.578,0
213714.887,36.133,35.645,35.645,29.785,19.531,0
213714.891,21.973,34.668,38.086,22.949,32.227,0
213714.893,10.742,34.180,35.156,10.254,36.133,0
213714.897,18.066,30.762,29.297,11.230,26.367,0
213714.901,36.621,31.738,28.320,22.461,8.789,0
213714.905,41.016,34.180,25.879,23.438,-2.441,0
213714.908,15.137,37.109,20.508,7.812,3.418,0
213714.912,5.371,37.109,26.367,5.371,16.113,0
213714.916,35.645,35.156,30.273,25.879,20.996,0
213714.920,35.645,33.203,18.066,32.715,14.160,0
213714.924,2.441,31.738,24.902,15.625,20.996,0
213714.928,3.906,34.180,49.316,12.695,33.691,0
213714.932,31.250,36.621,59.082,36.621,42.969,0
213714.936,38.086,36.133,50.781,47.852,57.129,0
213714.938,17.090,33.691,34.668,25.879,43.457,0
213714.942,10.254,38.086,30.762,11.230,36.621,0
213714.946,27.344,41.504,31.738,19.043,58.105,0
213714.950,35.156,34.180,29.785,26.855,44.922,0
213714.954,21.484,28.320,28.809,13.672,17.090,0
213714.958,7.812,27.832,25.879,-5.859,12.207,0
213714.962,27.344,28.320,23.926,2.441,18.066,0
213714.966,38.574,32.227,31.250,21.973,18.555,0
213714.970,20.020,38.086,37.109,19.531,21.973,0
213714.974,7.324,36.621,33.691,3.906,23.438,0
213714.977,7.812,32.715,21.973,2.930,14.160,0
213714.981,23.438,31.250,22.949,21.484,24.902,0
213714.984,26.855,32.227,32.227,27.344,33.691,0
213714.988,16.602,34.668,30.762,13.672,23.438,0
213714.992,23.438,38.086,35.645,8.301,20.508,0
213714.996,34.180,35.156,38.086,20.020,18.555,0
213715.000,37.109,30.762,31.738,34.668,17.578,0
213715.004,22.949,36.621,30.762,23.438,18.066,0
213715.008,4.395,37.109,30.273,5.371,11.230,0
213715.012,15.137,31.250,32.715,17.090,18.555,0
213715.015,29.297,30.762,36.621,28.320,26.855,0
213715.019,19.043,33.203,31.250,21.484,7.812,0
213715.023,3.906,33.691,23.926,14.648,1.953,0
213715.027,6.348,33.203,22.461,13.672,3.418,0
213715.028,29.785,34.668,30.762,24.414,11.719,0
213715.032,36.621,36.621,27.832,27.832,41.504,0
213715.036,18.555,40.039,20.996,18.555,54.688,0
213715.040,18.066,42.480,28.809,14.648,42.480,0
213715.043,34.180,38.086,35.156,30.762,35.645,0
213715.047,42.480,37.109,31.738,39.551,29.297,0
213715.051,28.320,41.992,31.738,22.949,33.203,0
213715.055,16.602,42.480,32.227,14.648,47.852,0
213715.059,29.297,36.621,37.109,22.461,43.945,0
213715.063,46.875,35.645,34.668,31.250,32.227,0
213715.067,35.645,39.062,26.367,19.531,31.250,0
213715.071,26.367,44.922,29.297,8.789,37.598,0
213715.073,45.410,50.781,33.691,24.414,56.152,0
213715.077,47.363,40.527,30.762,33.691,53.711,0
213715.081,37.109,32.227,26.855,25.879,57.129,0
213715.085,20.996,33.203,28.809,20.508,62.012,0
213715.088,26.367,34.180,33.203,26.855,57.617,0
213715.092,51.758,37.109,37.109,43.945,61.035,0
213715.096,39.551,37.109,36.621,45.410,44.434,0
213715.100,10.742,38.574,36.133,31.250,20.996,0
213715.104,13.672,44.922,34.180,28.809,22.461,0
213715.108,25.879,38.086,33.691,34.668,35.645,0
213715.112,20.020,26.367,39.062,34.668,49.316,0
213715.116,3.418,26.855,41.992,23.438,41.992,0
213715.119,4.883,30.273,39.551,11.230,22.461,0
213715.122,20.020,32.715,44.922,20.996,29.297,0
213715.126,32.227,35.156,45.898,35.156,32.715,0
213715.130,24.414,35.645,35.156,20.508,30.762,0
213715.134,16.113,35.156,33.691,6.348,37.598,0
213715.138,28.320,38.086,39.062,18.066,39.551,0
213715.142,40.527,40.039,41.504,36.133,37.598,0
213715.146,29.785,35.645,33.691,32.715,29.785,0
213715.150,11.719,33.691,31.738,15.625,20.020,0
213715.154,13.184,36.133,36.133,14.160,22.949,0
213715.158,27.832,36.133,29.785,26.367,33.691,0
213715.162,28.809,35.156,25.391,28.809,34.668,0
213715.178,12.695,34.180,29.297,18.066,36.621,0
213715.182,16.113,35.156,35.645,15.625,48.828,0
213715.186,29.785,32.715,44.434,27.832,53.711,0
213715.190,27.832,28.320,48.828,34.668,36.133,0
213715.193,10.254,25.879,41.992,19.531,19.043,0
213715.197,2.930,21.973,37.109,10.254,22.461,0
213715.201,22.461,21.973,44.434,22.949,36.133,0
213715.205,48.340,26.855,41.992,31.250,41.504,0
213715.209,34.668,29.785,27.832,21.973,30.273,0
213715.213,13.672,37.109,34.180,12.695,22.461,0
213715.217,25.879,41.504,42.969,15.137,22.949,0
213715.221,39.551,32.715,33.203,21.484,22.461,0
213715.223,27.832,26.855,24.414,16.602,20.996,0
213715.227,9.766,32.715,21.484,1.953,28.320,0
213715.231,13.672,34.668,29.785,6.836,32.227,0
213715.234,31.738,28.809,36.621,29.297,20.020,0
213715.238,32.715,26.367,34.668,36.621,20.020,0
213715.242,15.137,26.855,32.227,19.043,38.086,0
213715.246,18.555,30.762,37.109,14.160,57.129,0
213715.250,36.133,32.715,40.039,28.809,44.434,0
213715.254,26.855,27.832,31.738,32.715,22.461,0
213715.258,5.859,23.926,26.855,24.902,21.484,0
213715.262,0.488,23.926,29.785,18.555,33.203,0
213715.266,11.719,24.414,41.016,28.320,45.410,0
213715.268,25.391,27.344,44.922,40.527,48.340,0
213715.272,16.602,29.297,36.621,33.691,33.691,0
213715.276,2.930,31.738,32.227,15.625,32.715,0
213715.280,21.484,37.598,34.180,22.949,62.012,0
213715.284,44.922,41.016,41.016,43.457,73.730,0
213715.288,39.551,42.480,43.457,34.180,53.223,0
213715.292,30.762,41.016,35.645,9.766,34.668,0
213715.295,30.762,35.645,27.344,5.371,32.227,0
213715.299,32.715,37.109,22.949,20.508,35.156,0
213715.303,41.504,42.969,23.926,26.855,28.809,0
213715.307,20.996,41.504,27.832,11.719,10.254,0
213715.311,7.324,36.621,34.668,6.836,8.301,0
213715.313,30.762,39.551,39.551,20.020,20.996,0
213715.317,37.109,36.133,38.574,26.855,24.414,0
213715.321,22.949,33.691,33.691,21.973,24.902,0
213715.324,12.207,38.086,33.691,14.160,25.879,0
213715.328,22.461,32.227,41.016,22.949,41.016,0
213715.332,41.992,30.762,40.527,37.598,42.480,0
213715.336,33.691,33.691,30.273,31.738,31.250,0
213715.340,20.508,32.227,23.926,20.508,35.645,0
213715.344,20.508,36.621,34.668,22.461,45.410,0
213715.348,28.320,34.668,38.086,31.250,50.781,0
213715.352,28.809,35.645,30.762,30.762,37.598,0
213715.356,16.602,42.480,33.691,18.555,29.297,0
213715.358,24.414,37.109,41.992,15.625,32.227,0
213715.362,35.156,35.645,41.016,26.367,37.598,0
213715.366,26.367,35.645,33.203,32.715,28.809,0
213715.370,12.207,32.227,26.367,19.531,13.672,0
213715.373,17.578,36.621,27.832,14.648,27.344,0
213715.377,35.645,39.551,31.250,29.297,41.504,0
213715.381,39.551,36.621,26.367,36.621,41.016,0
213715.385,26.855,35.156,24.414,24.902,33.203,0
213715.389,6.836,34.668,19.531,10.254,23.926,0
213715.393,12.207,36.133,16.113,16.113,23.926,0
213715.397,31.738,36.621,23.926,31.250,21.484,0
213715.401,30.273,31.250,23.438,26.855,12.695,0
213715.403,15.137,30.273,25.879,10.254,9.766,0
213715.407,20.020,34.668,37.109,10.742,22.461,0
213715.411,41.504,34.668,38.574,27.832,29.785,0
213715.415,35.156,36.621,30.273,31.738,24.414,0
213715.419,21.484,40.039,28.809,21.973,31.250,0
213715.423,20.996,37.109,36.133,18.555,49.805,0
213715.427,28.809,37.109,36.621,32.227,48.828,0
213715.430,30.762,40.527,34.180,41.504,41.504,0
213715.434,13.672,36.133,34.668,35.156,42.969,0
213715.438,10.742,32.715,39.551,31.250,41.504,0
213715.442,25.879,36.133,44.434,37.109,49.316,0
213715.446,36.621,32.715,36.133,42.969,46.387,0
213715.449,24.902,29.785,25.879,31.738,43.457,0
213715.453,7.812,33.203,34.180,20.508,45.898,0
213715.457,20.996,39.551,45.410,23.926,47.852,0
213715.461,39.551,43.945,44.922,39.062,46.875,0
213715.465,30.273,41.016,35.156,33.691,31.738,0
213715.469,18.555,37.598,27.344,7.812,33.691,0
213715.472,21.484,38.086,29.785,6.348,43.457,0
213715.476,34.180,40.527,38.574,27.344,40.527,0
213715.480,33.691,42.969,42.969,31.738,34.180,0
213715.484,10.254,41.992,36.621,11.719,43.945,0
213715.488,10.742,39.551,39.551,1.953,57.129,0
213715.492,41.016,36.133,46.875,20.508,48.828,0
213715.493,45.410,39.062,44.434,35.645,9.277,0
213715.497,15.137,39.062,35.156,25.391,-5.371,0
213715.501,16.602,35.645,32.227,16.602,22.461,0
213715.505,27.344,33.203,33.691,23.926,33.203,0
213715.509,24.414,28.809,30.273,31.738,23.926,0
213715.512,21.973,31.738,19.531,32.227,17.578,0
213715.516,12.207,31.738,26.855,18.066,21.484,0
213715.520,9.277,26.367,43.457,14.648,29.297,0
213715.524,32.715,30.273,37.598,29.785,31.250,0
213715.528,38.086,37.598,27.832,30.762,27.832,0
213715.532,8.789,35.156,31.250,11.719,33.691,0
213715.536,6.348,27.832,33.691,3.906,21.484,0
213715.553,38.574,29.785,32.715,20.996,13.672,0
213715.557,32.227,35.156,34.180,27.344,19.043,0
213715.561,6.348,38.574,32.227,15.625,15.625,0
213715.565,8.789,37.109,28.320,10.254,24.414,0
213715.568,25.391,32.715,24.414,20.996,33.691,0
213715.572,30.762,36.133,28.809,30.273,21.484,0
213715.576,13.184,34.668,33.203,19.531,20.020,0
213715.580,4.883,30.273,32.715,8.301,40.039,0
213715.584,14.160,28.809,33.203,15.137,47.852,0
213715.588,36.133,29.297,37.109,27.832,45.410,0
213715.592,33.203,33.203,36.133,21.484,54.199,0
213715.596,3.418,35.645,28.809,8.789,51.270,0
213715.598,8.301,39.062,34.180,15.625,41.992,0
213715.602,31.250,38.086,38.086,23.926,39.551,0
213715.606,31.250,34.180,37.109,18.555,18.555,0
213715.610,6.348,34.668,35.645,4.883,-5.859,0
213715.613,-1.465,36.133,31.250,0.977,-9.766,0
213715.617,24.414,35.156,29.785,16.602,17.578,0
213715.621,30.273,33.691,34.668,23.926,20.996,0
213715.625,9.766,33.691,37.109,10.742,10.742,0
213715.629,7.324,35.645,39.551,8.301,16.602,0
213715.633,28.809,35.645,42.480,21.484,16.113,0
213715.637,37.598,35.645,39.062,30.273,18.066,0
213715.641,18.066,37.598,26.367,16.113,22.949,0
213715.643,6.348,35.645,18.555,-3.906,19.043,0
213715.647,22.461,30.762,26.367,7.324,22.949,0
213715.651,29.785,29.297,33.691,26.367,27.344,0
213715.655,16.113,30.762,33.691,20.020,24.414,0
213715.658,5.859,32.715,35.156,4.395,20.020,0
213715.662,19.531,31.738,37.598,5.859,23.926,0
213715.666,29.785,30.273,33.203,19.043,29.785,0
213715.670,23.438,28.809,28.809,23.438,33.203,0
213715.674,11.230,35.156,25.879,7.812,38.086,0
213715.678,12.695,37.109,27.344,-1.465,40.527,0
213715.682,28.320,30.273,28.320,12.695,38.574,0
213715.686,31.738,24.902,26.855,22.461,29.297,0
213715.688,14.648,27.344,29.785,14.160,26.855,0
213715.692,3.418,31.738,29.785,6.348,18.555,0
213715.696,16.602,29.785,37.598,18.066,15.625,0
213715.700,31.250,29.297,36.133,28.809,15.625,0
213715.703,17.578,28.809,28.809,14.160,4.883,0
213715.707,1.465,29.297,28.320,-3.906,1.465,0
213715.711,13.184,33.691,30.273,3.418,8.789,0
213715.715,29.297,34.180,31.738,23.926,19.043,0
213715.719,16.113,30.762,25.879,21.484,14.160,0
213715.723,-5.859,30.762,32.227,6.836,8.301,0
213715.727,1.953,34.668,39.062,10.254,23.438,0
213715.731,24.414,37.598,35.645,22.461,33.691,0
213715.733,25.879,34.180,30.762,23.926,13.184,0
213715.737,11.230,34.180,28.809,11.230,5.859,0
213715.741,5.859,35.645,29.785,5.371,22.461,0
213715.745,11.230,29.297,32.715,16.113,27.832,0
213715.748,20.508,25.391,34.180,19.043,19.043,0
213715.752,14.648,30.762,31.250,10.254,14.160,0
213715.756,9.277,33.691,27.832,3.418,19.531,0
213715.760,24.902,29.785,29.297,11.719,29.297,0
213715.764,39.551,29.785,36.621,28.320,27.344,0
213715.768,33.203,35.645,34.668,25.391,23.926,0
213715.772,19.043,41.992,28.320,11.719,42.969,0
213715.776,17.090,38.086,28.809,10.742,56.641,0
213715.778,37.109,34.668,30.762,26.855,54.688,0
213715.782,37.109,39.062,32.715,35.156,47.363,0
213715.786,20.020,35.156,32.715,22.461,35.645,0
213715.790,20.508,33.203,36.621,19.531,22.461,0
213715.794,39.062,41.016,46.875,38.574,33.203,0
213715.797,36.621,36.133,44.434,39.062,43.945,0
213715.801,17.578,32.227,31.250,15.625,13.184,0
213715.805,18.066,36.621,28.320,12.207,0.488,0
213715.809,29.785,33.691,35.645,27.832,33.203,0
213715.813,45.410,29.297,33.691,44.922,40.527,0
213715.817,34.180,31.738,30.273,38.574,36.133,0
213715.821,19.043,33.691,30.762,22.949,47.852,0
213715.823,28.320,33.691,33.203,28.320,50.781,0
213715.827,42.480,37.109,39.551,44.922,50.781,0
213715.831,37.109,38.086,39.062,38.574,37.598,0
213715.835,20.508,32.715,38.086,13.184,33.691,0
213715.839,25.391,28.809,40.039,8.789,49.805,0
213715.843,45.898,33.691,32.715,27.832,57.129,0
213715.846,44.922,39.062,23.926,31.250,38.574,0
213715.850,20.508,33.691,21.484,12.207,35.156,0
213715.854,19.531,27.344,27.344,6.348,32.715,0
213715.858,34.180,31.738,35.156,27.832,38.086,0
213715.862,36.621,32.715,35.156,41.992,29.297,0
213715.866,19.531,29.297,32.715,26.367,3.906,0
213715.868,11.719,29.297,35.156,18.555,11.230,0
213715.872,28.809,32.715,35.645,34.668,25.879,0
213715.876,39.551,31.738,27.344,41.992,26.367,0
213715.880,26.367,25.391,26.367,25.879,26.367,0
213715.884,16.602,23.926,31.738,9.766,15.625,0
213715.888,25.391,22.461,26.855,18.066,15.625,0
213715.892,34.668,24.902,32.227,32.715,24.902,0
213715.896,31.250,31.738,43.945,33.691,19.531,0
213715.900,26.855,32.227,40.527,23.926,23.438,0
213715.903,24.902,32.227,29.297,20.020,26.367,0
213715.907,30.762,32.715,28.809,37.109,33.691,0
213715.911,29.785,34.180,36.133,40.527,35.645,0
213715.928,15.625,36.621,35.156,24.414,28.809,0
213715.932,8.789,33.203,34.668,15.625,32.227,0
213715.936,17.578,25.879,39.062,24.902,42.969,0
213715.940,32.715,26.367,39.551,42.969,48.340,0
213715.944,20.508,37.598,31.738,31.738,39.551,0
213715.948,-0.977,46.387,31.250,12.695,28.809,0
213715.952,9.277,40.527,36.621,17.090,18.555,0
213715.955,20.020,30.273,36.621,23.926,21.484,0
213715.959,18.555,30.273,34.180,17.578,30.273,0
213715.963,13.184,35.645,34.668,7.324,18.555,0
213715.967,12.695,34.668,35.645,12.695,38.086,0
213715.971,33.203,32.715,35.156,26.855,63.477,0
213715.978,29.297,31.250,35.645,28.320,41.016,0
213715.982,10.254,31.738,35.156,17.090,5.371,0
213715.986,16.602,36.621,41.016,18.066,2.930,0
213715.990,37.598,37.109,42.480,33.691,15.625,0
213715.994,35.645,37.598,33.691,38.086,16.113,0
213715.998,12.695,40.039,28.320,21.484,19.531,0
213716.002,12.207,37.598,31.738,17.090,34.668,0
213716.006,33.691,32.227,30.273,24.902,38.574,0
213716.010,39.551,34.668,17.578,30.273,35.156,0
213716.014,15.137,39.062,27.832,22.949,45.410,0
213716.018,5.859,40.527,42.969,9.766,49.316,0
213716.021,23.926,42.480,40.039,17.578,46.875,0
213716.018,38.086,39.551,39.062,31.250,45.898,0
213716.022,25.391,34.180,36.621,20.020,46.875,0
213716.026,17.578,35.156,32.715,2.930,55.664,0
213716.029,31.738,37.109,31.250,10.742,52.246,0
213716.033,39.551,34.180,24.414,22.949,37.598,0
213716.037,29.785,34.668,20.508,18.555,23.438,0
213716.041,14.160,40.039,28.320,2.930,23.926,0
213716.045,16.602,42.480,30.762,1.953,35.156,0
213716.049,35.156,36.621,31.738,20.508,37.598,0
213716.053,36.133,30.762,32.227,21.973,32.715,0
213716.057,13.672,30.273,29.297,5.859,42.480,0
213716.061,4.883,29.785,28.320,2.930,50.781,0
213716.062,23.926,30.762,33.203,20.996,65.430,0
213716.066,29.297,34.668,29.785,32.715,56.152,0
213716.070,2.441,30.273,23.438,17.578,2.930,0
213716.074,-9.766,28.320,27.832,1.953,-3.906,0
213716.078,4.395,33.203,33.203,13.672,25.391,0
213716.082,23.926,32.227,29.297,29.785,31.250,0
213716.086,20.508,29.785,26.855,16.602,12.695,0
213716.090,1.465,30.762,27.832,-3.418,12.207,0
213716.094,12.207,35.156,25.391,-2.441,24.414,0
213716.098,30.273,35.645,31.738,12.695,31.738,0
213716.101,18.555,31.738,30.762,20.508,32.715,0
213716.105,4.395,29.297,23.926,5.371,16.602,0
213716.107,3.906,28.809,29.297,-3.418,7.812,0
213716.111,22.461,38.086,40.039,11.719,19.043,0
213716.115,28.809,37.598,37.598,19.043,15.137,0
213716.119,10.254,30.273,31.738,10.254,20.020,0
213716.123,3.906,32.227,33.691,0.977,24.902,0
213716.127,22.949,35.156,33.203,12.207,18.066,0
213716.131,38.086,33.203,34.180,30.273,19.531,0
213716.135,23.926,32.715,33.203,20.020,20.508,0
213716.139,8.301,34.668,38.574,8.789,34.180,0
213716.143,21.973,38.086,39.551,20.996,48.828,0
213716.146,35.645,40.039,34.180,36.621,40.527,0
213716.150,21.484,36.133,36.133,29.297,25.879,0
213716.152,8.789,33.203,28.320,10.254,26.855,0
213716.156,11.230,32.227,23.438,7.324,19.531,0
213716.160,28.320,28.809,27.344,20.020,15.625,0
213716.164,40.527,30.762,30.762,28.320,24.414,0
213716.168,18.555,33.691,32.715,21.973,29.785,0
213716.172,6.348,36.133,34.668,16.602,28.809,0
213716.176,25.879,38.086,36.133,24.902,27.832,0
213716.180,29.785,37.598,35.645,30.273,40.039,0
213716.184,12.207,37.109,35.156,17.578,26.855,0
213716.188,6.836,37.109,31.250,4.883,12.207,0
213716.191,21.484,35.156,26.367,11.230,27.832,0
213716.195,36.621,33.691,26.855,26.367,38.086,0
213716.199,28.809,36.133,25.879,24.902,34.180,0
213716.203,20.996,37.598,23.438,10.742,25.391,0
213716.207,41.504,42.480,32.227,12.207,32.715,0
213716.210,52.246,43.945,39.062,28.320,41.992,0
213716.214,39.062,48.340,34.668,34.180,39.551,0
213716.218,30.762,46.875,27.344,23.438,38.086,0
213716.222,21.973,34.668,23.438,22.949,36.621,0
213716.226,27.344,32.715,24.902,36.621,40.527,0
213716.230,32.227,35.645,27.832,40.039,43.945,0
213716.234,17.578,37.109,26.855,29.297,36.621,0
213716.238,7.812,34.668,24.902,19.531,38.086,0
213716.242,20.020,31.250,29.785,31.250,46.387,0
213716.243,34.180,36.133,36.621,40.039,52.246,0
213716.247,25.879,42.480,36.133,25.879,49.316,0
213716.251,11.719,38.574,32.227,14.160,38.574,0
213716.254,18.066,28.809,29.785,17.578,26.855,0
213716.258,35.645,25.391,30.273,29.785,24.902,0
213716.262,31.738,30.273,31.738,27.344,33.203,1
213716.266,9.277,31.250,31.738,14.160,33.691,0
213716.270,16.602,31.738,35.156,14.160,37.598,0
213716.274,39.551,33.691,40.039,30.273,30.762,0
213716.278,26.855,32.715,38.086,32.715,19.531,0
213716.282,4.883,29.785,34.180,18.066,20.508,0
213716.286,12.695,32.715,35.645,17.090,20.020,0
213716.303,31.738,32.715,36.133,31.738,26.855,0
213716.307,37.598,29.297,29.785,36.621,36.621,0
213716.311,26.855,30.762,28.809,23.438,24.902,0
213716.315,9.766,29.785,37.598,16.113,11.719,0
213716.319,16.602,31.250,41.016,29.785,24.414,0
213716.323,38.574,33.691,41.504,47.363,32.227,0
213716.326,23.926,30.762,37.109,29.785,29.785,0
213716.330,1.465,29.297,34.180,8.301,28.320,0
213716.334,12.695,31.250,34.668,19.043,35.156,0
213716.338,29.785,32.715,29.297,30.762,41.992,0
213716.342,24.414,35.645,29.785,23.438,34.668,0
213716.346,15.137,40.039,32.715,14.648,26.855,0
213716.348,20.020,43.945,32.227,17.578,35.645,0
213716.352,32.715,36.133,33.203,27.344,40.039,0
213716.356,27.832,28.320,36.621,24.902,31.738,0
213716.360,10.742,28.809,30.762,8.789,39.062,0
213716.364,14.648,31.250,25.391,8.789,43.945,0
213716.367,31.250,30.273,35.156,24.414,41.016,0
213716.371,28.320,30.762,39.062,28.320,47.363,0
213716.375,18.555,33.203,38.086,16.113,26.367,0
213716.379,12.695,31.738,37.598,4.883,13.672,0
213716.383,14.160,32.715,36.621,12.207,25.391,0
213716.387,24.414,36.133,37.598,26.855,19.043,0
213716.391,15.625,32.715,32.227,23.438,6.836,0
213716.393,4.395,29.297,33.203,9.766,18.066,0
213716.397,14.648,29.785,43.457,12.695,36.621,0
213716.401,33.691,33.203,42.480,32.715,44.922,0
213716.405,33.691,35.156,35.645,31.738,41.504,0
213716.409,17.578,35.156,32.227,14.648,36.621,0
213716.412,14.160,34.668,33.203,19.531,45.898,0
213716.416,24.414,32.227,26.855,28.809,42.969,0
213716.420,28.809,31.250,30.273,24.414,39.551,0
213716.424,15.625,37.109,38.086,15.137,46.875,0
213716.428,7.812,41.016,35.156,7.812,43.945,0
213716.432,21.484,35.645,36.621,16.602,39.551,0
213716.436,24.902,31.250,32.227,26.855,33.203,0
213716.440,9.766,31.738,25.391,17.090,34.668,0
213716.444,2.930,33.203,31.250,9.277,38.086,0
213716.448,18.066,29.785,35.645,19.531,36.133,0
213716.452,34.668,32.715,32.227,30.273,45.410,0
213716.456,25.391,36.133,30.762,21.484,53.711,0
213716.460,10.254,31.250,31.738,7.324,32.227,0
213716.464,20.996,30.273,30.273,11.230,29.785,0
213716.467,37.109,33.203,29.785,25.879,30.762,0
213716.471,29.785,31.738,35.156,30.273,-3.906,0
213716.475,13.672,34.668,37.109,15.625,-0.488,0
213716.479,15.625,32.227,29.297,8.301,19.043,0
213716.483,32.715,27.344,26.855,23.926,34.180,0
213716.483,37.598,30.762,20.020,27.344,34.180,0
213716.487,18.555,30.762,20.996,10.742,32.715,0
213716.491,18.066,30.762,28.320,7.812,40.039,0
213716.495,34.668,32.227,30.762,29.297,49.805,0
213716.499,29.297,32.227,38.574,41.016,36.133,0
213716.503,13.184,31.738,37.109,16.602,17.578,0
213716.506,8.301,28.809,31.250,0.488,20.508,0
213716.510,22.949,29.297,31.738,10.742,26.855,0
213716.514,34.180,29.785,31.250,24.902,32.715,0
213716.518,25.391,25.879,24.414,20.020,34.668,0
213716.522,7.324,25.391,24.902,8.301,31.738,0
213716.526,5.859,24.414,36.133,12.207,38.086,0
213716.528,27.344,28.320,25.879,29.785,47.363,0
213716.532,24.414,36.621,11.719,28.809,33.691,0
213716.536,5.371,36.133,20.996,13.184,19.043,0
213716.540,10.254,28.809,31.738,10.254,24.414,0
213716.544,30.273,23.926,34.180,20.996,47.852,0
213716.548,35.645,25.391,32.227,25.879,43.945,0
213716.552,21.973,27.344,28.320,19.531,19.043,0
213716.556,18.555,31.738,24.902,15.625,30.762,0
213716.560,31.250,32.227,27.832,23.926,40.039,0
213716.563,38.574,29.297,25.391,36.621,22.461,0
213716.567,27.344,34.668,18.555,31.738,16.602,0
213716.571,10.742,34.668,20.996,16.602,19.043,0
213716.573,15.137,30.273,23.438,23.438,21.484,0
213716.577,34.180,32.715,29.785,45.410,27.344,0
213716.581,31.250,34.668,31.250,38.574,22.949,0
213716.584,21.973,31.250,26.367,17.090,23.926,0
213716.588,30.273,31.738,28.320,17.090,22.949,0
213716.592,34.668,33.203,25.391,28.809,25.879,0
213716.596,26.855,33.203,22.461,32.227,35.645,0
213716.600,19.043,40.039,32.715,27.344,29.297,0
213716.604,18.555,44.434,32.715,25.391,29.297,0
213716.608,33.203,36.133,24.414,35.156,35.156,0
213716.612,41.992,35.645,33.691,42.969,29.297,0
213716.616,30.273,37.598,37.109,27.832,29.297,0
213716.633,22.949,34.668,30.273,18.066,37.109,0
213716.637,31.738,34.180,29.785,27.344,38.574,0
213716.641,35.156,30.762,29.297,33.203,33.691,0
213716.645,19.531,31.250,28.809,26.367,31.250,0
213716.649,8.301,34.180,28.809,10.742,36.621,0
213716.653,20.020,31.738,30.762,12.695,27.832,0
213716.657,35.645,33.203,32.227,27.832,34.668,0
213716.661,28.320,36.133,32.227,26.367,44.434,0
213716.664,11.230,34.180,26.855,15.625,14.160,0
213716.668,15.137,34.180,30.762,20.020,0.488,0
213716.672,34.668,31.738,41.504,32.715,11.230,0
213716.676,33.203,28.809,39.062,31.250,14.648,0
213716.678,15.625,27.832,33.691,20.508,10.742,0
213716.682,12.695,28.809,29.297,10.742,31.738,0
213716.686,26.855,31.250,34.180,23.438,41.016,0
213716.690,35.156,29.785,40.527,35.645,25.879,0
213716.694,19.043,29.785,37.598,22.461,25.391,0
213716.697,14.648,30.273,35.645,11.230,33.203,0
213716.701,30.762,33.691,36.133,22.461,38.574,0
213716.705,35.156,39.062,35.645,37.109,34.668,0
213716.709,27.832,39.551,34.180,30.273,33.691,0
213716.713,19.531,33.691,34.668,13.184,43.457,0
213716.717,20.508,26.855,34.180,12.695,52.246,0
213716.721,32.715,31.250,35.156,33.203,63.477,0
213716.723,29.297,33.203,35.645,34.180,58.105,0
213716.727,9.766,29.297,34.180,16.113,20.020,0
213716.731,12.695,28.320,31.738,20.508,12.695,0
213716.735,40.527,28.320,30.273,34.668,29.785,0
213716.739,42.969,30.273,23.438,30.762,19.531,0
213716.742,19.531,36.133,23.926,19.043,28.809,0
213716.746,16.602,34.668,33.203,17.578,62.500,0
213716.750,33.203,26.855,26.855,25.391,52.734,0
213716.754,45.410,29.297,22.949,35.645,45.410,0
213716.758,24.902,35.156,23.926,28.320,65.918,0
213716.762,13.184,35.645,24.414,17.578,46.387,0
213716.766,23.926,38.574,29.297,24.902,20.996,0
213716.768,34.180,37.598,36.133,35.156,29.297,0
213716.772,30.273,34.180,38.086,29.785,35.156,0
213716.776,25.391,37.598,33.203,16.602,33.691,0
213716.780,25.391,40.527,31.738,20.508,44.434,0
213716.784,30.762,38.574,30.762,31.250,55.176,0
213716.788,30.762,41.504,26.367,29.297,46.387,0
213716.792,16.602,42.969,22.949,17.578,30.273,0
213716.796,16.113,38.086,25.391,15.625,37.598,0
213716.800,33.203,37.109,30.762,36.621,35.645,0
213716.803,36.621,36.621,36.133,44.922,12.207,0
213716.807,22.461,37.109,31.738,28.320,17.578,0
213716.811,13.184,36.621,20.996,14.160,36.133,0
213716.814,27.832,36.621,16.113,19.043,63.965,0
213716.818,48.828,42.480,23.926,34.668,68.359,0
213716.822,34.668,39.062,32.227,27.344,37.109,0
213716.826,12.207,35.156,30.273,10.742,38.086,0
213716.830,21.484,39.062,30.762,17.578,47.363,0
213716.833,37.109,35.645,31.250,32.715,28.320,0
213716.837,27.832,30.762,29.297,24.414,13.672,0
213716.841,18.066,32.227,24.414,8.789,22.949,0
213716.845,31.738,31.738,25.391,16.113,52.246,0
213716.849,39.062,31.250,30.273,30.762,54.199,0
213716.853,36.133,37.109,29.297,29.297,47.363,0
213716.857,30.273,40.527,31.250,21.484,59.570,0
213716.858,24.902,38.574,29.297,22.949,43.945,0
213716.862,38.574,36.133,25.879,35.645,38.086,0
213716.866,43.945,36.621,32.715,41.992,31.738,0
213716.869,26.367,39.551,37.598,30.273,28.320,0
213716.873,20.020,38.086,37.109,18.066,34.180,0
213716.877,34.668,36.621,32.715,26.367,41.504,0
213716.881,50.293,37.109,31.250,43.457,54.199,0
213716.885,41.504,39.062,35.156,41.504,47.363,0
213716.889,22.461,39.062,29.785,25.391,40.039,0
213716.893,42.969,37.109,25.879,23.438,39.551,0
213716.897,53.711,33.691,33.203,34.180,35.645,0
213716.901,21.484,34.668,39.062,30.762,19.043,0
213716.904,7.812,36.133,38.086,19.531,22.949,0
213716.907,16.602,36.621,27.832,18.066,40.527,0
213716.911,38.574,39.062,25.391,34.668,44.922,0
213716.915,37.598,37.598,31.250,36.621,30.762,0
213716.919,12.695,33.691,28.809,9.766,20.508,0
213716.923,12.695,29.297,29.785,6.348,38.574,0
213716.927,28.809,27.344,27.832,23.926,34.668,0
213716.931,31.250,31.250,25.391,32.715,17.090,0
213716.935,19.531,35.645,32.715,25.879,44.922,0
213716.939,14.648,37.109,38.574,19.043,58.594,0
213716.943,29.297,36.621,39.062,31.250,30.762,0
213716.947,41.504,35.156,36.621,41.504,16.113,0
213716.948,31.250,33.691,33.691,34.180,16.113,0
213716.952,9.766,35.645,34.180,17.090,9.277,0
213716.956,10.742,33.691,30.762,17.578,15.137,0
213716.960,32.227,27.344,29.297,34.668,26.367,0
213716.964,21.973,24.414,31.738,28.320,10.742,0
213716.967,6.348,23.926,30.762,6.836,2.441,0
213716.971,19.043,24.414,25.879,1.953,21.484,0
213716.975,29.785,27.832,33.691,16.113,34.180,0
213716.979,29.785,31.250,36.621,28.809,29.297,0
213716.983,16.113,29.297,33.691,16.602,32.715,0
213716.987,12.207,28.809,37.109,6.348,37.109,0
213716.991,26.367,32.227,31.250,19.043,42.969,0
213716.993,32.227,36.133,22.949,27.344,26.855,0
213716.997,18.555,33.203,25.879,12.207,6.348,0
213717.001,19.043,30.273,37.109,8.789,18.066,0
213717.005,34.668,33.203,46.387,26.367,41.016,0
213717.009,38.574,31.738,42.480,31.250,36.133,0
213717.012,25.879,27.832,34.180,23.438,28.320,0
213717.016,7.812,25.391,32.715,14.648,32.227,0
213717.020,15.625,26.855,36.621,15.625,23.438,0
213717.024,32.227,30.273,34.180,30.762,19.531,0
213717.028,23.926,31.250,26.855,28.320,18.555,0
213717.032,9.766,33.203,28.320,13.184,27.344,0
213717.036,7.324,35.645,40.527,11.230,42.480,0
213717.053,25.879,36.133,42.480,27.344,48.828,0
213717.057,32.715,31.738,27.832,34.180,23.438,0
213717.061,18.555,30.762,23.438,20.020,6.348,0
213717.065,17.090,31.738,30.762,8.789,13.672,0
213717.068,24.902,34.180,35.156,22.461,20.996,0
213717.072,33.691,37.598,33.203,36.621,27.832,0
213717.076,27.344,34.180,37.598,27.344,30.273,0
213717.080,16.602,35.156,43.457,15.137,28.809,0
213717.084,26.367,34.668,38.086,20.020,41.992,0
213717.088,41.992,34.668,34.668,34.180,44.922,0
213717.092,26.855,38.574,41.016,24.902,37.598,0
213717.096,2.930,33.203,40.039,9.766,46.875,0
213717.098,8.301,31.738,30.273,12.207,48.828,0
213717.102,23.926,30.273,22.461,22.949,24.414,0
213717.106,28.320,28.809,20.996,27.832,14.160,0
213717.110,17.090,33.691,36.133,20.020,21.973,0
213717.114,4.883,30.273,40.527,10.254,19.043,0
213717.117,27.344,22.949,32.227,17.090,26.367,0
213717.121,36.133,24.902,29.297,27.832,30.762,0
213717.125,5.859,32.227,31.250,19.531,23.438,0
213717.129,2.930,36.133,28.320,7.324,29.785,0
213717.133,20.996,32.715,31.738,12.695,39.062,0
213717.137,25.391,32.227,34.180,24.414,30.762,0
213717.141,15.137,37.109,27.832,19.531,14.160,0
213717.143,9.277,38.086,29.297,11.230,26.367,0
213717.147,25.879,33.691,33.691,19.043,52.734,0
213717.151,38.086,28.809,30.762,30.273,45.898,0
213717.155,25.879,29.297,28.809,26.855,51.270,0
213717.159,15.625,34.668,25.879,12.695,62.500,0
213717.162,25.879,38.574,30.762,20.020,44.922,0
213717.166,41.992,37.598,42.969,39.551,34.180,0
213717.170,32.715,34.668,41.016,32.227,24.414,0
213717.174,22.461,34.668,38.574,19.531,23.438,0
213717.178,20.996,32.715,43.457,20.996,39.062,0
213717.182,24.902,26.855,45.410,28.809,40.039,0
213717.186,35.156,25.391,39.551,35.156,26.855,0
213717.189,19.531,24.902,34.180,23.926,25.879,0
213717.193,13.184,22.949,34.668,11.230,34.180,0
213717.197,26.367,26.367,38.086,20.508,42.480,0
213717.201,33.203,27.832,38.086,38.086,31.738,0
213717.205,21.973,30.273,34.668,32.715,13.672,0
213717.209,11.230,35.645,45.410,17.090,28.809,0
213717.213,23.926,37.598,54.199,20.508,46.875,0
213717.217,40.039,32.715,41.992,34.668,40.039,0
213717.221,33.203,26.855,27.344,29.785,21.973,0
213717.225,15.625,25.879,24.902,12.207,20.020,0
213717.228,15.137,26.367,31.738,15.137,31.250,0
213717.232,30.273,28.320,39.062,27.832,45.410,0
213717.233,38.086,32.715,35.645,29.297,31.738,0
213717.237,31.250,31.738,33.203,13.672,5.859,0
213717.241,27.832,32.715,29.785,11.230,28.320,0
213717.245,26.367,32.715,26.855,30.762,41.016,0
213717.249,34.180,34.180,37.109,43.945,23.438,0
213717.253,22.949,36.621,30.762,31.738,27.832,0
213717.257,11.719,33.203,30.273,16.602,42.480,0
213717.261,27.344,31.738,41.016,22.461,43.945,0
213717.265,39.551,34.668,44.922,37.109,55.176,0
213717.269,22.949,31.250,41.504,29.297,41.992,0
213717.272,7.324,28.809,36.133,15.137,19.043,0
213717.276,17.578,30.273,34.668,22.949,22.949,0
213717.278,35.645,30.273,30.762,37.109,15.625,0
213717.282,33.691,31.250,34.668,34.668,10.254,0
213717.286,16.602,34.668,28.809,19.531,21.973,0
213717.290,20.996,38.574,26.367,17.090,34.180,0
213717.293,37.598,38.086,39.551,29.297,37.109,0
213717.297,37.109,35.156,34.668,37.598,24.902,0
213717.301,27.832,33.691,29.785,19.531,24.902,0
213717.305,27.344,33.691,39.551,5.859,23.438,0
213717.309,29.297,30.273,42.969,14.648,30.762,0
213717.313,32.715,27.832,40.527,27.344,43.945,0
213717.317,21.484,29.785,35.156,21.973,37.598,0
213717.321,8.789,31.738,32.715,6.836,31.738,0
213717.323,32.227,30.762,38.574,16.113,32.227,0
213717.327,41.504,31.738,38.574,36.133,35.645,0
213717.331,16.113,37.109,39.551,36.621,27.344,0
213717.334,9.766,39.062,41.016,22.949,33.203,0
213717.338,24.414,32.227,36.133,17.090,50.781,0
213717.342,38.086,29.297,29.785,29.297,43.945,0
213717.346,20.508,30.273,24.902,34.180,21.973,0
213717.350,1.953,28.809,28.320,23.438,17.578,0
213717.354,11.230,30.762,35.156,21.484,23.926,0
213717.358,35.156,30.273,40.527,33.203,21.973,0
213717.362,33.203,29.297,45.898,36.133,32.227,0
213717.366,11.230,34.668,44.434,21.484,23.438,0
213717.368,11.230,36.133,43.945,13.184,6.348,0
213717.372,28.809,32.227,39.551,19.531,17.578,0
213717.376,28.809,32.227,31.738,26.367,14.648,0
213717.380,17.578,31.738,26.855,12.695,9.277,0
213717.384,13.184,29.297,31.738,-0.488,38.086,0
213717.388,12.695,28.809,31.250,10.254,46.875,0
213717.392,34.180,29.785,35.156,31.738,38.086,0
213717.396,37.109,34.180,42.480,28.809,28.320,0
213717.400,16.602,35.645,33.691,17.090,41.992,0
213717.404,21.973,37.598,30.273,21.484,52.246,0
213717.408,36.621,39.551,29.297,30.273,46.875,0
213717.411,37.109,39.062,29.297,30.762,51.270,0
213717.428,24.414,35.645,30.762,19.043,42.480,0
213717.432,19.531,37.109,28.809,14.648,40.039,0
213717.436,29.297,36.621,25.879,28.320,52.246,0
213717.439,29.297,30.273,31.250,33.691,36.133,0
213717.443,12.695,28.320,34.668,19.531,5.371,0
213717.447,8.789,32.227,38.574,10.254,14.160,0
213717.451,36.133,37.598,45.410,21.484,21.973,0
213717.455,41.016,37.109,39.551,28.320,13.184,0
213717.459,6.836,31.250,29.297,15.625,-3.418,0
213717.463,3.906,29.297,28.320,3.418,-0.977,0
213717.467,25.391,29.785,29.297,6.836,19.043,0
213717.471,31.250,30.273,26.367,21.973,25.879,0
213717.473,29.785,33.203,25.391,20.508,26.367,0
213717.477,13.184,35.645,29.297,6.348,34.668,0
213717.481,16.113,32.715,37.598,7.324,40.527,0
213717.485,39.062,35.645,38.574,27.344,34.180,0
213717.489,32.227,37.598,27.832,30.273,31.250,0
213717.493,12.695,30.762,26.367,13.184,31.738,0
213717.497,5.859,24.902,37.598,7.812,36.133,0
213717.501,23.926,27.832,41.016,21.973,50.781,0
213717.504,41.504,34.180,34.180,35.156,71.777,0
213717.508,22.949,36.133,31.738,25.391,44.922,0
213717.512,20.996,33.691,38.574,14.160,37.598,0
213717.516,34.180,35.645,40.039,25.391,67.871,0
213717.518,27.344,39.551,36.133,38.574,40.039,0
213717.522,20.508,37.109,38.086,26.855,-5.859,0
213717.526,10.254,30.762,37.109,7.812,4.395,0
213717.530,19.043,31.738,28.809,8.301,37.109,0
213717.534,40.039,33.203,28.809,29.785,47.363,0
213717.537,37.109,32.715,34.668,33.203,42.480,0
213717.541,20.508,32.715,36.621,17.578,30.762,0
213717.545,19.043,31.738,38.574,17.090,26.367,0
213717.549,38.086,35.645,44.434,37.109,41.016,0
213717.553,39.062,35.156,49.316,42.480,30.273,0
213717.557,18.555,35.645,44.434,26.367,13.184,0
213717.561,18.555,38.086,39.062,18.555,29.785,0
213717.563,30.273,30.273,45.410,31.738,47.852,0
213717.567,38.574,26.367,46.387,43.945,51.270,0
213717.571,27.832,27.344,36.133,31.738,48.828,0
213717.574,9.766,26.367,32.227,18.555,50.293,0
213717.578,17.090,26.855,35.645,29.297,45.410,0
213717.582,39.551,32.227,40.527,46.387,41.016,0
213717.586,43.945,38.574,37.598,38.086,37.109,0
213717.590,21.484,36.133,26.367,16.113,29.785,0
213717.594,20.996,36.621,35.156,16.113,29.785,0
213717.598,41.504,37.109,46.875,34.668,36.621,0
213717.602,40.039,35.156,40.527,37.109,37.109,0
213717.606,19.531,38.574,37.109,18.555,33.691,0
213717.608,16.113,38.574,39.062,12.695,24.414,0
213717.612,39.551,38.086,35.645,32.715,35.156,0
213717.616,49.316,36.133,33.691,42.480,21.973,0
213717.620,26.855,33.203,38.574,30.273,-7.812,0
213717.623,12.207,28.320,40.039,18.555,12.695,0
213717.627,23.438,24.414,38.574,25.391,19.531,0
213717.631,23.926,26.855,38.574,38.086,9.766,0
213717.635,7.324,29.785,32.227,25.391,20.996,0
213717.639,6.836,30.273,28.320,7.812,31.250,0
213717.643,15.625,34.668,36.133,9.277,33.691,0
213717.647,26.855,40.527,37.109,21.973,26.367,0
213717.651,29.785,41.504,38.574,29.297,22.461,0
213717.655,12.207,39.551,42.480,16.113,21.484,0
213717.659,14.160,39.062,38.574,5.859,25.879,0
213717.663,35.156,39.551,33.203,18.066,37.598,0
213717.667,35.156,38.086,34.668,24.902,32.715,0
213717.671,15.625,37.109,38.574,14.648,26.367,0
213717.674,13.184,39.551,33.691,11.230,30.273,0
213717.678,30.762,36.621,35.645,22.949,33.203,0
213717.682,33.203,36.621,42.969,33.203,43.457,0
213717.686,21.484,41.992,44.922,24.902,44.922,0
213717.690,18.066,40.527,40.527,12.695,31.738,0
213717.694,26.855,36.621,41.992,21.484,47.363,0
213717.698,38.574,30.762,43.457,32.715,51.758,0
213717.698,23.926,31.738,33.203,18.066,21.484,0
213717.702,2.441,35.645,26.855,0.977,24.414,0
213717.706,15.137,34.668,30.273,6.348,44.434,0
213717.710,31.738,36.133,30.762,23.438,30.273,0
213717.713,22.461,39.062,35.156,25.391,-0.977,0
213717.717,5.859,35.645,30.273,5.371,-20.020,0
213717.721,9.766,30.273,24.902,-1.953,-1.465,0
213717.725,26.367,31.738,30.762,13.184,12.695,0
213717.729,30.273,35.156,35.645,17.578,6.836,0
213717.733,17.578,37.598,30.762,2.930,10.742,0
213717.737,10.254,35.645,20.996,-2.441,13.184,0
213717.741,20.996,34.180,24.902,9.277,12.695,0
213717.758,32.715,36.133,31.738,25.391,12.207,0
213717.762,25.879,38.086,29.785,19.531,16.602,0
213717.766,11.230,31.738,29.785,0.488,23.926,0
213717.770,15.137,31.250,36.621,11.719,33.691,0
213717.773,32.227,36.621,34.180,29.297,37.109,0
213717.777,29.297,34.668,25.391,23.926,40.039,0
213717.781,11.230,34.668,30.762,12.207,55.664,0
213717.785,14.160,37.598,45.898,17.090,57.129,0
213717.789,33.203,35.645,41.992,28.320,45.898,0
213717.793,27.344,31.250,30.273,26.367,26.855,0
213717.797,16.113,35.645,31.250,17.090,13.672,0
213717.801,16.602,36.621,33.691,11.719,25.879,0
213717.803,26.855,28.320,32.715,26.367,35.645,0
213717.807,35.645,30.273,32.227,41.992,37.598,0
213717.811,17.090,34.668,31.738,32.227,42.480,0
213717.815,4.395,29.297,33.203,18.066,49.316,0
213717.818,21.484,23.438,38.086,22.461,49.316,0
213717.822,35.645,24.414,40.039,37.109,29.297,0
213717.826,29.297,26.855,37.109,30.762,34.180,0
213717.830,20.020,29.297,39.551,18.555,47.852,0
213717.834,23.926,28.320,39.062,29.297,45.898,0
213717.838,41.992,29.297,37.109,48.340,50.293,0
213717.842,40.039,32.715,38.574,43.945,40.527,0
213717.846,22.461,31.738,38.574,24.902,42.969,0
213717.848,23.438,31.250,40.039,28.809,52.246,0
213717.852,41.504,31.250,43.945,38.574,54.199,0
213717.856,35.156,34.668,42.969,36.621,40.039,0
213717.860,25.879,32.715,38.574,18.066,25.391,0
213717.864,27.832,29.785,38.574,9.766,34.180,0
213717.867,26.367,31.738,45.410,26.855,44.922,0
213717.871,30.762,31.250,45.410,35.156,44.922,0
213717.875,22.461,35.645,46.387,29.297,56.152,0
213717.879,20.508,43.457,48.340,21.484,51.758,0
213717.883,30.273,38.574,47.363,20.508,36.133,0
213717.887,41.504,34.668,53.711,36.133,37.598,0
213717.891,28.809,34.668,53.711,32.227,30.762,0
213717.893,14.648,30.273,51.758,12.207,37.598,0
213717.897,20.020,31.250,58.105,19.531,58.105,0
213717.901,32.715,33.203,61.035,41.992,52.734,0
213717.905,37.598,29.785,52.246,37.598,45.898,0
213717.908,16.602,28.320,44.434,15.137,44.434,0
213717.912,12.695,34.668,44.922,15.137,43.457,0
213717.916,34.668,39.551,45.898,29.297,49.316,0
213717.920,43.945,37.109,41.504,32.227,34.668,0
213717.924,28.320,36.621,41.016,21.484,45.410,0
213717.928,18.555,34.180,46.875,12.695,53.711,0
213717.932,36.621,30.762,51.270,27.832,31.738,0
213717.936,40.527,33.691,47.363,45.410,33.691,0
213717.938,21.484,38.574,46.875,35.645,42.969,0
213717.942,12.207,39.551,52.734,24.414,44.434,0
213717.946,27.344,38.574,54.199,32.715,39.551,0
213717.950,35.156,36.621,53.223,43.945,26.367,0
213717.954,21.484,40.527,43.457,30.762,15.137,0
213717.957,14.648,43.945,32.715,7.324,36.621,0
213717.961,20.020,36.621,34.668,10.254,46.875,0
213717.965,27.832,30.273,35.156,27.832,35.156,0
213717.969,41.504,34.180,40.039,29.785,43.457,0
213717.973,30.762,39.551,43.945,18.555,66.895,0
213717.977,11.230,38.574,32.227,18.555,45.898,0
213717.981,38.574,39.551,40.527,34.668,10.742,0
213717.983,44.922,41.016,51.758,37.109,14.648,0
213717.987,17.090,38.086,47.852,20.508,20.508,0
213717.991,14.648,39.551,42.969,12.695,23.438,0
213717.995,35.156,43.945,41.016,25.879,27.832,0
213717.999,45.410,41.992,41.504,39.062,32.715,0
213718.003,27.344,38.574,38.574,26.855,19.531,0
213718.007,14.160,39.062,37.598,10.254,13.672,0
213718.011,16.602,38.086,33.203,17.578,21.484,0
213718.015,29.297,38.574,29.785,32.227,21.973,0
213718.018,29.297,38.574,35.645,25.391,9.277,0
213718.022,19.531,34.668,37.109,13.672,13.184,0
213718.026,17.578,36.621,34.668,16.113,29.785,0
213718.028,27.344,36.621,39.062,24.414,36.621,0
213718.032,18.066,32.715,37.109,21.973,30.762,0
213718.036,-0.488,32.227,27.344,9.277,35.156,0
213718.040,6.348,31.250,28.809,5.371,53.223,0
213718.044,27.344,30.273,38.574,19.531,48.828,0
213718.048,29.785,28.809,35.645,25.879,23.438,0
213718.051,13.184,28.809,28.320,11.230,5.371,0
213718.055,11.719,32.715,34.180,3.906,10.742,0
213718.059,34.180,36.133,39.062,22.949,16.113,0
213718.063,34.180,38.086,35.156,31.738,14.160,0
213718.067,11.230,36.621,31.738,12.207,11.719,0
213718.071,12.695,31.738,28.809,6.348,3.418,0
213718.074,28.320,30.762,35.156,17.578,16.113,0
213718.078,43.457,31.738,40.527,27.344,16.113,0
213718.082,31.738,34.180,38.086,25.391,11.719,0
213718.086,13.184,35.156,32.227,13.672,31.250,0
213718.089,28.320,30.273,31.738,16.602,34.180,0
213718.093,40.039,31.250,34.180,31.250,34.180,0
213718.097,38.086,36.133,27.344,31.250,37.598,0
213718.101,22.461,38.086,29.297,20.996,32.715,0
213718.105,15.137,38.086,41.992,11.230,20.996,0
213718.109,25.879,35.156,49.805,22.461,18.555,0
213718.113,31.250,34.180,51.758,34.668,15.625,0
213718.117,12.695,33.691,44.922,20.996,10.254,0
213718.119,2.441,34.180,38.086,12.207,31.738,0
213718.123,37.109,38.574,32.227,26.855,44.922,0
213718.127,46.875,39.551,30.273,42.969,42.969,0
213718.131,28.809,39.062,32.715,36.133,35.645,0
213718.135,14.160,41.504,31.738,15.625,25.879,0
213718.139,19.043,39.062,36.621,17.578,24.902,0
213718.143,41.992,38.086,46.875,34.668,25.391,0
213718.146,35.156,39.062,41.992,29.297,13.184,0
213718.150,15.137,37.109,31.250,15.625,17.578,0
213718.154,18.555,36.133,35.156,17.578,59.570,0
213718.158,38.086,35.645,36.621,32.227,58.594,0
213718.162,44.434,37.109,41.016,41.992,35.156,0
213718.178,25.879,32.227,44.434,24.414,30.762,0
213718.182,17.578,27.832,44.922,7.812,22.949,0
213718.186,35.645,32.227,46.875,22.461,23.438,0
213718.190,45.898,36.133,45.410,35.156,6.348,0
213718.193,20.508,33.691,41.992,20.020,-1.953,0
213718.197,6.348,34.180,37.598,9.277,15.137,0
213718.201,32.227,35.156,41.016,21.484,32.227,0
213718.205,37.598,34.668,41.992,35.645,33.203,0
213718.209,22.949,37.598,35.156,29.297,27.832,0
213718.213,17.090,35.645,31.738,14.160,31.250,0
213718.217,14.160,33.203,24.902,12.695,19.531,0
213718.221,23.438,30.273,23.438,28.320,14.160,0
213718.224,29.297,31.250,30.273,25.879,16.602,0
213718.228,6.348,36.621,32.715,3.418,13.184,0
213718.232,1.953,38.574,29.785,-2.930,22.949,0
213718.235,20.508,33.203,30.762,12.207,38.086,0
213718.239,29.297,34.668,38.086,23.438,34.180,0
213718.243,13.184,32.227,32.715,7.812,34.180,0
213718.247,0.000,27.344,27.832,-1.465,42.969,0
213718.251,21.484,33.203,38.086,18.066,28.320,0
213718.255,27.344,33.691,36.133,24.414,6.348,0
213718.259,11.719,29.297,28.809,6.348,5.371,0
213718.263,7.812,29.297,33.203,0.000,33.691,0
213718.267,18.555,28.320,39.062,20.020,52.734,0
213718.268,31.738,26.367,40.527,34.668,33.691,0
213718.272,30.762,27.832,32.715,24.902,21.484,0
213718.276,20.020,26.855,18.555,10.254,27.344,0
213718.279,11.719,27.832,22.949,15.137,36.133,0
213718.283,26.367,28.809,35.156,30.273,17.578,0
213718.287,35.645,32.715,35.156,32.715,10.254,0
213718.291,26.855,33.691,28.809,18.066,36.621,0
213718.295,25.391,33.691,26.855,15.625,50.293,0
213718.299,48.340,34.668,30.273,29.297,48.828,0
213718.303,42.480,31.738,33.203,31.250,46.875,0
213718.307,20.996,35.645,37.109,17.578,40.039,0
213718.311,17.090,46.387,36.133,6.348,39.062,0
213718.313,23.926,52.246,29.785,20.996,52.734,0
213718.317,28.809,46.387,26.855,35.156,44.922,0
213718.321,9.766,37.109,22.949,23.438,36.133,0
213718.325,0.977,34.180,28.809,10.254,32.227,0
213718.329,12.695,36.621,35.645,17.090,19.043,0
213718.332,34.180,35.645,37.109,29.297,30.273,0
213718.336,25.879,32.715,36.133,29.297,43.945,0
213718.340,6.836,37.109,33.203,15.625,35.645,0
213718.344,11.719,45.410,35.156,17.090,29.785,0
213718.348,30.273,42.480,29.297,33.691,28.809,0
213718.352,30.762,35.156,22.461,29.297,21.484,0
213718.356,14.648,36.621,23.438,16.113,25.391,0
213718.358,19.531,38.086,29.297,18.066,53.711,0
213718.362,18.066,34.668,29.297,24.902,69.824,0
213718.366,17.090,30.273,26.367,26.855,52.734,0
213718.369,11.719,31.738,29.297,14.648,44.434,0
213718.373,12.207,35.156,29.785,8.789,47.363,0
213718.377,44.434,33.203,24.902,16.602,38.574,0
213718.381,45.898,33.203,26.855,24.414,29.297,0
213718.385,21.484,40.039,26.855,20.020,21.973,0
213718.389,14.160,41.016,16.602,7.324,30.762,0
213718.393,27.344,34.668,19.043,5.859,55.176,0
213718.397,50.293,31.250,31.250,17.578,39.062,0
213718.401,27.344,28.809,28.809,14.160,13.184,0
213718.404,12.695,31.250,29.297,2.441,36.621,0
213718.408,28.809,32.715,36.621,9.766,55.176,0
213718.412,38.574,30.273,32.715,30.273,48.340,0
213718.416,33.203,32.715,26.855,45.410,29.785,0
213718.420,14.160,39.551,29.785,34.180,29.785,0
213718.424,1.465,37.109,32.227,19.043,43.945,0
213718.428,26.855,28.809,29.297,27.832,52.734,0
213718.431,32.227,26.855,27.344,37.598,46.387,0
213718.435,11.719,26.367,31.250,22.461,47.852,0
213718.439,13.184,31.738,35.156,6.836,50.293,0
213718.443,14.160,33.203,39.551,18.555,34.668,0
213718.447,27.344,34.668,36.133,28.809,21.484,0
213718.448,26.855,36.133,24.414,16.602,13.672,0
213718.452,7.812,37.109,12.695,5.371,23.438,0
213718.456,5.859,40.527,10.742,10.742,34.180,0
213718.460,25.879,37.598,21.973,28.809,39.551,0
213718.464,34.180,40.527,28.809,35.645,35.645,0
213718.467,30.273,44.922,34.180,20.996,28.809,0
213718.471,29.297,38.574,35.645,14.160,26.367,0
213718.475,33.691,39.551,36.621,27.832,33.203,0
213718.479,32.227,41.016,32.227,28.320,45.898,0
213718.483,26.855,40.039,28.320,9.277,33.203,0
213718.487,22.949,41.504,36.133,12.695,17.578,0
213718.491,33.203,38.086,38.574,27.344,32.227,0
213718.493,40.039,38.086,35.156,34.668,43.457,0
213718.497,25.879,40.039,33.203,29.785,41.992,0
213718.501,13.672,36.133,30.762,16.113,38.086,0
213718.505,21.973,38.574,40.527,23.926,43.945,0
213718.509,48.340,45.898,43.457,43.945,38.574,0
213718.513,34.180,43.945,27.344,36.133,41.992,0
213718.517,8.301,39.062,29.297,16.602,44.434,0
213718.521,22.461,33.203,35.645,13.672,26.367,0
213718.525,49.805,34.180,34.180,29.785,23.926,0
213718.529,44.434,40.039,31.250,34.180,27.832,0
213718.533,16.113,37.598,26.855,17.578,20.508,0
213718.536,25.391,38.574,26.855,15.625,25.391,0
213718.553,52.246,43.457,29.297,32.227,44.922,0
213718.557,34.668,40.527,33.203,34.180,48.828,0
213718.561,18.555,41.504,29.297,18.555,38.574,0
213718.565,20.508,41.016,18.066,13.672,38.086,0
213718.568,37.109,34.180,16.602,26.855,43.457,0
213718.572,45.898,31.250,28.809,40.527,48.340,0
213718.576,25.391,37.109,41.504,34.668,53.711,0
213718.580,15.137,39.551,40.527,21.484,56.152,0
213718.584,21.973,35.645,29.297,23.926,42.969,0
213718.588,25.391,33.691,32.227,34.180,20.996,0
213718.592,23.926,35.156,40.527,25.879,1.953,0
213718.596,15.625,29.785,36.621,5.859,2.441,0
213718.598,19.531,30.273,36.621,15.625,28.809,0
213718.602,49.316,37.598,36.621,37.598,35.645,0
213718.606,41.504,43.457,31.250,36.621,36.621,0
213718.610,10.254,43.457,24.902,16.602,46.875,0
213718.613,27.344,43.945,23.926,14.648,56.152,0
213718.617,49.805,46.387,31.250,35.645,53.711,0
213718.621,34.668,44.434,37.109,40.039,36.621,0
213718.625,15.137,46.387,25.879,21.484,33.691,0
213718.629,14.648,47.363,23.926,10.742,43.457,0
213718.633,33.203,43.945,42.969,25.391,42.969,0
213718.637,43.945,44.434,46.387,41.504,41.016,0
213718.641,26.855,45.410,37.598,32.715,33.691,0
213718.644,15.625,42.969,31.250,15.137,26.367,0
213718.648,28.809,43.457,30.762,16.602,25.391,0
213718.652,46.875,47.363,33.203,26.367,23.438,0
213718.656,34.668,41.504,30.273,20.996,10.742,0
213718.660,8.301,36.621,26.367,4.883,10.254,0
213718.664,13.672,39.551,25.879,3.906,26.855,0
213718.668,39.551,39.062,32.227,22.949,36.621,0
213718.671,45.898,40.527,33.691,28.809,30.273,0
213718.675,15.137,42.480,28.320,13.184,20.508,0
213718.679,0.488,38.574,31.250,8.301,20.508,0
213718.683,22.461,34.668,25.391,17.090,19.043,0
213718.687,44.922,37.598,27.344,27.344,26.855,0
213718.688,29.785,43.945,44.434,25.391,31.738,0
213718.692,16.602,44.922,46.387,13.184,27.344,0
213718.696,42.480,39.551,45.410,24.414,47.852,0
213718.700,48.340,35.645,40.039,40.527,60.059,0
213718.703,19.531,39.551,35.645,32.227,40.039,0
213718.707,13.672,39.062,35.156,13.672,40.527,0
213718.711,20.020,32.227,31.250,14.160,43.945,0
213718.715,24.902,34.180,36.621,36.621,37.598,0
213718.719,20.020,45.410,39.551,37.598,17.090,0
213718.723,10.254,47.363,40.039,17.090,8.301,0
213718.727,19.531,37.598,39.062,7.812,25.879,0
213718.731,36.133,38.574,35.156,20.996,33.691,0
213718.733,35.156,45.898,38.086,31.250,37.109,0
213718.737,19.043,41.016,33.691,9.766,30.762,0
213718.741,28.320,38.086,23.438,2.930,31.738,0
213718.745,41.504,39.062,27.832,22.949,36.133,0
213718.748,33.691,39.062,37.109,35.645,21.973,0
213718.752,15.137,43.457,38.574,22.949,13.184,0
213718.756,-0.488,46.387,32.715,9.766,26.367,0
213718.760,9.766,43.945,30.273,18.066,37.598,0
213718.764,25.879,41.992,41.016,31.250,48.340,0
213718.768,16.113,42.969,46.875,29.785,47.363,0
213718.772,14.160,42.480,39.062,20.996,52.734,0
213718.776,33.203,37.598,40.527,22.461,50.293,0
213718.778,31.250,35.645,46.875,31.250,40.039,0
213718.782,20.020,41.504,44.922,32.715,52.734,0
213718.786,3.906,37.598,32.715,14.648,38.086,0
213718.790,0.000,31.250,32.227,9.766,25.879,0
213718.794,26.367,36.133,38.574,31.738,41.504,0
213718.797,30.273,35.645,28.320,39.551,47.363,0
213718.801,11.719,31.738,23.926,23.926,25.391,0
213718.805,6.836,36.133,30.762,10.742,0.977,0
213718.809,20.996,37.109,37.109,14.160,7.812,0
213718.813,38.086,33.691,35.156,26.855,20.996,0
213718.817,21.484,35.645,29.297,17.578,19.531,0
213718.821,8.301,35.156,30.762,-0.488,25.879,0
213718.823,23.926,30.273,33.691,8.301,36.621,0
213718.827,28.809,28.320,34.180,28.320,44.922,0
213718.831,14.648,28.809,25.879,20.508,45.410,0
213718.835,-4.395,26.855,23.926,1.465,23.438,0
213718.839,11.719,26.855,30.273,6.348,12.207,0
213718.843,28.320,29.785,32.715,28.809,20.996,0
213718.847,21.484,31.250,29.297,33.691,23.438,0
213718.850,0.488,29.785,28.320,8.789,38.574,0
213718.854,-4.395,24.414,34.668,-2.930,34.668,0
213718.858,15.137,22.461,32.227,12.207,13.672,0
213718.862,19.043,26.367,24.414,21.484,11.719,0
213718.866,3.906,28.809,30.762,10.254,13.672,0
213718.869,-5.371,29.785,37.109,0.488,6.836,0
213718.873,16.602,33.203,39.062,10.742,7.812,0
213718.877,32.715,37.109,33.691,24.414,20.020,0
213718.881,23.926,37.598,26.367,20.508,23.926,0
213718.885,22.949,32.227,32.715,6.348,34.180,0
213718.889,36.621,33.691,35.645,20.020,50.293,0
213718.893,38.086,38.574,37.598,43.945,56.152,0
213718.897,19.043,36.133,37.598,39.551,48.340,0
213718.900,1.465,35.156,28.320,22.949,53.711,0
213718.904,2.930,34.180,31.738,23.926,55.176,0
213718.908,28.809,37.109,38.574,40.039,43.457,0
213718.912,33.691,41.504,33.691,44.922,42.480,0
213718.928,18.066,35.156,26.367,28.320,33.203,0
213718.932,25.391,32.715,27.832,21.973,32.227,0
213718.936,35.645,35.156,36.621,35.645,43.457,0
213718.940,29.785,36.133,31.250,45.410,46.387,0
213718.944,13.672,35.645,29.297,31.250,22.461,0
213718.948,9.766,34.180,39.551,5.371,6.836,0
213718.952,39.062,37.598,41.504,4.395,23.926,0
213718.955,52.734,38.574,44.922,17.578,23.438,0
213718.959,27.344,40.039,42.969,13.672,22.949,0
213718.963,19.043,46.387,38.086,4.395,41.504,0
213718.967,39.551,47.363,40.039,15.137,53.223,0
213718.971,42.480,43.945,34.668,22.461,60.547,0
213718.973,45.898,42.969,33.691,14.160,67.383,0
213718.977,25.391,40.039,43.457,6.836,42.969,0
213718.981,-0.977,38.086,49.805,11.230,27.344,0
213718.985,22.949,37.109,47.363,26.367,37.598,0
213718.989,23.926,37.598,41.016,31.250,18.555,0
213718.993,-2.930,39.551,36.133,18.066,-3.906,0
213718.996,2.441,36.133,37.598,15.625,2.441,0
213719.000,17.090,34.180,38.086,30.762,12.207,0
213719.004,28.809,33.203,36.621,38.574,13.672,0
213719.008,26.367,31.738,31.250,30.273,11.719,0
213719.012,-5.371,31.250,25.391,12.695,12.695,0
213719.016,5.371,28.320,27.832,19.531,21.973,0
213719.018,30.273,25.879,37.598,43.945,26.367,0
213719.022,32.715,28.320,43.457,37.109,28.320,0
213719.026,30.273,29.785,41.016,18.555,40.039,0
213719.030,39.062,29.297,37.109,26.367,62.500,0
213719.033,49.805,29.785,40.527,46.387,75.684,0
213719.037,53.223,29.297,38.574,42.480,51.270,0
213719.041,33.203,27.344,33.203,20.996,33.691,0
213719.045,23.438,27.832,39.062,17.090,46.387,0
213719.049,46.875,27.344,41.016,35.156,61.523,0
213719.053,52.246,28.320,41.016,38.086,60.547,0
213719.057,30.273,34.180,36.133,17.578,56.152,0
213719.061,11.230,31.250,32.227,7.324,62.012,0
213719.063,32.227,26.855,37.109,21.484,63.477,0
213719.067,44.922,29.785,33.203,39.062,49.805,0
213719.071,16.113,30.273,24.414,26.855,16.602,0
213719.074,13.672,33.203,27.344,9.766,15.137,0
213719.078,36.133,38.574,31.738,19.043,22.461,0
213719.082,44.434,39.551,26.367,34.668,8.301,0
213719.086,30.762,37.109,25.391,29.297,20.020,0
213719.090,18.555,41.992,23.926,20.020,36.133,0
213719.094,34.180,48.340,25.391,25.391,32.227,0
213719.098,58.105,45.898,39.551,37.598,34.180,0
213719.102,56.152,44.434,34.668,36.133,43.457,0
213719.106,23.926,42.480,27.832,17.090,25.879,0
213719.109,15.137,38.086,35.156,9.277,17.090,0
213719.113,36.621,35.645,40.039,18.555,25.391,0
213719.117,33.691,38.086,43.945,24.902,18.066,0
213719.121,21.484,39.062,33.203,8.789,20.508,0
213719.125,20.020,40.039,21.484,-3.418,27.344,0
213719.129,21.973,40.039,32.227,8.789,36.133,0
213719.133,25.391,35.645,42.480,19.043,45.898,0
213719.137,3.418,33.691,32.227,6.348,40.039,0
213719.141,-15.137,36.133,34.180,-7.812,29.785,0
213719.145,-9.766,37.598,37.598,-3.418,29.297,0
213719.148,16.113,37.598,30.273,10.742,14.160,0
213719.152,25.879,41.504,30.762,10.742,8.301,0
213719.153,6.836,46.387,30.273,-11.719,24.414,0
213719.157,8.301,43.945,28.809,-19.531,36.621,0
213719.161,32.715,40.039,28.320,-0.488,42.480,0
213719.165,28.809,37.109,27.832,7.324,40.039,0
213719.169,2.441,34.180,30.273,-4.395,28.809,0
213719.172,3.418,38.086,33.691,-2.441,14.160,0
213719.176,41.992,41.992,45.410,13.672,17.578,0
213719.180,39.551,42.480,38.086,19.043,19.531,0
213719.184,8.301,38.086,29.785,8.789,9.766,0
213719.188,-0.488,32.715,41.016,6.836,21.973,0
213719.192,6.836,27.832,42.969,15.137,30.273,0
213719.196,23.926,29.785,41.504,27.344,18.066,0
213719.198,14.160,35.645,46.387,21.973,11.230,0
213719.202,-0.488,33.203,45.898,7.812,13.672,0
213719.206,11.719,33.203,40.527,15.137,5.859,0
213719.210,18.555,31.738,30.273,30.762,2.441,0
213719.213,-1.953,29.297,24.902,32.227,0.488,0
213719.217,-9.277,30.273,29.297,13.184,9.277,0
213719.221,-0.977,28.809,31.250,9.766,30.762,0
213719.225,7.812,28.809,38.574,30.762,37.109,0
213719.229,11.230,28.809,41.992,30.273,31.250,0
213719.233,6.836,32.227,37.109,15.625,38.574,0
213719.237,4.883,32.715,39.062,13.184,34.668,0
213719.241,14.648,29.785,42.969,25.391,22.461,0
213719.243,26.367,33.203,46.387,37.109,27.344,0
213719.247,24.414,40.039,43.457,32.227,33.203,0
213719.251,22.461,42.969,37.598,19.531,40.527,0
213719.254,29.785,41.016,41.992,23.926,47.363,0
213719.258,45.898,40.039,48.828,41.504,35.645,0
213719.262,35.156,36.621,41.016,29.297,22.949,0
213719.266,18.066,33.691,37.598,10.254,26.855,0
213719.270,30.762,35.156,43.945,19.531,34.180,0
213719.274,52.246,38.574,41.016,40.527,29.297,0
213719.278,44.922,41.504,37.109,41.504,38.086,0
213719.282,19.531,42.969,31.738,20.508,41.992,0
213719.286,20.996,38.086,26.855,14.648,32.715,0
213719.303,34.668,32.715,30.273,28.320,37.109,0
213719.307,29.297,34.668,27.832,26.367,35.645,0
213719.311,9.766,34.180,23.438,9.277,28.320,0
213719.315,-4.395,33.203,29.785,4.883,13.184,0
213719.318,9.766,29.297,34.180,12.695,11.230,0
213719.322,18.555,29.297,30.762,25.879,20.508,0
213719.326,3.906,34.668,25.879,21.484,19.043,0
213719.330,1.953,34.180,30.273,9.766,30.273,0
213719.334,15.137,29.297,32.227,24.414,51.270,0
213719.338,29.785,24.414,25.879,41.016,41.016,0
213719.342,9.766,26.367,28.320,34.180,25.879,0
213719.346,-11.230,30.762,32.715,20.996,28.320,0
213719.348,0.488,29.297,32.715,15.137,25.391,0
213719.352,16.602,26.367,39.551,23.438,23.926,0
213719.356,20.996,31.250,44.922,32.227,31.250,0
213719.360,14.648,40.527,44.434,28.809,42.480,0
213719.363,20.508,38.574,38.086,26.367,62.012,0
213719.367,41.504,33.691,35.645,34.668,62.012,0
213719.371,49.316,39.062,38.574,38.574,40.039,0
213719.375,28.809,41.504,35.156,30.273,27.344,0
213719.379,17.090,35.156,37.109,17.090,13.184,0
213719.383,21.484,33.203,41.992,12.207,12.207,0
213719.387,34.668,35.156,39.062,20.996,13.672,0
213719.391,26.367,35.156,29.785,18.066,0.000,0
213719.393,3.906,35.156,30.762,7.324,18.066,0
213719.397,6.836,33.203,39.062,10.742,48.828,0
213719.401,30.762,31.738,38.574,26.367,34.180,0
213719.405,37.109,34.180,37.109,27.832,21.973,0
213719.409,11.230,31.250,37.109,15.137,28.809,0
213719.413,3.418,30.762,38.086,21.484,34.180,0
213719.417,28.320,32.227,43.457,40.527,36.621,0
