timestamps,TP9,AF7,AF8,TP10,Right AUX,Marker0
213994.795,26.367,38.086,33.203,31.738,20.020,0
213994.799,31.250,36.133,37.109,33.691,27.832,0
213994.803,40.527,29.297,40.527,42.969,38.574,0
213994.807,36.133,26.367,29.785,42.480,36.133,0
213994.811,24.414,32.227,28.809,33.203,35.645,0
213994.814,20.508,37.109,37.109,28.809,51.758,0
213994.818,25.879,32.715,16.113,35.156,48.828,0
213994.822,35.156,33.691,9.766,41.504,28.809,0
213994.826,22.949,35.645,35.645,29.785,27.832,0
213994.830,8.301,36.133,42.969,15.137,18.555,0
213994.834,25.391,37.109,44.922,21.973,7.812,0
213994.838,46.875,39.062,45.898,40.039,15.625,0
213994.854,34.180,40.039,31.250,34.668,25.879,0
213994.858,11.230,35.156,29.785,19.043,44.434,0
213994.862,19.531,32.715,33.203,26.855,49.805,0
213994.866,42.969,35.156,15.625,44.434,28.809,0
213994.870,41.992,40.039,10.742,43.945,10.742,0
213994.874,25.391,39.062,32.227,28.809,19.531,0
213994.877,22.949,38.574,47.852,22.461,33.691,0
213994.881,44.434,45.410,51.758,41.016,44.434,0
213994.885,51.270,40.527,43.945,50.781,54.688,0
213994.889,30.762,31.738,33.203,35.156,41.992,0
213994.893,21.484,33.691,35.645,30.762,32.715,0
213994.897,37.109,35.156,38.086,45.898,36.133,0
213994.899,51.270,39.062,28.809,60.059,42.480,0
213994.903,37.109,41.016,20.996,49.805,41.504,0
213994.907,20.020,37.598,26.367,34.180,44.922,0
213994.911,32.227,33.691,34.668,46.387,64.453,0
213994.915,47.363,33.203,31.250,54.199,59.082,0
213994.919,38.574,36.621,21.973,41.504,40.527,0
213994.923,30.273,42.480,33.203,35.645,43.457,0
213994.927,39.062,42.969,42.480,31.738,39.551,0
213994.930,55.664,38.574,32.227,35.156,32.227,0
213994.934,53.711,36.621,28.809,41.992,38.574,0
213994.938,35.645,38.574,35.156,31.250,32.227,0
213994.942,35.645,42.480,31.250,28.320,30.762,0
213994.944,54.199,41.504,33.203,50.293,51.270,0
213994.948,60.059,45.410,22.949,60.059,62.500,0
213994.952,38.574,46.875,7.812,44.922,56.641,0
213994.956,24.414,35.645,12.207,24.414,42.969,0
213994.960,36.621,30.273,29.785,24.902,41.504,0
213994.964,49.805,33.691,45.898,41.016,39.551,0
213994.967,29.297,29.785,45.410,29.785,38.086,0
213994.971,9.277,26.367,41.504,8.789,34.180,0
213994.975,21.973,24.414,40.039,17.090,30.273,0
213994.979,41.016,24.902,40.039,35.156,26.855,0
213994.983,34.180,28.320,39.062,34.180,24.414,0
213994.987,15.137,31.250,34.180,18.066,24.414,0
213994.990,22.949,32.715,34.668,14.648,28.320,0
213994.994,43.457,28.320,35.645,33.203,27.344,0
213994.998,41.016,23.926,28.320,39.062,12.695,0
213995.001,25.879,28.320,16.602,27.344,13.184,0
213995.005,23.926,35.156,9.277,20.996,33.203,0
213995.009,38.574,37.598,17.090,38.086,44.434,0
213995.013,51.758,38.574,30.273,48.828,38.086,0
213995.017,36.133,33.691,41.504,26.855,37.598,0
213995.021,19.531,23.926,49.805,12.207,49.805,0
213995.025,35.156,22.461,47.852,22.949,54.688,0
213995.029,49.805,27.832,40.527,36.133,41.504,0
213995.033,39.062,28.809,34.668,30.762,32.715,0
213995.034,20.508,27.832,27.832,19.043,24.414,0
213995.038,26.855,31.250,30.762,23.438,10.742,0
213995.042,50.781,36.133,39.551,37.598,11.719,0
213995.046,44.434,38.574,35.156,35.156,20.508,0
213995.050,22.949,41.504,21.973,20.996,33.691,0
213995.053,24.902,41.016,19.043,16.602,47.363,0
213995.057,45.410,35.156,25.879,29.785,44.922,0
213995.061,49.805,34.668,27.832,35.156,33.691,0
213995.065,35.156,39.551,32.227,21.973,19.043,0
213995.069,29.297,38.574,30.762,18.066,25.879,0
213995.073,39.062,37.109,22.461,30.762,45.898,0
213995.077,51.758,36.621,26.855,38.086,54.688,0
213995.079,37.109,34.668,36.133,32.227,50.293,0
213995.083,22.949,33.203,40.039,27.344,59.082,0
213995.087,32.227,32.715,29.297,35.645,64.453,0
213995.091,46.387,32.715,26.855,43.457,36.621,0
213995.095,34.668,30.762,32.715,33.203,19.531,0
213995.099,21.973,36.621,32.715,27.344,32.227,0
213995.103,30.273,39.551,33.203,32.715,37.598,0
213995.106,37.109,34.180,24.414,34.668,34.668,0
213995.110,31.738,35.156,15.137,31.738,28.320,0
213995.114,19.043,34.668,23.438,19.531,39.551,0
213995.118,18.555,33.203,30.273,16.113,54.199,0
213995.122,31.738,33.691,24.902,28.320,41.992,0
213995.124,37.598,32.715,23.438,37.109,25.879,0
213995.128,23.438,31.738,31.250,23.438,19.043,0
213995.132,16.602,32.227,38.086,12.207,31.738,0
213995.136,36.133,33.203,38.086,27.344,40.039,0
213995.140,54.688,39.062,30.762,45.410,43.457,0
213995.144,41.504,44.434,21.484,43.945,42.480,0
213995.147,18.066,37.598,27.344,23.926,41.016,0
213995.151,22.461,30.762,41.016,25.879,54.688,0
213995.155,41.992,29.297,36.621,41.992,47.852,0
213995.159,39.551,32.227,34.668,39.551,36.621,0
213995.163,26.367,38.574,40.039,31.738,37.598,0
213995.167,30.762,40.527,47.852,36.133,39.551,0
213995.184,48.828,38.086,47.852,44.434,35.156,0
213995.188,47.363,33.691,42.969,38.574,26.367,0
213995.192,28.809,31.250,32.715,23.438,25.879,0
213995.196,26.367,30.762,21.484,20.508,41.504,0
213995.200,39.551,28.809,25.879,32.715,53.223,0
213995.204,49.805,33.203,35.156,43.457,33.203,0
213995.207,40.039,39.551,42.480,39.551,20.020,0
213995.211,26.367,38.574,43.457,20.996,26.367,0
213995.215,39.062,41.504,37.598,20.996,40.039,0
213995.219,50.781,39.551,32.227,33.691,41.992,0
213995.223,35.645,35.156,22.461,22.949,41.992,0
213995.227,21.973,34.180,23.926,17.090,56.152,0
213995.216,31.738,34.668,29.297,29.785,62.500,0
213995.220,45.410,34.180,30.273,36.133,47.852,0
213995.224,44.434,35.645,34.668,35.645,41.504,0
213995.228,31.250,37.598,46.875,30.273,34.180,0
213995.232,30.273,36.621,42.480,26.367,35.156,0
213995.236,46.387,36.621,35.645,38.574,53.711,0
213995.240,45.410,36.621,41.504,43.457,34.180,0
213995.244,23.438,31.738,35.645,22.461,13.672,0
213995.248,16.113,29.785,21.973,15.137,25.391,0
213995.252,31.738,31.738,14.648,29.785,24.414,0
213995.256,36.133,30.762,26.367,34.668,6.836,0
213995.259,18.555,33.203,41.992,22.949,0.000,0
213995.274,7.324,34.180,38.574,13.184,6.836,0
213995.278,23.926,35.156,45.410,21.973,23.926,0
213995.282,41.504,37.598,49.805,36.133,40.039,0
213995.286,29.297,32.227,42.969,32.715,35.156,0
213995.290,12.695,25.879,41.504,23.926,29.297,0
213995.294,22.461,29.785,45.410,27.832,37.109,0
213995.298,42.969,29.297,48.340,42.480,43.945,0
213995.302,39.551,24.902,40.527,37.598,38.574,0
213995.305,18.555,28.809,34.180,18.066,23.926,0
213995.309,20.508,33.691,31.250,16.113,23.438,0
213995.313,42.969,32.715,31.250,31.738,30.762,0
213995.317,44.922,34.668,35.156,38.574,28.809,0
213995.320,27.344,40.527,36.621,24.414,36.133,0
213995.323,24.414,44.434,34.180,19.531,39.062,0
213995.327,40.527,40.039,31.250,37.109,40.527,0
213995.331,47.852,34.180,36.621,49.805,39.551,0
213995.335,31.738,30.762,36.621,37.109,26.855,0
213995.339,18.555,31.250,31.738,24.902,28.320,0
213995.343,34.668,32.715,40.527,32.715,42.480,0
213995.347,54.199,33.203,42.969,48.828,53.711,0
213995.351,45.410,37.109,37.109,42.969,62.988,0
213995.355,24.902,38.086,43.457,25.879,60.547,0
213995.359,32.715,39.062,51.758,31.250,63.965,0
213995.362,50.781,36.621,46.875,49.316,66.895,0
213995.364,34.180,28.809,36.133,42.969,34.668,0
213995.368,10.742,26.855,19.531,21.484,14.160,0
213995.372,15.625,26.855,15.625,18.066,31.738,0
213995.376,39.062,28.320,34.180,29.297,40.527,0
213995.380,45.898,31.250,38.574,37.109,27.832,0
213995.384,39.062,38.574,45.898,42.480,41.016,0
213995.388,35.156,40.527,50.293,37.598,48.828,0
213995.391,41.016,36.133,43.945,36.621,45.898,0
213995.395,56.641,35.156,42.969,49.316,44.434,0
213995.399,39.062,30.273,37.598,31.250,17.090,0
213995.403,18.555,27.344,33.691,13.184,3.906,0
213995.407,34.180,28.320,28.320,26.367,20.508,0
213995.409,49.805,29.297,19.043,44.922,32.715,0
213995.413,40.527,33.203,21.973,38.086,35.645,0
213995.417,29.297,35.156,24.414,17.578,47.852,0
213995.421,33.691,31.738,27.344,19.043,59.082,0
213995.425,52.246,34.668,39.062,41.016,66.895,0
213995.429,53.223,40.039,43.945,48.340,48.828,0
213995.432,32.227,36.621,41.504,30.273,26.855,0
213995.436,24.902,34.668,39.551,21.973,27.344,0
213995.440,48.340,38.086,41.992,35.645,36.133,0
213995.444,59.082,36.621,34.180,41.016,35.156,0
213995.448,38.086,34.668,31.738,30.762,37.598,0
213995.452,26.367,33.691,34.180,20.996,44.434,0
213995.455,41.016,35.156,34.668,31.738,46.875,0
213995.459,52.246,37.598,42.969,42.480,41.016,0
213995.463,38.574,39.551,42.969,30.762,36.621,0
213995.467,23.438,36.621,32.227,15.625,34.180,0
213995.471,33.691,35.156,30.273,25.391,43.945,0
213995.475,57.129,32.715,31.738,43.457,62.500,0
213995.479,52.734,32.227,29.785,40.527,56.152,0
213995.483,26.855,33.691,35.156,21.484,47.363,0
213995.486,25.391,31.738,40.039,18.555,49.316,0
213995.490,45.410,33.203,39.551,40.039,41.016,0
213995.494,43.945,35.645,40.527,45.410,25.879,0
213995.498,25.391,36.621,39.551,32.715,20.508,0
213995.501,21.484,34.668,45.898,25.391,34.180,0
213995.505,33.203,26.855,47.363,29.297,39.551,0
213995.509,44.922,25.391,23.438,37.109,37.109,0
213995.513,31.250,32.227,8.789,32.715,26.855,0
213995.517,16.113,29.297,20.996,19.531,27.832,0
213995.521,28.809,25.391,32.227,24.414,38.086,0
213995.525,42.480,30.762,41.504,38.574,17.578,0
213995.529,30.762,33.203,45.898,31.738,-6.348,0
213995.532,14.160,32.227,47.363,18.066,0.488,0
213995.536,27.344,33.203,44.434,22.949,27.344,0
213995.540,55.176,35.645,43.457,40.039,45.898,0
213995.544,41.016,31.738,41.992,32.715,38.574,0
213995.559,16.113,28.320,31.250,13.672,40.039,0
213995.563,24.902,33.691,28.809,18.066,53.223,0
213995.567,39.551,34.180,29.785,27.832,41.016,0
213995.571,40.527,33.691,29.785,26.855,20.996,0
213995.575,23.926,37.598,38.086,17.090,20.996,0
213995.579,11.230,31.738,41.504,13.672,28.809,0
213995.583,32.227,25.391,37.598,22.461,33.691,0
213995.586,47.363,28.809,44.434,34.180,23.438,0
213995.590,31.250,33.691,45.898,32.227,25.879,0
213995.594,15.137,32.715,41.504,20.996,34.668,0
213995.598,19.531,31.250,40.527,20.508,37.598,0
213995.602,35.645,28.809,38.574,31.250,44.922,0
213995.604,22.949,22.461,43.457,22.461,35.156,0
213995.608,3.906,22.461,49.805,6.836,17.090,0
213995.612,14.160,25.391,47.363,15.137,26.367,0
213995.616,35.645,25.879,42.480,28.809,37.598,0
213995.620,32.227,27.344,41.992,27.832,39.551,0
213995.624,17.578,28.320,41.016,19.043,48.340,0
213995.628,19.531,32.227,42.480,22.949,54.688,0
213995.631,35.156,36.133,35.645,39.062,58.594,0
213995.635,38.574,34.668,27.832,44.922,47.363,0
213995.639,22.949,29.785,28.809,28.809,23.926,0
213995.643,18.555,29.785,40.527,17.578,20.020,0
213995.647,27.344,32.227,46.387,26.855,22.461,0
213995.649,38.574,31.738,44.434,35.645,27.832,0
213995.653,24.902,29.297,36.133,29.297,38.086,0
213995.657,14.160,33.691,36.133,18.066,32.715,0
213995.661,26.855,35.645,41.992,19.043,35.645,0
213995.665,42.480,31.738,43.945,37.109,36.133,0
213995.669,37.109,28.809,43.945,36.133,18.555,0
213995.673,19.043,24.414,47.852,17.090,14.160,0
213995.677,28.320,28.320,54.688,19.531,24.414,0
213995.681,44.922,31.738,43.457,34.668,31.738,0
213995.685,34.668,27.344,30.273,33.203,27.344,0
213995.689,15.625,29.297,35.156,22.461,38.574,0
213995.692,20.996,37.109,34.668,24.902,50.781,0
213995.694,43.457,38.086,37.109,37.598,51.270,0
213995.698,44.434,28.320,35.156,41.016,44.922,0
213995.702,27.832,28.320,29.785,34.668,35.645,0
213995.706,19.531,31.250,41.504,24.414,33.203,0
213995.710,31.738,31.250,42.480,28.320,31.738,0
213995.714,45.898,34.668,39.551,42.480,35.645,0
213995.717,40.527,43.457,43.457,36.133,41.992,0
213995.721,30.762,42.969,38.086,19.531,41.016,0
213995.725,31.250,30.273,31.250,12.207,40.527,0
213995.729,47.852,26.367,33.203,28.320,34.180,0
213995.733,55.664,36.133,43.457,45.898,26.367,0
213995.737,29.297,38.574,40.527,30.273,30.762,0
213995.740,18.555,32.715,35.156,21.973,53.711,0
213995.744,41.992,30.762,40.039,40.527,55.664,0
213995.748,46.387,32.227,41.504,43.457,24.902,0
213995.752,34.180,36.621,41.504,36.621,39.551,0
213995.756,34.180,39.551,39.551,31.738,59.570,0
213995.760,43.945,34.180,42.969,32.227,50.781,0
213995.764,50.293,31.250,43.457,43.945,41.992,0
213995.768,36.133,32.227,41.016,37.109,24.414,0
213995.772,21.973,29.785,48.340,20.020,10.254,0
213995.775,28.809,29.785,51.758,23.926,13.184,0
213995.779,41.992,31.250,42.969,39.551,19.043,0
213995.783,32.715,35.645,34.668,38.574,24.902,0
213995.784,14.648,35.156,41.992,27.344,36.621,0
213995.788,20.020,26.367,47.852,34.668,36.133,0
213995.792,35.645,23.438,40.527,46.387,24.902,0
213995.796,30.762,25.879,41.504,38.574,9.766,0
213995.800,16.113,27.344,41.992,24.902,17.578,0
213995.804,21.973,30.273,36.621,21.484,28.809,0
213995.808,43.457,32.227,35.645,31.250,40.527,0
213995.811,50.781,38.086,35.156,36.621,59.082,0
213995.815,34.668,42.480,36.621,24.902,47.363,0
213995.819,28.809,37.598,37.598,13.184,42.480,0
213995.823,46.875,32.715,41.992,23.926,65.918,0
213995.827,52.246,32.715,38.574,38.574,62.500,0
213995.829,33.203,30.762,31.738,30.273,30.273,0
213995.833,21.484,28.809,30.273,16.113,19.043,0
213995.837,34.180,36.621,36.621,29.785,24.414,0
213995.841,47.363,39.062,36.133,50.781,16.113,0
213995.845,30.762,34.668,29.297,38.574,8.789,0
213995.849,14.648,35.156,32.715,18.066,12.207,0
213995.853,20.020,31.250,39.062,21.484,20.508,0
213995.856,36.621,27.344,48.340,35.156,25.391,0
213995.860,37.598,27.832,52.734,35.156,25.879,0
213995.864,18.555,30.762,47.363,23.438,30.762,0
213995.868,18.555,33.691,45.410,22.461,38.574,0
213995.872,41.504,35.645,43.945,37.109,44.434,0
213995.874,45.410,35.156,40.527,41.504,52.734,0
213995.878,24.902,29.297,36.621,27.832,40.527,0
213995.882,19.531,28.320,32.715,23.926,41.992,0
213995.886,35.156,29.785,29.785,36.133,53.223,0
213995.890,44.922,28.809,32.227,43.945,40.039,0
213995.893,32.227,30.273,35.645,35.156,35.156,0
213995.897,13.672,32.227,34.180,20.508,41.016,0
213995.901,25.879,34.180,30.273,22.949,62.500,0
213995.905,46.875,37.109,28.320,37.598,61.035,0
213995.909,37.109,38.574,30.762,33.203,23.438,0
213995.913,17.090,36.621,28.320,15.625,15.625,0
213995.917,22.461,33.203,27.832,18.555,33.203,0
213995.935,38.574,28.320,40.039,31.250,38.574,0
213995.939,39.062,31.250,43.457,27.832,24.414,0
213995.942,28.320,36.621,37.109,14.160,23.438,0
213995.946,28.320,39.551,30.273,12.695,35.156,0
213995.950,47.363,41.016,22.461,27.832,44.434,0
213995.954,51.758,38.086,21.484,35.156,37.598,0
213995.958,28.320,35.156,30.273,21.484,28.320,0
213995.962,16.113,38.086,36.621,14.160,40.527,0
213995.966,30.273,38.086,37.598,24.902,49.316,0
213995.970,45.410,35.156,41.992,37.109,49.316,0
213995.974,35.156,37.598,39.062,29.785,37.109,0
213995.978,15.137,36.133,32.227,14.648,23.438,0
213995.979,26.855,35.156,33.203,23.926,30.762,0
213995.983,48.340,34.180,35.156,40.527,40.527,0
213995.987,35.156,29.297,31.250,32.715,27.344,0
213995.991,21.973,33.691,30.273,21.484,21.484,0
213995.995,30.273,35.156,38.086,24.414,34.668,0
213995.999,42.480,30.273,35.645,37.598,44.922,0
213996.003,37.109,32.227,29.297,42.969,39.551,0
213996.006,15.625,34.668,31.738,25.879,20.020,0
213996.010,10.254,30.273,33.203,21.484,22.461,0
213996.014,30.762,26.367,36.621,40.039,41.504,0
213996.018,44.434,28.320,43.457,50.293,38.086,0
213996.022,30.762,30.762,39.551,39.551,35.156,0
213996.024,15.137,28.809,36.133,32.715,37.598,0
213996.028,25.879,29.785,30.273,40.527,33.691,0
213996.032,44.434,32.715,22.461,49.316,26.855,0
213996.035,31.250,30.273,26.367,36.133,19.043,0
213996.039,8.789,24.414,22.461,11.230,19.043,0
213996.043,15.137,25.391,24.902,12.207,20.508,0
213996.047,34.668,31.738,35.156,30.762,16.113,0
213996.051,42.480,39.062,33.691,42.969,28.320,0
213996.055,28.809,37.598,33.691,33.203,40.527,0
213996.059,21.973,33.691,38.086,20.020,37.598,0
213996.063,37.109,32.715,38.086,34.668,32.227,0
213996.067,38.086,34.668,29.785,39.551,20.508,0
213996.069,16.113,37.109,26.855,18.066,10.254,0
213996.073,8.301,35.645,30.273,11.230,16.602,0
213996.077,28.809,31.738,32.715,21.973,27.344,0
213996.081,39.551,29.785,32.715,31.250,22.461,0
213996.085,22.949,30.273,34.668,30.762,17.578,0
213996.088,15.625,30.762,35.645,22.949,34.180,0
213996.092,27.832,30.762,35.156,25.391,48.828,0
213996.096,40.527,32.227,32.715,39.551,43.945,0
213996.100,35.645,34.180,27.832,38.574,38.574,0
213996.104,23.926,40.039,24.902,25.879,46.387,0
213996.108,31.250,42.480,25.391,29.785,58.594,0
213996.112,44.922,29.297,25.391,41.504,72.754,0
213996.114,35.156,20.020,41.992,41.504,50.781,0
213996.118,12.207,25.391,60.547,30.273,29.785,0
213996.122,9.277,26.855,58.105,25.391,38.574,0
213996.126,30.273,26.367,53.223,41.992,20.508,0
213996.130,32.227,27.344,53.711,46.387,4.395,0
213996.134,7.324,29.297,44.434,25.879,0.977,0
213996.138,6.348,31.738,34.668,18.066,5.859,0
213996.141,24.902,29.297,27.832,23.438,27.832,0
213996.145,45.410,33.691,26.367,35.645,41.016,0
213996.149,41.992,40.527,36.621,40.527,46.875,0
213996.153,20.508,33.691,38.086,25.879,48.828,0
213996.157,27.832,26.855,38.574,25.879,47.363,0
213996.159,49.805,27.344,44.922,41.016,36.621,0
213996.163,44.922,30.273,40.039,38.574,18.555,0
213996.167,26.855,32.715,28.809,21.973,18.066,0
213996.171,27.344,31.250,29.785,19.043,27.832,0
213996.175,45.410,31.250,32.227,32.227,31.250,0
213996.179,52.734,39.551,29.297,42.480,34.668,0
213996.183,37.109,41.016,32.715,30.762,36.133,0
213996.186,27.832,32.227,35.156,12.695,42.480,0
213996.190,44.434,29.297,32.715,25.879,54.199,0
213996.194,47.363,29.785,28.320,40.039,48.828,0
213996.198,25.879,33.203,24.414,29.297,30.273,0
213996.202,20.996,35.156,26.855,20.020,30.762,0
213996.205,38.574,34.180,36.621,32.715,52.734,0
213996.209,52.246,33.203,33.691,39.551,52.734,0
213996.213,43.945,36.621,30.273,31.738,42.480,0
213996.217,30.762,42.480,32.715,24.414,52.246,0
213996.221,42.480,43.457,41.992,31.738,56.641,0
213996.225,57.617,35.645,41.992,41.504,39.551,0
213996.229,42.969,29.785,33.691,33.691,22.949,0
213996.233,20.996,33.203,36.621,20.996,33.203,0
213996.236,26.855,35.156,21.973,17.090,39.062,0
213996.240,49.316,35.156,11.719,32.227,41.504,0
213996.244,46.875,36.621,31.250,40.039,41.504,0
213996.248,30.273,40.527,41.504,25.879,40.039,0
213996.249,27.832,40.039,45.898,23.926,51.270,0
213996.253,39.551,36.133,48.340,38.574,51.270,0
213996.257,42.969,32.715,38.574,42.480,32.715,0
213996.261,21.973,28.809,28.809,29.785,23.438,0
213996.265,12.695,30.762,27.344,20.508,33.203,0
213996.269,32.715,37.598,34.668,29.785,52.734,0
213996.273,48.828,36.621,42.480,39.551,40.039,0
213996.277,32.227,31.738,42.969,29.785,19.043,0
213996.281,18.555,31.738,41.016,16.113,27.344,0
213996.284,28.320,33.203,28.320,19.043,29.297,0
213996.288,41.016,32.227,25.879,29.785,20.508,0
213996.292,35.645,34.668,34.180,27.832,10.742,0
213996.309,11.230,34.180,32.715,12.207,7.812,0
213996.313,10.254,28.320,27.344,10.254,8.789,0
213996.317,36.133,33.203,34.668,29.297,18.066,0
213996.321,40.527,36.621,38.086,32.715,29.785,0
213996.325,23.438,32.715,33.691,20.508,37.598,0
213996.329,21.973,32.227,38.086,19.043,57.129,0
213996.332,37.598,33.691,41.016,33.691,62.012,0
213996.336,52.246,39.062,37.598,44.922,39.062,0
213996.340,41.016,39.551,33.203,32.715,18.066,0
213996.344,20.996,36.621,29.297,20.996,19.043,0
213996.348,29.297,34.180,27.832,28.809,34.180,0
213996.352,42.480,32.227,31.250,41.016,34.180,0
213996.354,31.738,30.273,23.438,34.180,23.438,0
213996.358,16.113,32.715,28.320,18.555,34.180,0
213996.362,24.414,36.621,47.363,23.438,47.363,0
213996.366,49.805,41.992,48.828,41.016,43.945,0
213996.370,41.504,38.086,41.016,33.691,22.461,0
213996.373,13.184,26.855,33.203,13.672,14.160,0
213996.377,8.301,26.855,27.344,8.789,27.832,0
213996.381,29.297,29.297,32.227,24.902,40.039,0
213996.385,46.387,27.832,24.414,40.039,34.180,0
213996.389,29.297,33.203,21.484,34.668,23.926,0
213996.393,13.672,31.738,42.969,29.785,27.832,0
213996.397,30.273,30.273,49.805,38.574,33.203,0
213996.400,49.805,39.062,46.387,47.852,39.062,0
213996.404,31.738,29.785,33.203,34.180,22.461,0
213996.408,4.883,17.090,20.508,11.719,6.836,0
213996.412,16.602,20.508,26.855,14.160,30.273,0
213996.416,41.992,25.879,35.645,28.809,44.922,0
213996.419,31.250,24.414,39.062,26.367,25.879,0
213996.423,14.160,27.832,39.062,16.113,21.484,0
213996.427,21.973,32.227,33.203,16.602,34.668,0
213996.431,41.504,33.203,30.762,30.762,39.551,0
213996.435,41.992,37.598,33.203,36.133,20.020,0
213996.439,18.555,37.598,27.344,19.531,5.371,0
213996.443,14.648,29.785,23.926,13.184,23.926,0
213996.444,31.738,25.391,32.227,26.855,32.715,0
213996.448,37.598,25.879,36.133,37.109,26.855,0
213996.452,26.367,29.785,34.668,33.203,32.227,0
213996.456,18.066,30.762,27.832,23.438,34.668,0
213996.460,30.762,36.133,14.160,29.297,29.297,0
213996.464,44.434,40.527,22.461,43.457,33.691,0
213996.468,29.785,36.133,36.621,34.180,28.320,0
213996.472,16.113,33.691,39.062,20.996,25.879,0
213996.475,25.879,35.645,39.062,26.367,36.133,0
213996.479,42.480,38.574,39.551,38.574,33.691,0
213996.483,35.156,39.551,43.945,39.551,40.039,0
213996.487,21.484,39.551,44.922,28.809,43.945,0
213996.490,28.320,37.598,48.340,27.832,41.016,0
213996.494,38.574,34.180,39.062,35.156,38.086,0
213996.498,39.551,33.203,24.414,37.598,21.973,0
213996.502,29.297,33.203,28.809,29.785,19.531,0
213996.506,32.227,36.621,29.785,26.367,45.898,0
213996.510,50.781,37.598,29.297,40.039,66.406,0
213996.513,51.270,36.133,36.133,50.781,57.129,0
213996.517,36.133,40.039,32.227,41.016,41.504,0
213996.521,25.879,37.598,32.715,26.855,35.645,0
213996.525,42.480,34.180,39.062,33.691,44.434,0
213996.529,59.082,38.574,38.574,50.781,42.969,0
213996.533,41.992,40.527,35.156,42.480,34.180,0
213996.534,22.461,41.016,33.203,26.855,47.363,0
213996.538,23.926,41.992,39.062,26.855,61.523,0
213996.542,41.016,35.645,43.945,35.645,46.875,0
213996.546,33.691,34.180,31.250,35.645,35.156,0
213996.550,11.230,38.086,20.508,20.996,28.809,0
213996.554,16.113,34.180,26.367,17.578,28.320,0
213996.558,35.645,30.762,38.574,29.785,29.785,0
213996.562,41.016,33.203,38.574,37.598,23.438,0
213996.565,29.297,36.133,21.484,30.273,20.996,0
213996.569,17.578,29.785,15.625,20.996,35.156,0
213996.573,33.691,32.227,33.691,33.203,50.293,0
213996.577,55.176,41.016,45.410,46.387,38.574,0
213996.580,39.062,37.109,47.363,34.180,33.691,0
213996.584,18.066,31.250,45.410,16.602,46.875,0
213996.588,28.809,28.320,43.945,24.414,40.527,0
213996.591,49.316,29.785,41.992,42.969,36.133,0
213996.595,39.551,31.250,30.273,37.598,27.344,0
213996.599,13.184,30.762,28.809,23.926,24.902,0
213996.603,16.602,33.203,39.062,27.344,48.828,0
213996.607,38.574,38.086,42.969,45.410,57.617,0
213996.611,36.133,37.598,41.992,48.828,39.062,0
213996.615,17.090,33.203,42.480,32.715,41.016,0
213996.619,18.555,27.832,37.598,20.508,45.410,0
213996.623,35.645,29.785,38.574,29.297,26.367,0
213996.624,44.434,31.250,37.109,40.039,16.113,0
213996.628,31.250,32.715,25.391,23.438,16.113,0
213996.632,26.855,35.645,35.645,15.137,29.297,0
213996.636,50.293,36.133,38.574,33.691,49.805,0
213996.640,61.523,36.133,34.180,47.852,54.688,0
213996.644,43.945,36.133,31.738,39.062,44.922,0
213996.647,32.227,36.621,25.879,29.785,46.387,0
213996.651,38.086,33.691,33.203,34.180,51.758,0
213996.655,48.340,32.715,43.945,43.945,55.176,0
213996.659,40.527,36.621,43.457,37.598,39.062,0
213996.663,17.090,34.180,35.645,14.648,24.902,0
213996.667,21.973,31.250,37.109,14.648,48.828,0
213996.670,45.410,34.180,40.527,36.133,70.801,0
213996.674,40.527,32.715,31.250,35.156,50.781,0
213996.678,12.695,29.297,26.855,17.578,31.250,0
213996.682,8.301,28.809,31.738,13.184,40.039,0
213996.686,30.273,29.297,25.391,28.320,34.668,0
213996.690,41.504,31.738,25.879,41.016,20.996,0
213996.694,20.996,32.715,28.809,27.344,17.090,0
213996.698,7.324,29.785,27.344,15.625,29.785,0
213996.702,24.902,28.320,35.156,23.438,45.410,0
213996.706,38.574,28.809,35.645,34.668,39.062,0
213996.709,30.762,33.203,33.691,31.250,44.922,0
213996.713,20.020,36.621,34.668,22.949,52.734,0
213996.729,28.809,35.645,41.992,32.227,40.039,0
213996.733,44.922,32.715,47.363,40.527,43.945,0
213996.737,34.668,28.320,31.250,26.855,22.949,0
213996.741,12.695,27.832,20.020,9.277,-2.930,0
213996.745,13.184,26.855,28.320,9.766,14.648,0
213996.749,39.062,30.273,25.879,30.273,36.621,0
213996.753,42.969,33.691,23.926,30.273,34.180,0
213996.757,19.043,35.156,28.809,10.742,35.645,0
213996.761,15.137,34.668,34.180,6.836,40.039,0
213996.765,24.902,32.227,36.621,17.578,32.715,0
213996.768,26.367,29.297,32.227,22.461,21.973,0
213996.772,13.184,30.762,30.273,15.137,13.672,0
213996.774,5.859,32.227,29.785,8.789,27.832,0
213996.778,21.484,32.715,32.227,17.578,41.992,0
213996.782,36.133,34.668,30.762,33.203,36.621,0
213996.786,29.785,36.621,35.156,33.691,42.969,0
213996.790,19.043,35.156,41.504,25.879,52.734,0
213996.794,26.855,33.203,34.668,29.297,43.945,0
213996.798,47.852,37.598,32.715,45.898,50.293,0
213996.801,41.504,39.551,30.762,45.410,51.758,0
213996.805,13.672,38.086,27.344,29.785,29.785,0
213996.809,13.184,35.645,38.086,24.414,21.973,0
213996.813,31.738,31.250,46.875,30.762,20.996,0
213996.817,37.598,30.273,43.945,36.621,20.020,0
213996.819,19.043,29.297,39.062,21.484,28.809,0
213996.823,10.742,28.320,28.320,7.812,23.926,0
213996.827,27.344,30.762,28.320,19.043,12.695,0
213996.831,39.551,35.645,27.832,27.832,11.230,0
213996.835,24.902,38.574,20.996,22.461,10.254,0
213996.839,8.789,38.574,20.996,14.160,21.973,0
213996.842,23.926,34.180,14.648,16.602,36.133,0
213996.846,41.504,31.738,16.602,27.344,46.875,0
213996.850,30.273,30.762,27.344,30.273,43.945,0
213996.854,14.160,32.227,33.203,22.949,28.809,0
213996.858,17.578,34.668,32.227,18.066,27.832,0
213996.862,33.691,28.809,32.715,30.273,25.879,0
213996.864,28.809,25.391,38.086,35.156,9.277,0
213996.868,10.254,27.344,31.738,18.066,13.672,0
213996.872,15.625,33.203,32.227,20.020,36.133,0
213996.876,37.598,34.180,48.340,40.039,47.363,0
213996.880,44.434,30.762,45.410,41.504,49.805,0
213996.884,30.273,34.180,35.156,27.832,55.176,0
213996.888,23.438,37.109,38.574,24.902,48.340,0
213996.891,45.410,35.645,34.180,34.180,41.504,0
213996.895,57.129,37.598,25.879,35.645,28.320,0
213996.899,36.133,36.133,33.203,22.461,14.160,0
213996.903,22.949,34.180,39.551,12.207,29.785,0
213996.907,36.621,38.086,39.062,22.461,62.012,0
213996.910,44.434,37.109,36.133,36.621,56.641,0
213996.914,28.809,30.762,32.715,30.762,12.207,0
213996.917,9.277,27.344,27.344,17.578,10.742,0
213996.921,13.672,33.691,26.367,20.020,27.344,0
213996.925,31.738,37.598,41.016,37.598,18.555,0
213996.929,28.320,32.227,37.598,38.574,8.301,0
213996.933,9.766,31.250,27.344,19.043,13.184,0
213996.937,9.766,32.227,34.180,13.184,26.367,0
213996.941,34.180,33.203,42.969,29.297,42.480,0
213996.945,46.875,31.250,43.945,41.992,44.922,0
213996.949,29.297,28.809,39.551,35.156,43.457,0
213996.953,18.555,26.367,35.645,29.785,47.852,0
213996.955,30.273,32.715,33.691,37.109,27.832,0
213996.959,42.480,35.156,40.039,47.852,6.348,0
213996.963,31.250,27.832,40.527,40.039,3.418,0
213996.967,12.695,23.926,34.668,19.531,13.184,0
213996.971,16.602,21.484,37.109,18.066,27.344,0
213996.975,32.715,22.461,40.039,35.156,44.434,0
213996.979,32.715,29.785,45.410,41.016,40.527,0
213996.983,18.555,33.691,41.992,26.855,36.621,0
213996.987,21.484,31.250,38.086,18.555,49.805,0
213996.991,45.898,32.715,43.457,34.668,60.059,0
213996.995,44.922,29.785,39.551,37.598,42.969,0
213996.998,28.809,28.809,29.297,23.438,22.949,0
213996.999,28.809,32.715,29.785,18.555,39.551,0
213997.003,40.527,27.344,37.109,27.344,55.664,0
213997.007,54.199,27.344,35.645,39.551,45.898,0
213997.011,49.316,32.715,37.109,35.156,36.133,0
213997.015,41.016,34.668,39.062,31.738,48.828,0
213997.019,49.805,31.250,31.738,37.109,51.270,0
213997.023,60.059,29.785,28.320,45.410,37.109,0
213997.027,46.387,34.668,29.297,40.039,18.066,0
213997.030,32.715,38.574,36.133,25.879,25.391,0
213997.034,40.039,36.621,33.691,21.484,45.410,0
213997.038,55.176,31.250,31.250,37.109,36.621,0
213997.042,52.246,28.809,30.762,40.039,28.809,0
213997.059,33.691,28.809,34.668,26.855,33.691,0
213997.063,33.203,26.367,43.457,31.250,39.062,0
213997.067,54.688,28.320,39.551,49.316,45.898,0
213997.071,61.035,33.691,33.691,52.734,39.551,0
213997.075,39.062,33.691,36.133,38.086,34.668,0
213997.079,34.668,34.668,37.598,33.203,48.340,0
213997.083,50.293,35.156,38.086,42.480,66.895,0
213997.087,51.758,30.273,40.039,53.223,56.152,0
213997.091,30.273,31.250,33.691,47.852,34.180,0
213997.094,15.137,32.227,27.344,26.855,31.738,0
213997.098,20.020,27.832,33.691,32.715,40.039,0
213997.102,32.227,27.832,38.574,47.852,27.344,0
213997.104,20.508,28.809,33.691,34.668,7.324,0
213997.108,1.953,31.250,35.156,16.602,9.277,0
213997.112,5.371,33.203,37.109,12.695,31.250,0
213997.116,23.438,34.180,33.691,20.996,41.016,0
213997.120,24.902,32.227,37.598,25.391,21.484,0
213997.124,10.254,31.738,39.551,14.160,15.625,0
213997.127,14.648,33.203,40.039,9.766,32.227,0
213997.131,34.180,32.227,39.062,23.926,39.551,0
213997.135,42.480,30.762,31.738,39.551,36.133,0
213997.139,32.715,33.691,27.832,35.645,24.902,0
213997.143,23.438,34.668,35.156,22.461,22.949,0
213997.147,30.273,33.203,40.527,31.250,45.898,0
213997.149,39.062,34.180,39.062,44.434,44.922,0
213997.153,29.297,34.668,37.109,37.598,26.855,0
213997.157,14.160,33.691,33.203,23.926,26.855,0
213997.161,21.484,30.762,33.691,24.902,27.344,0
213997.165,39.062,29.297,25.879,36.133,20.020,0
213997.169,28.320,34.668,20.508,31.738,9.766,0
213997.173,6.836,36.133,35.645,13.184,12.695,0
213997.176,12.695,31.738,44.922,10.742,21.973,0
213997.180,37.109,36.621,37.598,26.367,23.926,0
213997.184,41.992,39.062,26.367,30.273,15.625,0
213997.188,27.344,34.180,33.203,17.578,19.531,0
213997.192,25.879,32.715,37.598,15.625,37.109,0
213997.209,36.621,30.273,33.691,25.879,40.039,0
213997.213,38.086,28.320,36.621,26.855,16.113,0
213997.217,26.855,31.738,41.016,18.066,5.859,0
213997.221,16.113,35.156,41.016,12.207,30.273,0
213997.225,29.297,37.109,35.645,19.531,51.758,0
213997.229,47.363,39.551,31.250,34.180,39.551,0
213997.232,27.832,33.691,34.668,27.344,22.461,0
213997.236,14.648,29.297,39.551,16.113,34.668,0
213997.240,27.344,29.297,40.527,22.461,43.457,0
213997.244,39.551,25.879,41.504,34.668,45.410,0
213997.248,38.574,29.785,37.109,37.598,34.180,0
213997.252,27.832,31.738,29.297,26.855,32.227,0
213997.239,30.762,26.855,27.344,25.391,58.105,0
213997.243,49.805,27.344,31.250,41.504,72.754,0
213997.247,52.734,31.250,39.062,49.316,72.754,0
213997.251,32.715,32.227,43.457,35.156,58.105,0
213997.255,31.250,38.574,39.062,21.484,43.945,0
213997.259,50.293,38.574,38.574,35.156,51.758,0
213997.262,58.594,31.738,35.156,41.504,42.969,0
213997.266,37.598,29.785,24.414,19.043,27.344,0
213997.270,18.066,29.297,29.785,4.883,33.691,0
213997.274,32.715,30.273,41.504,18.066,46.387,0
213997.278,47.852,28.320,43.457,31.738,30.273,0
213997.282,30.273,26.367,38.574,30.762,19.531,0
213997.284,16.113,29.785,32.715,22.949,31.738,0
213997.288,23.438,29.785,31.738,19.043,32.227,0
213997.292,32.227,23.438,38.574,30.273,30.762,0
213997.296,30.273,20.508,39.062,34.668,26.367,0
213997.300,12.207,19.043,32.715,17.090,18.555,0
213997.304,8.301,19.531,31.738,10.254,26.855,0
213997.308,29.785,23.438,35.645,27.344,43.457,0
213997.312,35.645,27.344,39.551,38.574,39.551,0
213997.316,12.695,27.832,36.133,25.391,24.414,0
213997.319,3.906,26.855,30.762,13.672,17.090,0
213997.323,22.461,31.250,29.785,24.902,16.113,0
213997.327,39.062,35.156,29.785,37.598,21.484,0
213997.331,27.832,31.250,31.250,27.832,17.578,0
213997.334,9.766,28.809,31.250,9.766,24.902,0
213997.338,22.949,31.250,34.668,13.672,54.199,0
213997.342,44.922,29.785,38.574,32.715,45.410,0
213997.346,40.527,30.762,34.180,33.203,19.531,0
213997.350,24.414,31.738,30.762,15.137,30.762,0
213997.354,22.461,26.367,30.273,11.230,42.480,0
213997.358,33.691,24.414,30.762,24.902,31.250,0
213997.362,33.203,34.668,37.598,32.227,10.254,0
213997.366,18.555,38.574,33.203,24.902,5.859,0
213997.370,14.160,29.297,26.367,20.996,18.066,0
213997.374,28.320,25.391,29.785,29.785,17.578,0
213997.374,35.156,29.297,41.016,37.598,22.949,0
213997.378,14.160,27.832,42.969,27.832,24.414,0
213997.382,3.418,26.367,39.062,16.602,32.227,0
213997.386,18.555,25.879,35.156,23.438,50.781,0
213997.390,29.297,23.926,29.297,37.598,52.246,0
213997.394,24.902,31.250,26.367,34.180,41.504,0
213997.398,16.113,38.574,22.461,20.996,36.133,0
213997.401,18.066,35.645,30.273,23.926,35.645,0
213997.405,29.785,29.785,38.574,29.785,24.414,0
213997.409,26.367,29.297,37.598,24.414,4.883,0
213997.413,11.719,31.250,40.527,10.742,-1.465,0
213997.417,16.602,28.320,34.180,5.371,12.207,0
213997.421,40.039,29.297,26.855,25.391,27.344,0
213997.425,46.387,30.762,31.738,36.133,8.301,0
213997.429,29.785,32.715,30.762,21.973,11.719,0
213997.433,20.020,34.668,30.762,15.625,46.387,0
213997.437,36.621,34.180,40.039,31.738,42.969,0
213997.441,45.898,33.203,39.551,42.969,18.066,0
213997.445,19.531,26.855,33.691,25.391,15.625,0
213997.448,8.301,26.367,38.574,13.672,29.785,0
213997.452,25.391,29.297,39.062,23.926,36.621,0
213997.456,36.621,27.832,37.598,35.156,30.273,0
213997.460,22.949,29.297,36.621,25.879,26.855,0
213997.464,11.230,32.227,38.086,10.254,28.809,0
213997.479,22.461,35.156,37.109,20.508,32.227,0
213997.483,36.133,38.086,36.133,35.645,35.645,0
213997.487,29.297,35.645,37.109,29.785,32.715,0
213997.491,15.137,33.691,33.203,16.602,35.156,0
213997.495,20.996,32.227,33.691,17.090,36.133,0
213997.499,34.180,28.320,26.855,25.879,23.438,0
213997.503,34.668,29.785,29.297,28.320,13.184,0
213997.507,20.996,32.715,39.062,12.695,7.812,0
213997.511,18.066,34.180,39.551,3.906,18.555,0
213997.515,35.645,36.133,39.062,16.602,39.551,0
213997.519,44.434,37.598,39.551,29.785,35.645,0
213997.522,25.391,37.598,37.109,22.461,21.484,0
213997.539,13.184,33.691,30.762,9.277,27.832,0
213997.543,30.762,33.691,32.227,17.090,50.781,0
213997.547,41.504,29.785,26.367,28.809,46.875,0
213997.551,31.250,27.344,29.785,31.250,33.691,0
213997.555,21.973,32.715,41.504,25.879,39.551,0
213997.558,23.438,37.598,41.016,22.461,37.598,0
213997.562,42.480,47.852,35.645,33.203,35.645,0
213997.566,40.039,50.781,32.227,30.273,27.832,0
213997.570,5.859,35.156,29.785,10.742,24.902,0
213997.574,3.418,30.273,25.391,8.789,54.199,0
213997.578,25.879,30.762,29.297,21.484,57.617,0
213997.582,30.273,32.715,36.621,29.785,31.738,0
213997.568,17.090,36.133,34.180,20.508,28.809,0
213997.572,14.648,31.250,32.227,10.742,40.527,0
213997.576,34.180,30.273,39.062,20.508,45.410,0
213997.580,48.340,32.715,39.062,36.621,30.273,0
213997.584,38.086,37.109,29.297,32.227,20.508,0
213997.588,23.438,36.621,25.391,20.508,28.809,0
213997.592,29.297,31.738,27.344,21.484,45.410,0
213997.596,45.898,35.156,29.297,35.156,40.527,0
213997.600,41.992,39.551,30.273,40.527,25.879,0
213997.604,24.902,37.598,38.086,28.320,39.062,0
213997.608,28.809,33.691,45.898,28.809,55.664,0
213997.611,43.945,28.809,44.922,44.434,54.688,0
213997.613,40.527,28.809,37.109,44.434,50.781,0
213997.617,22.949,28.809,34.668,29.297,47.852,0
213997.621,24.902,28.809,39.062,28.320,44.922,0
213997.625,43.945,33.203,34.668,37.109,37.109,0
213997.629,49.805,38.086,35.645,38.086,32.227,0
213997.633,34.668,32.715,39.062,30.762,29.297,0
213997.637,25.879,29.785,35.645,26.367,34.180,0
213997.641,42.969,32.715,41.504,36.621,50.293,0
213997.645,55.176,33.691,40.039,45.898,43.945,0
213997.649,36.133,33.691,31.738,33.203,22.461,0
213997.653,23.926,39.062,31.738,19.531,32.227,0
213997.656,35.156,38.574,42.969,29.297,48.828,0
213997.660,45.410,31.738,42.480,41.504,30.273,0
213997.664,37.109,32.227,38.086,34.668,13.184,0
213997.668,24.414,33.691,33.203,18.066,24.414,0
213997.671,29.297,32.227,30.273,19.531,42.480,0
213997.675,50.781,32.227,37.598,36.621,39.551,0
213997.679,58.105,32.715,35.645,42.480,26.855,0
213997.683,37.109,37.109,32.715,24.902,22.461,0
213997.687,28.320,36.621,33.203,15.137,32.715,0
213997.691,43.945,28.320,30.273,31.250,42.480,0
213997.695,47.363,26.855,31.738,39.062,32.715,0
213997.699,29.785,31.250,43.945,30.273,34.180,0
213997.703,26.855,33.691,48.828,21.484,48.340,0
213997.704,37.598,31.738,47.852,26.855,41.992,0
213997.707,43.457,30.762,48.828,36.621,25.879,0
213997.711,33.203,34.668,39.062,23.438,19.043,0
213997.715,17.578,38.086,34.180,9.277,26.367,0
213997.719,25.391,32.227,42.969,21.484,44.922,0
213997.723,55.176,29.297,44.434,44.922,69.824,0
213997.727,46.387,32.715,39.062,37.598,59.082,0
213997.731,10.742,29.785,41.016,6.348,26.855,0
213997.735,10.254,27.832,45.410,3.418,13.672,0
213997.739,36.133,29.785,43.457,28.809,10.742,0
213997.743,44.922,33.691,42.969,40.039,22.949,0
213997.747,28.320,37.598,39.062,25.879,28.809,0
213997.749,24.902,36.133,43.457,17.090,28.809,0
213997.753,44.922,34.668,46.875,28.809,40.527,0
213997.757,51.758,35.645,34.180,39.062,32.227,0
213997.761,32.715,34.668,37.109,31.250,21.973,0
213997.765,21.484,36.133,41.992,20.508,36.133,1
213997.769,33.203,32.715,38.574,27.832,49.316,0
213997.773,43.945,27.832,39.062,44.434,37.109,0
213997.777,29.297,29.297,38.086,35.156,20.996,0
213997.780,8.789,28.320,41.016,15.137,22.949,0
213997.784,23.438,33.203,46.875,23.926,44.922,0
213997.788,47.852,35.645,49.805,41.504,56.152,0
213997.792,41.992,35.156,43.457,39.551,46.875,0
213997.809,28.809,41.992,40.527,27.344,55.176,0
213997.813,30.273,38.086,29.785,24.414,53.711,0
213997.817,41.016,28.320,19.043,30.762,48.828,0
213997.820,42.480,28.320,30.762,34.668,51.270,0
213997.824,28.320,32.715,34.668,27.344,42.480,0
213997.828,20.020,34.180,33.203,23.926,41.016,0
213997.832,32.715,36.133,42.480,31.738,58.594,0
213997.836,44.922,36.133,46.387,43.945,57.617,0
213997.840,33.691,36.621,39.551,39.062,21.484,0
213997.844,20.996,37.109,36.621,25.391,17.090,0
213997.848,33.691,36.621,35.645,32.715,43.457,0
213997.852,47.363,33.203,35.645,43.945,45.410,0
213997.854,39.062,33.691,38.086,38.574,33.691,0
213997.858,24.902,37.109,34.180,25.879,40.527,0
213997.862,26.367,34.180,34.180,28.809,42.969,0
213997.866,45.898,34.180,49.316,46.387,38.574,0
213997.870,48.340,36.621,47.363,44.434,26.855,0
213997.874,25.391,35.645,34.668,20.508,24.902,0
213997.877,22.461,34.668,36.133,16.113,39.062,0
213997.881,41.992,38.086,37.109,35.645,38.086,0
213997.885,47.852,36.133,34.180,41.016,23.438,0
213997.889,27.344,26.855,35.156,27.344,16.602,0
213997.893,18.066,28.320,32.715,22.949,30.273,0
213997.897,32.227,28.320,32.227,32.227,44.434,0
213997.899,41.016,26.367,38.574,41.504,42.480,0
213997.903,29.297,26.855,40.527,32.715,37.598,0
213997.907,13.184,24.902,39.551,15.625,26.855,0
213997.911,19.531,25.391,42.480,18.555,19.043,0
213997.915,38.086,26.855,39.062,34.180,18.555,0
213997.919,32.715,30.762,36.133,32.715,23.438,0
213997.923,20.020,35.645,37.598,22.461,20.020,0
213997.926,29.297,29.297,34.668,23.438,25.391,0
213997.930,47.852,24.414,33.203,32.715,39.062,0
213997.934,45.410,27.832,32.227,38.086,31.250,0
213997.938,26.855,32.227,31.250,28.320,32.227,0
213997.942,24.414,30.762,36.621,15.625,50.781,0
213997.944,42.969,28.320,41.016,27.344,57.129,0
213997.948,52.734,31.738,39.551,37.598,43.457,0
213997.952,31.738,31.738,39.062,20.020,34.180,0
213997.956,16.602,32.715,41.992,10.254,48.828,0
213997.960,30.762,35.156,40.527,23.926,60.059,0
213997.963,44.434,36.133,42.480,40.039,57.617,0
213997.967,29.297,32.227,47.363,36.133,45.898,0
213997.971,9.277,27.832,42.969,24.902,44.434,0
213997.975,17.090,26.855,40.527,27.344,47.363,0
213997.979,36.621,28.809,40.039,40.527,33.203,0
213997.983,26.855,29.297,29.785,37.598,27.832,0
213997.987,10.742,29.297,26.367,20.996,33.203,0
213997.989,14.648,30.762,32.715,13.672,34.668,0
213997.993,34.668,34.668,35.645,29.785,32.227,0
213997.997,37.109,34.180,36.133,37.109,14.648,0
213998.001,17.578,31.250,37.598,18.066,14.160,0
213998.005,21.484,36.133,39.062,12.207,37.598,0
213998.008,45.410,39.551,36.621,31.250,48.340,0
213998.012,49.805,31.738,31.250,42.969,58.594,0
213998.016,34.180,31.250,32.715,32.715,46.875,0
213998.020,28.320,34.180,38.086,21.484,32.227,0
213998.024,38.086,33.691,47.363,30.273,43.945,0
213998.028,53.223,35.645,47.363,45.410,43.457,0
213998.032,40.527,35.645,41.504,37.598,35.156,0
213998.035,20.020,39.551,39.551,19.043,37.109,0
213998.039,15.625,38.574,35.156,15.625,41.992,0
213998.043,28.809,31.738,41.992,26.855,42.480,0
213998.047,32.227,30.762,50.293,32.227,38.574,0
213998.051,7.324,29.297,39.062,17.578,28.809,0
213998.055,6.836,27.344,28.320,8.789,22.461,0
213998.059,26.855,26.855,31.738,23.926,25.391,0
213998.063,31.738,27.344,37.598,31.250,14.648,0
213998.066,16.113,26.855,40.527,17.578,6.836,0
213998.070,11.719,28.320,42.480,9.766,20.996,0
213998.074,32.715,28.320,38.574,18.066,35.156,0
213998.078,42.969,27.344,35.156,31.250,33.691,0
213998.079,27.344,28.320,33.691,28.809,25.879,0
213998.083,16.602,34.668,36.133,20.020,22.461,0
213998.087,27.344,37.109,37.598,20.508,20.020,0
213998.091,39.551,29.297,33.203,30.273,21.484,0
213998.095,24.414,20.996,30.273,30.273,13.184,0
213998.098,8.301,21.973,36.133,19.531,17.090,0
213998.102,16.602,27.344,41.016,21.484,28.320,0
213998.106,35.156,30.273,36.621,35.645,25.391,0
213998.110,35.156,30.762,32.715,36.133,11.719,0
213998.114,15.137,30.762,32.715,18.555,16.113,0
213998.118,13.672,32.227,31.738,12.695,33.203,0
213998.122,31.250,32.715,30.762,28.320,20.996,0
213998.125,37.598,35.156,33.691,35.156,12.207,0
213998.128,26.367,36.621,38.574,29.297,31.738,0
213998.132,20.996,33.691,41.016,23.438,42.480,0
213998.136,39.062,34.180,41.992,35.156,38.574,0
213998.140,47.852,31.250,29.785,49.316,26.855,0
213998.144,28.809,26.367,22.461,37.109,18.066,0
213998.148,17.090,28.809,30.762,22.949,23.438,0
213998.152,26.855,31.738,39.062,26.855,28.809,0
213998.156,39.062,30.762,38.086,36.133,24.414,0
213998.160,24.902,26.855,25.879,32.715,21.973,0
213998.164,11.230,25.879,26.855,22.949,35.645,0
213998.167,21.484,29.785,38.574,24.902,51.270,0
213998.171,42.969,33.691,41.504,43.457,51.758,0
213998.175,44.434,32.715,34.180,45.898,44.434,0
213998.179,20.996,28.320,36.133,29.785,39.551,0
213998.183,21.973,28.809,41.992,26.855,39.062,0
213998.187,39.551,30.273,37.109,37.109,38.086,0
213998.191,41.016,28.809,33.203,36.621,24.902,0
213998.194,25.391,30.762,26.367,22.949,25.391,0
213998.198,18.555,34.180,31.250,18.066,42.480,0
213998.202,32.227,34.668,36.133,27.344,41.992,0
213998.206,49.805,34.668,33.203,40.039,32.227,0
213998.210,37.598,36.133,30.762,35.156,22.949,0
213998.214,14.648,35.156,33.691,23.926,31.738,0
213998.229,19.531,33.691,43.457,31.738,39.062,0
213998.233,37.598,31.250,42.480,44.434,22.461,0
213998.237,33.691,31.250,30.273,36.621,22.461,0
213998.241,19.531,37.109,39.062,23.926,34.668,0
213998.245,24.414,35.645,47.852,22.461,38.086,0
213998.248,41.992,28.809,37.598,27.832,43.945,0
213998.252,43.457,31.738,33.691,29.785,38.574,0
213998.256,23.926,36.133,29.785,18.555,23.926,0
213998.260,20.508,37.109,30.762,18.066,34.668,0
213998.264,36.621,40.039,36.621,29.785,42.480,0
213998.268,47.363,39.062,31.250,39.062,29.297,0
213998.272,32.227,37.109,27.832,29.785,25.879,0
213998.274,19.043,35.645,35.156,15.137,38.086,0
213998.278,32.227,36.133,38.574,21.973,48.340,0
213998.282,45.898,38.086,38.086,38.574,50.293,0
213998.286,34.668,39.551,37.598,38.574,34.180,0
213998.290,20.996,39.551,31.738,25.391,32.227,0
213998.293,24.902,35.645,31.738,24.902,45.898,0
213998.297,37.109,35.156,38.086,40.527,39.062,0
213998.301,32.715,35.156,35.645,43.945,27.344,0
213998.305,16.113,35.156,30.273,29.297,39.062,0
213998.309,17.578,33.691,29.297,23.438,55.176,0
213998.313,40.039,29.297,40.039,38.086,46.875,0
213998.317,52.246,27.344,42.480,49.316,43.945,0
213998.319,34.668,26.855,36.621,35.156,45.898,0
213998.323,23.438,25.391,34.180,24.902,61.035,0
213998.327,38.574,30.273,31.250,37.109,62.012,0
213998.331,44.434,29.785,35.645,44.922,28.809,0
213998.335,22.949,23.438,34.180,26.855,24.902,0
213998.339,11.230,27.832,29.785,14.648,41.992,0
213998.343,29.297,33.203,35.645,26.855,46.387,0
213998.347,47.363,30.273,42.969,41.504,43.457,0
213998.351,36.621,27.344,34.668,34.668,40.039,0
213998.355,19.043,28.809,27.344,21.973,35.645,0
213998.358,22.949,32.715,31.250,25.879,36.133,0
213998.362,41.992,33.203,31.738,36.621,28.320,0
213998.364,34.668,30.762,31.250,37.598,17.578,0
213998.368,9.766,31.250,30.273,21.484,23.438,0
213998.372,12.695,32.715,31.738,14.648,44.922,0
213998.376,36.133,31.738,37.109,33.203,47.852,0
213998.380,41.016,31.250,37.109,42.480,34.180,0
213998.383,19.043,33.203,37.109,24.902,30.762,0
213998.387,9.277,28.809,33.691,11.719,21.484,0
213998.391,22.949,23.438,26.855,21.973,22.949,0
213998.395,35.645,25.391,31.250,31.250,25.879,0
213998.399,28.809,30.762,35.156,21.484,18.066,0
213998.403,10.742,28.320,24.902,1.953,22.949,0
213998.407,17.090,27.344,27.344,8.301,47.852,0
213998.410,40.527,33.203,43.945,32.715,53.223,0
213998.414,37.109,38.086,47.852,30.762,42.480,0
213998.418,15.625,33.691,36.133,14.160,36.133,0
213998.422,15.137,29.297,28.809,14.648,29.785,0
213998.426,32.227,31.738,31.250,27.344,23.438,0
213998.430,37.598,31.738,28.809,35.156,6.836,0
213998.434,22.949,33.203,23.438,23.926,7.812,0
213998.438,20.508,38.086,30.762,18.555,35.645,0
213998.441,42.480,37.598,37.598,31.250,46.387,0
213998.445,53.223,38.086,28.320,41.016,30.273,0
213998.449,34.180,39.062,26.367,31.250,23.926,0
213998.453,21.973,34.180,30.762,18.555,22.461,0
213998.454,32.715,32.715,33.691,25.391,21.484,0
213998.458,42.969,31.738,38.574,37.109,21.484,0
213998.462,25.879,25.879,29.785,27.832,17.090,0
213998.466,6.836,26.855,23.926,13.672,24.414,0
213998.470,20.508,30.273,28.809,24.414,42.969,0
213998.473,42.480,30.273,32.715,35.645,60.059,0
213998.477,41.504,35.156,30.762,34.180,60.059,0
213998.481,23.438,37.598,33.203,24.902,32.715,0
213998.485,18.555,33.691,37.598,17.578,15.625,0
213998.489,35.156,35.156,29.785,31.738,26.855,0
213998.493,37.598,36.133,19.043,37.109,28.809,0
213998.497,22.461,31.738,20.508,26.855,22.949,0
213998.499,22.461,31.738,26.855,22.461,26.855,0
213998.503,38.086,30.273,26.855,29.785,39.062,0
213998.507,44.922,26.367,25.879,35.645,36.133,0
213998.511,29.785,29.297,28.809,26.855,37.109,0
213998.515,20.508,33.203,32.227,16.602,35.645,0
213998.519,33.203,35.156,33.691,22.461,24.414,0
213998.523,42.480,35.645,28.320,32.227,25.391,0
213998.526,28.320,37.109,25.391,26.855,9.277,0
213998.530,12.207,36.133,24.414,13.672,13.184,0
213998.534,20.508,31.738,26.367,20.020,41.992,0
213998.538,39.062,27.344,23.438,38.574,45.898,0
213998.542,38.086,29.785,17.578,39.551,35.645,0
213998.544,18.066,31.738,24.414,27.344,32.227,0
213998.548,19.043,30.273,34.180,28.320,47.852,0
213998.552,37.109,32.227,30.762,37.598,43.945,0
213998.556,40.039,33.691,22.461,43.945,20.996,0
213998.559,21.973,36.621,29.297,32.227,30.762,0
213998.563,12.695,40.527,28.809,16.113,38.574,0
213998.567,29.297,39.062,28.809,20.508,37.598,0
213998.571,41.016,31.738,34.668,28.809,48.340,0
213998.575,31.738,29.297,34.668,20.508,50.293,0
213998.579,22.461,30.273,37.598,12.207,42.969,0
213998.583,33.691,30.273,37.598,21.484,41.016,0
213998.587,48.828,30.273,40.039,35.645,38.086,0
213998.604,35.645,30.762,33.203,29.785,33.203,0
213998.608,20.996,33.691,26.855,14.160,31.738,0
213998.612,27.344,31.738,30.273,15.137,30.273,0
213998.616,43.457,31.250,29.297,33.691,23.438,0
213998.619,42.480,38.086,24.414,37.598,17.090,0
213998.623,24.414,41.016,23.926,21.484,21.484,0
213998.627,17.578,34.180,29.785,16.602,27.832,0
213998.631,30.273,28.809,27.344,27.344,30.762,0
213998.635,41.992,34.668,20.508,40.039,33.691,0
213998.639,27.832,37.598,30.273,29.785,28.320,0
213998.643,15.137,32.227,41.016,14.648,35.645,0
213998.647,34.668,31.738,42.969,27.832,49.805,0
213998.649,51.270,33.203,31.738,43.457,55.664,0
213998.653,37.598,30.762,22.949,38.086,48.340,0
213998.657,25.391,33.203,30.273,23.438,43.945,0
213998.661,32.227,35.156,34.180,22.461,51.270,0
213998.665,45.898,32.227,28.320,33.691,30.273,0
213998.668,41.504,33.691,28.320,32.715,7.324,0
213998.672,19.531,34.180,32.715,22.461,10.254,0
213998.676,22.461,30.762,33.691,19.531,19.043,0
213998.680,50.293,33.203,29.785,35.156,28.320,0
213998.684,48.828,37.598,23.926,37.109,28.809,0
213998.688,25.391,38.574,21.484,19.531,30.762,0
213998.692,18.066,32.227,22.461,11.230,33.691,0
213998.694,30.273,27.344,25.879,21.484,26.855,0
213998.698,35.156,28.809,19.531,29.297,14.648,0
213998.702,18.555,31.250,14.160,19.531,12.207,0
213998.706,11.230,31.250,19.043,7.324,30.273,0
213998.710,25.391,31.250,31.250,20.996,47.363,0
213998.713,38.086,30.762,40.039,43.945,40.527,0
213998.717,32.227,28.320,35.156,38.086,20.996,0
213998.721,24.902,32.715,30.762,24.902,31.738,0
213998.725,34.180,37.598,27.832,29.297,51.758,0
213998.729,53.711,34.180,26.855,45.410,49.805,0
213998.733,51.270,33.203,29.785,46.387,30.273,0
213998.737,32.715,34.668,28.320,30.273,30.762,0
213998.739,34.668,35.156,29.297,27.832,57.129,0
213998.743,50.293,33.691,33.203,37.109,60.059,0
213998.747,42.969,30.762,29.785,33.203,53.223,0
213998.751,21.484,31.738,24.902,20.020,47.363,0
213998.755,14.160,34.180,22.461,16.113,38.086,0
213998.758,27.344,38.086,31.738,27.832,27.344,0
213998.762,37.598,35.645,35.156,35.645,6.836,0
213998.766,22.949,31.738,31.250,25.879,0.977,0
213998.770,11.230,27.832,33.691,13.184,15.625,0
213998.774,22.949,27.832,36.133,21.973,29.297,0
213998.778,41.504,30.762,39.551,37.598,37.109,0
213998.782,30.273,31.250,40.527,33.691,44.434,0
213998.784,10.254,30.762,35.645,18.555,40.039,0
213998.788,21.484,31.250,30.273,24.902,40.039,0
213998.792,44.922,33.691,35.645,48.828,43.457,0
213998.796,41.016,33.203,44.434,43.945,37.598,0
213998.799,18.066,35.645,37.598,22.949,36.133,0
213998.803,18.555,34.668,34.668,19.043,49.805,0
213998.807,38.574,29.297,35.645,33.203,58.105,0
213998.811,45.410,28.320,35.156,42.480,43.457,0
213998.815,27.832,28.809,40.527,29.297,33.691,0
213998.819,17.578,29.785,39.551,17.090,45.410,0
213998.823,29.785,28.809,30.273,28.809,53.711,0
213998.827,42.969,30.762,28.809,43.457,33.691,0
213998.829,33.203,33.691,36.621,35.645,16.602,0
213998.833,23.926,37.598,40.039,24.902,26.855,0
213998.837,36.621,40.527,42.480,31.250,42.969,0
213998.841,51.270,36.133,44.434,47.852,40.039,0
213998.844,43.457,30.762,32.227,46.875,41.016,0
213998.848,25.391,31.738,31.250,29.785,51.758,0
213998.852,27.344,32.715,38.086,26.367,47.363,0
213998.856,44.434,32.227,36.133,39.551,31.738,0
213998.860,43.945,35.645,34.180,41.504,22.461,0
213998.864,29.785,36.621,29.785,33.691,33.203,0
213998.868,26.367,35.645,26.855,29.785,38.574,0
213998.872,41.992,40.527,26.367,37.598,28.809,0
213998.875,51.270,43.945,29.297,42.480,29.785,0
213998.879,32.227,39.551,32.227,28.809,35.156,0
213998.883,20.508,38.574,37.109,17.578,40.039,0
213998.887,31.738,38.086,35.645,23.438,32.227,0
213998.891,44.922,35.645,29.785,40.527,19.531,0
213998.895,37.109,37.109,31.738,39.551,17.578,0
213998.899,15.137,33.691,29.785,17.578,20.996,0
213998.902,19.531,28.809,31.250,17.578,24.414,0
213998.906,43.945,30.762,32.715,38.086,37.109,0
213998.910,41.992,35.645,32.227,38.086,45.410,0
213998.914,24.414,38.086,33.203,24.414,37.109,0
213998.918,33.203,40.039,37.598,25.391,41.016,0
213998.919,51.270,37.109,40.527,42.969,40.039,0
213998.923,53.711,33.691,37.109,53.223,32.715,0
213998.927,38.086,33.203,31.250,43.945,36.621,0
213998.931,33.691,34.180,32.227,37.598,50.781,0
213998.935,52.734,36.133,35.156,46.875,65.918,0
213998.939,56.152,38.574,33.691,55.664,61.035,0
213998.943,35.645,41.016,32.715,48.340,38.574,0
213998.947,17.578,34.668,31.738,34.668,26.855,0
213998.951,27.832,30.273,38.574,40.039,21.973,0
213998.954,44.922,32.227,47.852,45.898,8.789,0
213998.958,31.738,33.203,45.410,36.133,0.000,0
213998.962,17.578,34.180,40.527,24.902,18.066,0
213998.979,26.367,37.109,35.645,25.879,41.504,0
213998.983,45.410,38.086,34.180,41.016,26.855,0
213998.987,42.969,36.133,35.645,41.992,4.395,0
213998.991,30.762,41.504,39.551,33.203,18.555,0
213998.995,31.250,42.969,35.645,28.809,37.109,0
213998.999,41.992,34.180,30.273,30.273,34.180,0
213999.003,41.992,29.785,28.809,33.203,27.344,0
213999.007,23.926,31.250,25.391,24.902,25.879,0
213999.011,17.578,36.133,27.344,18.555,31.738,0
213999.015,35.645,35.645,30.273,33.203,49.316,0
213999.018,47.852,32.715,32.227,45.898,43.945,0
213999.022,33.203,34.668,28.320,39.551,26.855,0
213999.024,23.926,37.109,21.973,28.809,33.203,0
213999.028,28.809,31.250,30.762,30.762,41.016,0
213999.032,37.598,25.391,41.504,38.574,15.625,0
213999.036,28.809,29.297,36.621,31.250,-0.488,0
213999.040,7.324,30.273,34.180,9.766,16.113,0
213999.043,13.184,28.320,38.574,10.742,26.855,0
213999.047,41.504,30.273,41.992,31.738,29.785,0
213999.051,44.434,32.715,43.457,34.668,27.344,0
213999.055,27.344,37.598,40.527,22.461,37.598,0
213999.059,24.902,39.062,36.133,18.066,51.758,0
213999.063,34.668,32.227,32.227,26.855,37.109,0
213999.067,40.039,33.691,31.738,32.227,20.508,0
213999.069,33.203,37.598,29.785,28.320,30.762,0
213999.073,27.832,33.691,27.832,20.508,48.828,0
213999.077,38.574,31.250,31.250,31.250,51.758,0
213999.081,47.363,34.668,39.551,42.480,33.203,0
213999.085,28.320,39.062,37.598,28.809,17.578,0
213999.089,11.719,37.109,28.809,13.672,28.320,0
213999.093,21.484,31.738,31.250,17.090,46.875,0
213999.097,34.180,28.809,33.203,27.344,26.855,0
213999.101,25.391,29.785,30.273,26.855,7.324,0
213999.105,11.719,32.715,32.227,14.648,26.367,0
213999.109,18.555,32.715,36.133,16.113,39.062,0
213999.112,38.574,32.227,41.992,34.668,37.598,0
213999.114,41.992,35.645,42.480,37.109,41.992,0
213999.118,20.020,36.133,36.621,20.996,47.363,0
213999.122,17.090,34.180,33.203,16.113,46.875,0
213999.126,40.039,30.762,32.227,19.531,34.180,0
213999.130,48.828,28.320,32.227,27.344,27.344,0
213999.133,31.250,32.715,32.715,26.855,35.645,0
213999.137,21.973,35.156,32.715,18.555,46.875,0
213999.141,38.574,33.203,35.645,27.832,53.711,0
213999.145,50.781,28.809,40.039,43.945,55.176,0
213999.149,37.598,30.762,44.434,38.574,48.340,0
213999.153,26.367,38.086,47.363,26.367,49.316,0
213999.157,35.156,36.133,39.551,27.832,41.504,0
213999.159,46.875,33.691,27.832,35.156,22.949,0
213999.163,36.621,35.645,28.320,28.320,19.043,0
213999.167,15.625,33.691,35.156,16.113,18.555,0
213999.171,17.090,30.762,36.621,17.090,27.344,0
213999.175,36.133,29.785,33.203,26.367,62.500,0
213999.178,37.109,28.320,34.668,33.691,41.992,0
213999.182,17.090,32.227,38.086,23.438,-5.371,0
213999.186,20.020,38.086,30.762,16.602,12.695,0
213999.190,42.969,38.574,29.297,34.180,28.320,0
213999.194,50.293,38.574,29.785,43.457,19.043,0
213999.198,34.180,41.016,28.320,31.250,35.645,0
213999.202,22.461,40.039,30.273,22.949,57.617,0
213999.204,35.156,39.062,30.762,32.227,48.340,0
213999.208,51.270,37.598,34.668,47.363,51.758,0
213999.212,41.504,35.645,33.691,41.504,49.805,0
213999.216,25.391,37.598,31.250,23.926,38.086,0
213999.220,33.691,38.574,33.203,25.879,49.805,0
213999.223,52.246,37.598,31.738,41.016,36.133,0
213999.227,43.457,35.156,20.020,36.621,0.000,0
213999.231,23.438,36.621,21.973,17.578,11.719,0
213999.235,27.832,34.668,35.156,21.973,31.250,0
213999.239,47.363,29.785,41.016,43.457,38.086,0
213999.243,47.363,30.273,44.922,47.852,37.598,0
213999.247,24.414,32.715,39.551,30.762,42.969,0
213999.249,19.531,35.645,39.551,24.414,50.781,0
213999.253,39.062,37.598,44.922,34.668,47.852,0
213999.257,49.805,37.598,38.574,43.457,45.410,0
213999.261,38.086,39.551,33.691,40.039,45.898,0
213999.265,29.785,42.969,33.691,29.785,56.641,0
213999.269,45.410,41.992,31.738,39.551,60.547,0
213999.272,57.617,34.668,33.691,56.152,43.457,0
213999.276,40.527,28.809,35.156,46.387,36.133,0
213999.280,22.461,29.297,34.668,30.273,35.645,0
213999.284,29.297,31.250,40.039,31.250,31.738,0
213999.288,49.805,34.180,47.852,51.270,33.203,0
213999.292,43.457,36.133,47.363,53.711,20.508,0
213999.309,18.066,37.109,32.715,29.297,12.695,0
213999.313,16.113,36.133,20.996,18.066,15.137,0
213999.317,33.691,32.227,30.273,32.715,20.508,0
213999.321,40.039,33.691,41.016,42.969,22.949,0
213999.325,23.926,36.133,42.969,26.367,22.949,0
213999.328,17.090,36.621,42.969,14.648,41.016,0
213999.332,30.762,35.645,43.945,27.344,39.062,0
213999.336,38.574,35.645,41.504,36.621,15.137,0
213999.340,28.320,39.062,35.645,29.297,9.766,0
213999.344,22.949,41.016,35.156,23.926,24.902,0
213999.348,31.250,40.527,33.203,26.367,40.039,0
213999.352,43.945,39.062,31.250,35.645,42.969,0
213999.354,38.574,39.062,33.203,33.691,43.457,0
213999.358,20.996,42.969,33.691,18.066,38.086,0
213999.362,19.043,39.551,39.551,17.578,41.016,0
213999.366,33.203,36.133,39.551,28.809,50.293,0
213999.370,32.227,37.109,34.668,30.273,30.273,0
213999.373,14.648,36.621,30.762,20.020,16.602,0
213999.377,18.555,41.016,29.297,16.113,33.203,0
213999.381,41.992,45.898,28.809,33.203,42.969,0
213999.385,49.805,38.574,31.738,43.945,33.691,0
213999.389,26.855,30.762,33.203,28.320,22.461,0
213999.393,17.090,33.203,30.273,16.113,17.578,0
213999.397,27.832,28.809,28.809,20.996,7.812,0
213999.400,36.621,26.855,27.832,29.785,7.812,0
213999.404,28.320,35.645,30.762,21.484,9.766,0
213999.408,14.160,38.574,33.691,5.371,10.742,0
213999.412,17.578,37.109,32.715,7.812,25.391,0
213999.416,30.762,35.156,33.691,22.461,33.691,0
213999.420,22.461,28.320,27.832,23.926,25.879,0
213999.424,8.789,28.320,28.320,16.602,24.902,0
213999.427,15.625,32.715,38.086,19.043,17.578,0
213999.431,36.621,33.691,36.133,28.809,9.277,0
213999.435,41.992,32.715,32.227,33.203,18.066,0
213999.439,24.902,33.691,31.738,23.438,26.367,0
213999.443,20.996,39.062,31.250,20.020,32.227,0
213999.444,41.016,35.645,36.133,38.574,39.551,0
213999.448,54.199,34.668,35.645,49.805,48.828,0
213999.452,36.133,36.621,36.133,35.645,53.223,0
213999.456,21.484,35.156,38.574,20.996,53.223,0
213999.460,37.109,34.668,37.109,30.762,56.641,0
213999.463,41.992,32.227,39.551,44.922,37.598,0
213999.467,21.973,31.250,40.039,35.156,7.812,0
213999.471,9.766,33.691,26.367,17.578,6.348,0
213999.475,21.484,33.691,21.973,22.461,22.949,0
213999.479,37.598,29.297,31.738,36.621,32.227,0
213999.483,34.180,33.203,31.250,38.086,15.137,0
213999.487,18.555,37.598,33.691,24.902,7.324,0
213999.489,16.113,33.691,36.621,18.066,21.973,0
213999.493,33.691,31.250,36.133,28.320,24.902,0
213999.497,38.574,33.691,36.621,35.156,15.137,0
213999.501,18.555,38.086,36.133,24.414,12.695,0
213999.505,14.160,40.527,39.062,17.090,28.320,0
213999.509,29.297,34.668,33.203,23.926,38.086,0
213999.512,31.250,30.762,29.297,27.832,30.273,0
213999.516,13.672,31.250,29.297,20.020,17.578,0
213999.520,4.395,33.691,26.367,13.184,26.855,0
213999.524,19.531,35.645,31.250,22.461,38.574,0
213999.528,39.551,35.156,41.016,37.109,26.367,0
213999.532,36.133,37.109,42.969,33.691,16.602,0
213999.534,20.508,38.574,32.715,20.508,36.133,0
213999.538,25.391,39.551,32.227,24.414,52.734,0
213999.542,44.434,41.016,37.109,39.062,42.969,0
213999.546,37.109,39.062,34.668,36.621,41.016,0
213999.550,14.648,35.645,37.109,21.973,35.645,0
213999.553,16.602,34.180,41.016,20.020,39.062,0
213999.557,38.086,33.691,44.922,33.203,41.504,0
213999.561,46.875,35.156,45.898,38.086,30.762,0
213999.565,23.926,32.227,40.527,22.461,33.203,0
213999.569,9.277,31.250,34.180,9.277,57.129,0
213999.573,28.809,34.180,26.855,21.484,61.035,0
213999.577,43.457,35.645,23.926,34.668,43.945,0
213999.579,25.391,38.574,26.855,20.996,37.598,0
213999.583,12.695,41.016,27.344,2.930,30.273,0
213999.587,29.297,36.621,27.832,8.301,27.832,0
213999.591,47.363,31.738,29.297,24.414,23.926,0
213999.595,36.621,32.227,28.320,18.555,17.578,0
213999.599,20.996,36.621,26.855,10.742,25.391,0
213999.602,26.855,34.668,21.973,18.555,40.039,0
213999.606,45.410,32.715,24.902,27.832,48.340,0
213999.610,41.992,34.668,27.832,32.227,43.457,0
213999.614,24.414,34.180,26.855,23.438,33.691,0
213999.618,20.020,37.109,29.297,16.602,31.250,0
213999.622,36.621,39.062,34.180,31.738,28.809,0
213999.625,43.457,34.180,41.016,41.992,24.902,0
213999.629,22.461,27.832,36.133,28.320,15.137,0
213999.633,14.648,31.250,34.668,17.578,18.555,0
213999.637,30.273,35.156,40.039,23.926,38.574,0
213999.641,42.480,33.203,34.668,34.180,43.457,0
213999.645,31.250,33.691,25.391,29.785,31.250,0
213999.649,18.555,40.039,27.344,16.113,32.227,0
213999.653,27.344,40.527,34.668,17.578,43.945,0
213999.657,45.898,34.180,37.598,33.203,32.227,0
213999.660,46.387,36.621,36.621,40.039,18.066,0
213999.664,36.133,40.039,36.133,25.879,27.832,0
213999.668,37.109,35.645,38.574,18.555,43.457,0
213999.669,51.758,34.180,39.062,35.156,51.270,0
213999.673,52.246,37.598,34.668,44.922,52.734,0
213999.677,32.227,38.086,28.809,35.156,40.527,0
213999.681,25.879,39.062,31.738,25.391,38.086,0
213999.685,40.527,41.504,39.062,39.551,58.105,0
213999.689,46.387,38.086,33.203,47.852,53.223,0
213999.692,27.344,33.691,28.809,35.156,36.133,0
213999.696,12.207,31.738,37.598,29.297,32.227,0
213999.700,22.949,29.785,35.645,36.133,33.691,0
213999.704,36.621,27.832,31.738,41.992,31.250,0
213999.708,20.508,26.367,30.762,34.180,20.508,0
213999.712,7.812,29.785,25.391,21.973,23.926,0
213999.729,26.367,33.691,27.344,21.484,31.738,0
213999.733,51.758,33.203,35.645,35.156,30.762,0
213999.737,53.711,34.180,38.574,41.992,29.297,0
213999.741,39.062,38.086,33.691,27.344,40.039,0
213999.745,41.992,40.039,29.785,22.461,61.523,0
213999.748,59.082,35.645,27.344,38.574,68.359,0
213999.752,55.664,31.250,27.344,38.086,64.453,0
213999.756,32.715,32.227,32.227,22.949,50.293,0
213999.760,22.949,32.227,29.297,13.184,32.227,0
213999.764,33.691,30.273,30.273,20.020,39.062,0
213999.768,40.039,30.273,32.227,30.762,20.996,0
213999.772,26.367,31.738,29.297,24.902,11.230,0
213999.774,16.113,32.715,41.504,20.508,29.785,0
213999.778,26.855,37.598,52.734,33.203,29.785,0
213999.782,41.504,38.574,42.969,40.039,32.715,0
213999.786,35.156,32.715,37.109,37.598,30.762,0
213999.790,13.184,27.344,38.086,23.438,19.043,0
213999.794,11.719,26.367,37.109,15.625,14.160,0
213999.797,33.691,29.785,37.598,27.832,10.254,0
213999.801,35.645,31.250,35.156,28.809,8.301,0
213999.805,18.555,32.715,33.691,14.160,14.648,0
213999.809,22.949,36.133,32.227,14.160,30.762,0
213999.813,44.922,38.086,28.809,32.227,38.086,0
213999.817,55.176,37.598,28.320,41.016,30.762,0
213999.819,34.180,36.621,22.461,27.344,27.344,0
213999.823,23.438,36.621,28.809,25.391,31.738,0
213999.827,41.504,36.621,40.039,41.992,39.551,0
213999.831,44.922,36.621,31.738,48.828,38.574,0
213999.835,23.926,37.109,30.273,40.527,36.133,0
213999.839,13.184,35.645,41.016,34.180,46.387,0
213999.843,23.438,32.715,39.062,36.621,44.922,0
213999.847,36.621,32.227,31.738,44.434,40.527,0
213999.850,33.203,35.645,31.738,40.039,39.062,0
213999.854,12.695,37.598,37.109,18.066,35.645,0
213999.858,15.137,36.621,40.527,15.137,41.016,0
213999.862,38.086,35.156,36.621,30.762,36.133,0
213999.866,41.016,33.691,30.273,28.320,14.160,0
213999.870,25.391,32.715,28.320,12.695,19.531,0
213999.874,26.367,35.156,26.855,10.254,35.156,0
213999.878,48.340,37.109,26.855,25.391,29.785,0
213999.881,54.688,40.039,30.273,31.738,13.672,0
213999.885,39.551,48.340,35.645,21.484,14.160,0
213999.889,30.273,48.340,39.062,14.160,25.879,0
213999.893,36.621,40.527,36.133,23.926,36.133,0
213999.897,44.434,37.109,33.691,37.598,41.992,0
213999.901,24.902,35.645,30.273,29.297,39.062,0
213999.905,0.977,33.691,28.320,17.090,34.180,0
213999.909,4.395,34.180,30.762,22.949,37.598,0
213999.909,22.949,35.645,32.227,40.039,29.297,0
213999.913,21.484,37.598,37.598,43.945,16.602,0
213999.917,4.883,33.691,43.457,29.297,19.043,0
213999.921,4.395,27.832,41.992,25.391,20.508,0
213999.925,23.438,25.391,31.250,33.203,11.719,0
213999.929,33.203,27.832,28.320,34.180,22.949,0
213999.933,18.066,30.273,35.156,20.020,30.762,0
213999.937,8.789,26.855,34.180,5.859,12.207,0
213999.940,24.902,29.785,35.645,13.184,20.020,0
213999.944,35.645,35.645,38.574,21.973,22.461,0
213999.948,20.020,38.086,32.227,12.207,0.000,0
213999.952,7.324,35.156,26.367,0.488,1.465,0
213999.954,17.090,29.297,33.691,9.277,16.113,0
213999.958,33.203,29.297,41.992,26.367,18.066,0
213999.962,17.578,28.320,27.344,20.508,11.230,0
213999.966,-5.371,23.438,18.066,2.930,17.090,0
213999.970,2.441,26.367,29.297,8.301,30.762,0
213999.974,29.297,33.691,34.668,32.715,37.109,0
213999.978,34.180,32.715,33.203,39.551,38.086,0
213999.981,10.742,27.344,31.738,24.902,32.227,0
213999.985,11.719,29.785,33.691,18.555,32.227,0
213999.989,35.156,29.785,32.715,27.832,31.250,0
213999.993,40.527,32.715,32.715,36.621,31.738,0
213999.997,24.902,39.062,34.180,27.344,35.156,0
213999.999,18.555,38.574,32.715,16.113,43.457,0
214000.003,33.203,32.715,36.133,24.414,53.223,0
214000.006,48.828,35.156,37.109,39.062,43.457,0
214000.010,35.156,40.039,25.879,28.320,31.738,0
214000.014,18.555,39.062,25.879,11.230,34.180,0
214000.018,30.273,35.156,33.691,20.020,41.016,0
214000.022,40.527,33.691,33.691,34.180,40.527,0
214000.026,29.297,34.668,36.621,33.691,40.039,0
214000.030,17.090,36.133,36.133,26.855,36.133,0
214000.034,20.508,36.133,36.621,30.762,32.227,0
214000.038,35.645,34.180,39.062,39.551,35.156,0
214000.042,37.109,37.109,40.527,36.621,17.578,0
214000.059,22.461,37.109,41.504,23.926,5.859,0
214000.063,20.508,31.250,40.527,19.531,23.438,0
214000.067,37.109,30.273,40.527,32.227,37.598,0
214000.071,41.504,30.762,34.668,37.109,27.344,0
214000.075,23.438,30.273,30.273,21.973,22.461,0
214000.078,16.113,30.273,32.715,11.719,37.598,0
214000.082,32.227,31.738,37.109,21.973,45.898,0
214000.086,38.574,33.691,36.621,30.762,33.203,0
214000.090,22.949,35.645,33.691,18.555,21.973,0
214000.094,10.742,35.645,32.715,1.953,26.367,0
214000.098,17.578,30.762,32.227,1.953,20.996,0
214000.102,29.297,27.832,30.762,17.090,10.742,0
214000.104,21.973,31.738,25.879,20.020,13.184,0
214000.108,9.277,34.668,26.855,14.160,16.602,0
214000.112,13.672,30.762,33.203,15.137,27.344,0
214000.116,34.668,32.227,41.504,32.227,38.086,0
214000.120,38.574,37.598,44.434,39.551,23.438,0
214000.124,15.625,34.180,37.598,19.531,13.672,0
214000.127,9.766,30.762,33.691,6.836,20.508,0
214000.131,26.367,31.738,33.203,18.066,24.902,0
214000.135,40.527,33.691,29.785,30.273,18.066,0
214000.139,32.715,33.691,28.809,24.902,13.672,0
214000.143,19.043,36.133,27.832,12.695,26.367,0
214000.147,31.250,38.574,30.762,21.484,41.504,0
214000.149,43.945,34.180,39.062,38.086,27.344,0
214000.153,27.344,33.691,42.969,30.273,-2.930,0
214000.157,8.789,37.109,40.527,15.625,5.859,0
214000.161,17.090,31.250,33.203,16.113,24.414,0
214000.165,37.109,25.391,31.738,26.855,29.297,0
214000.169,31.250,28.320,34.180,26.367,23.438,0
214000.172,10.742,28.809,39.551,12.207,28.809,0
214000.176,18.555,29.785,39.551,14.648,44.434,0
214000.180,45.898,37.598,30.273,33.691,31.738,0
214000.184,45.898,41.016,27.832,37.109,10.254,0
214000.188,25.391,39.062,36.133,22.461,11.230,0
214000.192,23.438,35.156,39.551,20.020,30.273,0
214000.194,36.133,31.250,35.645,28.809,38.574,0
214000.198,41.504,29.297,34.668,31.250,34.668,0
214000.202,26.855,32.715,35.645,21.973,30.762,0
214000.206,15.137,36.621,37.598,16.113,41.016,0
214000.210,24.414,33.691,36.133,26.367,58.594,0
214000.213,37.109,35.156,32.715,38.086,50.293,0
214000.217,28.809,38.086,27.344,28.809,15.137,0
214000.221,11.230,34.180,22.461,10.254,1.465,0
214000.225,19.531,33.691,27.832,8.789,18.066,0
214000.229,38.574,34.668,39.062,21.484,24.414,0
214000.233,35.645,36.621,40.039,26.367,20.020,0
214000.237,14.648,35.645,33.691,9.277,19.043,0
214000.239,9.277,30.762,35.156,0.977,20.996,0
214000.243,30.762,30.762,39.551,17.578,32.715,0
214000.247,37.109,33.203,38.086,27.832,27.344,0
214000.251,19.531,32.227,39.062,15.625,14.648,0
214000.255,13.672,35.645,42.969,7.812,27.344,0
214000.259,28.320,38.574,39.062,14.648,38.574,0
214000.263,41.016,34.668,39.062,27.344,19.531,0
214000.266,27.344,32.227,41.504,25.391,13.184,0
214000.270,14.648,28.809,38.574,17.090,33.203,0
214000.274,24.902,23.926,39.551,24.414,39.062,0
214000.278,39.062,23.438,41.016,37.598,25.879,0
214000.282,34.668,26.367,41.504,39.062,25.879,0
214000.285,18.066,26.855,42.480,29.785,35.156,0
214000.289,23.438,31.250,44.434,27.344,35.645,0
214000.293,44.922,32.227,42.969,39.551,47.363,0
214000.297,42.969,30.273,38.086,44.922,40.039,0
214000.300,19.043,30.762,34.668,28.809,15.137,0
214000.304,15.625,30.273,41.016,23.926,30.273,0
214000.308,35.645,30.762,39.551,41.992,41.504,0
214000.312,39.551,30.762,33.691,44.434,25.879,0
214000.316,19.043,29.785,39.551,22.461,17.578,0
214000.320,13.672,30.762,49.805,13.184,25.879,0
214000.324,35.645,34.668,47.852,28.809,36.621,0
214000.328,47.363,33.691,39.551,38.086,27.832,0
214000.330,30.762,30.762,30.762,27.832,20.996,0
214000.334,16.602,29.785,21.973,16.602,28.320,0
214000.338,23.438,28.809,27.832,21.973,38.574,0
214000.342,35.156,24.414,39.062,36.133,32.715,0
214000.346,28.809,27.832,43.945,38.574,19.043,0
214000.350,17.090,36.133,40.527,27.832,25.879,0
214000.354,21.484,36.133,33.203,24.902,34.180,0
214000.358,38.086,27.832,27.832,36.133,31.738,0
214000.362,40.039,26.367,26.367,40.039,27.344,0
214000.366,27.344,33.203,26.367,28.809,29.785,0
214000.369,24.414,33.691,21.484,19.531,41.504,0
214000.373,40.527,31.738,26.367,33.691,59.082,0
214000.374,52.734,34.180,39.551,48.340,58.105,0
214000.378,34.180,32.715,35.645,34.180,39.551,0
214000.382,18.555,28.809,24.414,15.137,44.434,0
214000.386,31.250,35.645,28.320,23.926,41.016,0
214000.390,43.457,36.133,32.227,38.574,31.250,0
214000.393,32.227,33.203,29.785,33.203,31.738,0
214000.397,19.043,36.133,27.832,22.949,40.039,0
214000.401,25.879,33.203,30.762,24.902,53.223,0
214000.405,39.551,32.715,41.992,40.039,49.316,0
214000.409,38.086,35.645,44.434,41.016,31.250,0
214000.413,16.602,32.715,41.504,19.531,21.484,0
214000.417,10.254,31.250,41.016,12.207,21.484,0
214000.419,29.785,33.691,38.086,28.320,22.949,0
214000.423,33.691,34.668,32.715,33.203,12.695,0
214000.427,14.648,33.691,32.715,20.508,7.812,0
214000.431,12.207,31.250,37.598,15.625,25.879,0
214000.435,30.273,33.691,40.039,24.902,36.621,0
214000.438,34.668,33.203,41.992,29.785,20.508,0
214000.442,19.043,32.227,41.504,20.508,19.531,0
214000.446,11.719,36.133,39.062,8.789,29.785,0
214000.450,25.391,35.645,35.645,18.555,35.156,0
214000.454,40.527,34.180,33.203,32.227,36.133,0
214000.458,30.273,37.598,29.785,24.414,32.227,0
214000.462,10.742,36.621,32.227,14.160,40.527,0
214000.479,12.695,29.297,41.016,15.137,44.434,0
214000.483,29.297,27.344,38.574,27.344,30.762,0
214000.487,27.344,25.391,25.391,25.879,11.230,0
214000.491,6.836,27.832,21.484,8.301,3.906,0
214000.495,8.301,32.227,32.227,11.230,18.555,0
214000.498,35.156,34.668,39.551,32.227,39.551,0
214000.502,45.410,37.598,42.969,41.992,51.270,0
214000.506,29.785,41.504,37.598,33.691,41.992,0
214000.510,23.926,40.039,30.762,26.367,41.016,0
214000.514,36.133,34.668,34.180,30.762,46.387,0
214000.518,42.480,32.715,34.180,33.691,37.598,0
214000.522,29.785,33.691,33.691,25.391,35.645,0
214000.524,14.648,34.668,35.645,10.254,22.949,0
214000.528,22.949,34.668,39.062,14.648,23.926,0
214000.532,40.039,34.668,36.133,29.297,38.086,0
214000.536,33.691,38.574,33.691,21.973,19.531,0
214000.540,20.508,43.457,35.645,12.207,21.973,0
214000.543,20.020,37.598,33.691,12.207,40.039,0
214000.547,32.227,31.250,31.738,22.949,37.598,0
214000.551,34.180,33.691,38.574,32.227,28.320,0
214000.555,18.066,35.156,37.598,21.484,18.066,0
214000.559,15.625,33.691,32.227,14.160,29.297,0
214000.563,29.785,31.250,34.180,27.832,45.410,0
214000.567,38.086,28.320,37.109,41.992,29.297,0
214000.569,36.133,29.785,31.250,41.016,28.320,0
214000.573,21.484,34.180,26.855,16.602,29.785,0
214000.577,25.391,41.504,27.832,7.324,30.273,0
214000.580,46.387,46.875,29.297,23.438,39.551,0
214000.584,32.715,47.363,31.738,19.531,33.691,0
214000.588,9.277,40.039,28.320,2.441,16.602,0
214000.592,12.695,30.273,25.879,7.812,-7.324,0
214000.596,28.809,30.273,28.320,23.438,-3.418,0
214000.600,23.926,32.715,23.438,19.043,17.578,0
214000.604,5.859,33.203,26.855,8.789,21.973,0
214000.608,9.277,35.645,36.621,7.324,18.555,0
214000.612,26.367,33.691,32.227,13.672,20.020,0
214000.615,23.926,31.250,27.832,16.602,13.672,0
214000.619,5.371,34.668,24.902,8.789,8.301,0
214000.623,8.789,38.086,27.832,8.301,17.090,0
214000.627,30.273,38.086,30.762,18.066,32.227,0
214000.631,36.621,32.715,26.367,25.391,36.621,0
214000.635,18.066,33.691,28.320,15.137,30.273,0
214000.639,9.766,38.574,33.691,5.859,25.391,0
214000.642,29.297,40.039,31.250,19.531,40.527,0
214000.646,41.504,35.645,27.344,29.297,47.363,0
214000.650,28.809,33.691,25.879,21.973,41.016,0
214000.654,19.043,35.156,30.762,16.113,51.758,0
214000.658,28.809,33.203,33.691,18.555,46.875,0
214000.659,44.922,35.645,32.227,33.691,26.855,0
214000.663,40.039,39.551,33.691,37.109,27.344,0
214000.667,18.066,36.621,35.645,17.090,16.602,0
214000.671,24.414,36.133,43.457,13.184,14.160,0
214000.674,41.504,33.691,43.945,24.414,17.578,0
214000.678,37.109,36.621,35.156,25.879,6.836,0
214000.682,20.020,37.109,33.203,14.648,7.812,0
214000.686,16.602,29.297,32.227,10.254,12.695,0
214000.690,33.203,27.344,31.250,23.438,27.344,0
214000.694,45.898,32.715,27.832,30.762,33.203,0
214000.698,37.109,37.109,30.762,20.508,19.531,0
214000.702,30.273,41.992,32.715,10.254,21.484,0
214000.705,41.992,43.457,32.715,18.066,34.180,0
214000.709,53.223,39.062,34.668,30.762,39.551,0
214000.713,37.109,36.621,24.902,25.879,27.832,0
214000.716,24.902,38.574,24.902,20.996,32.227,0
214000.720,30.273,40.039,30.762,24.414,42.480,0
214000.724,39.551,34.668,29.297,32.227,43.945,0
214000.728,39.062,30.762,30.762,33.691,39.551,0
214000.732,18.066,33.203,35.156,18.066,40.527,0
214000.736,13.184,33.203,34.180,12.207,44.434,0
214000.740,35.645,32.227,31.250,29.785,42.480,0
214000.744,40.039,34.180,33.691,39.062,49.805,0
214000.748,25.391,32.715,33.691,27.832,53.711,0
214000.749,20.020,27.344,28.809,21.484,35.156,0
214000.753,39.551,31.250,31.250,35.645,33.691,0
214000.757,53.223,40.039,37.109,46.875,41.992,0
214000.761,32.715,34.668,32.715,31.738,31.738,0
214000.764,18.066,29.297,30.273,17.090,36.621,0
214000.768,28.320,31.250,32.227,23.438,56.641,0
214000.772,42.969,33.691,33.691,34.180,41.504,0
214000.776,35.156,37.598,32.227,25.391,16.113,0
214000.780,19.043,39.551,34.668,12.695,10.742,0
214000.784,23.926,36.133,37.109,14.160,20.020,0
214000.788,42.480,34.180,37.109,28.320,37.109,0
214000.792,42.480,34.180,34.180,38.574,40.039,0
214000.794,23.438,37.109,30.273,28.809,40.527,0
214000.798,23.438,39.062,26.367,23.926,56.641,0
214000.802,38.086,33.691,32.227,34.180,58.594,0
214000.806,32.227,27.832,35.645,27.832,29.785,0
214000.810,15.625,30.762,40.039,15.137,18.555,0
214000.814,13.672,34.180,40.039,8.789,27.344,0
214000.818,21.973,31.738,35.156,10.742,38.574,0
214000.822,34.180,33.203,39.062,18.066,37.109,0
214000.826,30.273,37.598,35.156,12.695,30.762,0
214000.830,15.137,37.598,23.438,4.883,39.551,0
214000.834,20.020,31.738,21.484,12.207,48.828,0
214000.837,36.621,32.227,36.133,32.227,50.781,0
214000.841,29.297,33.691,41.016,28.809,26.367,0
214000.845,6.836,30.762,35.645,7.812,7.812,0
214000.849,13.672,30.762,32.715,9.766,14.160,0
214000.853,31.250,29.297,30.273,22.461,12.207,0
214000.857,28.809,29.297,32.227,29.297,12.695,0
214000.861,9.766,34.180,32.227,17.578,16.602,0
214000.864,8.301,34.668,34.180,9.277,21.973,0
214000.868,32.227,30.762,38.574,24.902,40.527,0
214000.872,40.527,31.250,35.645,36.133,44.434,0
214000.876,26.855,32.715,33.691,29.297,27.832,0
214000.880,20.996,37.109,38.086,19.043,25.879,0
214000.884,35.156,34.668,36.621,24.902,36.621,0
214000.900,50.781,29.297,33.691,44.434,32.227,0
214000.903,39.062,32.715,31.738,39.062,16.113,0
214000.907,19.531,36.133,32.227,19.531,25.879,0
214000.911,27.344,36.133,34.180,19.531,59.082,0
214000.915,48.340,35.645,35.156,34.180,58.594,0
214000.919,47.363,35.156,36.133,35.645,40.039,0
214000.923,27.832,35.645,36.133,22.461,39.062,0
214000.927,24.902,33.203,37.109,20.508,36.621,0
214000.931,42.480,33.691,37.598,30.273,27.344,0
214000.935,46.387,37.598,30.273,35.645,29.297,0
214000.939,25.391,36.621,19.531,23.438,30.273,0
214000.943,14.160,39.062,24.902,15.137,21.973,0
214000.944,27.344,35.156,34.180,24.902,26.367,0
214000.948,39.062,28.809,32.227,33.203,12.695,0
214000.952,27.832,31.250,32.227,24.414,4.395,0
214000.956,18.066,37.598,40.527,13.184,20.996,0
214000.960,29.297,35.156,39.551,16.113,28.320,0
214000.964,45.410,32.715,32.715,32.227,32.715,0
214000.968,35.645,34.668,24.902,33.203,29.297,0
214000.972,20.508,38.086,29.297,21.484,37.598,0
214000.976,25.391,37.109,33.691,26.855,44.434,0
214000.979,35.156,31.738,34.180,33.691,32.227,0
214000.983,32.715,31.738,39.551,33.691,35.156,0
214000.987,21.973,30.762,37.598,20.996,45.410,0
214000.989,27.344,28.320,40.039,15.625,41.016,0
214000.993,44.922,33.203,41.992,27.344,38.574,0
214000.997,54.688,38.086,29.785,31.738,44.922,0
214001.001,34.180,39.062,29.297,18.066,40.039,0
214001.005,7.812,31.738,39.551,2.930,30.762,0
214001.009,21.973,22.949,38.574,17.578,30.273,0
214001.013,39.062,23.926,42.969,30.762,35.156,0
214001.017,25.879,29.785,43.457,20.020,39.062,0
214001.021,16.113,30.273,33.691,9.766,35.156,0
214001.025,23.438,26.367,36.621,14.160,38.086,0
214001.028,38.574,30.273,37.109,28.320,41.992,0
214001.032,39.062,33.691,32.715,27.344,31.250,0
214001.034,23.926,28.320,35.156,10.254,23.926,0
214001.038,20.996,26.855,38.086,8.789,32.227,0
214001.042,38.574,28.809,38.086,24.902,41.504,0
214001.046,40.527,33.203,35.645,30.762,38.574,0
214001.050,21.484,35.156,32.715,21.484,37.109,0
214001.054,22.461,31.738,33.691,19.043,42.969,0
214001.058,40.527,30.273,30.273,30.273,41.016,0
214001.062,48.828,35.156,25.879,36.621,43.945,0
214001.066,33.203,37.598,34.180,22.461,48.828,0
214001.070,20.020,29.297,35.156,4.883,38.574,0
214001.073,32.715,25.391,29.297,13.672,24.414,0
214001.077,46.875,27.344,34.180,29.785,17.578,0
214001.081,30.762,25.391,36.621,20.996,15.137,0
214001.085,15.137,26.367,38.574,9.766,23.438,0
214001.089,29.297,29.785,28.809,14.160,39.551,0
214001.093,43.945,27.832,20.996,24.414,38.086,0
214001.097,38.574,32.715,26.855,26.367,34.180,0
214001.101,23.438,38.086,29.785,19.531,42.480,0
214001.105,21.484,30.762,31.738,16.602,35.645,0
214001.109,38.574,25.879,31.738,28.320,39.062,0
214001.112,37.598,25.391,35.156,30.762,39.551,0
214001.116,20.996,26.367,38.086,20.996,22.949,0
214001.120,21.484,29.785,40.039,18.066,28.809,0
214001.124,30.762,24.902,38.574,26.855,31.738,0
214001.125,39.062,24.902,32.227,37.109,25.391,0
214001.129,30.273,33.203,30.273,32.715,27.832,0
214001.133,16.602,36.133,35.156,21.484,35.156,0
214001.137,29.297,29.785,39.062,25.879,42.969,0
214001.141,43.457,26.367,34.180,38.574,27.832,0
214001.145,32.227,28.809,31.738,36.133,19.531,0
214001.148,20.020,30.762,32.227,21.973,33.203,0
214001.152,29.297,32.715,34.668,22.949,43.945,0
214001.156,48.340,34.180,40.039,41.016,38.086,0
214001.160,42.969,35.156,38.574,38.574,25.391,0
214001.164,27.344,39.551,37.109,26.367,35.156,0
214001.168,31.250,38.086,42.480,33.203,46.875,0
214001.169,48.828,32.227,45.410,49.805,48.340,0
214001.173,52.734,32.227,41.016,53.711,41.992,0
214001.177,33.203,38.574,34.668,32.227,31.738,0
214001.180,27.832,41.016,33.691,18.066,29.297,0
214001.184,42.480,38.086,40.527,29.785,27.832,0
214001.188,46.387,38.574,41.992,37.598,23.926,0
214001.192,28.809,36.133,32.715,21.973,28.320,0
214001.196,17.578,34.180,30.762,11.719,36.133,0
214001.200,29.297,36.133,34.180,21.973,37.598,0
214001.204,47.852,42.480,32.715,36.621,40.039,0
214001.208,39.551,40.527,29.297,30.762,35.645,0
214001.212,14.160,30.273,30.273,11.230,22.949,0
214001.229,18.555,26.855,38.574,14.648,27.344,0
214001.232,40.039,28.320,38.086,22.949,30.762,0
214001.236,41.016,34.180,24.414,21.484,32.227,0
214001.240,23.438,35.156,23.438,12.695,39.062,0
214001.244,22.949,36.621,33.203,12.207,36.133,0
214001.248,41.504,33.691,37.598,29.297,37.109,0
214001.252,45.410,29.297,45.410,39.062,38.574,0
214001.256,24.414,26.855,43.945,23.926,35.645,0
214001.260,20.508,30.273,36.621,15.137,32.227,0
214001.264,37.598,33.691,37.109,29.785,35.645,0
214001.268,45.898,34.180,39.062,41.504,37.598,0
214001.272,33.203,37.109,39.062,36.621,37.109,0
214001.274,22.461,36.133,32.227,23.926,41.504,0
214001.277,32.715,36.133,32.227,27.344,49.316,0
214001.281,44.434,32.227,34.180,41.016,48.828,0
214001.285,34.668,29.785,32.715,37.598,36.621,0
214001.289,16.113,30.762,34.668,23.438,41.016,0
214001.293,24.414,30.762,35.156,23.926,62.988,0
214001.297,48.340,30.273,39.062,37.109,50.293,0
214001.301,44.434,29.297,40.527,33.203,21.973,0
214001.305,23.438,30.273,33.203,17.090,34.180,0
214001.309,21.484,29.785,33.203,18.066,46.387,0
214001.313,36.621,29.785,41.016,34.180,33.691,0
214001.316,42.480,35.156,31.738,42.969,29.785,0
214001.318,29.785,38.574,25.879,31.738,33.203,0
214001.322,18.066,31.738,37.598,17.090,24.414,0
214001.326,29.785,27.832,44.922,25.879,23.926,0
214001.330,51.758,32.715,47.363,41.504,26.367,0
214001.334,41.504,39.062,41.016,32.227,28.320,0
214001.338,21.484,38.574,35.156,17.578,36.133,0
214001.342,30.762,35.156,33.203,26.367,54.199,0
214001.346,49.316,38.574,32.715,41.504,61.035,0
214001.350,41.992,45.410,28.320,38.086,44.434,0
214001.354,22.461,44.922,26.367,25.879,36.133,0
214001.358,27.832,41.992,35.156,26.855,40.039,0
214001.361,48.340,38.086,41.016,42.480,43.945,0
214001.363,45.898,37.109,39.062,48.340,32.715,0
214001.367,26.367,38.086,35.156,37.598,36.621,0
214001.371,19.043,34.668,31.738,27.832,45.410,0
214001.375,35.156,31.250,31.250,36.621,37.109,0
214001.379,48.828,32.715,32.715,44.922,27.344,0
214001.383,32.715,36.133,35.156,28.809,19.043,0
214001.387,25.391,37.598,32.227,16.113,22.949,0
214001.391,41.992,35.645,37.598,29.297,33.691,0
214001.395,55.664,35.156,41.992,46.387,30.762,0
214001.399,43.457,36.133,35.156,39.062,23.926,0
214001.403,26.855,37.109,31.738,22.461,24.414,0
214001.406,34.668,38.574,32.715,25.879,30.762,0
214001.409,52.246,40.039,37.109,38.086,38.574,0
214001.413,43.945,40.527,33.203,33.203,33.203,0
214001.417,26.367,41.504,28.320,24.902,36.133,0
214001.421,28.320,37.109,31.250,25.879,44.922,0
214001.424,44.434,32.715,31.738,34.180,34.668,0
214001.428,49.805,34.180,30.273,40.527,26.367,0
214001.432,34.180,36.133,30.273,31.738,30.273,0
214001.436,26.855,35.645,26.855,23.438,33.203,0
214001.440,40.527,34.180,28.320,31.738,43.945,0
214001.444,46.875,32.715,25.391,41.504,37.109,1
214001.448,27.832,33.691,22.461,32.227,27.832,0
214001.452,15.137,33.691,32.715,25.879,43.457,0
214001.454,27.832,32.715,40.039,34.668,53.223,0
214001.458,40.039,31.250,42.969,38.086,26.855,0
214001.462,32.715,33.203,41.504,32.227,12.207,0
214001.466,12.695,27.832,35.645,14.648,20.996,0
214001.470,9.277,18.555,30.273,7.324,31.250,0
214001.474,29.785,21.484,27.832,22.461,34.668,0
214001.478,30.762,22.949,29.297,28.320,7.812,0
214001.482,14.648,22.461,33.691,13.672,8.301,0
214001.485,19.043,27.344,39.062,10.742,27.832,0
214001.489,42.480,30.762,39.062,30.762,27.344,0
214001.493,48.828,31.250,37.109,42.969,14.648,0
214001.497,32.227,34.668,36.133,33.203,14.648,0
214001.499,23.438,31.738,33.203,22.461,25.879,0
214001.503,35.156,27.344,28.320,28.809,24.902,0
214001.507,43.457,23.438,24.414,40.527,15.625,0
214001.511,28.320,21.973,27.344,33.203,6.348,0
214001.515,22.461,31.250,36.133,21.973,22.949,0
214001.519,37.598,35.645,44.922,34.180,40.527,0
214001.523,48.828,31.250,41.992,45.898,37.109,0
214001.526,41.016,33.203,28.809,36.133,28.809,0
214001.530,25.391,37.109,26.855,21.484,38.086,0
214001.534,32.715,35.156,34.668,26.855,53.711,0
214001.538,54.688,31.738,39.062,43.945,54.688,0
214001.542,50.293,30.762,37.598,41.992,45.410,0
214001.546,33.691,31.738,39.551,33.203,50.293,0
214001.550,39.551,32.227,43.945,38.086,59.082,0
214001.554,54.199,33.691,41.992,49.805,76.660,0
214001.558,57.617,35.645,46.387,59.570,92.285,0
214001.562,39.551,36.133,47.363,51.270,65.430,0
214001.565,20.508,31.738,37.598,36.133,52.734,0
214001.569,30.762,27.344,37.598,44.922,58.105,0
214001.573,44.434,27.832,40.039,56.152,42.969,0
214001.577,28.809,25.391,38.086,47.363,42.969,0
214001.581,12.695,21.973,38.574,37.109,60.059,0
214001.585,22.949,22.461,37.109,40.039,61.035,0
214001.589,38.086,22.949,40.039,47.363,55.176,0
214001.604,33.203,21.484,41.504,42.969,56.641,0
214001.608,20.020,28.320,35.645,28.809,65.918,0
214001.612,19.043,30.762,33.691,20.508,63.477,0
214001.616,34.668,26.367,37.109,32.227,60.547,0
214001.620,41.016,29.785,41.504,44.434,57.617,0
214001.624,21.484,28.809,41.016,27.344,44.434,0
214001.628,19.531,28.809,41.504,17.578,53.711,0
214001.632,45.410,31.738,41.992,37.598,68.359,0
214001.636,54.199,33.203,39.062,50.781,49.805,0
214001.639,34.180,38.574,38.574,38.086,35.645,0
214001.643,25.879,37.598,40.039,30.273,40.039,0
214001.647,42.480,35.645,41.016,42.969,47.363,0
214001.649,49.805,39.062,36.133,56.152,42.969,0
214001.653,36.133,42.969,34.668,55.176,36.621,0
214001.657,18.555,40.527,40.039,40.039,50.293,0
214001.661,22.949,34.180,39.062,36.133,57.617,0
214001.665,46.387,38.086,39.062,46.387,62.988,0
214001.669,41.504,43.457,44.434,43.457,50.293,0
214001.673,20.996,41.016,46.875,26.855,40.527,0
214001.677,23.926,36.133,47.852,21.973,54.688,0
214001.681,39.062,34.180,43.945,27.832,46.875,0
214001.685,35.645,32.227,36.621,22.461,17.578,0
214001.688,13.672,29.297,33.691,7.812,1.953,0
214001.692,3.906,30.762,33.203,4.883,10.254,0
214001.694,23.438,33.203,38.086,19.531,20.508,0
214001.698,36.133,28.320,42.480,27.832,15.137,0
214001.702,12.695,17.090,40.527,14.648,12.695,0
214001.706,-3.418,15.137,37.109,2.930,27.832,0
214001.710,12.207,21.973,32.715,7.812,37.598,0
214001.714,28.320,24.902,30.273,23.438,28.320,0
214001.718,20.996,26.367,31.250,26.367,21.973,0
214001.722,5.371,28.320,32.227,9.766,21.973,0
214001.725,14.160,30.273,32.715,10.254,29.297,0
214001.729,38.086,31.738,32.715,26.855,41.992,0
214001.733,37.109,35.156,30.762,29.297,46.875,0
214001.737,14.160,34.668,33.203,19.531,46.387,0
214001.739,16.602,33.691,36.133,20.020,38.086,0
214001.743,35.645,30.273,33.203,31.250,42.969,0
214001.747,38.574,29.297,33.691,39.551,43.457,0
214001.751,23.438,34.180,32.715,26.855,32.715,0
214001.755,18.066,34.180,36.133,14.160,36.133,0
214001.759,36.133,31.738,31.738,26.855,31.738,0
214001.763,50.781,30.762,29.297,39.551,15.137,0
214001.766,37.109,33.203,48.340,31.250,14.648,0
214001.770,23.438,34.668,58.105,15.137,30.762,0
214001.774,34.180,33.691,61.523,24.414,41.016,0
214001.778,48.340,31.738,55.664,41.016,24.414,0
214001.782,33.691,27.832,40.527,26.367,2.930,0
214001.784,8.789,24.902,32.227,5.371,4.395,0
214001.788,16.113,23.926,32.715,9.766,12.207,0
214001.792,43.457,28.320,37.109,30.762,19.531,0
214001.796,47.852,33.691,38.086,32.715,29.785,0
214001.800,30.273,33.203,38.574,17.578,38.086,0
214001.804,32.227,36.133,42.480,16.602,32.715,0
214001.808,50.781,40.527,42.969,33.691,33.203,0
214001.812,52.734,37.109,39.062,41.992,31.738,0
214001.815,32.227,34.668,31.250,25.391,22.949,0
214001.819,17.090,31.738,20.996,14.160,28.320,0
214001.823,29.297,28.320,21.484,27.344,44.434,0
214001.827,40.527,25.879,27.344,39.062,30.273,0
214001.831,28.320,28.809,28.809,33.203,16.113,0
214001.835,17.090,32.227,36.621,23.926,33.691,0
214001.838,22.461,29.785,40.039,24.902,41.504,0
214001.842,33.691,27.344,34.180,33.203,31.738,0
214001.846,25.879,29.785,33.203,30.273,3.906,0
214001.850,9.277,31.738,33.203,12.695,-3.418,0
214001.854,10.742,30.762,29.785,5.859,9.766,0
214001.858,31.738,30.273,26.855,18.555,13.672,0
214001.862,38.574,31.250,25.391,25.879,15.625,0
214001.866,14.160,29.785,31.738,9.766,12.695,0
214001.870,6.836,25.879,41.016,5.859,13.672,0
214001.874,27.344,26.855,37.598,22.461,22.949,0
214001.874,37.109,30.762,32.227,31.738,27.832,0
214001.878,20.020,28.809,28.320,20.508,13.672,0
214001.882,9.766,28.809,26.367,11.230,17.090,0
214001.886,24.902,35.156,24.414,19.043,32.715,0
214001.890,37.598,33.203,21.484,25.879,23.438,0
214001.894,25.391,27.832,17.090,21.484,8.789,0
214001.898,12.695,28.809,12.695,9.277,26.367,0
214001.901,19.043,33.691,27.832,10.742,41.016,0
214001.905,35.156,34.668,42.480,29.785,30.273,0
214001.909,37.109,34.180,38.574,32.227,27.832,0
214001.913,16.113,31.250,29.785,12.695,33.203,0
214001.917,12.207,26.855,30.762,9.277,29.297,0
214001.919,33.203,26.855,35.156,26.367,30.762,0
214001.923,37.109,31.738,34.180,33.203,29.785,0
214001.927,17.578,32.227,25.879,18.555,12.695,0
214001.931,14.160,27.832,26.855,9.277,17.090,0
214001.935,30.273,25.879,34.180,24.414,46.387,0
214001.939,42.480,26.367,35.156,35.156,36.133,0
214001.942,33.203,31.250,39.551,27.344,21.484,0
214001.946,22.461,35.645,40.039,20.020,29.297,0
214001.950,31.738,32.227,32.227,25.391,32.227,0
214001.954,46.387,30.273,34.668,33.691,28.320,0
214001.958,33.203,36.133,37.109,27.344,15.625,0
214001.962,12.695,36.621,34.668,13.672,17.578,0
214001.979,21.484,30.273,32.227,12.207,34.180,0
214001.983,40.039,28.809,25.879,29.785,42.969,0
214001.987,40.527,30.762,30.273,37.598,34.668,0
214001.991,23.438,29.297,43.457,20.020,38.086,0
214001.995,12.695,23.926,44.434,14.160,49.805,0
214001.999,24.902,24.414,39.062,30.762,36.621,0
214002.003,31.250,28.809,35.645,32.715,13.672,0
214002.007,7.812,24.414,34.180,11.719,4.883,0
214002.011,-2.441,19.043,32.715,-0.977,17.090,0
214002.015,14.648,23.438,34.180,7.812,31.250,0
214002.018,24.902,23.926,36.621,20.020,28.320,0
214002.022,11.230,20.508,32.715,10.742,27.344,0
214002.024,2.441,19.531,29.297,-0.488,37.109,0
214002.028,14.648,20.508,31.250,9.277,31.738,0
214002.031,32.715,24.414,35.156,20.020,9.277,0
214002.035,28.809,26.855,35.156,21.484,-1.465,0
214002.039,11.230,27.344,22.949,12.207,7.812,0
214002.043,14.160,26.855,20.508,8.789,32.715,0
214002.047,36.133,31.738,39.062,26.855,51.758,0
214002.051,39.062,37.109,44.434,32.715,29.785,0
214002.055,17.578,35.156,37.598,13.672,11.230,0
214002.059,12.695,33.203,37.598,5.371,14.160,0
214002.063,26.367,32.715,42.480,21.484,9.766,0
214002.067,34.668,31.250,39.551,31.738,8.789,0
214002.071,23.438,30.762,31.738,20.020,14.160,0
214002.075,16.113,30.273,32.227,11.230,25.391,0
214002.079,29.297,33.203,31.250,21.973,37.598,0
214002.083,38.574,34.180,27.832,37.109,35.645,0
214002.087,25.879,32.715,25.879,30.273,19.043,0
214002.090,16.113,33.203,27.832,11.230,27.344,0
214002.094,27.344,32.227,35.645,15.137,42.969,0
214002.098,46.387,32.715,39.062,32.715,37.109,0
214002.102,41.504,30.762,35.645,26.855,20.020,0
214002.106,20.996,26.367,40.039,9.766,19.043,0
214002.110,25.879,26.367,40.527,13.672,37.109,0
214002.114,50.293,30.273,33.691,33.203,39.062,0
214002.114,52.734,35.156,35.645,41.016,36.133,0
214002.118,31.250,37.109,39.551,29.297,41.504,0
214002.122,21.973,33.203,40.039,22.949,41.504,0
214002.126,36.621,30.273,40.039,30.762,36.621,0
214002.130,41.504,29.297,42.480,35.645,33.203,0
214002.134,26.367,30.273,42.480,28.320,23.438,0
214002.138,19.043,32.227,40.039,21.973,24.902,0
214002.142,28.809,30.273,36.133,28.320,38.574,0
214002.146,39.551,27.344,32.227,35.645,36.621,0
214002.150,27.832,27.832,33.691,27.832,24.414,0
214002.153,12.207,28.320,34.180,16.602,26.855,0
214002.157,22.949,29.785,35.156,21.973,36.133,0
214002.159,41.016,29.297,38.574,34.668,25.879,0
214002.163,32.227,25.879,34.668,31.738,16.113,0
214002.167,7.812,25.391,30.273,16.602,16.113,0
214002.171,11.230,26.367,33.203,15.137,24.902,0
214002.175,35.645,27.344,39.062,33.691,37.598,0
214002.178,35.645,28.809,40.039,41.016,24.902,0
214002.182,14.648,27.344,33.691,22.949,19.043,0
214002.186,8.789,26.855,33.691,13.184,26.855,0
214002.190,26.367,29.297,34.180,23.926,23.438,0
214002.194,39.551,29.297,33.691,29.785,18.555,0
214002.198,21.484,26.367,35.156,14.160,18.066,0
214002.202,1.465,22.461,40.039,-0.977,22.949,0
214002.205,11.230,21.973,44.434,7.324,29.297,0
214002.209,33.691,25.391,41.992,28.809,26.855,0
214002.212,26.367,27.344,33.203,25.391,8.301,0
214002.216,9.277,29.785,31.738,8.301,10.742,0
214002.220,19.531,34.668,35.645,13.184,25.391,0
214002.224,39.062,34.180,34.180,27.344,28.320,0
214002.228,36.133,27.832,30.762,27.344,21.484,0
214002.232,16.113,26.855,32.715,11.719,14.648,0
214002.236,16.602,29.297,40.527,6.836,25.391,0
214002.240,39.551,29.297,46.387,24.902,29.297,0
214002.244,47.363,30.762,42.969,32.715,27.344,0
214002.248,31.250,32.227,37.109,21.973,27.832,0
214002.249,24.902,34.668,36.621,13.672,32.715,0
214002.253,36.621,33.691,38.086,25.391,32.227,0
214002.257,48.828,32.227,36.133,41.992,27.344,0
214002.261,35.645,33.203,22.461,32.715,23.926,0
214002.265,25.391,33.691,24.414,21.973,19.531,0
214002.269,35.645,28.320,38.574,28.809,27.832,0
214002.273,46.875,22.949,37.598,37.598,31.250,0
214002.277,44.434,26.367,34.668,35.645,24.902,0
214002.280,25.879,29.297,33.691,22.949,35.645,0
214002.284,27.344,28.809,31.738,24.414,50.293,0
214002.288,48.828,33.691,36.621,41.016,43.945,0
214002.292,45.898,34.668,39.551,45.410,27.832,0
214002.296,24.902,32.227,29.297,30.762,18.066,0
214002.300,22.461,31.250,22.461,21.973,15.137,0
214002.303,39.551,28.320,29.297,32.715,36.621,0
214002.307,46.875,24.902,31.738,44.434,60.547,0
214002.311,28.809,25.391,31.250,32.715,34.180,0
214002.315,27.344,29.785,30.762,22.949,16.602,0
214002.319,52.246,34.180,30.762,34.668,47.852,0
214002.323,58.594,31.250,40.527,44.434,40.527,0
214002.327,43.457,30.273,42.480,35.645,14.648,0
214002.331,29.297,35.645,40.527,26.367,35.645,0
214002.335,30.273,32.715,41.992,32.715,46.387,0
214002.339,47.363,29.785,43.945,47.363,27.832,0
214002.354,51.270,34.180,34.180,44.922,19.043,0
214002.358,34.180,35.645,27.344,23.438,24.414,0
214002.362,28.320,30.762,35.156,15.137,22.949,0
214002.366,43.945,27.344,35.645,27.832,19.531,0
214002.370,42.969,26.367,33.203,36.133,7.812,0
214002.374,20.508,27.832,27.832,24.414,1.953,0
214002.378,17.578,34.180,24.414,19.043,25.879,0
214002.382,30.762,32.715,26.367,29.785,40.527,0
214002.386,39.551,29.785,27.832,36.621,36.621,0
214002.390,29.297,32.227,27.832,25.391,36.133,0
214002.393,20.020,32.227,21.484,14.160,34.668,0
214002.397,37.598,28.809,26.855,23.438,46.387,0
214002.399,47.852,27.832,41.992,33.691,41.016,0
214002.403,31.250,28.809,43.457,26.855,14.648,0
214002.407,16.602,28.809,33.691,16.113,14.160,0
214002.411,21.484,28.809,28.809,18.066,29.785,0
214002.415,41.504,29.297,27.832,35.156,44.922,0
214002.419,43.945,36.133,26.367,42.480,42.480,0
214002.423,26.855,41.504,28.809,29.297,32.715,0
214002.427,24.902,33.203,33.691,22.461,35.156,0
214002.430,37.598,28.320,35.645,34.668,31.250,0
214002.434,36.133,29.297,32.715,37.598,17.090,0
214002.438,19.531,28.809,30.762,25.879,20.996,0
214002.442,11.719,31.250,27.344,20.996,45.410,0
214002.444,28.320,32.715,30.762,31.250,60.547,0
214002.448,43.945,33.691,35.156,38.086,37.598,0
214002.452,30.762,36.133,32.227,27.832,22.461,0
214002.456,20.996,36.621,29.785,18.066,37.598,0
214002.460,32.227,31.250,31.738,25.879,41.504,0
214002.464,45.898,31.738,38.574,41.992,31.738,0
214002.467,35.156,32.227,43.945,38.086,23.926,0
214002.471,15.625,31.250,43.457,21.973,27.832,0
214002.475,18.555,32.715,38.574,20.996,32.227,0
214002.479,40.039,34.180,33.203,33.203,31.250,0
214002.483,40.527,33.691,36.133,38.574,25.391,0
214002.487,18.555,29.785,35.645,24.902,16.602,0
214002.489,22.461,29.785,31.250,22.949,29.785,0
214002.493,47.852,33.203,34.668,39.062,42.969,0
214002.497,50.293,30.273,36.621,42.969,31.250,0
214002.501,27.832,31.250,31.738,25.879,18.066,0
214002.505,21.484,32.715,32.227,15.137,28.320,0
214002.509,39.551,32.227,41.016,27.344,42.480,0
214002.513,55.176,37.598,43.945,43.945,56.152,0
214002.517,42.969,40.039,37.598,35.156,50.293,0
214002.521,26.855,37.109,36.621,22.949,40.039,0
214002.525,30.762,36.133,44.922,32.715,39.062,0
214002.528,46.387,37.109,45.410,43.945,23.438,0
214002.532,41.504,38.574,35.645,35.645,13.184,0
214002.535,19.043,40.527,35.156,20.508,23.926,0
214002.539,23.438,39.551,40.527,25.879,44.434,0
214002.543,46.387,35.156,40.039,39.062,44.434,0
214002.547,44.922,33.203,37.598,32.715,31.250,0
214002.551,29.785,37.598,33.691,20.996,34.180,0
214002.555,27.344,40.039,35.645,18.066,37.109,0
214002.559,39.551,36.133,41.016,24.902,33.691,0
214002.563,42.969,37.598,37.109,30.273,31.738,0
214002.567,21.973,38.086,39.062,19.043,6.836,0
214002.570,14.648,34.668,45.410,13.184,2.930,0
214002.574,32.715,31.250,41.016,24.902,24.902,0
214002.578,45.410,32.227,38.574,36.621,40.527,0
214002.579,31.738,38.574,34.180,31.738,35.156,0
214002.583,19.531,41.504,34.668,21.484,25.879,0
214002.587,28.320,37.598,40.527,25.391,32.715,0
214002.591,44.922,36.133,40.039,38.086,35.156,0
214002.595,36.621,33.203,34.180,37.598,25.391,0
214002.599,21.973,33.203,37.109,29.297,26.855,0
214002.603,33.691,36.621,41.504,33.203,40.527,0
214002.606,48.340,32.715,37.598,40.527,41.016,0
214002.610,44.434,33.691,36.133,44.434,30.762,0
214002.614,25.391,37.598,32.227,33.203,26.855,0
214002.618,21.484,38.574,35.645,21.484,31.250,0
214002.622,38.574,37.109,42.480,33.203,40.039,0
214002.624,49.805,33.203,33.691,45.898,30.762,0
214002.628,33.203,29.785,30.273,38.086,14.160,0
214002.632,19.531,30.273,41.016,26.367,17.090,0
214002.636,35.156,33.203,44.434,34.668,41.504,0
214002.640,50.293,33.691,43.945,48.340,42.969,0
214002.644,40.527,34.180,41.992,40.039,24.902,0
214002.647,21.484,36.621,39.062,29.297,29.297,0
214002.651,20.996,37.109,31.738,26.367,35.156,0
214002.655,38.086,37.598,28.320,34.668,18.555,0
214002.659,33.691,34.668,24.902,33.691,4.883,0
214002.663,18.066,32.227,23.438,19.043,16.113,0
214002.667,20.020,32.715,23.438,18.066,43.457,0
214002.669,37.109,33.203,29.297,32.715,48.828,0
214002.673,41.016,31.250,31.250,43.457,25.879,0
214002.677,21.484,32.715,26.855,31.738,12.695,0
214002.681,17.578,36.621,28.320,18.555,15.137,0
214002.685,30.762,33.203,30.273,20.020,14.648,0
214002.689,39.551,33.691,30.762,31.250,16.602,0
214002.693,27.344,41.016,32.715,24.414,10.254,0
214002.697,12.207,38.574,33.203,9.277,14.648,0
214002.701,23.926,31.738,22.949,18.066,26.367,0
214002.705,43.945,31.738,17.578,34.668,29.785,0
214002.709,34.180,32.227,27.344,30.762,36.133,0
214002.712,15.625,33.691,38.086,15.625,40.039,0
214002.729,23.438,32.227,46.387,20.020,42.480,0
214002.733,42.969,30.762,49.316,40.039,39.062,0
214002.737,34.668,32.227,41.016,40.527,28.809,0
214002.741,14.160,31.250,33.203,25.879,30.273,0
214002.745,15.137,32.227,31.250,22.461,43.945,0
214002.749,28.320,28.320,30.273,34.180,40.527,0
214002.752,38.574,32.227,32.227,46.387,32.227,0
214002.756,25.391,35.645,32.227,32.715,32.227,0
214002.760,16.113,29.297,32.227,13.672,41.504,0
214002.764,36.133,31.738,37.109,26.855,36.621,0
214002.768,47.363,34.668,34.668,38.574,13.184,0
214002.772,34.668,34.668,26.367,25.391,6.836,0
214002.774,28.809,35.645,28.809,20.020,24.414,0
214002.778,40.039,38.574,32.227,31.738,45.898,0
214002.782,51.270,38.574,35.645,38.574,46.387,0
214002.786,46.875,34.668,41.016,34.668,41.504,0
214002.790,27.832,33.691,39.062,25.879,46.387,0
214002.794,24.902,30.273,31.250,22.461,54.199,0
214002.798,37.109,28.809,26.367,32.227,57.129,0
214002.801,30.762,31.250,27.344,33.691,36.621,0
214002.805,12.695,33.691,27.344,20.508,24.902,0
214002.809,14.160,39.551,31.738,22.949,39.551,0
214002.813,34.668,40.039,36.621,40.039,41.504,0
214002.817,41.016,35.156,34.180,48.828,30.273,0
214002.819,28.809,34.668,31.250,39.062,24.414,0
214002.823,21.484,37.109,40.039,27.344,38.574,0
214002.827,35.156,35.645,41.992,34.668,45.898,0
214002.831,53.223,34.180,32.227,46.387,36.621,0
214002.835,43.945,40.527,32.227,42.969,35.156,0
214002.839,26.367,43.457,33.691,24.902,30.273,0
214002.843,35.156,36.621,30.762,22.949,28.809,0
214002.847,46.875,28.809,30.273,34.668,36.133,0
214002.851,36.133,31.250,32.715,30.762,29.785,0
214002.855,17.090,37.598,33.203,17.578,29.297,0
214002.858,16.602,38.574,30.273,17.090,33.203,0
214002.862,32.715,38.086,29.785,32.715,29.785,0
214002.864,31.250,38.086,28.320,38.086,18.066,0
214002.868,12.695,40.527,21.973,22.949,18.066,0
214002.872,14.648,40.527,21.973,14.160,27.344,0
214002.876,41.992,43.457,30.762,26.367,40.039,0
214002.880,52.246,46.387,31.738,34.668,40.527,0
214002.884,31.250,39.062,25.391,18.555,35.645,0
214002.888,18.555,33.691,23.926,8.789,40.527,0
214002.891,33.203,32.715,24.902,20.996,43.945,0
214002.895,49.316,34.668,34.180,35.156,27.832,0
214002.899,40.527,37.109,40.039,29.297,15.625,0
214002.903,26.367,37.109,34.180,14.648,42.480,0
214002.907,32.715,34.668,29.785,18.555,45.410,0
214002.909,46.387,33.691,30.273,35.645,24.414,0
214002.913,41.992,36.133,28.809,38.086,25.879,0
214002.917,20.996,34.668,29.785,22.949,38.574,0
214002.921,20.508,31.250,32.715,19.531,44.922,0
214002.925,40.527,32.715,36.621,34.180,37.598,0
214002.929,44.922,37.598,43.457,45.898,31.250,0
214002.933,22.949,38.086,45.898,32.715,30.273,0
214002.937,15.137,33.691,36.621,21.484,39.551,0
214002.940,35.156,36.621,31.738,34.668,60.059,0
214002.944,50.293,40.527,33.691,47.363,56.152,0
214002.948,35.645,35.156,29.785,36.621,39.062,0
214002.952,19.043,30.762,31.250,18.066,33.203,0
214002.954,31.738,31.738,38.086,21.484,33.691,0
214002.958,53.223,33.691,43.945,40.527,34.668,0
214002.962,42.480,37.109,37.109,37.598,28.809,0
214002.966,17.090,36.621,30.273,22.461,31.250,0
214002.970,25.879,36.621,30.273,27.344,44.922,0
214002.974,53.711,43.945,33.203,40.527,47.363,0
214002.978,54.199,42.969,33.203,38.086,40.039,0
214002.982,30.762,36.133,27.344,20.996,38.086,0
214002.986,23.926,40.039,37.109,17.578,39.551,0
214002.990,39.551,41.504,41.992,31.250,43.945,0
214002.994,45.410,37.598,34.180,33.203,29.785,0
214002.997,27.344,39.062,30.762,20.996,26.367,0
214003.001,16.602,39.551,25.391,12.695,46.387,0
214003.005,32.715,37.598,28.320,21.973,50.781,0
214003.008,44.434,39.551,36.133,34.180,40.527,0
214003.012,26.367,39.551,33.203,25.879,38.574,0
214003.016,13.184,40.039,36.133,15.625,27.344,0
214003.020,24.902,40.039,38.574,23.438,23.438,0
214003.024,42.480,35.645,33.691,38.574,33.203,0
214003.028,32.715,31.250,29.297,31.250,33.691,0
214003.032,13.672,29.785,27.832,16.113,26.367,0
214003.036,26.367,34.668,29.297,24.414,41.504,0
214003.040,49.805,34.180,29.785,39.062,45.410,0
214003.044,44.922,33.691,27.832,39.551,38.574,0
214003.045,28.320,36.133,24.902,29.297,45.898,0
214003.049,25.879,38.574,25.391,25.391,40.039,0
214003.053,37.109,39.551,29.297,34.180,34.180,0
214003.057,47.363,37.598,30.273,45.410,35.645,0
214003.061,34.180,36.133,27.832,37.598,30.273,0
214003.065,23.438,36.133,25.391,24.414,29.297,0
214003.069,37.598,41.992,28.809,31.250,42.480,0
214003.073,49.316,41.016,26.367,40.039,40.527,0
214003.077,36.621,35.645,20.508,27.832,26.367,0
214003.081,22.461,35.156,29.785,15.625,32.715,0
214003.084,28.320,31.738,36.621,19.531,40.039,0
214003.088,41.016,28.809,33.203,29.785,28.320,0
214003.104,35.156,31.250,26.855,29.297,20.020,0
214003.108,22.949,36.133,27.832,13.672,29.297,0
214003.112,24.902,37.598,33.691,13.184,43.945,0
214003.116,45.410,38.086,30.273,35.156,49.805,0
214003.120,54.688,37.598,25.391,44.922,41.992,0
214003.124,33.691,35.645,28.320,31.250,38.574,0
214003.128,26.855,34.668,37.598,25.391,54.688,0
214003.132,46.387,36.621,42.969,42.480,58.105,0
214003.136,55.176,36.621,38.574,46.387,32.227,0
214003.139,43.457,38.086,30.273,31.738,24.414,0
214003.143,29.785,38.574,25.879,20.508,39.551,0
214003.147,35.645,35.645,33.203,31.250,40.039,0
214003.149,46.875,34.180,37.598,44.922,25.391,0
214003.153,38.574,35.645,31.250,38.086,26.855,0
214003.157,20.508,32.715,30.762,22.461,8.301,0
214003.161,23.438,32.715,31.738,19.531,-0.977,0
214003.165,47.363,36.621,32.715,37.109,18.555,0
214003.169,44.922,36.133,31.738,36.133,7.324,0
214003.173,24.902,36.133,24.902,16.602,5.859,0
214003.176,31.738,38.086,22.949,20.020,30.762,0
214003.180,52.246,36.621,24.902,41.992,40.527,0
214003.184,50.293,32.227,27.832,45.898,30.762,0
214003.188,26.367,32.715,32.227,28.320,26.855,0
214003.192,18.066,37.109,25.391,20.996,39.551,0
214003.194,33.203,35.156,25.879,32.227,44.434,0
214003.198,43.945,30.762,37.598,39.551,27.832,0
214003.202,29.297,31.738,39.551,30.762,23.438,0
214003.206,16.602,35.156,34.668,20.020,33.691,0
214003.210,27.344,37.109,34.180,25.391,48.340,0
214003.214,42.480,37.598,34.180,41.992,42.969,0
214003.217,35.156,37.109,28.809,37.598,15.625,0
214003.221,20.508,36.133,28.809,23.926,13.672,0
214003.225,24.902,33.203,31.738,27.832,19.531,0
214003.229,37.109,30.273,34.180,39.551,17.578,0
214003.233,35.156,32.227,35.156,40.527,15.137,0
214003.237,15.625,34.668,31.738,28.809,21.973,0
214003.239,12.695,33.203,31.738,23.438,33.691,0
214003.243,33.691,32.715,25.391,35.156,56.641,0
214003.247,43.945,33.691,19.531,44.922,51.270,0
214003.251,27.832,37.109,31.250,35.156,27.832,0
214003.255,19.043,39.062,38.086,18.066,29.297,0
214003.259,38.086,41.992,38.086,21.484,35.645,0
214003.263,51.270,42.480,43.945,35.156,30.273,0
214003.267,26.855,36.133,38.574,22.949,18.555,0
214003.271,6.348,34.668,33.691,8.789,20.996,0
214003.275,23.438,37.598,39.062,17.090,33.203,0
214003.278,48.828,40.039,32.715,36.621,33.691,0
214003.282,41.016,40.527,24.902,36.133,19.043,0
214003.285,23.438,38.574,20.020,18.555,17.578,0
214003.289,30.762,38.574,25.391,20.508,27.832,0
214003.293,44.434,36.621,34.668,33.691,26.855,0
214003.297,43.945,36.621,38.086,39.062,30.762,0
214003.301,25.879,39.062,38.574,27.832,29.297,0
214003.305,20.508,40.039,29.297,16.113,35.156,0
214003.309,38.574,41.016,17.090,26.367,62.012,0
214003.313,45.898,41.016,16.602,41.016,58.594,0
214003.317,30.273,40.527,27.344,33.203,41.016,0
214003.321,20.508,39.062,29.785,20.996,32.715,0
214003.325,33.203,37.109,28.809,24.414,21.973,0
214003.328,38.574,34.668,29.785,35.645,20.508,0
214003.329,39.551,35.156,33.203,31.250,16.113,0
214003.333,31.738,36.621,32.227,18.555,19.043,0
214003.337,26.855,35.645,27.344,18.555,32.715,0
214003.341,40.527,34.180,32.227,31.738,37.109,0
214003.345,22.461,33.203,34.180,32.227,34.180,0
214003.348,15.137,36.133,30.762,15.137,27.832,0
214003.352,52.246,41.504,34.180,15.625,34.668,0
214003.356,54.199,37.109,35.156,32.715,33.203,0
214003.360,36.133,30.273,28.320,34.668,20.996,0
214003.364,31.738,28.809,24.414,23.438,24.902,0
214003.368,8.301,28.809,25.879,21.973,23.926,0
214003.372,11.230,30.762,28.320,33.203,30.273,0
214003.374,38.574,29.785,32.715,39.551,41.504,0
214003.378,29.785,31.250,35.156,31.250,31.250,0
214003.382,23.438,40.039,38.574,19.531,30.762,0
214003.386,47.852,41.504,43.457,30.762,46.875,0
214003.390,48.828,36.133,44.922,51.270,45.898,0
214003.394,23.438,31.738,36.621,44.434,25.879,0
214003.397,9.277,28.320,25.879,15.137,20.508,0
214003.401,20.508,31.738,24.902,8.789,30.762,0
214003.405,41.504,35.645,27.344,31.250,33.691,0
214003.409,30.273,34.180,26.855,32.715,24.414,0
214003.413,9.766,26.855,29.297,18.066,25.391,0
214003.417,20.020,32.227,33.691,14.648,38.086,0
214003.419,34.180,44.922,30.762,15.137,23.438,0
214003.423,28.320,44.434,25.879,11.719,2.930,0
214003.427,16.602,43.945,19.531,6.836,12.695,0
214003.431,9.277,42.969,23.438,4.395,46.875,0
214003.435,24.414,37.598,24.414,15.137,54.199,0
214003.438,49.316,36.621,23.926,33.203,36.621,0
214003.442,31.250,36.621,34.668,26.855,32.227,0
214003.446,11.230,37.109,39.551,14.648,35.645,0
214003.450,34.180,41.504,40.527,26.855,36.621,0
214003.454,48.340,43.457,35.645,37.598,20.508,0
214003.458,32.715,41.504,28.320,30.762,11.719,0
214003.462,20.020,37.598,27.344,19.043,20.996,0
214003.479,30.762,36.133,28.809,21.973,38.086,0
214003.483,51.270,37.598,27.832,35.645,44.922,0
214003.487,51.758,40.039,25.879,40.527,40.039,0
214003.491,34.180,43.945,35.156,32.227,42.969,0
214003.495,27.832,44.434,35.645,21.973,52.734,0
214003.498,43.945,40.527,32.227,31.250,56.641,0
214003.502,55.664,36.133,35.156,45.898,41.992,0
214003.506,31.250,35.156,34.668,34.668,34.668,0
214003.510,19.531,35.156,33.691,23.438,43.945,0
214003.514,40.039,32.715,28.809,29.297,38.574,0
214003.518,51.758,33.691,30.762,42.480,26.855,0
214003.522,36.621,38.574,32.715,38.574,26.367,0
214003.524,26.855,40.527,27.832,23.926,28.809,0
214003.528,37.109,41.504,28.320,20.996,36.621,0
214003.532,50.293,41.504,31.738,31.250,26.855,0
214003.536,43.457,37.109,26.367,30.273,16.113,0
214003.540,19.043,35.645,21.973,8.789,20.020,0
214003.543,20.996,36.621,25.879,2.930,34.180,0
214003.547,45.410,35.645,19.531,21.973,37.598,0
214003.551,49.805,36.133,19.043,31.738,26.367,0
214003.555,34.668,36.621,30.762,19.531,29.785,0
214003.559,26.367,40.527,37.598,15.137,42.480,0
214003.563,39.062,40.039,33.691,26.855,42.969,0
214003.567,46.387,33.203,26.855,34.668,30.273,0
214003.569,29.297,32.715,30.762,24.902,23.438,0
214003.573,17.090,33.691,32.715,15.625,39.551,0
214003.577,36.621,36.133,29.785,26.855,52.246,0
214003.581,50.293,35.645,21.973,38.574,30.762,0
214003.584,39.551,36.621,17.090,34.180,16.602,0
214003.588,30.273,39.551,28.320,23.926,32.227,0
214003.592,34.668,38.574,30.273,21.484,53.223,0
214003.596,51.758,40.039,28.809,36.133,45.898,0
214003.600,47.363,37.109,25.879,36.621,22.461,0
214003.604,27.344,35.645,24.414,19.531,39.062,0
214003.608,29.785,34.668,26.855,20.996,49.805,0
214003.612,48.828,35.156,18.555,36.621,43.945,0
214003.614,50.781,34.668,15.625,41.504,33.691,0
214003.618,33.203,37.598,24.902,29.297,21.973,0
214003.622,25.391,44.434,26.855,14.160,28.320,0
214003.626,35.645,42.480,28.320,23.438,24.902,0
214003.630,45.410,34.668,33.691,35.156,10.254,0
214003.633,26.855,29.297,31.250,26.855,9.766,0
214003.637,13.672,29.785,28.320,18.555,25.879,0
214003.641,27.344,31.738,32.227,24.414,39.062,0
214003.645,42.969,32.227,33.691,32.227,42.969,0
214003.649,37.109,33.203,31.250,32.227,39.551,0
214003.653,18.066,36.133,30.762,20.996,34.180,0
214003.657,21.973,38.086,31.250,16.602,34.180,0
214003.660,41.992,36.621,31.738,32.227,27.832,0
214003.663,39.062,29.297,29.785,28.809,17.090,0
214003.667,18.555,24.902,31.738,13.184,15.625,0
214003.671,17.578,27.344,31.250,11.230,25.391,0
214003.675,42.969,29.297,26.367,28.809,44.922,0
214003.679,54.688,31.738,26.367,37.598,50.781,0
214003.683,32.715,35.645,27.344,21.973,33.691,0
214003.687,19.531,33.203,30.762,15.137,21.484,0
214003.691,31.250,30.273,37.109,25.391,26.855,0
214003.695,40.039,35.645,39.062,35.156,27.832,0
214003.699,23.926,36.133,36.621,30.273,13.184,0
214003.702,7.812,28.320,32.715,15.137,15.625,0
214003.704,18.066,26.855,32.715,20.508,23.926,0
214003.708,34.668,28.320,40.527,37.109,31.738,0
214003.712,27.344,32.715,32.715,32.715,39.551,0
214003.716,11.719,33.203,15.625,16.113,18.555,0
214003.719,7.324,28.809,19.531,7.812,3.418,0
214003.723,25.391,28.809,35.645,24.414,0.000,0
214003.727,32.227,33.203,35.156,32.715,1.465,0
214003.731,3.906,33.691,27.832,15.137,18.555,0
214003.735,6.836,37.598,31.250,13.672,35.156,0
214003.739,35.156,36.621,35.645,33.203,42.480,0
214003.743,38.574,27.832,39.062,37.598,30.273,0
214003.747,19.043,26.367,39.551,22.461,20.508,0
214003.750,15.625,32.227,38.086,16.113,30.273,0
214003.754,29.785,33.203,37.109,29.297,39.062,0
214003.758,40.039,32.227,31.250,44.434,29.297,0
214003.762,30.273,34.180,30.273,39.062,11.719,0
214003.766,11.230,33.691,33.691,24.414,16.113,0
214003.770,24.414,37.598,37.109,33.691,27.344,0
214003.774,49.316,41.016,33.691,54.199,35.156,0
214003.778,32.715,37.109,32.227,43.457,35.156,0
214003.781,8.789,33.691,36.133,21.484,31.738,0
214003.785,14.648,32.227,38.086,20.020,21.973,0
214003.789,30.762,29.785,33.203,28.809,21.973,0
214003.793,34.180,29.785,23.926,31.738,30.273,0
214003.794,23.926,30.762,15.625,21.484,33.203,0
214003.798,20.996,35.156,14.648,13.672,42.480,0
214003.802,36.133,41.016,24.902,24.902,49.805,0
214003.806,47.363,39.062,32.715,34.668,48.340,0
214003.810,35.645,34.668,29.785,21.973,59.082,0
214003.813,34.668,34.668,29.297,8.789,45.410,0
214003.817,38.574,35.156,30.273,21.484,20.508,0
214003.821,40.039,36.133,29.785,33.691,22.461,0
214003.825,31.738,36.133,27.832,25.391,20.020,0
214003.829,16.113,38.086,25.391,19.531,32.227,0
214003.833,29.297,38.086,27.832,21.484,46.875,0
214003.837,44.434,33.691,31.250,32.227,44.922,0
214003.854,30.273,32.227,31.738,35.156,45.410,0
214003.858,17.090,32.227,28.320,23.926,55.664,0
214003.862,19.531,32.715,24.414,24.902,50.781,0
214003.866,35.645,34.668,33.691,38.086,38.574,0
214003.870,40.039,32.227,42.480,39.551,35.645,0
214003.874,20.996,30.273,38.574,22.461,34.180,0
214003.877,19.531,33.203,36.621,11.230,45.898,0
214003.881,38.574,34.668,37.598,25.879,56.152,0
214003.885,52.734,31.250,33.691,39.062,41.992,0
214003.889,45.410,30.762,30.762,22.461,31.738,0
214003.893,28.809,33.203,33.691,8.301,41.992,0
214003.897,39.062,33.203,38.574,22.461,50.293,0
214003.899,60.547,29.297,40.527,37.109,39.551,0
214003.903,45.898,30.762,41.016,35.156,25.879,0
214003.907,21.973,36.621,36.621,22.461,29.785,0
214003.911,22.949,35.645,33.691,21.973,44.434,0
214003.915,41.016,31.250,29.297,35.156,45.898,0
214003.918,33.691,26.367,25.391,32.715,21.973,0
214003.922,11.230,27.344,32.715,18.066,18.066,0
214003.926,16.602,30.273,36.621,13.672,29.785,0
214003.930,29.297,26.367,37.598,23.438,21.484,0
214003.934,26.367,29.297,40.527,36.133,20.508,0
214003.938,17.578,38.086,43.457,33.691,35.156,0
214003.942,19.043,37.109,43.945,23.926,40.039,0
214003.944,41.016,29.297,32.715,26.367,39.062,0
214003.948,60.059,28.320,27.832,36.621,35.645,0
214003.952,38.574,31.738,29.297,28.809,35.645,0
214003.956,16.602,35.156,26.855,13.672,37.598,0
214003.960,27.832,37.109,38.574,20.508,35.645,0
214003.963,43.457,34.668,42.480,36.133,25.879,0
214003.967,41.016,31.250,27.832,30.762,12.695,0
214003.971,17.578,31.250,23.926,18.066,16.602,0
214003.975,25.391,35.156,30.762,22.461,37.109,0
214003.979,55.176,37.109,37.598,41.992,55.176,0
214003.983,55.176,35.156,37.109,46.875,46.875,0
214003.987,21.484,39.062,32.715,29.297,40.527,0
214003.989,8.301,38.574,34.180,23.438,43.457,0
214003.993,35.156,31.738,42.480,37.109,39.062,0
214003.997,37.598,28.320,40.527,40.039,28.320,0
214004.001,22.461,27.344,28.320,26.855,18.555,0
214004.005,20.020,32.227,27.344,24.902,36.133,0
214004.009,27.832,31.250,35.645,35.156,49.805,0
214004.012,41.504,30.762,40.527,44.922,38.574,0
214004.016,33.691,36.133,39.551,39.062,41.016,0
214004.020,19.531,30.762,33.691,20.996,42.480,0
214004.024,29.785,26.367,37.109,21.973,34.668,0
214004.028,52.734,31.738,41.992,36.133,38.574,0
214004.032,52.246,35.645,39.551,35.156,37.598,0
214004.034,29.785,37.598,38.086,20.020,38.086,0
214004.038,28.809,43.945,39.062,20.020,51.270,0
214004.042,49.316,40.527,38.574,37.109,54.199,0
214004.046,47.852,37.109,37.598,41.016,37.598,0
214004.049,25.879,38.086,35.645,23.926,31.738,0
214004.053,23.926,34.668,33.691,14.160,31.738,0
214004.057,41.992,33.203,35.645,27.344,29.297,0
214004.061,41.504,31.250,34.668,32.227,23.438,0
214004.065,19.043,27.832,32.715,16.113,10.254,0
214004.069,10.742,31.250,34.668,12.207,28.809,0
214004.073,35.645,33.203,37.598,29.785,51.270,0
214004.077,55.176,30.762,42.480,44.922,41.504,0
214004.080,33.691,29.297,40.527,40.039,34.180,0
214004.084,18.555,32.227,42.480,29.297,33.691,0
214004.088,28.809,33.691,40.527,36.133,37.109,0
214004.091,44.434,33.203,35.156,44.434,27.344,0
214004.095,35.645,33.691,42.969,38.574,21.973,0
214004.099,22.949,35.156,41.992,27.344,29.297,0
214004.103,19.531,36.133,43.457,28.320,47.852,0
214004.107,44.434,35.156,43.457,45.410,59.082,0
214004.111,61.523,35.156,35.156,45.898,37.109,0
214004.115,28.809,29.785,36.621,25.879,26.855,0
214004.119,7.324,28.320,37.598,19.043,41.016,0
214004.123,23.926,33.691,34.668,34.180,42.480,0
214004.124,41.016,33.691,27.832,41.016,18.066,0
214004.128,29.297,31.250,24.414,22.461,4.395,0
214004.132,27.344,34.668,36.621,11.230,25.879,0
214004.136,27.344,33.691,36.621,20.508,54.688,0
214004.140,38.574,26.367,31.738,35.645,50.781,0
214004.144,36.133,24.414,27.832,32.715,28.809,0
214004.148,18.066,23.926,30.762,20.020,25.391,0
214004.152,25.879,25.879,35.645,19.531,43.457,0
214004.156,46.387,27.832,35.156,31.738,41.992,0
214004.159,43.457,27.832,33.203,35.156,19.531,0
214004.163,19.531,31.738,29.785,19.531,22.949,0
214004.167,28.809,33.203,29.785,16.602,41.016,0
214004.169,45.898,29.785,30.273,30.273,40.527,0
214004.173,28.320,23.926,35.645,34.668,23.926,0
214004.177,24.902,21.973,38.574,22.949,25.879,0
214004.181,19.531,25.879,38.086,14.160,27.832,0
214004.185,33.691,30.273,38.574,27.344,35.645,0
214004.188,44.922,31.250,33.203,39.062,40.527,0
214004.192,24.902,29.785,25.879,25.391,22.949,0
214004.196,14.648,33.203,27.344,16.602,29.297,0
214004.200,27.832,34.668,31.250,28.320,46.875,0
214004.204,50.293,32.715,35.156,45.898,44.922,0
214004.208,34.180,28.320,28.809,39.062,33.691,0
214004.212,20.508,29.785,24.414,20.508,31.738,0
214004.215,41.504,32.715,33.203,17.578,38.574,0
214004.219,38.574,31.250,31.738,26.367,32.715,0
214004.223,34.668,32.227,31.250,27.344,15.625,0
214004.227,23.438,31.738,32.715,13.184,24.902,0
214004.231,17.578,30.273,31.738,14.160,40.039,0
214004.235,42.480,33.691,33.691,32.227,43.457,0
214004.239,44.922,36.621,34.180,39.551,39.551,0
214004.243,27.832,34.180,33.691,25.391,35.156,0
214004.246,16.113,31.250,37.109,12.695,24.414,0
214004.250,35.645,31.738,35.645,21.973,21.973,0
214004.254,63.965,35.156,31.738,37.109,33.691,0
214004.258,28.320,32.715,29.297,27.832,27.832,0
214004.276,2.441,28.809,26.367,15.137,27.832,0
214004.280,23.438,29.297,28.320,24.902,41.504,0
214004.284,38.086,31.738,37.598,41.016,42.480,0
214004.288,33.691,32.715,42.480,36.621,34.180,0
214004.291,19.043,31.250,39.062,22.949,36.133,0
214004.295,20.996,31.250,34.180,15.625,31.250,0
214004.299,35.645,29.785,34.180,19.531,31.738,0
214004.303,34.668,27.344,33.203,28.320,26.855,0
214004.307,15.625,28.809,32.227,20.508,11.719,0
214004.311,11.230,29.785,38.086,16.113,16.602,0
214004.315,33.691,32.715,42.480,33.203,30.762,0
214004.319,48.340,34.668,39.062,42.480,36.133,0
214004.319,31.250,33.691,34.180,34.668,29.297,0
214004.323,17.578,34.180,38.574,23.926,26.367,0
214004.327,27.344,34.668,41.504,31.250,32.715,0
214004.331,48.828,35.645,39.551,45.898,30.762,0
214004.335,39.062,34.180,35.156,35.156,23.926,0
214004.338,10.742,31.738,35.156,17.090,32.715,0
214004.342,28.809,36.621,38.086,22.949,46.387,0
214004.346,47.852,37.598,36.621,44.434,47.852,0
214004.350,37.598,33.691,32.227,41.016,49.316,0
214004.354,19.531,34.180,34.668,16.113,42.969,0
214004.358,20.020,34.668,33.691,13.184,28.320,0
214004.362,37.598,31.738,31.250,30.762,29.297,0
214004.364,38.086,33.691,30.762,35.645,27.344,0
214004.368,23.926,41.504,27.832,23.926,23.926,0
214004.372,17.578,41.992,31.250,20.508,35.156,0
214004.376,30.762,33.203,33.203,33.203,40.039,0
214004.379,40.039,28.809,33.691,41.504,39.062,0
214004.383,27.832,31.250,31.250,33.691,31.738,0
214004.387,23.926,35.156,28.809,23.438,33.691,0
214004.391,37.598,34.668,28.809,31.738,51.758,0
214004.395,54.688,36.621,25.391,48.828,47.363,0
214004.399,55.176,38.086,27.344,44.922,38.574,0
214004.403,47.852,40.039,25.879,36.621,54.199,0
214004.407,47.363,41.992,30.762,41.992,66.895,0
214004.409,51.758,42.969,34.668,50.781,67.383,0
214004.413,52.246,38.574,29.785,46.875,50.293,0
214004.417,35.645,37.109,34.180,32.715,39.062,0
214004.421,31.250,36.133,32.715,25.879,33.203,0
214004.425,47.852,31.250,32.227,36.133,27.344,0
214004.429,54.199,32.715,28.320,43.945,33.691,0
214004.433,41.504,38.086,25.391,35.156,40.527,0
214004.436,36.133,37.109,27.832,31.738,59.570,0
214004.440,55.176,37.109,35.156,44.434,82.520,0
214004.444,72.754,42.969,39.551,58.594,68.848,0
214004.448,46.387,38.086,31.250,42.480,45.898,0
214004.452,24.902,28.320,27.832,19.531,42.480,0
214004.454,37.598,30.273,33.691,25.391,47.852,0
214004.458,53.223,33.203,36.621,41.016,45.898,0
214004.462,44.434,34.180,33.203,38.086,38.574,0
214004.466,26.855,35.156,27.344,22.949,38.574,0
214004.470,32.715,33.691,27.832,26.855,52.734,0
214004.474,54.199,39.062,31.738,44.434,58.594,0
214004.478,62.988,42.480,31.250,41.992,48.340,0
214004.481,32.715,36.133,29.785,19.531,41.504,0
214004.485,11.230,31.738,40.039,8.301,41.016,0
214004.489,32.715,31.738,41.992,21.484,35.156,0
214004.493,38.086,33.203,31.738,28.809,18.555,0
214004.497,16.602,31.250,25.879,19.531,32.227,0
214004.501,14.160,28.320,29.785,14.648,54.688,0
214004.505,29.785,27.344,38.574,24.902,50.293,0
214004.509,41.504,28.809,36.133,40.039,44.922,0
214004.513,29.785,31.738,35.645,38.086,30.273,0
214004.516,18.555,28.320,41.992,25.391,30.273,0
214004.520,31.250,24.414,45.410,22.949,34.668,0
214004.524,56.152,27.344,39.551,34.668,10.254,0
214004.528,56.152,30.273,33.203,33.691,0.977,0
214004.532,13.672,28.809,34.668,19.531,18.555,0
214004.536,0.000,26.855,35.645,18.555,41.992,0
214004.540,36.621,30.762,37.109,33.691,40.527,0
214004.544,53.223,34.668,35.645,39.062,28.809,0
214004.544,10.254,30.273,34.180,15.625,15.625,0
214004.548,-9.277,24.902,33.691,1.953,12.207,0
214004.552,22.461,24.902,30.762,14.160,13.672,0
214004.556,36.133,29.785,28.809,23.438,12.695,0
214004.560,13.672,31.738,35.156,20.020,12.695,0
214004.564,8.301,29.785,37.109,16.602,24.414,0
214004.568,29.785,29.297,36.133,26.855,41.016,0
214004.572,50.293,31.250,42.969,46.387,56.152,0
