timestamps,TP9,AF7,AF8,TP10,Right AUX,Marker0
213542.918,10.742,33.203,23.438,15.137,43.945,0
213542.922,36.133,41.016,37.598,41.504,55.176,0
213542.926,35.156,48.340,36.621,38.574,48.340,0
213542.930,8.301,36.621,29.785,12.207,19.043,0
213542.933,27.344,31.250,34.180,13.184,26.855,0
213542.937,39.062,31.738,47.363,31.738,35.645,0
213542.941,9.766,29.297,46.387,26.367,24.902,0
213542.945,2.441,27.832,41.504,4.883,24.414,0
213542.949,6.836,29.785,41.016,2.441,27.344,0
213542.953,23.926,37.598,45.410,22.949,40.527,0
213542.957,55.176,46.387,40.039,47.852,51.758,0
213542.961,39.062,42.480,27.344,31.738,35.156,0
213542.962,-2.930,32.227,33.691,4.395,33.203,0
213542.966,9.766,29.785,43.457,14.160,44.922,0
213542.970,45.410,39.062,42.969,35.645,36.621,0
213542.974,28.809,40.527,33.691,26.367,21.484,0
213542.978,-0.488,29.785,29.297,5.371,16.602,0
213542.982,6.348,30.273,30.273,7.812,25.879,0
213542.986,27.832,36.133,27.832,24.414,31.250,0
213542.989,33.203,40.527,24.414,30.762,29.297,0
213542.993,9.766,38.086,24.414,16.113,18.555,0
213542.997,-13.672,33.691,29.785,12.207,11.719,0
213543.001,14.160,31.250,36.133,26.855,20.508,0
213543.005,18.066,27.832,41.992,25.879,20.020,0
213543.009,-11.230,31.738,44.922,3.906,19.043,0
213543.013,-0.977,34.180,40.527,-6.348,26.367,0
213543.017,19.043,29.297,42.969,12.695,34.668,0
213543.020,41.016,26.367,29.785,27.832,36.621,0
213543.024,29.297,29.297,20.020,17.090,29.297,0
213543.028,5.371,35.645,36.133,7.324,33.691,0
213543.032,8.789,31.738,38.574,9.766,35.645,0
213543.036,25.391,28.320,22.461,23.926,25.879,0
213543.040,13.672,29.297,20.996,19.043,6.836,0
213543.044,-18.066,30.273,29.297,-4.883,-3.906,0
213543.048,-1.953,29.785,36.621,-3.906,13.672,0
213543.052,17.090,29.297,35.156,19.043,22.461,0
213543.068,5.371,27.832,31.738,20.508,17.090,0
213543.072,17.578,26.855,34.668,7.812,22.949,0
213543.076,19.043,30.762,42.969,8.789,31.738,0
213543.080,15.625,32.227,44.434,23.438,27.344,0
213543.084,35.645,34.180,32.715,32.715,24.414,0
213543.088,23.438,34.180,25.879,11.719,34.180,0
213543.092,0.000,33.203,39.062,-7.812,41.504,0
213543.096,2.441,33.203,44.434,6.348,55.176,0
213543.099,20.996,36.621,18.066,24.902,60.059,0
213543.103,22.949,37.598,-1.465,16.602,33.203,0
213543.107,17.090,37.109,9.766,2.441,21.973,0
213543.111,21.484,44.434,30.762,13.184,36.621,0
213543.112,29.785,42.480,44.434,30.273,20.508,0
213543.116,15.137,37.598,43.457,28.809,4.395,0
213543.120,13.184,33.691,30.762,8.301,19.531,0
213543.124,9.766,30.273,30.762,-1.953,38.574,0
213543.128,15.625,27.344,41.016,22.461,34.668,0
213543.132,39.062,29.297,33.691,29.785,21.973,0
213543.136,6.836,33.691,23.926,5.371,20.996,0
213543.140,2.441,34.668,26.367,2.930,29.785,0
213543.143,32.715,40.527,35.645,25.879,58.105,0
213543.147,31.250,45.410,44.922,34.180,32.715,0
213543.151,2.930,47.852,38.574,28.809,0.000,0
213543.155,-1.953,44.434,22.461,21.973,29.785,0
213543.157,15.137,31.738,21.973,22.461,43.945,0
213543.161,35.645,28.320,41.504,31.738,41.992,0
213543.165,23.926,33.691,52.246,22.461,32.227,0
213543.169,-5.371,36.621,53.711,4.883,23.438,0
213543.173,-2.930,38.086,54.688,12.207,30.273,0
213543.176,23.438,41.504,40.527,33.203,34.668,0
213543.180,18.555,40.527,32.715,27.344,27.832,0
213543.184,4.395,34.180,31.250,6.348,26.367,0
213543.188,1.953,31.250,26.367,7.812,35.156,0
213543.192,21.973,35.156,20.996,31.250,30.762,0
213543.196,42.969,37.109,21.484,43.945,12.207,0
213543.200,8.789,33.203,31.250,21.973,15.137,0
213543.202,14.648,26.367,43.457,9.766,23.926,0
213543.206,38.574,26.855,53.223,25.879,18.555,0
213543.210,23.926,32.715,50.781,34.180,22.461,0
213543.214,10.254,33.691,37.109,20.508,33.203,0
213543.218,1.465,28.809,33.691,6.836,41.504,0
213543.222,10.742,25.879,33.691,15.137,48.828,0
213543.225,18.555,32.715,20.020,39.062,57.129,0
213543.229,8.789,39.551,13.184,33.203,43.457,0
213543.233,3.906,36.133,29.297,12.207,17.090,0
213543.237,25.391,28.809,40.527,17.090,22.949,0
213543.241,48.340,27.344,41.504,33.691,24.414,0
213543.245,30.762,32.715,38.574,34.668,12.695,0
213543.247,5.371,36.133,28.320,13.672,22.461,0
213543.251,10.742,33.203,25.391,9.766,33.691,0
213543.255,31.738,34.180,23.438,38.086,50.293,0
213543.259,33.203,37.598,12.207,41.016,53.711,0
213543.263,15.137,34.668,11.719,5.371,33.203,0
213543.267,16.113,33.691,29.297,-1.465,38.086,0
213543.270,32.715,38.086,46.387,20.996,58.105,0
213543.274,29.297,39.062,53.711,31.250,46.387,0
213543.278,20.020,38.574,46.875,20.020,21.484,0
213543.282,11.230,36.133,37.109,11.719,33.203,0
213543.286,23.926,36.133,24.414,18.066,56.641,0
213543.290,40.039,35.645,25.391,29.785,63.965,0
213543.293,20.996,32.227,32.715,29.297,62.500,0
213543.297,13.672,38.574,31.738,19.531,56.152,0
213543.301,29.297,43.457,39.062,25.879,57.617,0
213543.305,32.227,37.109,35.156,40.527,55.664,0
213543.309,20.996,35.645,25.391,33.691,24.902,0
213543.313,25.879,36.621,21.973,7.812,13.672,0
213543.317,12.695,32.715,29.785,1.465,37.598,0
213543.321,14.160,32.227,32.227,18.066,46.875,0
213543.324,36.621,33.691,20.020,18.555,37.598,0
213543.328,27.832,35.156,22.461,7.812,27.832,0
213543.332,-6.836,36.621,30.762,3.418,25.879,0
213543.336,13.672,35.645,31.738,11.719,31.250,0
213543.337,50.293,40.039,26.367,37.109,24.902,0
213543.341,10.742,38.086,28.320,31.250,17.090,0
213543.345,-2.930,27.832,35.156,0.488,35.156,0
213543.349,26.855,30.762,39.062,8.301,55.664,0
213543.353,48.828,37.109,41.016,31.738,36.621,0
213543.357,51.270,41.504,29.297,20.508,28.320,0
213543.360,15.137,43.457,10.742,-2.930,32.227,0
213543.364,-1.465,35.645,12.695,-2.441,37.598,0
213543.368,24.414,29.785,27.832,16.113,40.527,0
213543.372,19.531,29.785,34.668,25.391,18.066,0
213543.376,-0.488,32.227,28.320,19.043,11.719,0
213543.380,4.395,31.738,18.066,10.254,30.762,0
213543.397,15.137,33.203,27.832,21.484,39.551,0
213543.401,40.039,38.086,39.062,38.086,32.715,0
213543.405,36.133,37.598,41.504,23.438,38.086,0
213543.409,10.742,31.738,35.156,11.230,58.105,0
213543.413,16.113,36.133,35.645,34.180,43.945,0
213543.417,26.367,44.434,37.598,49.316,26.855,0
213543.421,35.645,42.969,31.738,36.621,37.598,0
213543.424,44.434,42.480,34.180,20.508,48.340,0
213543.428,50.293,45.410,30.762,24.414,64.941,0
213543.432,52.246,42.969,18.066,47.363,58.594,0
213543.436,36.133,42.480,18.555,43.457,37.109,0
213543.440,12.207,43.945,18.066,15.137,45.898,0
213543.442,19.043,42.969,24.902,10.254,46.387,0
213543.446,29.785,37.598,41.992,25.391,35.156,0
213543.450,28.809,37.598,29.297,27.832,30.762,0
213543.454,17.090,44.434,18.066,17.090,17.090,0
213543.458,4.883,43.945,39.551,6.348,17.578,0
213543.462,23.438,44.922,53.711,22.461,50.781,0
213543.466,41.992,43.457,45.410,35.645,54.688,0
213543.470,23.438,35.645,23.926,23.438,20.020,0
213543.473,7.324,39.551,16.113,20.508,11.719,0
213543.477,25.879,41.504,52.246,24.414,24.902,0
213543.481,31.250,36.133,73.730,35.156,20.996,0
213543.485,20.996,35.645,58.594,28.320,14.648,0
213543.487,15.137,36.133,52.734,11.719,28.320,0
213543.491,14.160,38.574,32.715,16.602,38.574,0
213543.495,16.602,38.086,28.320,41.992,40.527,0
213543.499,17.090,38.574,48.828,43.945,39.551,0
213543.503,19.043,36.621,52.734,13.672,43.945,0
213543.507,19.531,28.809,46.875,4.883,54.199,0
213543.510,27.344,26.855,45.898,29.297,52.734,0
213543.514,46.387,30.273,36.133,44.922,40.039,0
213543.518,10.742,41.504,40.527,34.668,38.086,0
213543.522,0.977,46.387,56.152,24.902,35.645,0
213543.526,38.086,38.086,48.340,32.227,43.945,0
213543.530,44.922,39.062,39.551,43.945,38.086,0
213543.533,21.484,42.969,27.832,35.156,23.438,0
213543.537,19.043,42.969,21.484,19.043,34.668,0
213543.540,20.508,46.875,35.156,23.926,43.945,0
213543.544,26.855,45.410,43.457,35.645,42.969,0
213543.548,34.180,41.504,44.922,26.367,37.109,0
213543.552,28.809,39.551,40.039,7.812,39.062,0
213543.556,14.160,44.922,39.551,17.090,54.199,0
213543.560,44.434,46.875,43.945,39.062,69.824,0
213543.564,56.152,46.875,24.414,45.898,56.641,0
213543.568,8.301,46.875,12.207,37.109,34.180,0
213543.572,7.812,41.992,43.457,32.227,41.992,0
213543.576,38.574,40.039,62.012,35.156,58.594,0
213543.577,38.574,43.457,46.387,30.762,54.199,0
213543.581,24.902,46.387,38.086,21.484,39.551,0
213543.585,40.527,43.945,40.527,18.066,47.363,0
213543.589,45.410,42.969,39.551,34.668,54.199,0
213543.593,37.109,43.945,41.992,53.223,47.852,0
213543.597,39.551,44.922,51.270,45.410,56.152,0
213543.600,29.297,45.898,44.922,21.484,74.219,0
213543.604,35.156,45.410,40.039,15.625,73.242,0
213543.608,52.246,45.410,44.922,39.062,48.828,0
213543.612,28.320,44.922,30.273,37.109,41.992,0
213543.616,16.602,36.133,26.367,17.578,41.992,0
213543.620,22.949,35.156,35.156,15.625,46.387,0
213543.622,18.066,39.551,44.434,30.273,55.176,0
213543.626,42.969,36.133,45.898,39.062,50.781,0
213543.630,30.273,38.574,44.434,23.438,45.410,0
213543.634,2.930,43.945,45.898,15.625,42.969,0
213543.638,36.133,42.480,40.527,24.902,44.922,0
213543.642,41.504,37.598,24.902,25.879,37.598,0
213543.645,6.348,32.715,22.461,13.184,21.973,0
213543.649,1.465,32.715,37.598,6.348,45.410,0
213543.653,40.527,33.691,42.969,25.391,57.129,0
213543.657,62.988,37.598,46.875,46.875,29.785,0
213543.661,40.039,45.410,47.852,40.039,35.645,0
213543.665,7.324,50.781,43.457,25.391,62.500,0
213543.667,18.066,43.945,39.551,20.020,64.941,0
213543.671,39.551,36.133,40.039,37.598,54.688,0
213543.675,33.691,34.668,45.898,43.945,46.387,0
213543.679,30.273,34.180,44.434,21.973,51.270,0
213543.683,28.320,33.691,36.133,20.020,63.965,0
213543.687,50.781,35.645,39.062,47.363,83.984,0
213543.690,56.641,39.062,43.945,48.340,61.035,0
213543.694,30.273,41.992,41.016,22.461,20.020,0
213543.698,18.066,45.898,41.504,16.602,36.133,0
213543.702,43.457,45.898,42.969,33.691,52.246,0
213543.706,73.730,39.062,35.645,41.504,44.922,0
213543.710,45.410,34.668,26.367,27.344,62.500,0
213543.727,10.742,29.785,30.273,12.207,63.965,0
213543.731,23.438,30.273,40.039,23.926,47.363,0
213543.735,44.434,35.156,42.480,47.852,36.133,0
213543.739,27.344,36.133,36.133,34.180,11.719,0
213543.743,-11.230,37.109,37.598,16.602,9.277,0
213543.747,1.953,39.551,25.391,28.809,24.902,0
213543.751,30.762,33.203,1.953,38.574,25.391,0
213543.754,20.508,23.438,21.973,25.391,16.113,0
213543.758,-9.277,22.949,46.387,7.812,20.508,0
213543.762,-5.859,20.996,49.316,15.625,24.414,0
213543.766,22.461,19.043,46.387,33.203,33.203,0
213543.770,45.898,21.973,42.480,31.250,37.598,0
213543.772,26.855,27.832,35.156,13.672,37.598,0
213543.776,8.301,31.250,26.367,7.324,41.992,0
213543.780,29.297,32.227,16.113,29.297,51.758,0
213543.784,53.711,33.203,25.391,47.852,56.152,0
213543.788,25.879,34.668,44.922,26.367,52.246,0
213543.791,8.301,30.762,47.852,6.836,58.105,0
213543.795,25.391,25.391,52.734,23.438,48.828,0
213543.799,27.344,26.855,49.316,36.621,28.320,0
213543.803,20.996,29.785,33.691,25.391,24.414,0
213543.807,19.531,35.645,20.508,3.906,34.668,0
213543.811,19.531,35.645,22.461,-3.906,43.945,0
213543.815,28.809,29.785,30.762,19.531,62.500,0
213543.817,51.758,31.738,25.391,33.203,45.410,0
213543.821,25.391,30.762,2.441,21.484,39.062,0
213543.825,-18.555,36.621,16.113,16.602,59.082,0
213543.829,19.043,41.992,35.156,32.227,49.316,0
213543.833,32.227,28.320,26.367,38.086,32.715,0
213543.836,14.160,20.996,32.227,16.602,22.949,0
213543.840,9.766,23.926,41.504,-0.977,27.832,0
213543.844,27.344,21.973,44.922,11.719,30.762,0
213543.848,38.574,22.949,37.109,35.645,38.086,0
213543.852,6.348,30.273,32.715,31.738,38.086,0
213543.856,-8.301,32.227,30.762,13.184,31.738,0
213543.860,18.066,28.809,30.762,19.043,49.805,0
213543.862,34.180,26.855,40.039,40.039,62.988,0
213543.866,21.973,30.273,34.180,33.691,55.664,0
213543.870,21.973,36.621,32.227,18.555,39.551,0
213543.874,9.766,33.203,27.832,20.508,41.504,0
213543.878,26.855,27.832,27.832,32.715,50.293,0
213543.882,32.715,31.250,43.457,45.410,45.410,0
213543.886,14.648,30.762,36.621,31.250,42.480,0
213543.889,16.113,30.273,30.762,18.555,47.852,0
213543.893,34.180,36.621,35.645,31.738,54.199,0
213543.897,53.711,36.133,38.086,37.109,58.594,0
213543.901,44.434,35.645,37.598,27.344,67.871,0
213543.905,26.855,41.504,24.902,28.809,66.895,0
213543.907,33.691,39.062,30.762,41.504,41.992,0
213543.911,43.945,38.574,46.387,47.852,24.902,0
213543.915,23.926,37.109,36.133,30.762,18.066,0
213543.919,20.020,33.203,25.879,6.836,25.879,0
213543.923,23.926,35.645,31.250,18.555,41.016,0
213543.927,44.922,30.762,32.715,38.086,44.922,0
213543.930,45.410,21.973,22.949,38.086,49.805,0
213543.934,33.203,24.414,26.855,22.949,58.594,0
213543.938,27.832,30.273,34.180,23.438,62.988,0
213543.942,40.039,29.785,30.273,41.016,56.641,0
213543.946,59.082,31.250,26.367,41.992,58.594,0
213543.950,26.367,29.785,31.250,31.738,59.570,0
213543.952,40.039,31.250,36.133,24.902,63.477,0
213543.956,71.777,36.133,38.086,39.551,67.383,0
213543.960,54.688,35.156,32.715,59.570,69.824,0
213543.964,28.320,34.180,24.414,38.086,71.777,0
213543.968,20.508,33.691,27.344,20.020,66.895,0
213543.971,45.898,36.621,24.902,38.086,62.012,0
213543.975,55.176,33.203,6.836,47.852,52.246,0
213543.979,47.852,27.344,17.090,36.133,35.645,0
213543.983,37.109,31.250,49.316,17.090,28.320,0
213543.987,18.555,36.621,52.734,23.438,52.734,0
213543.991,29.785,35.156,41.992,41.016,63.477,0
213543.995,49.316,36.621,37.109,36.621,25.391,0
213543.997,29.785,42.969,35.156,20.996,24.902,0
213544.001,9.277,35.645,41.016,15.137,49.805,0
213544.005,23.438,29.297,36.621,34.668,48.340,0
213544.009,29.785,33.203,34.180,48.340,32.227,0
213544.012,25.391,25.879,27.832,30.273,24.902,0
213544.016,32.715,16.602,24.902,17.578,26.855,0
213544.020,31.738,16.113,34.180,27.832,32.227,0
213544.024,48.340,15.137,40.527,41.504,28.320,0
213544.028,20.996,11.719,31.250,33.691,18.555,0
213544.032,-4.883,16.602,17.090,3.906,30.273,0
213544.036,26.855,21.973,25.879,5.859,41.016,0
213544.040,28.320,18.066,30.762,23.926,22.949,0
213544.043,13.672,17.578,28.320,20.020,1.953,0
213544.047,17.578,20.996,12.207,4.883,14.648,0
213544.051,11.230,20.508,13.184,9.277,37.109,0
213544.055,28.809,19.531,32.715,24.414,39.062,0
213544.059,38.086,20.020,33.203,26.367,43.945,0
213544.063,2.441,22.949,22.461,16.602,52.734,0
213544.067,8.301,24.902,25.391,15.625,54.199,0
213544.071,23.438,23.438,32.715,32.227,50.293,0
213544.074,29.785,23.438,31.250,33.691,34.180,0
213544.078,27.344,18.066,31.738,15.137,27.344,0
213544.082,18.555,20.508,34.180,11.719,49.805,0
213544.086,22.949,24.414,37.598,23.438,67.871,0
213544.102,15.137,18.555,32.715,28.320,56.152,0
213544.106,13.184,20.996,20.996,16.113,38.574,0
213544.110,20.508,25.879,29.297,-5.859,23.438,0
213544.114,26.855,25.391,44.922,2.930,13.672,0
213544.118,29.785,26.367,29.297,27.344,14.160,0
213544.122,0.000,27.344,7.812,23.926,7.324,0
213544.125,-20.508,29.297,21.973,4.395,-4.883,0
213544.129,-0.488,32.715,42.969,-1.465,14.160,0
213544.133,23.438,29.785,45.898,19.043,54.688,0
213544.137,64.941,27.344,44.434,28.809,50.781,0
213544.141,37.598,25.879,41.992,14.160,14.160,0
213544.145,-20.508,22.949,38.574,1.465,10.742,0
213544.147,7.324,27.344,39.551,10.742,25.391,0
213544.151,21.973,33.203,38.574,25.879,22.949,0
213544.155,-1.953,35.156,29.297,16.113,17.090,0
213544.159,-4.395,34.668,31.738,7.324,31.250,0
213544.163,20.996,36.621,38.086,23.438,62.500,0
213544.167,52.734,38.086,23.926,36.621,56.641,0
213544.171,50.781,37.109,13.184,26.855,42.969,0
213544.175,2.441,31.250,26.855,6.836,54.199,0
213544.179,-4.883,23.926,29.785,9.766,43.945,0
213544.183,18.555,24.414,23.438,31.738,31.250,0
213544.186,19.043,30.273,23.438,28.809,14.648,0
213544.190,5.859,33.203,18.555,8.301,13.672,0
213544.192,10.254,31.250,29.297,8.789,27.344,0
213544.196,35.645,26.855,44.434,25.391,41.016,0
213544.200,32.715,24.902,46.875,27.832,39.551,0
213544.204,6.348,34.180,44.922,10.742,31.738,0
213544.208,-5.859,40.527,44.434,9.277,38.086,0
213544.212,28.320,33.203,37.109,20.996,39.551,0
213544.216,64.453,30.762,33.691,33.203,37.598,0
213544.219,33.203,29.785,37.598,18.555,42.480,0
213544.223,-7.812,25.879,35.645,0.000,46.387,0
213544.227,-5.859,25.391,39.551,15.625,62.500,0
213544.231,23.438,22.461,44.922,35.645,71.289,0
213544.235,26.367,21.973,36.621,31.738,44.922,0
213544.237,7.324,26.367,29.297,15.625,27.832,0
213544.241,23.438,26.367,31.738,20.020,40.527,0
213544.245,52.734,31.250,22.461,26.367,33.203,0
213544.249,36.621,37.598,22.949,19.531,26.367,0
213544.253,-4.395,36.621,31.250,8.789,34.668,0
213544.257,-2.441,33.691,36.133,13.184,29.785,0
213544.261,34.668,30.762,42.969,31.738,35.645,0
213544.264,49.805,31.738,36.133,36.621,43.457,0
213544.268,34.180,33.203,30.273,20.020,39.551,0
213544.272,18.066,34.668,32.715,3.418,36.621,0
213544.276,15.625,34.668,38.086,16.113,35.645,0
213544.280,23.438,34.668,38.086,32.227,29.785,0
213544.284,7.324,35.156,25.879,20.508,21.973,0
213544.288,5.371,39.551,21.484,5.371,38.574,0
213544.292,41.992,41.016,30.762,11.230,62.012,0
213544.296,51.758,36.621,28.809,29.297,50.781,0
213544.300,13.672,32.715,20.996,26.367,31.250,0
213544.303,5.371,32.715,26.367,8.301,31.738,0
213544.307,16.602,36.133,29.785,10.254,42.969,0
213544.311,25.391,38.086,26.855,32.227,46.875,0
213544.315,18.555,39.062,28.809,30.762,33.203,0
213544.319,28.809,44.434,31.738,7.812,26.855,0
213544.323,30.273,44.922,29.297,7.812,44.434,0
213544.327,14.648,41.504,21.973,25.879,53.223,0
213544.327,30.762,41.992,19.043,41.504,54.199,0
213544.331,43.945,48.340,33.203,30.762,69.336,0
213544.335,25.391,49.805,41.504,6.836,78.125,0
213544.339,41.504,42.480,42.480,19.043,58.594,0
213544.343,56.641,36.133,40.039,34.180,36.133,0
213544.347,30.762,33.203,31.738,20.996,22.461,0
213544.351,18.555,32.715,30.762,7.324,20.020,0
213544.354,12.207,33.691,32.227,10.742,36.133,0
213544.358,26.367,34.180,37.109,25.391,44.434,0
213544.362,27.344,34.180,38.086,20.996,36.133,0
213544.366,9.766,36.133,31.250,7.812,35.156,0
213544.370,19.043,37.109,41.992,7.324,39.062,0
213544.372,38.574,36.133,54.688,27.832,39.551,0
213544.376,34.180,44.922,46.387,43.457,44.922,0
213544.380,12.207,51.758,35.156,29.785,45.410,0
213544.384,6.348,44.434,41.016,15.137,55.176,0
213544.388,39.062,36.621,48.828,18.555,44.922,0
213544.392,63.477,40.527,43.945,33.203,20.020,0
213544.395,21.484,44.434,28.320,21.973,29.785,0
213544.399,1.953,39.062,20.996,-5.859,39.062,0
213544.403,10.254,38.574,38.574,7.812,28.809,0
213544.407,25.391,36.621,34.180,30.762,18.555,0
213544.411,11.230,37.598,23.926,22.461,12.207,0
213544.415,-0.488,45.410,26.367,9.277,21.484,0
213544.417,29.785,41.504,21.973,12.207,37.598,0
213544.421,42.969,34.668,24.414,21.973,40.039,0
213544.425,18.555,33.691,28.320,12.695,33.691,0
213544.429,-14.160,33.203,27.832,-7.324,29.297,0
213544.433,-6.836,32.715,31.738,-10.254,35.645,0
213544.437,28.320,36.621,30.762,13.184,44.922,0
213544.440,35.156,41.504,25.391,25.879,40.039,0
213544.444,33.691,42.969,25.391,9.766,34.180,0
213544.448,38.574,48.340,26.855,4.395,51.758,0
213544.452,33.691,49.805,23.926,22.949,91.309,0
213544.456,30.273,38.574,17.578,39.062,69.336,0
213544.460,10.742,29.297,11.719,22.461,17.578,0
213544.477,-4.395,28.320,14.160,5.859,21.973,0
213544.481,40.527,27.832,21.484,7.812,31.738,0
213544.485,58.105,29.785,21.484,17.090,24.902,0
213544.489,11.230,37.598,32.715,20.996,21.484,0
213544.493,0.488,38.574,32.227,8.789,36.621,0
213544.497,24.414,32.715,26.855,15.625,43.457,0
213544.501,50.781,33.203,37.598,41.504,50.293,0
213544.505,39.551,37.109,34.668,40.527,45.898,0
213544.508,11.230,37.109,32.227,20.020,50.781,0
213544.512,19.043,35.645,36.133,20.020,66.406,0
213544.516,35.156,33.203,30.273,41.504,56.641,0
213544.520,29.785,28.809,26.855,50.781,39.062,0
213544.522,20.508,26.855,18.555,27.832,31.738,0
213544.526,12.207,28.320,17.090,12.207,31.250,0
213544.530,25.391,33.203,27.344,39.062,44.922,0
213544.534,44.434,36.133,24.414,52.246,50.293,0
213544.538,55.176,33.203,23.438,20.508,39.062,0
213544.542,30.762,33.691,39.551,5.859,43.945,0
213544.545,9.766,35.156,47.363,15.625,62.012,0
213544.549,49.805,34.668,38.574,28.320,62.988,0
213544.553,46.387,27.832,25.879,24.414,44.434,0
213544.557,-6.348,20.508,8.301,7.324,43.945,0
213544.561,9.277,21.973,15.625,7.812,58.105,0
213544.565,29.785,26.855,37.598,33.691,52.246,0
213544.568,17.090,29.785,40.527,42.480,45.410,0
213544.572,8.301,28.809,26.367,18.555,60.547,0
213544.576,-2.930,28.320,25.391,8.301,46.875,0
213544.579,27.832,27.344,28.809,31.250,10.254,0
213544.583,47.363,32.227,19.531,40.039,10.742,0
213544.587,8.789,39.062,14.648,16.113,15.625,0
213544.591,-2.441,38.086,26.855,3.418,12.207,0
213544.595,19.531,31.738,39.062,17.578,19.531,0
213544.599,40.527,30.762,31.250,37.598,32.715,0
213544.603,32.227,31.738,26.855,25.391,37.109,0
213544.607,30.273,30.762,27.832,1.465,48.828,0
213544.611,35.156,30.273,27.832,3.906,56.641,0
213544.612,36.621,29.297,27.344,23.926,59.570,0
213544.616,32.227,28.809,23.926,29.297,63.965,0
213544.620,17.578,31.738,23.926,21.973,59.570,0
213544.624,28.320,34.180,30.762,23.438,65.918,0
213544.628,44.922,35.645,36.133,36.621,66.406,0
213544.632,35.645,36.133,29.785,33.203,61.523,0
213544.635,18.066,33.203,29.297,9.277,50.293,0
213544.639,3.906,24.902,27.832,8.301,24.414,0
213544.643,13.184,18.555,21.973,29.785,24.414,0
213544.647,25.879,20.996,29.297,41.992,32.715,0
213544.651,14.160,28.320,33.203,25.391,35.645,0
213544.655,-1.953,30.273,28.809,2.930,47.363,0
213544.657,3.906,29.785,34.668,15.625,46.875,0
213544.661,34.180,32.227,41.016,33.691,41.016,0
213544.665,22.949,32.227,36.133,22.949,41.992,0
213544.669,0.977,36.133,33.691,9.766,57.129,0
213544.673,21.973,36.621,29.785,14.648,56.152,0
213544.677,31.738,36.621,20.020,27.832,52.734,0
213544.680,14.648,40.039,18.555,29.297,57.129,0
213544.684,-1.465,33.203,20.508,9.277,14.160,0
213544.688,9.766,23.926,17.578,4.395,-1.953,0
213544.692,27.832,26.367,22.461,22.949,17.578,0
213544.696,42.969,38.086,26.367,29.785,19.043,0
213544.700,40.039,39.062,15.137,10.742,14.160,0
213544.702,6.348,33.691,23.438,0.977,21.484,0
213544.706,20.020,32.227,37.109,21.484,36.621,0
213544.710,51.758,37.598,31.250,37.109,41.992,0
213544.714,27.832,40.039,23.926,27.832,43.457,0
213544.718,-2.930,35.156,18.066,13.672,47.363,0
213544.722,0.977,34.668,20.508,18.066,44.922,0
213544.726,44.434,32.227,20.020,26.855,28.809,0
213544.730,40.527,28.809,20.508,16.113,26.855,0
213544.734,-16.602,31.738,27.832,2.930,41.016,0
213544.738,-2.930,36.133,29.297,10.254,46.387,0
213544.742,14.648,33.691,20.996,27.832,40.527,0
213544.745,8.789,31.250,16.602,27.344,34.668,0
213544.749,20.020,33.203,11.230,6.348,48.828,0
213544.753,37.109,31.738,13.184,5.859,49.805,0
213544.757,14.648,34.668,22.461,26.367,25.391,0
213544.761,-1.465,41.504,18.555,36.133,4.883,0
213544.765,-3.418,45.898,20.996,22.461,7.324,0
213544.768,7.812,47.852,28.320,9.277,27.832,0
213544.772,38.086,44.434,37.598,24.414,46.387,0
213544.776,66.406,35.156,31.250,38.086,46.875,0
213544.780,46.387,32.227,20.020,18.555,41.504,0
213544.784,5.371,34.668,28.320,2.441,39.551,0
213544.788,9.277,33.203,35.156,11.719,33.203,0
213544.792,40.527,34.668,32.715,31.250,26.855,0
213544.792,31.738,35.645,24.902,26.367,21.973,0
213544.796,26.367,39.551,26.855,15.137,30.762,0
213544.800,17.578,42.969,31.738,18.555,37.598,0
213544.804,20.508,35.645,29.297,34.668,37.598,0
213544.808,43.457,32.715,25.391,43.945,33.203,0
213544.811,37.109,35.645,21.484,25.879,26.367,0
213544.815,33.691,34.668,22.949,15.625,37.109,0
213544.819,33.691,30.273,29.297,27.832,47.852,0
213544.823,30.762,26.367,32.715,32.227,40.527,0
213544.827,21.973,25.879,24.902,22.461,54.688,0
213544.831,11.719,28.809,24.902,19.531,89.355,0
213544.835,22.949,33.691,27.344,35.156,65.918,0
213544.852,75.195,37.598,29.297,58.594,39.062,0
213544.856,68.848,42.480,33.691,47.852,47.363,0
213544.860,13.672,41.992,40.039,24.902,29.785,0
213544.864,40.039,36.133,44.434,27.832,20.508,0
213544.868,51.758,30.762,42.969,36.621,31.250,0
213544.872,13.672,26.367,21.484,26.855,31.250,0
213544.875,4.883,22.949,-4.883,5.859,22.461,0
213544.879,38.574,21.973,19.531,6.348,21.973,0
213544.883,53.711,26.855,48.340,28.809,23.438,0
213544.887,21.484,29.785,37.109,37.109,19.531,0
213544.891,-9.277,32.715,37.598,18.066,18.066,0
213544.895,-2.930,35.156,50.781,12.695,29.297,0
213544.898,48.340,38.086,49.805,34.180,45.410,0
213544.901,57.129,38.086,42.480,41.016,50.781,0
213544.905,3.906,31.738,39.551,22.949,42.480,0
213544.909,4.395,27.832,41.504,11.230,38.574,0
213544.913,33.203,28.320,41.992,20.020,48.340,0
213544.917,48.340,31.250,38.574,33.691,47.363,0
213544.921,28.320,31.738,35.645,22.949,34.180,0
213544.925,8.789,37.109,35.645,8.789,38.574,0
213544.929,34.668,44.434,38.086,13.672,45.898,0
213544.933,47.363,44.922,36.133,31.250,33.203,0
213544.937,41.992,39.062,30.762,31.250,23.438,0
213544.941,11.230,38.574,11.230,14.648,35.645,0
213544.942,-5.859,40.039,7.812,11.719,48.340,0
213544.946,38.574,33.691,21.484,22.461,42.480,0
213544.950,51.758,30.762,36.133,24.414,35.645,0
213544.954,8.789,36.133,51.758,14.648,46.387,0
213544.958,-12.695,35.156,52.734,8.789,55.664,0
213544.962,12.695,30.273,49.805,19.531,41.504,0
213544.965,38.574,32.715,41.504,31.738,14.160,0
213544.969,38.086,37.109,37.598,20.020,5.371,0
213544.973,16.602,32.227,26.855,-4.395,42.480,0
213544.977,10.254,32.227,20.508,-2.930,62.500,0
213544.981,26.855,37.109,23.438,17.090,32.715,0
213544.985,4.395,31.250,19.043,15.625,7.324,0
213544.987,21.484,28.809,15.625,1.465,6.836,0
213544.991,27.344,30.273,17.578,-0.488,18.066,0
213544.995,-0.488,26.855,27.344,18.066,26.367,0
213544.999,15.137,29.785,40.039,23.438,30.273,0
213545.003,-0.977,30.273,29.297,9.277,31.250,0
213545.006,-5.859,26.367,15.137,1.465,40.527,0
213545.010,29.297,24.902,19.043,14.160,49.316,0
213545.014,31.250,30.762,29.785,29.785,38.574,0
213545.018,16.602,38.086,27.832,14.160,40.527,0
213545.022,12.207,33.203,26.855,-1.953,49.805,0
213545.026,2.441,24.414,37.109,12.695,35.645,0
213545.030,7.812,21.484,36.133,29.785,36.621,0
213545.032,-1.465,25.879,26.855,20.996,38.086,0
213545.036,-10.742,35.645,23.926,5.371,46.875,0
213545.040,35.156,29.785,36.621,8.301,59.570,0
213545.044,52.246,26.855,37.598,29.785,41.016,0
213545.048,17.090,34.180,21.484,28.320,23.438,0
213545.052,9.766,35.156,13.184,8.789,31.250,0
213545.055,7.324,36.133,23.438,9.277,44.922,0
213545.059,15.137,35.645,38.086,29.297,40.527,0
213545.063,19.043,36.621,41.504,33.691,38.086,0
213545.067,17.090,32.227,37.109,7.812,41.016,0
213545.071,32.715,24.902,34.180,-4.883,36.621,0
213545.075,35.645,22.949,36.133,16.602,36.621,0
213545.077,14.160,27.832,32.227,34.180,33.691,0
213545.081,2.930,32.227,36.621,22.949,39.062,0
213545.085,0.488,32.715,35.156,10.742,54.688,0
213545.089,20.508,28.320,33.203,15.625,45.898,0
213545.093,41.504,31.738,42.480,34.180,29.297,0
213545.097,18.555,42.969,42.480,30.762,37.109,0
213545.100,2.441,33.203,33.691,5.371,44.434,0
213545.104,-0.488,18.066,24.414,5.859,48.340,0
213545.108,27.832,18.555,23.926,24.902,44.434,0
213545.112,18.555,24.902,26.855,30.273,30.762,0
213545.116,11.719,29.297,26.855,8.789,31.250,0
213545.120,35.156,34.180,31.250,3.418,28.320,0
213545.123,35.156,35.645,38.574,28.320,31.738,0
213545.127,29.785,38.086,43.945,41.504,50.781,0
213545.130,20.020,44.434,41.016,28.320,44.922,0
213545.134,26.367,42.969,34.180,19.043,41.992,0
213545.138,51.270,33.691,29.297,29.297,56.152,0
213545.142,36.133,28.320,23.438,34.668,49.316,0
213545.146,12.695,31.250,17.090,22.461,35.156,0
213545.150,10.254,32.715,20.020,7.812,41.016,0
213545.154,20.020,29.785,39.062,17.090,58.594,0
213545.158,52.734,33.691,39.551,38.086,45.410,0
213545.162,39.551,35.645,30.762,31.250,26.367,0
213545.166,3.906,36.621,24.902,12.695,54.199,0
213545.167,5.859,37.598,30.273,21.973,101.562,0
213545.171,27.344,33.203,38.574,41.992,61.523,0
213545.175,50.293,29.297,34.668,31.738,4.883,0
213545.179,31.250,31.738,32.227,10.742,9.277,0
213545.183,8.789,36.133,30.273,12.695,15.137,0
213545.187,28.320,34.180,31.250,32.227,16.602,0
213545.190,49.316,30.273,30.762,32.227,11.230,0
213545.194,12.207,31.250,26.367,14.648,23.926,0
213545.198,-31.250,30.273,26.855,3.906,34.668,0
213545.202,26.855,31.738,31.250,17.090,31.738,0
213545.206,68.848,34.668,34.180,38.086,35.645,0
213545.210,5.859,32.715,34.180,27.344,32.227,0
213545.213,-20.508,34.668,41.504,1.465,20.508,0
213545.217,30.762,36.621,43.945,13.184,32.715,0
213545.221,42.969,30.273,37.109,36.133,43.457,0
213545.225,4.883,26.855,34.180,30.273,28.320,0
213545.229,-9.766,26.855,35.645,20.508,41.016,0
213545.233,31.738,28.809,35.645,21.484,62.500,0
213545.237,62.012,32.227,42.480,35.645,57.129,0
213545.241,45.898,32.715,51.270,41.504,41.992,0
213545.245,24.902,38.086,43.457,24.902,33.203,0
213545.249,-1.953,44.922,43.457,18.066,36.133,0
213545.252,18.555,36.621,47.363,32.227,36.621,0
213545.256,37.109,30.762,40.039,41.504,24.902,0
213545.273,28.809,30.762,31.738,25.879,29.297,0
213545.277,33.691,27.344,24.902,5.859,48.340,0
213545.281,20.508,28.320,33.691,26.855,58.594,0
213545.285,35.645,30.762,44.922,45.898,53.223,0
213545.289,50.293,29.297,35.156,26.367,41.504,0
213545.293,9.766,28.320,29.297,9.277,43.945,0
213545.297,-4.395,30.273,40.039,13.184,29.785,0
213545.301,26.855,33.691,40.039,31.738,35.645,0
213545.305,14.648,32.227,26.367,28.809,52.246,0
213545.308,4.883,30.273,22.949,15.625,22.949,0
213545.312,18.066,32.715,39.062,19.043,17.578,0
213545.316,28.320,36.621,48.340,43.457,37.109,0
213545.317,42.480,37.109,32.715,48.828,31.250,0
213545.321,16.113,36.621,20.020,18.555,25.391,0
213545.325,5.859,38.574,24.414,10.742,36.133,0
213545.329,40.039,41.016,35.156,40.039,40.039,0
213545.333,48.340,41.992,24.414,43.457,44.434,0
213545.337,13.184,33.691,12.207,16.602,45.410,0
213545.340,19.531,30.273,26.367,3.418,36.621,0
213545.344,39.551,32.227,35.156,8.789,47.363,0
213545.348,32.715,34.180,28.809,27.832,53.711,0
213545.352,12.695,33.691,28.809,29.785,26.367,0
213545.356,-5.371,32.715,39.062,20.020,17.090,0
213545.360,16.602,33.691,38.574,21.973,38.574,0
213545.362,28.809,32.715,32.715,38.574,51.270,0
213545.366,18.555,37.109,20.020,38.574,39.551,0
213545.370,6.836,39.551,10.742,18.555,33.203,0
213545.374,14.648,35.156,18.066,17.578,38.574,0
213545.378,58.594,31.738,33.691,36.133,38.086,0
213545.382,35.156,31.738,41.016,39.551,30.273,0
213545.385,-5.371,34.668,41.016,15.625,19.043,0
213545.389,-0.488,34.668,39.062,4.395,20.996,0
213545.393,14.648,30.762,38.574,20.508,33.203,0
213545.397,40.039,28.809,35.645,37.109,23.438,0
213545.401,21.973,36.621,34.668,24.902,20.508,0
213545.405,-8.789,40.039,36.621,11.230,43.945,0
213545.407,17.090,30.762,36.621,24.414,26.367,0
213545.411,29.297,26.855,37.109,34.668,2.441,0
213545.415,13.672,28.320,25.391,19.043,3.906,0
213545.419,-0.488,33.203,21.973,-3.418,19.531,0
213545.423,9.766,40.527,31.738,3.418,36.621,0
213545.426,30.273,36.621,33.203,29.785,28.809,0
213545.430,35.156,29.297,30.273,35.156,22.949,0
213545.434,13.672,25.879,28.320,19.531,26.855,0
213545.438,-8.301,29.297,36.133,11.230,39.062,0
213545.442,15.625,31.250,41.992,18.066,46.875,0
213545.446,28.320,33.691,31.738,23.438,37.109,0
213545.450,-4.883,36.621,31.250,10.254,23.926,0
213545.452,-11.230,36.621,38.086,6.836,48.828,0
213545.456,20.020,36.133,39.062,29.297,82.031,0
213545.460,34.180,38.086,31.738,37.598,42.480,0
213545.464,39.062,41.504,20.508,26.855,21.973,0
213545.468,14.160,38.086,15.625,11.719,39.062,0
213545.472,18.066,30.273,27.832,14.648,31.738,0
213545.475,42.480,26.367,33.203,31.738,31.250,0
213545.479,16.602,27.832,25.879,20.996,33.203,0
213545.483,-3.418,31.250,31.250,-1.465,37.109,0
213545.487,11.230,34.668,34.180,2.930,39.062,0
213545.491,38.574,33.691,30.273,15.625,32.227,0
213545.495,33.203,34.668,26.367,17.578,23.926,0
213545.499,22.949,43.945,30.273,9.766,34.668,0
213545.503,13.672,43.457,32.227,10.254,40.039,0
213545.506,10.254,30.762,26.855,21.484,52.246,0
213545.510,27.344,28.320,21.973,30.762,51.270,0
213545.514,21.973,34.180,23.438,18.555,29.785,0
213545.518,9.277,39.062,27.832,9.766,25.391,0
213545.522,33.691,37.598,33.203,30.273,36.133,0
213545.526,47.852,32.227,35.645,37.598,37.109,0
213545.530,23.438,28.320,28.809,19.043,36.621,0
213545.534,16.113,35.645,27.832,4.883,53.711,0
213545.538,25.879,41.504,39.062,12.207,61.035,0
213545.542,45.898,34.180,36.133,28.320,70.801,0
213545.543,27.832,29.297,26.855,24.414,60.547,0
213545.547,12.207,32.715,26.367,8.789,64.453,0
213545.551,23.926,33.203,30.762,17.090,80.078,0
213545.555,26.855,29.297,29.297,37.109,64.453,0
213545.559,34.180,31.738,23.438,44.922,58.105,0
213545.563,18.066,37.598,24.902,33.203,47.852,0
213545.567,3.418,38.086,25.879,22.949,27.344,0
213545.571,23.926,33.203,33.691,29.297,13.184,0
213545.575,20.508,28.809,40.039,32.715,8.789,0
213545.578,19.043,27.832,35.645,20.996,7.812,0
213545.582,6.836,32.715,30.762,9.277,15.625,0
213545.586,0.000,33.691,31.250,14.160,37.109,0
213545.602,23.438,31.738,34.180,30.273,36.621,0
213545.606,14.160,31.738,29.785,25.391,23.438,0
213545.610,4.883,38.086,25.879,11.230,40.527,0
213545.614,28.320,43.945,34.668,26.367,65.430,0
213545.618,42.480,37.598,35.156,40.039,68.359,0
213545.622,34.180,32.227,21.973,25.879,56.641,0
213545.626,23.438,34.180,24.414,8.301,43.457,0
213545.630,14.160,31.738,31.250,3.418,42.969,0
213545.634,18.066,32.715,36.133,24.414,37.598,0
213545.637,27.832,37.598,37.109,41.016,26.367,0
213545.641,16.602,38.086,32.227,18.555,22.461,0
213545.645,4.395,35.645,31.738,-1.465,24.414,0
213545.647,23.438,27.344,33.691,23.926,45.410,0
213545.651,39.551,23.438,33.691,43.945,56.152,0
213545.655,42.480,32.227,27.344,14.648,35.645,0
213545.659,29.785,41.016,13.672,-15.137,20.996,0
213545.663,3.906,48.340,18.066,-3.906,34.668,0
213545.667,4.883,50.781,35.645,17.090,37.598,0
213545.671,12.695,42.480,29.297,22.461,25.391,0
213545.675,12.695,32.715,17.090,1.953,24.414,0
213545.679,3.418,34.180,23.438,-4.395,44.922,0
213545.683,20.508,36.133,29.297,19.043,51.758,0
213545.686,37.598,35.645,29.785,25.391,32.715,0
213545.690,10.742,40.527,29.297,13.184,38.086,0
213545.692,10.254,39.551,29.785,14.648,53.223,0
213545.696,53.711,39.551,35.156,30.273,52.734,0
213545.700,40.039,41.504,34.668,38.086,64.941,0
213545.704,10.742,36.621,34.668,30.273,87.402,0
213545.708,14.160,32.715,35.645,24.902,64.941,0
213545.712,23.438,31.250,38.086,28.320,23.926,0
213545.716,41.016,30.762,39.551,32.227,17.578,0
213545.720,41.016,34.180,33.691,21.484,28.809,0
213545.724,28.809,41.016,29.297,10.742,41.504,0
213545.727,41.016,45.898,27.832,22.461,48.340,0
213545.731,49.316,46.875,34.668,41.016,49.805,0
213545.735,26.367,44.922,35.645,37.109,41.992,0
213545.738,10.742,43.945,32.715,19.043,38.086,0
213545.742,22.949,40.527,35.645,21.973,47.363,0
213545.746,34.668,34.668,40.039,33.691,50.293,0
213545.750,33.203,34.180,35.645,28.320,39.062,0
213545.754,26.855,36.133,30.273,10.254,25.391,0
213545.757,12.695,39.551,33.691,7.324,25.879,0
213545.761,18.555,40.039,35.645,28.320,34.180,0
213545.765,41.504,36.133,32.227,40.039,33.691,0
213545.769,27.344,32.715,29.297,21.973,25.391,0
213545.773,7.324,35.156,37.109,8.789,38.574,0
213545.777,19.043,37.598,43.457,17.578,66.406,0
213545.781,47.852,39.551,35.645,31.738,49.805,0
213545.782,40.527,40.039,38.086,31.738,30.273,0
213545.785,-0.488,38.574,38.086,20.508,29.297,0
213545.789,7.812,35.645,31.738,20.020,12.207,0
213545.793,35.156,36.621,31.738,35.645,15.625,0
213545.797,47.852,37.109,33.203,34.668,20.996,0
213545.801,9.766,29.297,39.551,3.418,6.348,0
213545.805,-1.953,25.879,48.828,-1.953,10.742,0
213545.809,55.664,29.785,54.688,29.785,39.062,0
213545.813,47.363,35.156,49.316,38.574,33.691,0
213545.817,3.418,38.574,43.945,17.090,21.484,0
213545.821,11.230,40.039,44.434,15.625,32.715,0
213545.825,43.945,35.156,45.410,37.109,41.016,0
213545.827,49.316,32.715,45.898,41.504,33.691,0
213545.830,33.203,35.645,40.527,21.484,36.133,0
213545.834,21.484,35.645,38.574,15.137,39.551,0
213545.838,19.531,33.203,41.016,31.738,33.203,0
213545.842,39.551,31.738,31.738,41.992,32.227,0
213545.846,31.738,32.715,32.715,33.203,40.039,0
213545.850,7.812,36.621,41.992,11.719,52.246,0
213545.854,18.555,36.621,40.527,8.789,56.152,0
213545.858,36.133,29.297,39.551,25.391,45.410,0
213545.862,32.715,28.320,41.992,28.320,42.480,0
213545.866,15.625,34.180,41.016,15.625,41.504,0
213545.870,28.320,32.715,40.039,15.625,43.457,0
213545.872,57.129,38.086,39.551,36.621,61.035,0
213545.875,51.758,40.039,37.109,39.062,55.664,0
213545.879,20.996,35.645,28.320,14.648,35.645,0
213545.883,6.348,37.109,27.832,7.812,40.527,0
213545.887,18.066,32.227,32.227,18.555,48.340,0
213545.891,33.203,28.809,27.832,32.715,40.527,0
213545.895,28.320,32.227,21.973,24.902,35.645,0
213545.899,16.113,34.668,35.645,7.812,49.316,0
213545.903,34.668,35.645,55.664,20.508,65.918,0
213545.907,37.109,33.691,53.223,43.457,59.082,0
213545.911,13.184,32.227,37.598,40.527,25.391,0
213545.915,19.531,34.668,36.133,20.508,11.719,0
213545.917,21.484,38.086,39.551,20.996,24.414,0
213545.921,9.277,40.527,43.945,50.781,43.457,0
213545.925,19.531,41.016,41.016,49.805,37.598,0
213545.928,11.230,31.250,34.668,15.137,21.973,0
213545.932,3.906,27.832,37.109,14.648,37.109,0
213545.936,29.785,35.645,35.645,32.715,44.434,0
213545.940,42.969,43.457,25.391,32.227,18.066,1
213545.944,6.348,48.340,23.926,11.719,17.578,0
213545.948,-11.719,40.039,40.527,1.953,21.973,0
213545.952,25.391,30.273,49.805,24.902,21.973,0
213545.956,50.293,28.320,51.270,40.039,26.367,0
213545.960,9.766,30.273,47.363,28.809,24.902,0
213545.964,-0.488,35.645,40.039,18.555,31.250,0
213545.968,22.949,35.645,40.527,24.414,41.016,0
213545.971,32.227,33.203,41.016,36.133,53.223,0
213545.975,28.809,40.039,38.574,32.227,55.176,0
213545.979,7.324,41.504,27.344,17.578,52.246,0
213545.983,16.113,33.203,17.090,15.137,51.758,0
213545.987,44.922,30.762,38.086,30.273,49.805,0
213545.991,41.016,34.668,48.340,35.156,30.273,0
213545.995,7.324,37.598,25.879,18.555,19.043,0
213545.999,7.324,36.133,23.438,18.066,33.691,0
213546.003,27.832,41.016,39.062,38.086,41.016,0
213546.007,44.434,48.340,43.945,44.434,36.621,0
213546.022,23.926,45.898,38.574,28.809,37.109,0
213546.026,0.977,35.156,35.156,16.113,42.480,0
213546.030,7.812,31.250,36.621,30.273,39.551,0
213546.034,25.391,33.691,33.203,41.992,28.809,0
213546.038,17.578,35.645,31.738,27.832,21.484,0
213546.042,-4.883,36.133,35.156,12.695,25.391,0
213546.046,18.066,30.762,46.875,14.160,41.504,0
213546.050,38.574,28.320,45.410,25.879,36.621,0
213546.053,23.438,34.668,33.691,25.391,30.762,0
213546.057,-6.348,33.203,35.156,3.418,35.645,0
213546.061,-17.090,26.855,39.062,-0.977,32.227,0
213546.065,14.648,30.762,41.016,25.391,40.527,0
213546.067,30.273,33.691,31.250,33.691,42.969,0
213546.071,9.766,32.715,27.344,12.695,26.855,0
213546.075,3.418,34.668,39.062,12.695,12.207,0
213546.079,20.508,33.203,45.410,27.344,14.160,0
213546.083,52.246,36.133,49.316,29.785,24.902,0
213546.087,37.598,43.457,51.758,18.555,35.156,0
213546.091,-16.602,40.527,40.527,5.859,46.875,0
213546.095,-0.488,39.062,37.598,16.602,49.316,0
213546.099,23.926,33.203,36.621,32.227,53.223,0
213546.103,11.719,30.762,32.715,23.438,51.758,0
213546.106,-1.953,34.668,33.203,1.465,31.250,0
213546.110,5.371,33.203,34.180,9.277,37.598,0
213546.112,53.711,31.738,34.668,28.809,54.199,0
213546.116,49.805,33.203,30.273,23.926,56.641,0
213546.120,-5.859,36.621,24.414,11.230,46.387,0
213546.124,-6.836,36.621,27.832,10.742,21.973,0
213546.128,19.043,41.016,39.551,30.762,9.766,0
213546.132,29.297,43.945,41.992,47.363,12.207,0
213546.136,12.207,35.645,34.180,20.996,15.625,0
213546.140,0.977,29.785,25.879,-0.488,24.414,0
213546.144,18.555,32.227,26.855,20.996,32.227,0
213546.148,36.621,33.203,31.738,37.598,30.762,0
213546.151,27.344,35.645,26.855,29.785,23.438,0
213546.155,9.766,36.133,22.461,22.949,20.996,0
213546.157,5.371,36.621,26.855,27.344,27.344,0
213546.161,27.832,37.598,31.738,41.016,28.320,0
213546.165,24.902,30.273,32.715,26.855,25.879,0
213546.169,-4.883,26.367,29.297,-3.418,19.043,0
213546.173,4.883,30.273,32.715,-0.488,21.973,0
213546.177,44.922,33.691,44.922,23.926,29.785,0
213546.181,41.016,34.668,45.410,31.738,30.273,0
213546.185,0.488,38.574,36.621,14.648,39.551,0
213546.189,6.348,41.992,41.504,8.789,36.621,0
213546.193,32.227,40.527,47.852,31.250,35.645,0
213546.197,54.688,36.621,37.109,39.062,38.086,0
213546.200,25.879,38.086,34.180,19.043,33.691,0
213546.203,-3.418,43.457,34.180,16.113,40.039,0
213546.207,20.020,40.039,38.086,27.832,44.922,0
213546.211,22.461,34.668,40.527,38.086,43.945,0
213546.214,20.996,37.598,38.574,27.832,40.039,0
213546.218,3.418,36.621,37.598,7.324,25.391,0
213546.222,14.648,30.762,34.668,5.371,26.367,0
213546.226,29.297,30.762,33.691,20.020,43.945,0
213546.230,29.297,37.598,27.832,19.531,52.734,0
213546.234,8.301,40.039,18.555,0.488,50.293,0
213546.238,0.000,34.668,20.996,3.906,50.293,0
213546.242,47.852,34.180,33.691,31.738,34.668,0
213546.246,35.156,39.551,35.156,41.504,17.090,0
213546.247,4.395,41.992,33.691,26.367,22.461,0
213546.251,10.254,37.598,37.109,18.555,34.668,0
213546.255,39.062,37.109,42.480,30.762,44.434,0
213546.259,47.363,41.016,40.039,37.598,24.902,0
213546.263,23.926,39.062,27.344,20.996,26.367,0
213546.267,16.113,39.551,26.367,16.113,41.504,0
213546.271,22.949,41.992,27.832,29.785,37.109,0
213546.275,42.480,41.016,28.809,40.527,41.016,0
213546.279,44.922,38.574,35.156,34.668,40.527,0
213546.283,27.344,38.574,33.203,20.020,32.715,0
213546.287,15.625,41.016,34.180,23.438,39.062,0
213546.290,40.039,39.551,40.039,39.062,44.922,0
213546.292,37.109,36.621,38.574,38.574,30.762,0
213546.296,9.766,33.203,34.668,26.855,32.227,0
213546.300,30.762,30.762,36.621,23.926,45.410,0
213546.304,44.434,33.691,40.039,34.668,44.922,0
213546.308,53.223,38.086,36.621,41.016,49.316,0
213546.312,41.992,33.203,26.367,23.438,42.969,0
213546.316,1.465,30.762,26.367,12.207,40.039,0
213546.320,30.762,32.715,31.738,32.715,59.570,0
213546.323,59.570,29.297,32.227,48.828,53.223,0
213546.327,22.461,35.156,22.949,40.039,53.711,0
213546.331,22.949,41.992,28.320,30.762,62.988,0
213546.335,56.152,41.016,42.480,34.180,51.758,0
213546.352,51.758,36.133,41.504,52.734,42.969,0
213546.356,20.996,33.691,39.062,47.852,42.480,0
213546.360,7.324,31.738,34.180,19.043,43.945,0
213546.364,39.062,24.902,30.762,15.625,49.316,0
213546.368,54.688,25.391,37.109,35.645,59.570,0
213546.372,23.926,30.273,32.715,35.645,52.246,0
213546.375,23.438,30.762,28.809,18.555,53.711,0
213546.379,57.129,34.180,37.109,20.996,72.754,0
213546.383,59.570,38.086,40.039,36.621,71.289,0
213546.387,25.879,33.691,32.715,35.156,46.387,0
213546.391,13.184,33.203,31.738,20.508,35.156,0
213546.395,31.738,34.180,40.527,16.113,36.133,0
213546.397,40.039,35.156,41.992,34.668,28.809,0
213546.401,48.340,37.109,30.762,41.992,32.227,0
213546.405,46.387,33.203,25.391,17.090,28.320,0
213546.409,8.789,28.809,39.062,1.465,36.133,0
213546.413,5.859,26.367,49.316,18.555,50.781,0
213546.416,33.203,32.227,47.363,40.527,42.969,0
213546.420,23.438,37.598,45.898,31.250,31.250,0
213546.424,-1.465,36.621,42.480,8.301,29.785,0
213546.428,13.672,41.016,44.922,15.137,40.039,0
213546.432,45.410,41.504,46.387,36.621,46.875,0
213546.436,60.547,32.715,40.039,32.227,47.363,0
213546.440,18.066,30.273,34.180,11.719,50.293,0
213546.442,5.859,35.645,33.203,7.324,51.270,0
213546.446,35.156,37.109,34.668,22.949,54.688,0
213546.450,25.391,33.203,34.668,26.367,24.902,0
213546.454,11.230,30.762,32.715,9.766,0.000,0
213546.458,8.789,35.156,33.691,0.488,10.254,0
213546.462,29.297,39.062,37.598,12.207,19.043,0
213546.465,45.410,40.039,40.039,32.715,29.785,0
213546.469,48.340,37.109,40.527,29.297,35.156,0
213546.473,43.457,41.992,38.574,8.789,43.457,0
213546.477,12.695,39.551,27.832,7.324,51.758,0
213546.481,13.672,30.273,31.250,22.949,43.945,0
213546.485,17.578,34.180,40.039,20.996,30.273,0
213546.488,12.207,40.039,36.133,0.488,39.551,0
213546.492,41.016,36.621,37.598,1.953,49.805,0
213546.496,55.176,34.668,41.016,25.391,53.223,0
213546.500,26.855,37.109,31.738,26.367,54.199,0
213546.504,5.859,38.086,26.855,6.836,57.617,0
213546.508,21.484,36.621,36.133,10.742,62.500,0
213546.512,49.316,37.109,44.434,33.691,48.828,0
213546.516,62.500,38.086,41.504,41.016,41.992,0
213546.520,36.621,38.574,25.391,23.926,45.410,0
213546.523,10.254,38.086,29.785,16.113,59.570,0
213546.527,31.738,33.203,52.734,28.809,65.430,0
213546.531,46.387,31.250,58.594,38.574,63.965,0
213546.532,38.574,33.203,50.293,32.715,52.246,0
213546.536,25.391,33.203,47.363,16.602,26.367,0
213546.540,12.695,32.227,52.246,18.555,37.598,0
213546.544,36.621,33.203,49.805,41.504,41.016,0
213546.548,40.039,35.645,40.527,44.922,19.043,0
213546.552,8.789,38.574,39.062,19.043,17.090,0
213546.556,0.488,37.598,41.992,14.160,31.738,0
213546.560,12.207,35.156,41.016,30.762,28.809,0
213546.564,20.508,31.738,40.039,34.180,22.461,0
213546.568,-2.441,29.785,41.504,10.254,33.203,0
213546.571,-2.930,30.762,43.457,-2.441,48.340,0
213546.575,35.645,33.691,48.828,21.484,60.059,0
213546.577,36.621,38.574,40.527,41.016,64.941,0
213546.581,9.766,38.574,31.738,29.297,49.805,0
213546.585,4.883,39.551,37.109,6.836,29.785,0
213546.589,23.926,40.039,37.598,11.719,32.715,0
213546.593,36.621,34.668,33.691,30.762,27.832,0
213546.597,24.902,38.574,35.156,27.832,31.250,0
213546.600,20.020,44.922,41.504,13.672,54.199,0
213546.604,28.320,40.039,45.410,12.207,56.641,0
213546.608,32.227,30.273,46.387,27.832,50.781,0
213546.612,20.508,29.785,40.527,25.879,42.480,0
213546.616,14.160,37.109,33.691,13.672,25.391,0
213546.620,23.438,35.645,39.551,16.113,32.715,0
213546.622,40.039,30.273,43.457,25.879,56.152,0
213546.626,34.668,33.691,31.738,30.273,61.523,0
213546.630,3.906,35.156,24.902,12.207,51.270,0
213546.634,11.230,34.180,32.227,6.836,58.594,0
213546.638,37.109,39.062,32.227,27.344,59.570,0
213546.642,36.133,37.109,34.668,37.598,37.598,0
213546.645,20.508,34.180,42.480,21.484,35.156,0
213546.649,19.531,35.645,42.480,5.859,34.180,0
213546.653,25.879,32.715,41.992,14.648,37.109,0
213546.657,30.762,31.738,41.016,34.180,42.969,0
213546.661,23.438,32.715,40.527,42.480,43.457,0
213546.665,18.555,37.109,41.504,25.879,59.570,0
213546.668,32.227,42.969,42.480,17.090,64.453,0
213546.671,38.574,37.109,40.039,24.414,34.668,0
213546.675,33.691,33.203,36.621,22.461,17.578,0
213546.679,11.719,37.598,40.527,10.254,42.969,0
213546.683,14.648,40.527,30.273,7.324,47.852,0
213546.687,45.410,36.133,23.438,25.879,30.273,0
213546.691,62.988,35.645,31.250,29.297,38.574,0
213546.695,28.809,39.062,36.133,13.184,53.223,0
213546.699,7.324,40.527,39.551,5.859,60.547,0
213546.703,35.156,42.480,39.062,19.043,69.336,0
213546.707,46.875,41.504,39.062,37.598,38.086,0
213546.711,23.926,39.062,41.992,24.414,-1.953,0
213546.713,1.465,40.527,39.551,1.953,6.348,0
213546.717,18.066,41.016,30.273,14.648,24.414,0
213546.721,38.574,39.062,28.320,34.668,38.574,0
213546.725,27.832,37.598,33.203,25.391,38.574,0
213546.729,5.371,32.227,40.039,6.836,30.273,0
213546.733,3.906,31.250,40.527,8.789,29.785,0
213546.737,23.926,32.715,44.922,23.926,27.344,0
213546.741,36.133,30.762,44.434,26.367,10.742,0
213546.745,28.809,36.621,36.621,10.742,8.301,0
213546.749,18.066,40.039,40.039,2.930,27.832,0
213546.752,12.207,33.203,39.062,19.531,37.598,0
213546.756,19.531,28.809,28.809,27.344,32.227,0
213546.772,12.695,27.832,20.508,8.789,31.250,0
213546.776,-11.719,27.344,20.996,-2.930,42.480,0
213546.780,0.977,26.855,37.598,14.648,56.641,0
213546.784,37.109,26.367,40.039,27.344,38.574,0
213546.788,24.902,27.832,35.156,20.020,21.973,0
213546.792,-3.418,32.715,39.062,7.812,34.668,0
213546.795,2.930,30.273,40.527,12.207,47.363,0
213546.799,36.621,25.879,39.062,31.250,54.199,0
213546.803,28.809,28.320,30.762,24.902,48.340,0
213546.807,-8.789,30.273,26.367,4.395,36.133,0
213546.811,8.789,33.691,35.645,2.930,33.691,0
213546.815,32.227,36.621,51.270,22.461,29.297,0
213546.817,28.320,35.156,49.805,32.715,17.578,0
213546.821,19.043,35.156,40.527,14.648,30.273,0
213546.825,13.672,36.133,41.016,8.789,45.410,0
213546.829,27.832,36.133,38.574,27.344,33.203,0
213546.833,48.828,41.016,31.738,36.133,27.832,0
213546.836,45.898,46.875,26.367,24.902,37.109,0
213546.840,22.461,40.527,25.391,4.395,41.992,0
213546.844,24.902,34.668,34.180,12.695,40.527,0
213546.848,48.340,40.039,37.598,36.133,36.133,0
213546.852,29.785,41.992,33.691,28.320,33.203,0
213546.856,-3.418,39.551,36.621,13.672,31.250,0
213546.860,11.719,36.133,41.504,19.531,36.621,0
213546.862,41.992,34.668,40.039,33.691,45.410,0
213546.866,48.828,34.668,36.133,31.250,41.016,0
213546.870,18.555,30.762,32.227,16.602,46.387,0
213546.874,5.859,35.156,34.668,9.766,64.453,0
213546.878,38.086,36.621,36.133,24.902,62.012,0
213546.881,43.457,32.227,33.203,33.203,43.945,0
213546.885,11.719,34.668,32.227,15.137,41.992,0
213546.889,-7.324,37.598,34.668,0.977,42.480,0
213546.893,33.691,39.062,40.527,21.484,36.621,0
213546.897,48.828,36.133,43.945,35.645,34.668,0
213546.901,19.531,33.691,37.598,20.996,42.969,0
213546.905,0.000,36.133,42.480,11.719,41.992,0
213546.907,13.672,35.156,48.828,17.578,35.156,0
213546.911,42.969,33.691,45.898,38.086,42.969,0
213546.915,21.973,35.645,39.551,32.715,29.297,0
213546.919,6.348,37.109,33.691,7.324,9.766,0
213546.923,19.531,36.621,34.180,11.230,35.645,0
213546.927,48.340,32.227,33.691,31.250,53.223,0
213546.930,42.969,27.832,32.227,38.086,24.902,0
213546.934,8.301,31.738,28.809,21.973,20.996,0
213546.938,-0.488,35.156,25.391,16.113,36.621,0
213546.942,18.555,33.691,29.785,34.180,40.527,0
213546.946,28.809,36.621,30.762,40.039,40.039,0
213546.950,25.879,37.109,23.926,17.090,32.715,0
213546.953,15.137,29.297,21.973,0.488,31.250,0
213546.957,24.414,28.320,34.180,18.066,37.598,0
213546.961,41.504,31.738,40.527,39.062,44.434,0
213546.965,15.137,28.809,36.133,25.391,48.828,0
213546.969,-2.930,31.250,27.832,5.859,61.523,0
213546.973,19.531,31.250,31.250,9.277,51.270,0
213546.977,40.527,28.320,37.109,27.344,33.691,0
213546.981,33.691,30.762,33.691,31.250,35.645,0
213546.985,20.020,32.227,28.809,14.648,36.621,0
213546.989,25.879,36.621,37.598,18.066,44.434,0
213546.992,47.852,35.645,48.340,38.086,43.945,0
213546.996,40.527,29.297,41.992,35.156,36.133,0
213546.997,9.766,28.809,36.133,16.602,39.062,0
213547.001,0.977,27.344,36.621,13.672,47.363,0
213547.005,23.438,26.855,39.062,32.227,48.340,0
213547.009,31.250,30.273,40.039,31.738,34.180,0
213547.013,27.832,32.715,40.039,10.254,31.738,0
213547.017,28.809,30.762,40.527,-0.977,35.645,0
213547.020,19.043,25.879,36.621,9.766,39.062,0
213547.024,24.902,30.273,35.156,31.250,45.898,0
213547.028,21.973,33.203,36.133,28.809,48.828,0
213547.032,3.418,29.785,32.715,9.766,40.039,0
213547.036,14.648,32.715,31.250,14.160,37.109,0
213547.040,26.367,33.203,30.273,31.738,27.344,0
213547.042,17.090,28.809,29.785,21.973,8.789,0
213547.046,13.672,28.809,35.645,0.488,19.043,0
213547.050,16.113,31.250,44.434,7.324,45.410,0
213547.054,21.484,32.227,50.293,26.855,47.852,0
213547.058,31.250,27.344,43.945,29.297,16.113,0
213547.062,25.391,28.320,35.156,9.766,0.000,0
213547.066,8.789,35.645,34.180,0.977,14.648,0
213547.069,19.531,36.133,39.062,21.973,28.809,0
213547.073,37.598,34.668,38.574,32.227,25.391,0
213547.077,20.996,27.832,30.762,10.742,15.137,0
213547.081,3.418,20.508,29.785,-7.324,21.484,0
213547.085,0.000,21.484,34.668,4.395,38.086,0
213547.087,14.648,27.832,29.785,27.832,42.480,0
213547.091,23.438,30.273,13.672,23.438,39.551,0
213547.095,8.789,35.645,22.949,10.742,51.270,0
213547.099,14.648,39.551,41.016,13.184,59.570,0
213547.103,48.828,32.715,35.156,23.926,54.199,0
213547.107,51.270,35.156,26.367,29.297,51.758,0
213547.110,12.695,44.434,24.902,16.113,41.992,0
213547.114,9.766,41.992,31.738,11.719,37.109,0
213547.118,32.715,32.715,36.133,34.180,43.457,0
213547.122,30.273,30.273,31.738,41.504,25.879,0
213547.126,20.508,33.691,23.926,24.414,15.625,0
213547.130,6.348,33.203,27.832,15.625,21.484,0
213547.147,22.949,35.645,35.645,22.461,22.949,0
213547.151,33.203,42.480,35.156,24.414,24.414,0
213547.155,4.883,41.504,33.691,10.254,23.926,0
213547.159,-1.953,35.645,38.574,-2.441,26.855,0
213547.163,17.090,33.691,41.016,9.766,36.621,0
213547.167,34.668,37.598,41.992,30.762,48.828,0
213547.171,15.625,40.039,41.992,23.926,46.875,0
213547.174,6.836,34.668,35.156,2.441,52.734,0
213547.178,21.973,33.203,32.227,9.277,71.289,0
213547.182,27.344,34.180,36.621,32.715,65.918,0
213547.186,40.527,33.691,33.691,31.738,35.645,0
213547.190,24.414,36.621,31.250,19.043,21.973,0
213547.192,12.207,41.992,41.504,18.555,29.785,0
213547.196,41.992,41.504,53.223,38.086,32.227,0
213547.200,36.621,37.109,56.641,46.875,31.738,0
213547.204,16.602,38.574,44.922,23.438,34.180,0
213547.208,10.742,37.109,35.156,11.230,41.016,0
213547.212,35.156,34.668,38.086,29.297,47.363,0
213547.215,48.828,37.598,42.480,36.621,44.922,0
213547.219,28.320,37.109,38.574,24.902,28.809,0
213547.223,16.602,39.551,34.180,13.672,41.016,0
213547.227,18.066,45.898,36.621,12.695,64.453,0
213547.231,29.297,51.758,43.457,35.156,70.801,0
213547.235,36.133,51.758,50.293,44.434,69.824,0
213547.237,20.996,39.062,46.875,20.996,50.781,0
213547.241,4.395,29.785,43.945,17.578,37.109,0
213547.245,22.461,29.785,40.527,34.180,28.809,0
213547.249,43.945,29.297,35.645,34.180,20.996,0
213547.253,12.207,32.227,36.133,15.625,33.691,0
213547.257,6.348,36.621,37.598,-0.488,44.922,0
213547.260,32.715,37.109,40.039,9.277,41.504,0
213547.264,33.691,38.086,40.527,22.461,41.504,0
213547.268,13.184,35.645,33.203,7.812,30.273,0
213547.272,-8.301,30.273,33.691,-5.859,29.297,0
213547.276,14.648,28.320,32.227,6.348,40.527,0
213547.280,49.316,26.367,20.020,21.973,32.715,0
213547.282,15.625,23.438,27.344,13.672,23.438,0
213547.286,-12.695,25.391,35.645,-3.418,20.020,0
213547.290,4.883,29.785,37.598,5.371,12.695,0
213547.294,18.066,29.297,36.133,29.297,12.695,0
213547.298,22.949,31.738,39.062,38.574,23.438,0
213547.302,-2.441,31.738,43.457,22.461,38.086,0
213547.306,-8.301,28.320,42.969,13.672,47.852,0
213547.310,30.762,27.832,38.086,29.297,48.828,0
213547.314,39.062,30.273,32.715,32.715,38.086,0
213547.318,21.973,35.156,34.668,17.090,27.344,0
213547.321,22.461,34.668,33.691,7.812,38.086,0
213547.325,20.996,32.715,34.668,23.926,50.781,0
213547.327,22.949,34.668,32.227,31.738,43.945,0
213547.331,15.625,31.738,27.344,14.160,36.621,0
213547.335,9.766,29.785,33.691,5.371,33.691,0
213547.339,13.672,30.273,38.574,18.555,26.855,0
213547.343,39.062,27.344,29.785,33.203,19.043,0
213547.346,26.367,29.297,19.043,17.578,17.090,0
213547.350,6.836,32.227,29.297,1.953,31.738,0
213547.354,42.969,35.156,42.969,8.301,33.203,0
213547.358,41.504,32.715,46.875,25.391,26.367,0
213547.362,10.254,31.738,45.898,31.250,34.180,0
213547.366,10.254,38.086,43.457,11.230,44.922,0
213547.370,13.672,35.156,37.598,5.859,47.852,0
213547.372,26.855,28.320,41.016,21.484,40.039,0
213547.376,43.457,30.273,46.387,26.855,31.250,0
213547.380,26.367,32.715,42.480,12.695,33.203,0
213547.384,0.977,34.180,38.574,3.418,28.320,0
213547.388,25.879,36.133,36.133,23.926,24.902,0
213547.392,37.598,32.715,32.227,36.133,26.367,0
213547.395,10.254,28.809,27.832,18.555,28.320,0
213547.399,2.441,28.809,29.785,6.836,38.086,0
213547.403,0.977,29.785,33.203,13.672,50.293,0
213547.407,22.461,28.809,31.738,28.809,43.457,0
213547.411,21.484,25.391,24.414,20.020,5.371,0
213547.415,-3.906,22.461,20.020,-7.812,-12.207,0
213547.419,7.324,23.926,26.855,-8.789,10.742,0
213547.422,27.832,26.367,31.250,11.230,29.297,0
213547.426,21.484,25.879,31.250,17.090,32.715,0
213547.430,10.742,32.227,31.250,-1.465,39.551,0
213547.434,14.160,31.738,30.762,0.977,38.086,0
213547.438,17.578,23.926,26.855,24.902,32.227,0
213547.442,30.762,26.367,20.996,26.855,20.996,0
213547.446,20.996,40.527,29.785,18.066,19.043,0
213547.450,3.906,44.434,32.715,8.789,25.879,0
213547.454,16.602,35.645,17.090,15.625,29.297,0
213547.458,43.945,33.203,17.090,35.156,27.832,0
213547.462,19.531,36.621,28.320,26.855,20.020,0
213547.462,-3.906,38.574,34.668,8.301,35.156,0
213547.466,13.672,35.645,35.156,16.602,48.340,0
213547.470,32.227,33.691,32.227,34.180,40.527,0
213547.474,22.461,36.133,28.809,27.344,20.020,0
213547.478,19.531,37.598,34.668,7.324,16.113,0
213547.481,13.672,36.133,45.410,3.418,38.086,0
213547.485,18.555,30.762,44.922,17.090,50.293,0
213547.489,17.578,31.250,39.062,23.438,32.227,0
213547.493,-2.930,35.156,32.715,11.230,18.066,0
213547.497,3.906,30.273,33.691,4.395,35.156,0
213547.501,33.203,27.832,41.992,16.113,38.086,0
213547.505,42.969,29.297,44.922,23.926,28.809,0
213547.522,31.250,29.785,40.039,12.695,44.922,0
213547.526,21.484,39.062,39.551,9.277,57.617,0
213547.530,34.180,46.875,41.992,25.879,71.289,0
213547.534,43.457,37.598,35.645,40.527,61.523,0
213547.538,16.113,26.855,21.973,29.297,25.391,0
213547.542,-0.977,26.367,20.508,9.277,15.625,0
213547.546,10.254,27.344,31.250,15.137,26.855,0
213547.550,33.203,29.297,31.738,32.715,40.039,0
213547.553,22.461,29.297,22.461,31.738,18.555,0
213547.557,-3.418,31.250,28.809,12.695,0.000,0
213547.561,25.879,36.133,39.551,5.859,24.414,0
213547.565,34.180,36.133,37.109,26.367,42.480,0
213547.567,14.648,36.621,37.109,38.086,43.457,0
213547.571,20.020,33.203,41.504,25.391,41.992,0
213547.575,9.766,26.855,36.133,11.719,52.734,0
213547.579,18.555,30.273,30.762,17.578,51.270,0
213547.583,30.273,33.203,25.879,32.227,25.879,0
213547.587,29.785,35.156,18.555,23.438,25.391,0
213547.591,23.438,39.551,25.391,8.301,29.297,0
213547.595,19.043,43.457,36.133,15.137,37.598,0
213547.598,48.340,41.992,40.527,29.297,49.316,0
213547.602,31.738,35.645,32.715,21.484,33.203,0
213547.606,-1.465,33.203,32.715,8.789,32.227,0
213547.610,6.348,27.832,41.016,15.137,50.781,0
213547.612,36.133,25.391,44.434,40.039,40.039,0
213547.616,51.758,31.250,41.992,42.480,13.672,0
213547.620,18.555,33.691,33.203,9.766,8.301,0
213547.624,12.207,29.297,24.414,4.883,27.344,0
213547.628,41.016,26.367,29.785,25.391,42.480,0
213547.632,27.344,30.273,39.062,41.992,41.992,0
213547.636,20.020,34.668,37.109,32.227,40.527,0
213547.640,21.484,34.668,34.180,12.695,46.875,0
213547.643,27.344,38.086,30.273,27.344,61.035,0
213547.647,54.199,40.039,30.762,46.387,54.199,0
213547.651,30.273,35.156,27.344,32.227,43.457,0
213547.655,-3.418,31.250,22.949,14.160,48.828,0
213547.657,29.297,32.715,34.180,21.973,50.781,0
213547.661,53.223,34.180,36.621,37.109,49.316,0
213547.665,28.809,34.668,21.973,30.762,52.246,0
213547.669,5.859,30.273,24.414,19.531,45.898,0
213547.673,19.043,29.297,36.621,14.160,29.297,0
213547.677,43.457,34.668,37.598,21.484,41.504,0
213547.680,42.969,34.180,32.227,27.832,48.828,0
213547.684,4.883,35.156,22.949,6.348,48.828,0
213547.688,-13.672,36.621,23.926,-0.977,54.688,0
213547.692,14.648,32.227,32.227,20.996,58.594,0
213547.696,21.484,39.062,25.391,30.273,41.992,0
213547.700,16.113,48.340,24.902,18.555,25.391,0
213547.703,18.555,41.016,33.691,15.625,43.945,0
213547.707,30.762,34.668,37.598,21.973,49.805,0
213547.711,46.387,37.598,37.109,28.320,31.250,0
213547.715,28.809,39.551,34.668,20.508,26.367,0
213547.719,20.996,37.598,24.902,10.254,32.715,0
213547.723,22.461,40.039,24.414,18.066,40.039,0
213547.727,19.531,38.574,31.738,32.715,41.992,0
213547.731,19.043,33.691,23.438,28.809,31.738,0
213547.734,16.602,33.691,21.484,6.348,32.715,0
213547.738,24.414,34.180,25.879,4.395,47.363,0
213547.742,38.086,35.156,32.715,29.785,49.316,0
213547.746,34.180,36.621,41.504,38.574,34.668,0
213547.747,27.344,42.969,42.969,21.484,32.715,0
213547.751,41.016,45.410,43.457,18.066,37.109,0
213547.755,27.344,39.551,39.062,32.715,44.922,0
213547.759,30.762,39.551,32.227,41.992,59.082,0
213547.763,20.020,42.969,30.273,31.738,68.848,0
213547.767,14.648,41.992,34.180,18.066,60.059,0
213547.771,43.945,39.062,38.086,22.949,53.223,0
213547.774,53.711,40.527,39.062,39.551,56.152,0
213547.778,38.086,41.016,41.992,37.598,43.457,0
213547.782,17.090,39.551,36.133,13.672,28.320,0
213547.786,19.043,34.180,38.086,20.020,26.855,0
213547.790,34.180,32.227,43.457,40.039,26.367,0
213547.792,25.391,35.645,41.504,30.762,17.090,0
213547.796,4.395,37.109,37.109,15.137,27.832,0
213547.800,12.207,36.133,31.250,15.137,29.297,0
213547.804,36.621,31.250,37.109,28.320,27.344,0
213547.808,29.785,34.668,38.574,35.156,23.438,0
213547.812,18.555,42.480,31.250,19.043,8.301,0
213547.815,31.738,40.527,23.926,3.906,13.672,0
213547.819,44.922,37.109,22.949,20.020,49.805,0
213547.823,34.180,39.062,34.180,40.527,52.246,0
213547.827,3.418,39.062,39.062,29.297,22.461,0
213547.831,10.742,38.574,42.480,14.160,34.668,0
213547.835,31.250,40.039,45.898,25.879,43.945,0
213547.837,54.688,45.898,48.340,46.387,46.875,0
213547.841,40.527,46.387,48.828,36.621,45.898,0
213547.845,2.930,43.945,39.551,11.719,35.645,0
213547.849,32.227,46.875,37.109,21.973,32.227,0
213547.853,56.641,41.992,41.992,39.551,35.156,0
213547.857,16.602,37.109,34.668,26.855,47.852,0
213547.860,-8.789,36.133,22.461,7.812,45.410,0
213547.864,3.906,36.133,27.344,10.254,34.180,0
213547.868,32.227,36.621,44.434,30.762,36.621,0
213547.872,51.758,39.062,47.363,40.039,29.785,0
213547.876,15.137,39.551,43.945,26.855,16.602,0
213547.880,5.371,37.598,45.410,14.648,19.531,0
213547.897,25.391,40.039,46.387,22.949,39.062,0
213547.901,44.434,38.086,44.922,32.715,46.875,0
213547.905,45.410,36.621,46.387,24.414,43.945,0
213547.909,9.277,33.691,38.086,15.137,46.875,0
213547.913,11.230,26.855,28.809,20.508,49.316,0
213547.917,43.945,27.832,26.855,28.320,43.945,0
213547.921,20.996,30.762,28.809,26.367,34.180,0
213547.925,-12.695,29.785,33.691,12.207,31.250,0
213547.928,7.324,32.227,31.738,10.254,37.109,0
213547.932,39.062,34.180,26.855,29.785,42.480,0
213547.936,41.992,38.086,32.227,36.621,39.062,0
213547.940,12.207,44.922,32.715,24.414,43.457,0
213547.944,4.395,40.039,30.273,25.391,58.105,0
213547.948,33.203,32.715,33.691,35.645,55.176,0
213547.951,54.688,30.273,33.691,30.273,43.457,0
213547.955,18.555,27.344,26.855,11.230,41.016,0
213547.959,-14.648,26.855,26.367,0.000,29.297,0
213547.963,6.836,28.809,34.668,13.672,43.945,0
213547.967,51.758,28.320,33.203,34.668,67.871,0
213547.971,33.691,31.738,27.344,28.809,66.406,0
213547.975,2.441,36.621,24.902,15.137,69.824,0
213547.979,34.668,34.180,33.691,25.879,54.199,0
213547.983,49.316,30.273,40.527,38.574,22.461,0
213547.987,32.715,31.738,36.133,31.738,17.578,0
213547.987,29.785,34.180,37.598,13.672,36.621,0
213547.991,17.578,30.762,28.809,7.324,29.785,0
213547.995,16.602,29.297,25.391,24.902,22.461,0
213547.999,38.574,27.344,28.809,33.691,25.391,0
213548.003,21.973,27.832,29.297,18.066,22.949,0
213548.007,-7.324,37.109,30.762,19.531,34.668,0
213548.011,26.855,39.551,37.109,38.086,45.410,0
213548.015,44.922,31.250,37.109,44.434,37.598,0
213548.019,8.301,26.855,30.273,30.762,29.785,0
213548.022,-12.695,25.879,34.180,13.672,33.691,0
213548.026,12.207,29.297,41.504,22.949,39.551,0
213548.030,31.738,32.227,41.016,48.828,43.945,0
213548.032,30.762,31.738,37.109,41.992,40.527,0
213548.036,36.133,30.762,35.156,14.648,41.016,0
213548.040,23.926,28.809,33.203,13.184,51.270,0
213548.044,26.855,32.227,32.227,30.762,51.758,0
213548.048,34.668,36.621,32.227,29.297,40.527,0
213548.052,26.367,35.645,33.691,14.648,54.688,0
213548.056,7.324,33.203,36.133,20.508,57.617,0
213548.059,7.812,32.715,36.621,37.598,40.527,0
213548.063,39.551,31.738,34.668,41.016,43.945,0
213548.067,36.133,28.809,35.156,22.461,55.664,0
213548.071,11.230,29.785,33.203,15.137,71.289,0
213548.075,1.953,29.297,27.344,31.738,56.152,0
213548.078,25.879,26.855,28.809,39.062,17.090,0
213548.082,14.160,28.809,32.227,25.391,13.184,0
213548.085,-14.160,34.180,34.668,13.672,25.879,0
213548.089,21.484,32.715,38.086,17.090,23.438,0
213548.093,49.805,28.320,40.039,31.250,20.996,0
213548.097,24.414,32.715,37.109,27.832,37.598,0
213548.101,6.348,34.180,37.109,15.625,39.062,0
213548.105,7.812,28.320,38.574,17.578,30.273,0
213548.109,35.645,27.832,36.621,26.855,35.156,0
213548.113,37.109,29.785,34.668,30.762,16.113,0
213548.117,18.555,33.691,31.738,15.137,13.672,0
213548.121,-6.348,35.645,36.621,3.418,25.879,0
213548.122,0.977,30.762,34.180,22.461,32.715,0
213548.126,28.320,27.832,33.691,40.527,38.086,0
213548.130,25.391,30.273,38.574,27.832,37.109,0
213548.134,12.695,34.180,44.434,16.602,49.805,0
213548.138,17.578,31.738,49.805,29.785,56.152,0
213548.142,60.547,27.832,43.457,43.457,41.992,0
213548.145,48.340,30.273,36.621,36.133,31.250,0
213548.149,-11.230,33.691,37.109,17.090,40.527,0
213548.153,10.254,39.062,43.945,19.043,64.941,0
213548.157,45.898,44.922,41.504,36.133,60.547,0
213548.161,34.180,42.480,36.133,28.320,41.016,0
213548.165,13.184,36.621,30.762,13.672,44.434,0
213548.169,17.578,33.691,26.855,17.578,55.664,0
213548.173,43.457,36.133,26.367,35.645,58.105,0
213548.177,49.316,40.039,26.855,41.992,41.016,0
213548.180,43.945,41.016,30.762,22.949,29.785,0
213548.184,35.156,42.480,31.738,16.113,38.574,0
213548.188,36.621,45.410,24.414,24.414,45.898,0
213548.192,35.645,43.457,24.902,32.227,35.645,0
213548.196,7.812,33.691,30.273,21.484,38.574,0
213548.200,-3.418,32.715,32.227,6.836,46.387,0
213548.204,16.113,36.133,33.691,19.043,45.898,0
213548.208,37.598,33.203,32.715,33.691,44.922,0
213548.212,32.715,34.668,30.762,25.391,35.645,0
213548.212,25.391,39.551,29.785,7.324,26.367,0
213548.216,14.160,41.504,24.414,7.812,28.320,0
213548.220,16.113,41.504,18.066,28.320,30.762,0
213548.224,37.109,39.062,16.602,24.902,26.855,0
213548.228,19.531,36.621,23.438,3.906,34.668,0
213548.232,7.812,37.109,32.715,5.859,49.805,0
213548.235,40.039,40.039,32.227,31.738,48.828,0
213548.239,51.270,42.969,29.297,36.621,27.832,0
213548.243,22.461,41.504,27.832,9.766,17.090,0
213548.247,8.789,38.086,28.809,5.859,31.250,0
213548.251,37.598,43.457,33.203,29.297,41.016,0
213548.255,46.875,44.434,33.691,42.480,42.969,0
213548.272,16.113,39.062,31.738,23.438,39.551,0
213548.276,7.324,35.156,35.645,0.977,28.809,0
213548.280,17.578,37.598,35.156,10.742,51.270,0
213548.284,34.668,40.039,26.367,30.762,42.969,0
213548.288,36.621,40.527,20.508,26.367,21.484,0
213548.292,12.695,42.969,28.809,5.371,23.438,0
213548.295,14.648,44.434,44.922,2.930,28.320,0
213548.299,45.410,45.410,50.781,24.902,38.574,0
213548.303,34.180,43.945,48.828,32.227,34.668,0
213548.307,7.324,42.969,42.480,16.602,39.062,0
213548.311,18.555,42.969,45.898,8.789,52.734,0
213548.315,27.344,38.574,48.828,23.438,41.016,0
213548.317,32.227,34.668,41.504,31.250,35.645,0
213548.321,6.348,35.156,35.156,17.090,33.691,0
213548.325,-7.324,37.598,32.715,6.836,28.320,0
213548.329,20.996,40.527,35.156,21.973,22.949,0
213548.333,30.762,38.086,36.133,38.574,20.020,0
213548.337,32.227,41.504,39.062,31.250,30.273,0
213548.341,37.109,46.875,44.434,19.043,45.898,0
213548.345,18.555,41.992,46.387,26.367,43.457,0
213548.349,24.902,38.574,42.969,41.016,20.996,0
213548.353,23.438,37.598,36.133,24.902,17.578,0
213548.357,3.418,37.109,29.297,0.488,24.414,0
213548.360,11.719,36.133,27.832,2.930,22.949,0
213548.362,34.180,32.227,29.785,22.949,39.551,0
213548.366,38.574,31.250,32.715,33.203,54.199,0
213548.370,16.602,37.109,31.250,23.438,36.133,0
213548.374,21.484,43.457,25.391,12.207,16.602,0
213548.378,50.781,41.992,32.227,21.484,33.203,0
213548.382,52.246,35.645,36.621,35.156,36.133,0
213548.385,11.230,32.227,30.273,23.926,18.066,0
213548.389,-5.371,35.645,34.180,17.578,26.367,0
213548.393,15.625,35.645,39.062,31.250,51.758,0
213548.397,24.902,33.203,37.109,40.039,66.895,0
213548.401,22.461,34.180,31.250,28.320,69.824,0
213548.405,14.160,31.738,28.320,11.230,51.270,0
213548.408,34.180,34.180,35.645,22.949,30.762,0
213548.412,48.828,39.551,34.668,40.527,31.250,0
213548.416,34.668,39.551,27.344,30.762,20.508,0
213548.420,20.996,35.645,27.832,16.113,25.391,0
213548.424,18.555,33.691,32.715,18.555,53.223,0
213548.428,34.180,40.527,36.621,36.621,57.129,0
213548.432,35.645,41.992,32.227,42.969,39.062,0
213548.436,18.066,36.133,25.391,22.949,30.762,0
213548.439,23.438,33.691,21.484,11.230,39.062,0
213548.443,39.551,30.762,24.902,30.273,43.457,0
213548.447,46.387,30.273,28.809,41.016,42.480,0
213548.451,34.180,31.738,26.855,20.996,43.945,0
213548.452,-0.488,27.832,28.809,6.348,41.504,0
213548.456,2.441,23.926,35.645,22.461,47.363,0
213548.460,14.648,21.973,40.039,41.504,48.828,0
213548.464,23.926,28.809,44.434,39.551,44.922,0
213548.468,18.066,38.574,37.598,31.738,53.711,0
213548.472,-0.977,32.715,27.832,28.320,61.523,0
213548.476,18.555,28.320,36.133,36.621,56.152,0
213548.480,21.973,30.273,39.551,33.203,34.668,0
213548.483,1.953,27.832,43.457,13.672,27.344,0
213548.487,18.555,27.832,46.387,14.160,47.363,0
213548.491,30.273,28.809,41.504,34.668,53.223,0
213548.495,30.762,32.227,38.574,40.527,32.715,0
213548.498,28.809,37.109,26.367,13.184,17.090,0
213548.502,8.789,32.227,21.484,-8.789,32.715,0
213548.506,26.367,26.855,29.297,6.348,41.016,0
213548.510,20.996,31.738,35.645,23.438,30.762,0
213548.513,-9.766,36.133,32.227,7.324,32.227,0
213548.517,-11.230,34.180,28.320,-9.766,26.855,0
213548.521,10.254,32.715,33.691,3.418,20.020,0
213548.525,37.598,35.645,38.086,24.414,29.297,0
213548.529,20.996,33.691,38.574,17.578,33.691,0
213548.533,-1.953,29.785,33.691,3.906,56.152,0
213548.537,20.020,29.785,35.645,12.695,68.848,0
213548.541,38.086,30.273,36.621,29.785,34.668,0
213548.542,29.297,36.133,37.598,32.715,10.254,0
213548.546,4.395,38.574,39.062,8.789,17.090,0
213548.550,-3.418,38.574,36.621,-0.488,28.809,0
213548.554,18.555,34.180,43.945,22.461,42.480,0
213548.558,29.297,31.250,47.363,32.227,59.570,0
213548.562,21.484,35.156,38.574,23.438,60.059,0
213548.565,20.020,37.109,38.086,12.207,57.129,0
213548.569,48.828,35.645,44.434,20.996,50.781,0
213548.573,46.387,36.133,40.039,35.645,19.531,0
213548.577,1.465,37.109,28.320,17.090,5.371,0
213548.581,-12.207,31.738,27.832,-1.953,18.555,0
213548.585,15.137,29.785,40.039,10.742,37.109,0
213548.587,31.738,34.180,46.387,38.086,41.504,0
213548.591,24.902,37.598,42.480,39.551,34.180,0
213548.595,25.879,38.574,41.504,19.043,34.668,0
213548.599,29.785,42.480,50.293,21.973,45.410,0
213548.603,44.922,41.504,48.340,41.016,49.805,0
213548.607,50.293,38.086,34.180,38.574,39.062,0
213548.611,1.465,35.645,32.715,13.184,27.832,0
213548.614,-11.230,39.062,39.062,9.277,33.203,0
213548.618,22.461,38.574,42.969,29.785,51.758,0
213548.622,28.809,36.133,37.598,29.785,73.242,0
213548.626,13.184,39.551,34.180,11.719,51.270,0
213548.630,14.160,38.086,38.574,9.277,34.180,0
213548.647,34.668,40.527,36.621,28.809,54.199,0
213548.651,53.711,45.898,33.203,40.527,41.992,0
213548.655,35.645,39.551,25.391,22.949,18.555,0
213548.659,9.766,33.203,21.484,2.930,26.367,0
213548.663,41.016,32.715,25.879,12.695,51.270,0
213548.667,73.730,28.809,23.438,34.180,51.758,0
213548.671,33.203,37.109,23.438,33.203,38.574,0
213548.675,-5.859,41.992,23.926,12.695,40.527,0
213548.678,4.883,34.180,22.461,10.742,45.410,0
213548.682,31.738,29.785,28.320,32.227,39.062,0
213548.686,38.086,31.738,34.668,32.715,28.320,0
213548.690,12.695,34.668,30.273,14.648,26.855,0
213548.692,9.277,30.762,26.855,8.301,47.852,0
213548.696,32.227,28.320,28.809,17.578,49.805,0
213548.700,43.457,27.832,24.414,22.461,27.832,0
213548.704,33.203,29.785,19.043,8.789,28.320,0
213548.708,17.578,33.691,21.973,-1.953,45.898,0
213548.712,25.391,39.551,32.715,17.090,46.387,0
213548.716,40.039,39.551,40.039,37.109,31.738,0
213548.719,24.414,34.180,33.691,24.414,21.973,0
213548.723,14.160,34.668,24.414,7.324,26.855,0
213548.727,31.250,29.297,29.297,15.625,40.039,0
213548.731,47.852,25.391,29.785,34.180,41.992,0
213548.735,20.996,25.391,19.531,35.645,35.156,0
213548.737,-0.977,25.879,23.926,14.160,34.668,0
213548.741,16.113,27.344,34.668,6.836,42.969,0
213548.745,32.227,28.809,36.133,29.297,43.457,0
213548.749,33.203,33.203,37.109,33.203,56.641,0
213548.753,12.695,39.551,38.574,19.531,91.797,0
213548.757,9.277,38.086,24.414,16.113,61.035,0
213548.761,23.926,29.785,22.949,31.738,12.207,0
213548.765,34.180,24.414,34.180,42.969,24.902,0
213548.768,17.090,28.320,29.785,23.926,43.457,0
213548.772,12.695,33.691,29.785,5.859,34.180,0
213548.776,28.320,36.621,32.715,21.973,12.695,0
213548.780,29.785,38.086,31.738,43.457,11.230,0
213548.782,27.832,36.621,36.621,29.785,8.301,0
213548.786,9.277,40.527,39.551,9.277,18.066,0
213548.790,13.672,42.480,35.645,14.648,40.527,0
213548.794,30.762,31.738,26.855,27.344,43.457,0
213548.798,19.043,23.438,21.973,28.809,44.434,0
213548.802,4.883,23.438,19.043,14.648,49.805,0
213548.805,9.766,28.320,12.207,7.812,54.688,0
213548.809,35.156,32.715,25.879,20.020,56.152,0
213548.813,36.133,29.297,41.992,27.344,31.738,0
213548.817,15.625,28.320,37.598,20.020,18.555,0
213548.821,2.441,33.203,25.391,12.695,40.527,0
213548.825,13.184,37.598,30.273,24.902,56.641,0
213548.827,36.621,35.645,40.039,39.062,57.617,0
213548.831,10.742,28.320,41.504,24.902,54.199,0
213548.835,-13.672,27.344,44.434,12.207,74.219,0
213548.839,11.230,32.227,45.898,29.785,69.336,0
213548.843,30.762,34.668,47.852,52.246,25.879,0
213548.847,25.879,35.645,41.016,45.898,13.184,0
213548.850,22.949,36.133,32.227,19.043,28.320,0
213548.854,14.648,36.621,33.203,9.277,40.527,0
213548.858,23.438,31.738,34.180,26.855,36.621,0
213548.862,46.875,35.156,29.297,36.133,25.391,0
213548.866,24.902,36.133,23.926,14.160,25.879,0
213548.870,3.906,26.367,22.461,-2.441,36.133,0
213548.873,34.180,23.926,27.832,15.625,28.809,0
213548.877,37.109,22.949,32.715,29.297,10.742,0
213548.880,9.766,25.879,29.297,16.602,22.949,0
213548.884,13.184,36.621,29.297,12.207,41.504,0
213548.888,28.809,39.062,37.598,29.297,40.527,0
213548.892,43.457,35.645,31.250,44.434,44.434,0
213548.896,31.738,36.133,24.414,37.109,61.035,0
213548.900,12.695,37.598,30.762,17.578,56.152,0
213548.904,25.879,36.133,29.785,18.066,40.527,0
213548.908,57.129,35.156,30.762,36.133,44.434,0
213548.912,46.875,40.527,33.203,34.668,34.180,0
213548.916,29.297,41.016,26.855,18.555,20.996,0
213548.918,19.043,35.156,27.344,14.648,17.578,0
213548.922,20.996,31.250,34.668,21.973,29.785,0
213548.926,25.391,29.297,31.250,20.020,40.527,0
213548.929,8.789,32.715,32.227,11.719,40.039,0
213548.933,0.977,36.133,39.551,9.277,49.316,0
213548.937,17.090,36.621,37.109,25.391,61.523,0
213548.941,32.715,38.086,33.203,37.109,50.781,0
213548.945,18.066,35.645,30.762,22.949,36.621,0
213548.949,22.949,31.738,27.832,4.395,28.320,0
213548.953,35.156,31.738,30.762,12.207,38.086,0
213548.957,28.809,31.738,32.715,31.738,48.828,0
213548.961,29.785,34.668,26.367,17.578,41.016,0
213548.962,17.578,36.133,26.855,6.348,43.945,0
213548.966,20.508,38.574,34.180,20.508,43.457,0
213548.970,39.062,38.574,43.945,33.203,39.062,0
213548.974,21.484,35.645,41.504,23.926,24.902,0
213548.978,2.930,35.156,28.320,5.859,27.344,0
213548.982,10.742,30.762,23.438,1.953,43.457,0
213548.985,27.344,27.344,29.785,17.090,36.133,0
213548.989,32.715,30.762,38.086,27.344,23.438,0
213548.993,11.230,34.180,35.645,18.555,32.715,0
213548.997,10.254,36.621,35.156,11.230,44.922,0
213549.001,47.363,41.992,39.062,25.391,47.852,0
213549.005,27.832,39.551,31.250,39.062,45.898,0
213549.022,1.953,32.715,23.926,28.320,42.480,0
213549.026,9.277,32.227,34.180,14.648,49.805,0
213549.030,17.090,29.785,37.598,20.996,61.523,0
213549.034,30.273,29.297,30.762,34.668,65.918,0
213549.038,19.043,32.715,22.949,26.855,44.922,0
213549.042,4.883,36.133,25.391,14.160,41.992,0
213549.046,26.855,41.016,35.645,20.508,55.664,0
213549.049,43.945,45.410,34.180,31.738,53.223,0
213549.053,32.227,41.504,20.508,21.484,73.730,0
213549.057,19.043,29.785,13.184,-3.906,59.082,0
213549.061,11.719,23.438,20.996,-4.395,10.254,0
213549.065,19.531,28.320,28.809,22.461,15.137,0
213549.067,46.875,33.691,20.996,31.738,16.602,0
213549.071,26.367,35.156,19.531,11.230,-0.977,0
213549.075,-5.371,33.691,26.855,-3.418,7.812,0
213549.079,10.254,32.227,30.273,14.648,23.438,0
213549.083,25.879,34.180,30.762,31.250,24.902,0
213549.087,21.484,39.062,31.738,19.531,33.691,0
213549.091,6.836,40.039,25.391,13.184,45.898,0
213549.095,12.695,38.086,30.273,31.250,53.223,0
213549.099,39.551,36.133,41.504,47.363,61.523,0
213549.103,35.156,32.715,38.574,36.621,55.176,0
213549.107,7.812,33.203,34.180,15.625,47.363,0
213549.110,20.996,36.621,31.250,15.137,46.387,0
213549.112,36.621,37.598,33.203,29.297,59.570,0
213549.116,11.230,39.062,30.273,26.855,60.547,0
213549.120,-5.859,39.062,26.855,8.301,16.602,0
213549.124,8.301,40.039,29.785,0.488,1.465,0
213549.128,27.344,38.086,38.086,15.137,12.695,0
213549.132,31.738,33.691,40.527,27.344,15.137,0
213549.136,18.066,33.203,29.785,13.672,23.926,0
213549.140,3.906,33.691,19.043,-4.883,27.344,0
213549.144,13.184,31.250,10.742,6.836,29.785,0
213549.148,40.527,31.250,8.789,26.367,36.621,0
213549.151,29.785,37.598,17.578,19.043,59.082,0
213549.155,2.441,39.551,28.320,11.230,65.430,0
213549.160,19.043,34.180,38.086,24.414,33.203,0
213549.163,44.434,38.086,41.992,45.410,33.691,0
213549.167,35.156,40.527,32.715,38.086,39.551,0
213549.171,27.832,31.738,21.973,14.160,39.551,0
213549.175,20.020,27.344,27.344,13.672,42.969,0
213549.179,17.578,29.785,37.109,36.621,47.363,0
213549.183,33.203,34.668,33.691,42.969,45.410,0
213549.187,19.043,35.645,26.855,22.949,46.875,0
213549.191,12.695,34.180,32.227,13.184,62.012,0
213549.195,37.598,35.645,40.527,23.926,63.965,0
213549.199,42.969,39.551,33.691,36.133,51.270,0
213549.203,20.508,39.551,28.809,27.344,39.551,0
213549.203,8.301,37.598,27.832,17.578,38.574,0
213549.206,19.531,34.180,27.344,27.344,44.434,0
213549.210,41.992,32.715,31.738,37.598,40.039,0
213549.214,16.113,31.250,25.879,20.996,17.090,0
213549.218,-5.371,30.273,28.320,1.953,3.906,0
213549.222,23.926,36.621,31.738,8.789,12.695,0
213549.226,30.762,34.668,29.297,29.785,19.531,0
213549.230,12.695,26.367,20.996,26.367,20.020,0
213549.234,11.719,33.691,20.996,5.371,23.438,0
213549.238,11.719,40.527,28.809,12.695,25.879,0
213549.242,31.738,19.531,33.691,37.109,35.156,0
213549.246,54.688,17.578,29.785,44.434,45.898,0
213549.247,20.020,38.086,14.160,7.324,33.691,0
213549.251,-12.207,43.457,8.301,-13.672,29.785,0
213549.255,5.859,43.457,26.855,13.184,26.367,0
213549.259,18.066,43.457,34.668,26.855,13.672,0
213549.263,25.391,41.016,31.738,17.578,23.926,0
213549.267,16.602,36.133,40.039,7.812,43.945,0
213549.271,1.953,33.203,36.133,13.672,41.504,0
213549.275,20.508,32.715,28.320,29.297,37.598,0
213549.279,25.391,35.645,29.785,22.461,27.832,0
213549.282,19.531,41.016,25.391,2.930,32.227,0
213549.286,24.414,34.668,26.855,7.324,47.363,0
213549.290,29.297,29.297,38.574,30.273,34.668,0
213549.292,33.203,31.738,36.621,34.668,26.367,0
213549.296,20.020,33.691,35.156,18.555,42.480,0
213549.299,5.371,40.039,45.898,17.578,63.965,0
213549.303,35.645,41.504,46.387,29.785,67.383,0
213549.307,36.133,36.133,36.621,31.250,58.594,0
213549.311,12.207,35.645,28.809,16.113,53.223,0
213549.315,29.297,40.527,24.902,12.695,61.523,0
213549.319,32.715,41.504,36.133,24.902,69.824,0
213549.323,32.227,39.551,42.480,37.109,48.828,0
213549.327,49.316,39.062,28.320,31.738,58.105,0
213549.331,24.414,40.527,20.508,16.602,71.777,0
213549.335,12.207,41.504,23.438,22.949,55.664,0
213549.338,41.504,40.527,29.785,37.598,63.477,0
213549.342,33.691,40.527,29.785,31.738,47.363,0
213549.346,7.812,38.086,27.344,12.207,29.785,0
213549.350,14.160,31.738,30.762,16.602,44.434,0
213549.354,34.668,30.762,25.391,36.133,65.918,0
213549.357,23.438,28.320,3.906,29.297,37.598,0
213549.361,1.953,26.367,7.324,10.254,-14.648,0
213549.365,6.836,28.320,33.203,6.836,11.230,0
213549.369,22.461,30.762,42.969,26.855,38.086,0
213549.373,33.203,36.133,36.621,41.992,5.859,0
213549.377,27.344,39.062,35.156,24.414,-28.320,0
213549.381,5.859,33.203,36.621,9.766,-24.414,0
213549.397,0.977,30.762,35.156,16.602,-0.488,0
213549.400,17.090,36.621,38.574,24.902,5.371,0
213549.404,12.207,40.039,32.227,19.043,3.906,0
213549.408,7.324,41.016,22.949,7.324,21.484,0
213549.412,19.043,39.062,30.762,17.578,32.715,0
213549.416,40.039,39.062,32.227,37.109,42.480,0
213549.420,34.668,41.992,28.320,32.227,42.480,0
213549.424,5.859,38.086,22.949,11.719,40.039,0
213549.428,9.277,33.203,18.066,12.207,46.875,0
213549.432,30.762,28.809,30.273,31.250,47.852,0
213549.436,25.391,32.227,33.691,34.180,50.293,0
213549.440,28.320,37.598,31.250,18.066,37.109,0
213549.442,44.922,35.156,35.645,12.207,36.133,0
213549.445,19.043,35.156,38.574,29.785,54.688,0
213549.449,15.625,42.969,34.180,37.598,51.270,0
213549.453,13.672,49.316,18.555,16.113,30.762,0
213549.457,-1.465,41.016,18.066,-0.977,43.457,0
213549.461,16.602,26.367,21.484,6.836,44.434,0
213549.465,41.504,21.973,17.090,26.855,18.555,0
213549.469,21.484,27.344,23.926,20.020,28.320,0
213549.473,0.977,30.273,31.738,2.441,41.016,0
213549.477,14.648,32.227,44.434,15.137,44.434,0
213549.481,37.598,30.762,47.852,38.574,36.133,0
213549.485,36.621,34.668,37.598,37.109,25.879,0
213549.487,13.672,42.969,29.297,18.555,33.691,0
213549.491,6.836,38.574,27.832,14.648,39.062,0
213549.495,33.691,29.785,30.762,29.785,38.086,0
213549.499,42.969,28.320,21.484,32.227,30.273,2
213549.503,16.602,29.297,14.160,13.184,33.203,0
213549.506,2.930,32.227,24.414,7.812,59.570,0
213549.510,8.789,36.133,31.250,28.809,49.316,0
213549.514,22.949,33.691,25.391,40.039,19.531,0
213549.518,13.184,30.762,26.367,26.855,32.227,0
213549.522,1.465,33.203,35.645,15.625,38.086,0
213549.526,12.207,31.738,32.227,20.020,33.203,0
213549.530,30.273,25.879,29.785,36.621,38.086,0
213549.532,17.578,25.879,31.738,28.809,44.434,0
213549.536,-2.441,24.902,26.855,3.418,57.617,0
213549.540,8.789,23.438,27.832,9.766,32.227,0
213549.544,26.367,27.832,30.273,32.715,8.301,0
213549.548,38.574,33.203,26.367,25.391,23.926,0
213549.552,20.996,33.691,23.926,1.953,28.320,0
213549.556,-2.930,34.668,25.879,4.395,29.297,0
213549.560,11.230,35.156,25.391,29.297,36.621,0
213549.564,15.137,33.203,26.855,34.180,28.809,0
213549.567,18.555,32.715,31.738,17.578,14.160,0
213549.571,17.578,30.273,29.785,8.789,17.578,0
213549.575,13.184,28.320,24.414,19.043,27.832,0
213549.577,32.227,31.250,18.555,33.203,27.832,0
213549.581,22.461,33.691,20.020,21.484,26.855,0
213549.585,10.254,35.645,31.250,6.348,33.203,0
213549.589,17.090,37.109,37.109,13.184,33.203,0
213549.593,27.832,32.227,34.668,28.809,25.879,0
213549.597,27.832,33.203,28.809,20.020,17.578,0
213549.601,19.043,40.527,24.414,-0.977,16.602,0
213549.605,12.207,38.574,24.414,4.395,38.574,0
213549.609,14.648,31.738,32.715,30.762,58.105,0
213549.612,13.672,28.320,29.785,36.621,40.039,0
213549.616,17.578,27.344,20.020,19.531,35.156,0
213549.620,6.836,26.855,20.508,10.254,43.457,0
213549.624,4.883,26.367,21.973,18.555,26.367,0
213549.628,30.273,27.832,25.879,26.367,5.371,0
213549.632,19.043,28.320,18.066,11.719,5.371,0
213549.635,-1.953,29.297,6.836,-1.953,29.785,0
213549.639,10.742,29.785,14.160,14.648,29.785,0
213549.643,29.785,31.250,25.879,33.203,16.602,0
213549.647,16.602,40.039,32.227,23.926,17.578,0
213549.651,10.742,40.039,27.344,3.418,21.973,0
213549.655,21.484,28.809,31.250,12.207,43.945,0
213549.659,32.227,30.273,36.133,40.527,63.477,0
213549.663,32.227,35.645,30.762,37.109,56.152,0
213549.667,13.672,32.715,23.926,16.113,56.152,0
213549.668,13.672,31.738,35.156,21.484,70.801,0
213549.672,31.738,30.762,46.387,42.969,74.707,0
213549.675,47.363,32.227,37.109,45.898,73.730,0
213549.679,28.809,40.039,19.531,23.438,52.734,0
213549.683,4.883,36.133,15.625,9.766,28.809,0
213549.687,12.695,26.367,31.738,22.949,32.227,0
213549.691,23.926,31.250,41.504,33.691,50.781,0
213549.695,16.602,41.504,39.062,22.949,41.992,0
213549.699,6.348,43.457,42.480,14.160,24.414,0
213549.703,19.043,38.086,43.457,30.762,37.109,0
213549.707,31.250,37.598,43.457,41.504,40.527,0
213549.711,22.949,41.016,34.668,23.926,30.762,0
213549.712,11.230,37.109,19.531,3.418,35.156,0
213549.716,20.020,33.203,27.344,5.371,44.922,0
213549.720,34.668,33.691,35.156,24.902,46.875,0
213549.724,30.762,33.203,28.320,32.227,41.992,0
213549.728,11.230,35.645,22.949,22.949,39.551,0
213549.732,18.066,38.086,29.785,16.602,50.781,0
213549.736,43.457,37.598,35.645,27.832,58.105,0
213549.739,37.109,43.945,34.668,36.621,37.598,0
213549.743,10.742,45.410,27.832,23.438,41.504,0
213549.747,4.883,39.062,21.973,10.254,63.477,0
213549.751,20.996,40.039,25.879,18.555,37.598,0
213549.755,38.574,44.922,25.391,28.320,18.555,0
213549.772,30.762,41.504,17.090,14.160,23.438,0
213549.776,4.883,36.133,17.578,-1.953,39.062,0
213549.780,8.789,35.156,29.785,9.277,53.711,0
213549.784,33.691,34.180,37.109,24.902,41.016,0
213549.788,32.715,31.738,38.086,14.160,31.250,0
213549.791,12.695,33.203,33.691,3.906,51.270,0
213549.795,0.977,37.109,33.691,12.207,64.941,0
213549.799,14.648,37.109,30.762,22.461,60.059,0
213549.803,14.648,34.180,21.484,16.602,46.875,0
213549.807,4.395,29.297,12.207,3.418,27.344,0
213549.811,14.160,30.273,18.066,0.488,29.297,0
213549.815,18.555,34.180,25.391,12.207,33.691,0
213549.818,23.438,27.344,20.508,20.996,24.414,0
213549.822,8.301,23.438,15.625,2.930,11.230,0
213549.825,-10.254,26.367,18.066,-7.324,20.020,0
213549.829,22.461,29.297,32.715,12.207,35.156,0
213549.833,37.109,33.691,30.762,27.344,22.949,0
213549.837,4.395,36.621,20.020,19.043,15.625,0
213549.841,-4.883,38.086,20.508,3.906,32.715,0
213549.845,8.301,35.156,28.320,11.719,39.551,0
213549.849,32.227,33.203,26.855,35.645,32.715,0
213549.853,28.320,34.668,25.391,32.227,21.973,0
213549.857,5.371,27.344,24.902,11.230,21.484,0
213549.861,6.348,21.484,20.020,7.324,37.598,0
213549.862,15.137,22.949,27.344,21.973,46.387,0
213549.866,13.672,24.902,31.250,27.832,19.043,0
213549.870,7.324,26.855,28.320,11.719,7.812,0
213549.874,1.953,29.785,31.738,5.859,23.438,0
213549.878,14.160,31.250,34.180,25.391,30.762,0
213549.882,31.738,29.297,25.391,36.621,25.391,0
213549.885,9.277,29.785,14.648,25.391,28.320,0
213549.889,19.043,32.715,15.137,12.207,50.293,0
213549.893,45.410,32.715,29.297,25.391,57.617,0
213549.897,24.414,28.809,42.969,44.922,51.758,0
213549.901,5.371,25.879,36.133,32.227,51.758,0
213549.905,-0.488,26.855,25.879,10.742,52.734,0
213549.908,13.184,27.832,29.785,11.719,29.785,0
213549.912,27.344,27.344,36.133,28.809,20.508,0
213549.916,19.043,28.809,33.691,31.738,42.969,0
213549.919,-0.488,31.250,25.391,11.719,32.227,0
213549.923,20.020,35.156,20.996,11.719,21.484,0
213549.927,44.922,34.668,26.367,34.180,22.949,0
213549.931,38.574,32.715,20.996,33.691,13.672,0
213549.935,1.953,36.133,14.160,15.137,16.602,0
213549.939,-11.230,37.598,30.273,7.324,32.715,0
213549.943,21.484,34.180,42.480,26.855,52.734,0
213549.947,40.039,32.227,35.645,46.387,51.758,0
213549.951,35.645,40.527,29.785,34.180,39.551,0
213549.952,33.691,41.016,31.738,20.020,51.758,0
213549.956,41.016,37.598,38.086,28.320,55.664,0
213549.960,50.781,41.504,37.109,44.922,55.664,0
213549.964,30.273,41.504,22.461,32.227,50.781,0
213549.968,-6.348,38.086,23.926,7.812,29.785,0
213549.972,7.812,34.180,32.227,20.996,35.156,0
213549.975,44.434,35.156,31.250,46.387,48.828,0
213549.979,45.898,38.086,26.855,46.875,69.824,0
213549.983,21.484,37.598,18.066,26.855,81.055,0
213549.987,23.926,39.062,19.043,19.531,42.969,0
213549.991,56.641,39.062,31.738,39.062,30.273,0
213549.995,63.965,36.621,37.598,43.457,39.062,0
213549.997,26.367,34.668,28.320,18.555,51.758,0
213550.001,11.230,36.621,26.367,11.230,49.316,0
213550.005,18.555,43.457,24.902,29.785,32.227,0
213550.009,27.832,40.527,14.648,37.109,21.973,0
213550.013,17.578,26.855,7.324,19.043,5.371,0
213550.017,0.977,26.367,16.113,6.836,12.695,0
213550.020,21.484,35.156,33.203,23.438,34.668,0
213550.024,41.016,32.227,34.668,36.621,35.645,0
213550.028,51.758,26.367,33.203,28.320,31.250,0
213550.032,35.156,28.320,31.250,13.672,39.062,0
213550.036,9.766,27.344,23.926,17.090,50.781,0
213550.040,23.926,28.320,25.879,36.621,43.457,0
213550.042,28.320,33.691,32.227,37.598,39.551,0
213550.046,20.996,38.574,24.902,19.531,55.664,0
213550.050,22.949,38.574,23.438,16.113,47.852,0
213550.054,44.434,29.785,25.879,33.203,43.945,0
213550.058,46.387,23.438,20.508,39.551,45.410,0
213550.062,24.414,27.344,19.531,24.902,27.344,0
213550.065,8.789,30.273,21.484,10.742,24.902,0
213550.069,14.160,34.668,27.832,21.484,50.781,0
213550.073,30.762,36.621,31.250,38.574,40.039,0
213550.077,15.625,40.527,20.996,26.855,14.648,0
213550.081,11.230,41.016,20.508,3.418,28.320,0
213550.085,25.391,32.227,20.996,10.742,36.133,0
213550.088,29.785,28.320,7.812,34.180,35.645,0
213550.092,21.484,26.855,6.836,22.949,25.391,0
213550.096,8.301,28.320,17.578,0.977,12.207,0
213550.100,22.949,34.668,28.320,9.277,24.414,0
213550.104,33.203,35.156,36.133,31.250,29.785,0
213550.108,33.691,32.715,28.320,30.273,20.996,0
213550.112,4.883,32.227,26.855,5.859,20.020,0
213550.116,-9.277,32.715,28.809,0.488,30.273,0
213550.120,20.996,34.668,23.926,19.531,46.875,0
213550.123,31.738,40.039,27.344,34.668,49.805,0
213550.127,13.672,42.480,28.809,21.484,41.992,0
213550.131,5.859,34.668,27.832,2.930,57.617,0
213550.147,20.020,31.250,28.809,19.531,56.641,0
213550.151,30.762,34.668,27.344,40.527,13.672,0
213550.155,20.508,40.527,31.250,26.855,8.301,0
213550.159,7.812,40.039,36.621,6.836,26.855,0
213550.163,24.902,33.691,38.086,12.207,23.926,0
213550.167,34.668,31.738,28.320,34.180,12.207,0
213550.170,30.273,33.203,25.879,33.691,7.324,0
213550.174,13.672,37.598,36.133,18.555,8.301,0
213550.178,9.277,41.992,36.133,20.996,19.043,0
213550.182,32.227,40.039,30.762,32.715,33.203,0
213550.186,54.688,33.203,32.715,38.086,38.574,0
213550.190,29.297,28.809,32.227,24.414,43.457,0
213550.192,-7.812,30.762,22.461,18.066,54.688,0
213550.196,7.812,27.832,24.902,32.715,48.828,0
213550.200,21.973,24.414,27.344,37.598,26.855,0
213550.204,11.230,28.320,21.484,25.879,40.527,0
213550.208,8.789,33.691,20.508,8.789,46.387,0
213550.212,20.020,36.621,15.625,17.578,28.320,0
213550.215,39.551,31.738,9.766,40.527,31.250,0
213550.219,28.320,28.809,16.602,29.785,20.508,0
213550.223,3.906,30.273,31.250,8.301,21.484,0
213550.227,11.719,29.297,47.852,10.742,39.062,0
213550.231,29.297,24.414,51.758,28.320,31.738,0
213550.235,33.203,29.785,43.457,37.109,36.621,0
213550.237,14.160,32.715,37.109,24.902,52.734,0
213550.241,14.160,26.855,34.668,20.508,54.199,0
213550.245,33.691,26.855,29.785,34.180,57.129,0
213550.249,41.504,29.297,22.461,34.668,57.617,0
213550.253,18.555,25.879,15.625,15.137,46.875,0
213550.257,-7.324,19.531,17.578,-0.488,33.691,0
213550.261,0.000,20.996,25.391,13.672,34.180,0
213550.264,23.926,21.973,25.391,30.762,21.973,0
213550.268,10.742,22.461,24.902,19.531,2.441,0
213550.272,-4.883,23.926,29.785,5.371,13.672,0
213550.276,0.977,23.438,34.180,22.461,34.180,0
213550.280,20.020,28.809,27.344,41.016,36.133,0
213550.282,26.855,29.785,20.020,30.762,30.273,0
213550.286,2.930,23.438,22.949,19.531,41.016,0
213550.290,3.418,21.973,29.785,21.973,43.457,0
213550.294,36.621,25.391,33.203,41.016,36.621,0
213550.298,36.133,33.691,34.180,42.969,33.203,0
213550.302,3.906,34.180,26.855,11.719,23.438,0
213550.305,-5.859,27.344,24.902,-1.953,17.578,0
213550.309,21.973,25.879,23.926,20.020,16.113,0
213550.313,43.457,28.809,24.414,31.738,19.531,0
213550.317,9.766,29.297,25.391,11.230,17.090,0
213550.321,15.625,27.832,17.090,1.465,21.973,0
213550.325,36.621,25.879,11.719,17.090,44.434,0
213550.327,9.277,25.879,14.160,27.344,42.480,0
213550.331,15.137,28.320,14.160,17.090,39.062,0
213550.335,22.949,25.391,15.625,0.977,46.875,0
213550.339,3.418,24.414,26.855,14.160,64.941,0
213550.343,17.090,31.250,27.832,33.203,62.012,0
213550.347,26.367,37.109,20.996,20.996,46.875,0
213550.350,0.977,31.250,16.602,2.930,53.223,0
213550.354,6.348,26.367,22.461,3.906,32.715,0
213550.358,32.227,27.832,33.691,20.996,6.348,0
213550.362,31.738,22.461,24.414,17.090,-3.906,0
213550.366,14.160,24.414,11.230,-2.441,-10.254,0
213550.370,5.371,27.832,16.113,-8.301,6.348,0
213550.373,16.113,23.926,24.902,10.742,38.574,0
213550.377,21.973,24.902,23.926,24.414,40.039,0
213550.381,10.742,30.273,21.484,13.184,24.902,0
213550.385,8.789,29.297,28.809,3.418,34.668,0
213550.389,28.809,25.879,30.762,14.648,52.734,0
213550.393,33.203,29.785,27.344,32.715,54.199,0
213550.397,20.020,34.668,21.484,20.996,49.316,0
213550.401,-0.977,31.250,19.043,0.000,34.180,0
213550.405,7.812,25.391,22.949,3.906,26.855,0
213550.408,24.414,24.414,25.391,27.344,26.367,0
213550.412,14.648,28.320,26.855,23.438,15.137,0
213550.416,4.883,26.367,26.367,0.488,21.973,0
213550.417,8.789,23.438,28.809,1.953,36.133,0
213550.421,24.902,22.949,30.762,23.438,42.480,0
213550.425,22.461,25.879,29.297,31.250,41.504,0
213550.429,3.906,25.391,28.320,15.137,36.621,0
213550.433,3.906,20.508,35.156,6.348,39.551,0
213550.437,21.484,25.879,31.738,22.949,46.875,0
213550.441,27.832,27.832,32.715,37.598,41.992,0
213550.444,20.020,31.738,38.086,19.531,34.180,0
213550.448,27.832,34.668,31.250,4.883,34.180,0
213550.452,41.504,26.855,34.180,19.043,35.645,0
213550.456,35.156,29.785,41.016,35.156,41.016,0
213550.460,11.230,31.250,34.668,32.715,46.387,0
213550.462,-3.906,26.855,26.855,10.254,43.945,0
213550.466,6.836,24.902,23.926,5.371,38.086,0
213550.470,23.438,25.391,27.344,26.855,23.438,0
213550.474,27.832,26.367,30.273,18.555,23.438,0
213550.478,20.020,32.715,26.855,4.395,37.109,0
213550.481,35.156,33.691,23.438,9.766,28.809,0
213550.485,41.504,25.391,25.391,20.020,27.832,0
213550.489,17.578,24.414,35.645,27.832,27.344,0
213550.493,5.859,29.297,37.109,21.973,39.062,0
213550.497,10.254,27.344,23.438,8.789,40.039,0
213550.501,15.137,22.949,21.484,14.160,26.367,0
213550.505,20.020,22.949,28.809,33.203,24.902,0
213550.522,4.395,21.484,29.297,24.902,8.301,0
213550.526,-2.930,22.949,29.785,4.395,7.324,0
213550.530,26.367,27.344,29.785,11.230,26.855,0
213550.534,59.082,29.297,28.809,26.367,34.668,0
213550.538,36.621,28.320,24.414,26.367,43.945,0
213550.542,-4.395,29.297,24.414,16.113,44.922,0
213550.546,10.742,26.367,31.738,17.578,52.246,0
213550.549,35.645,22.461,33.203,31.738,53.711,0
213550.553,41.016,27.344,22.461,36.621,26.855,0
213550.557,14.648,28.809,20.020,21.484,25.879,0
213550.561,-3.906,24.902,19.043,8.789,29.785,0
213550.565,22.949,22.949,26.855,20.508,16.602,0
213550.567,36.621,28.320,34.668,25.879,19.531,0
213550.571,-0.488,32.227,30.273,9.766,20.508,0
213550.575,-8.789,24.902,38.086,1.465,21.484,0
213550.579,14.160,19.043,33.203,13.184,42.969,0
213550.583,16.602,18.555,21.973,26.855,43.457,0
213550.587,0.977,19.531,20.020,15.625,28.320,0
213550.590,0.000,21.973,28.320,6.836,41.016,0
213550.594,16.602,24.902,37.109,18.066,64.941,0
213550.598,36.133,25.879,30.762,33.203,77.148,0
213550.602,35.156,28.809,25.879,29.297,61.523,0
213550.606,15.137,33.203,21.973,11.719,39.062,0
213550.610,5.859,33.691,17.578,16.602,28.320,0
213550.613,20.508,24.902,25.391,37.598,29.297,0
213550.617,33.203,22.461,32.227,39.551,20.996,0
213550.621,8.301,26.855,33.691,24.414,13.672,0
213550.625,-4.883,30.762,33.691,27.344,43.457,0
213550.628,23.438,31.738,34.668,44.434,56.641,0
213550.632,39.062,29.297,41.016,48.340,45.410,0
213550.636,26.367,31.738,38.086,28.809,46.387,0
213550.640,19.043,32.715,29.297,16.113,57.129,0
213550.644,37.598,30.273,32.715,28.320,47.363,0
213550.648,45.410,26.855,33.691,31.250,25.879,0
213550.652,18.066,21.973,26.855,15.625,23.926,0
213550.656,3.418,21.484,19.043,3.418,25.879,0
213550.657,20.996,24.414,16.113,8.301,31.250,0
213550.661,25.879,23.438,25.391,32.715,32.227,0
213550.665,4.395,22.461,25.879,32.715,17.578,0
213550.669,-3.906,23.926,17.090,8.301,16.602,0
213550.673,-1.465,27.344,21.973,5.371,37.109,0
213550.677,29.297,33.203,25.391,22.949,43.945,0
213550.680,31.250,29.297,23.926,29.785,31.738,0
213550.684,-4.395,21.973,24.902,11.230,35.645,0
213550.688,2.930,22.949,25.391,0.977,43.457,0
213550.692,27.832,24.414,26.367,12.207,46.387,0
213550.696,34.668,26.367,23.926,20.508,49.805,0
213550.700,22.949,29.297,25.879,10.254,45.410,0
213550.702,7.324,27.832,29.297,5.859,38.086,0
213550.706,17.578,26.855,25.879,24.414,41.992,0
213550.710,39.551,26.367,22.461,37.598,38.086,0
213550.714,33.203,31.738,29.297,31.250,23.438,0
213550.718,3.906,35.156,33.691,12.695,31.250,0
213550.722,-0.977,27.344,32.227,14.160,39.551,0
213550.726,43.945,26.855,29.297,37.109,33.203,0
213550.730,34.668,32.715,21.973,33.203,30.273,0
213550.734,-3.906,32.715,18.555,8.301,37.598,0
213550.738,7.324,35.156,28.320,13.184,50.781,0
213550.742,35.156,36.133,27.832,40.039,50.293,0
213550.745,35.645,35.156,20.508,39.551,39.062,0
213550.747,19.043,37.598,21.484,10.742,37.598,0
213550.751,15.137,39.062,26.367,1.953,42.480,0
213550.755,23.926,36.621,30.762,19.531,33.691,0
213550.759,23.438,26.855,23.926,29.297,24.414,0
213550.763,9.277,27.344,16.602,17.578,19.043,0
213550.767,9.277,36.133,29.785,7.324,27.344,0
213550.770,33.203,36.133,42.480,19.043,39.551,0
213550.774,43.457,37.109,40.039,34.668,39.551,0
213550.778,22.949,39.551,34.180,32.227,40.527,0
213550.782,16.602,38.086,31.738,19.531,51.758,0
213550.786,34.668,38.574,34.668,21.973,68.848,0
213550.790,37.109,34.180,41.504,36.133,56.641,0
213550.792,24.414,23.926,41.016,30.762,26.367,0
213550.796,5.859,24.902,37.109,8.789,16.113,0
213550.800,0.000,29.785,41.016,4.395,23.926,0
213550.804,26.367,29.297,36.621,20.508,30.273,0
213550.808,34.180,32.715,32.715,33.691,22.461,0
213550.812,11.719,34.180,30.273,17.578,32.227,0
213550.816,8.789,32.715,29.785,3.418,43.457,0
213550.819,32.715,32.227,31.250,23.926,48.340,0
213550.823,43.945,34.180,36.133,41.992,69.336,0
213550.827,39.062,38.086,39.062,28.320,59.570,0
213550.831,22.949,38.086,39.062,16.602,32.227,0
213550.835,15.625,30.273,36.621,21.484,30.762,0
213550.838,30.273,29.297,31.738,35.645,28.320,0
213550.842,28.320,31.250,23.926,26.367,14.648,0
213550.846,9.766,31.250,17.090,0.977,14.648,0
213550.850,12.695,32.227,31.738,7.324,25.391,0
213550.854,42.480,30.762,43.457,30.273,37.109,0
213550.858,50.293,37.598,37.109,29.785,32.715,0
213550.862,16.113,43.945,29.297,8.301,21.973,0
213550.866,-4.883,32.715,36.621,0.000,25.391,0
213550.869,27.344,27.344,45.898,17.090,35.156,0
213550.873,31.738,33.203,41.016,32.715,43.457,0
213550.877,3.906,31.250,35.156,22.949,41.992,0
213550.881,10.742,26.367,34.668,5.371,55.176,0
213550.897,26.855,25.391,36.621,10.742,68.848,0
213550.901,27.344,30.273,37.598,26.367,36.621,0
213550.905,6.348,35.645,34.668,23.438,8.789,0
213550.909,9.766,37.109,34.180,12.695,14.648,0
213550.913,18.555,37.109,35.156,18.555,17.578,0
213550.917,18.066,31.250,26.367,35.156,24.902,0
213550.920,8.789,27.344,18.066,28.320,22.949,0
213550.924,-4.883,27.344,21.484,1.953,23.438,0
213550.928,15.137,25.879,21.973,-1.465,42.480,0
213550.932,25.879,28.320,27.344,21.973,40.527,0
213550.936,20.020,32.227,19.531,30.762,25.391,0
213550.940,9.277,27.832,11.230,15.625,28.809,0
213550.942,12.695,28.809,22.949,9.277,30.273,0
213550.946,20.508,33.203,29.785,26.367,21.484,0
213550.950,33.203,29.785,28.809,33.691,18.555,0
213550.954,19.531,25.879,24.902,14.648,21.973,0
213550.958,-1.953,24.902,20.020,1.953,32.715,0
213550.962,32.715,27.344,21.484,18.555,44.434,0
213550.965,60.059,30.762,28.320,40.039,50.293,0
213550.969,35.645,32.715,28.809,35.645,45.410,0
213550.973,8.789,31.738,25.879,23.438,55.664,0
213550.977,19.531,31.738,28.320,31.250,69.336,0
213550.981,59.082,37.598,45.410,47.852,60.059,0
213550.985,49.316,40.039,38.574,44.434,52.734,0
213550.987,6.836,32.715,25.391,20.996,53.711,0
213550.991,6.836,27.344,30.762,13.184,63.477,0
213550.995,34.668,31.738,35.645,36.133,80.078,0
213550.999,46.387,34.668,35.156,40.527,79.102,0
213551.003,31.250,31.738,33.203,25.879,65.918,0
213551.007,19.531,33.691,31.738,22.461,54.199,0
213551.010,30.273,35.156,33.691,29.297,41.016,0
213551.014,40.527,38.086,35.156,38.574,27.344,0
213551.018,40.527,39.551,28.809,23.926,20.020,0
213551.022,26.367,38.086,28.320,6.348,19.531,0
213551.026,14.160,39.062,38.086,18.066,21.973,0
213551.030,32.227,36.133,39.062,37.598,33.691,0
213551.032,28.320,36.133,37.109,31.250,43.945,0
213551.036,11.719,38.574,42.969,20.020,52.734,0
213551.040,24.414,38.574,43.457,24.902,62.500,0
213551.044,43.945,36.621,37.109,42.480,62.012,0
213551.048,39.551,33.203,24.414,42.969,47.852,0
213551.052,9.277,29.297,26.367,16.602,40.527,0
213551.055,6.348,33.203,39.551,14.648,41.992,0
213551.059,39.062,42.480,43.945,42.480,52.734,0
213551.063,55.176,41.016,46.875,52.734,59.082,0
213551.067,36.621,41.504,44.434,33.203,37.109,0
213551.071,10.742,39.551,38.086,21.973,40.527,0
213551.075,35.156,36.621,39.062,38.574,64.453,0
213551.078,51.270,43.945,40.527,55.664,48.828,0
213551.082,32.227,40.527,37.598,41.504,29.297,0
213551.086,17.090,32.715,39.062,21.484,45.898,0
213551.090,12.695,30.762,37.109,26.367,62.012,0
213551.094,35.156,33.691,35.645,44.434,57.129,0
213551.098,52.246,34.180,39.062,32.715,53.223,0
213551.102,36.621,40.527,41.504,19.043,39.551,0
213551.106,17.090,44.922,43.945,25.879,16.602,0
213551.109,36.133,39.551,42.480,40.527,30.273,0
213551.113,33.691,36.133,43.457,46.387,34.668,0
213551.117,12.207,43.457,40.039,28.809,29.785,0
213551.121,19.043,48.340,37.598,26.855,43.457,0
213551.122,41.016,43.457,43.457,42.969,48.340,0
213551.126,55.664,44.434,47.852,51.270,57.617,0
213551.130,44.922,45.898,42.969,34.180,70.801,0
213551.134,22.949,43.945,41.016,20.020,75.684,0
213551.138,42.969,42.969,41.504,32.227,72.266,0
213551.142,67.383,42.969,33.691,41.504,50.781,0
213551.145,25.879,42.480,22.949,29.297,33.691,0
213551.149,-0.488,36.621,20.020,12.695,44.434,0
213551.153,20.508,33.203,35.156,17.578,45.898,0
213551.157,43.945,38.574,43.945,37.109,41.504,0
213551.161,39.062,46.387,41.504,36.133,43.457,0
213551.165,21.973,42.480,41.016,20.508,49.805,0
213551.167,24.902,32.227,39.062,23.926,62.988,0
213551.171,49.316,30.762,38.574,46.875,71.777,0
213551.175,58.594,33.691,46.387,55.664,62.988,0
213551.179,40.039,36.133,48.828,41.992,51.270,0
213551.183,28.809,40.039,46.387,29.297,54.199,0
213551.187,37.109,42.969,48.340,38.574,50.781,0
213551.190,46.387,45.410,41.504,49.805,47.363,0
213551.194,33.203,43.945,41.992,37.109,31.738,0
213551.198,10.742,37.109,47.852,18.555,31.250,0
213551.202,23.926,42.969,50.293,36.133,55.664,0
213551.206,41.504,46.875,52.734,56.152,52.246,0
213551.210,35.645,40.039,48.828,41.016,42.969,0
213551.212,17.090,41.016,51.758,18.555,32.715,0
213551.216,23.438,48.340,49.316,21.973,41.016,0
213551.220,65.430,48.340,43.457,41.016,61.035,0
213551.224,68.359,44.922,42.969,41.504,54.199,0
213551.228,25.391,39.551,35.156,17.578,39.062,0
213551.232,18.066,32.227,36.133,16.602,55.176,0
213551.235,32.715,32.715,41.016,40.527,71.289,0
213551.239,39.551,36.621,41.504,47.363,46.387,0
213551.243,29.297,41.504,41.016,32.227,36.133,0
213551.247,19.531,41.504,38.574,26.367,47.852,0
213551.251,44.922,43.945,47.363,39.551,48.340,0
213551.255,56.152,46.387,49.805,47.363,46.875,0
213551.272,34.180,40.039,38.574,38.086,46.387,0
213551.276,24.414,31.738,41.504,20.020,52.246,0
213551.280,46.387,29.297,41.016,24.902,70.801,0
213551.284,67.383,34.668,37.109,42.969,66.406,0
213551.288,35.645,39.551,33.203,34.180,34.668,0
213551.292,7.324,38.574,28.320,12.207,38.086,0
213551.295,24.414,39.551,35.156,14.648,41.016,0
213551.299,44.922,47.852,38.574,37.109,44.922,0
213551.303,51.758,49.805,34.180,43.457,49.805,0
213551.307,27.832,45.898,43.457,24.414,49.316,0
213551.311,12.695,41.992,54.199,16.113,50.781,0
213551.315,37.109,43.945,52.246,32.227,50.293,0
213551.317,44.434,42.969,45.898,38.086,44.922,0
213551.321,37.598,38.086,40.039,29.297,43.945,0
213551.325,32.227,37.109,42.969,21.973,56.641,0
213551.329,44.922,43.945,47.363,37.109,72.754,0
213551.333,55.664,48.340,49.805,54.688,63.477,0
213551.336,35.645,47.363,49.316,42.969,58.105,0
213551.340,13.184,39.551,38.574,21.484,69.336,0
213551.344,30.762,34.668,33.691,24.902,57.617,0
213551.348,51.758,32.227,34.668,36.621,40.527,0
213551.352,32.715,33.203,26.367,27.344,36.133,0
213551.356,14.648,40.039,30.273,10.254,44.922,0
213551.360,23.438,36.133,40.527,11.719,66.895,0
213551.362,63.965,32.227,43.457,40.039,69.336,0
213551.366,62.988,40.527,43.945,49.805,39.551,0
213551.370,28.809,50.781,44.434,30.762,32.227,0
213551.374,15.137,45.898,50.781,23.438,50.781,0
213551.378,32.227,37.598,52.246,38.574,55.176,0
213551.381,51.270,35.156,51.758,51.270,41.016,0
213551.385,37.109,33.691,49.805,32.715,51.270,0
213551.389,23.926,35.645,43.457,13.672,49.805,0
213551.393,36.621,36.133,37.598,29.785,43.457,0
213551.397,62.012,40.039,46.387,50.781,59.082,0
213551.401,53.223,49.805,47.852,40.527,62.500,0
213551.405,25.879,50.293,41.016,18.066,65.430,0
213551.407,34.180,43.945,42.969,20.508,51.270,0
213551.411,38.086,38.086,42.969,48.340,39.551,0
213551.415,35.645,37.109,46.875,50.781,54.688,0
213551.419,23.926,37.598,48.828,25.879,65.430,0
213551.423,26.855,36.133,49.805,23.926,72.266,0
213551.427,53.711,36.621,49.805,44.434,66.895,0
213551.430,59.082,40.039,48.340,53.223,49.316,0
213551.434,46.387,45.898,47.363,35.156,47.852,0
213551.438,29.297,44.922,47.363,25.879,63.965,0
213551.442,43.945,37.598,48.828,42.480,74.707,0
213551.446,60.059,39.551,51.270,50.293,64.453,0
213551.450,37.598,41.016,44.434,37.109,41.992,0
213551.453,6.348,36.133,39.551,29.785,37.598,0
213551.457,20.020,32.715,48.340,39.551,41.992,0
213551.461,44.434,32.715,51.758,54.199,52.246,0
213551.465,27.344,34.668,50.293,45.410,55.664,0
213551.469,15.625,35.156,49.805,19.531,47.852,0
213551.473,33.691,36.133,56.641,28.809,50.781,0
213551.477,62.500,35.645,56.641,46.387,56.152,0
213551.481,56.152,37.109,41.504,37.109,51.270,0
213551.485,21.484,41.016,39.551,23.926,55.176,0
213551.489,36.133,40.039,49.316,26.367,68.848,0
213551.492,50.781,39.062,52.734,43.945,72.266,0
213551.496,26.367,36.133,41.992,51.270,62.012,0
213551.497,15.625,36.133,32.227,31.250,44.922,0
213551.501,17.090,41.992,41.992,21.484,39.062,0
213551.505,21.484,38.086,45.410,37.598,41.992,0
213551.509,28.320,32.227,37.109,42.480,45.410,0
213551.513,23.438,36.621,31.250,22.949,49.316,0
213551.517,14.648,35.645,31.250,10.742,45.410,0
213551.521,24.414,34.668,33.691,25.391,57.129,0
213551.524,34.668,39.551,34.668,43.457,55.664,0
213551.528,39.551,41.016,40.039,40.039,72.266,0
213551.532,24.414,41.504,41.992,32.715,82.031,0
213551.536,26.855,41.016,40.039,37.598,52.734,0
213551.540,46.875,41.016,41.504,47.852,49.316,0
213551.542,33.691,40.039,32.715,50.781,52.734,0
213551.546,24.414,42.480,26.367,25.879,49.316,0
213551.550,36.133,49.805,33.691,15.625,64.941,0
213551.554,41.016,49.316,41.016,39.551,88.867,0
213551.558,36.133,36.621,41.992,49.316,65.918,0
213551.562,35.156,33.203,35.156,34.180,44.434,0
213551.565,34.180,46.387,31.250,28.809,57.617,0
213551.569,44.922,46.387,42.969,36.621,69.824,0
213551.573,66.406,41.016,46.875,50.781,69.824,0
213551.577,44.434,45.410,37.598,45.898,62.012,0
213551.581,47.852,45.898,38.086,26.855,50.293,0
213551.585,54.688,45.898,41.016,34.180,55.664,0
213551.589,21.973,43.457,36.621,48.340,51.270,0
213551.592,18.066,41.504,32.227,38.574,37.109,0
213551.596,18.555,45.410,35.156,19.043,61.523,0
213551.600,21.484,42.969,37.598,26.855,66.406,0
213551.604,27.344,38.086,41.504,44.922,53.711,0
213551.608,26.855,36.133,34.180,37.109,51.758,0
213551.612,8.789,34.180,28.320,22.949,35.645,0
213551.616,28.809,36.133,39.062,15.625,31.250,0
213551.620,48.340,40.527,49.316,28.809,42.480,0
213551.624,43.457,43.945,48.340,44.434,49.805,0
213551.628,33.203,44.922,33.691,31.738,47.363,0
213551.631,12.695,35.156,34.180,12.207,56.641,0
213551.647,27.344,33.691,45.410,27.832,55.176,0
213551.651,46.387,40.039,48.828,52.246,42.480,0
213551.655,36.621,37.598,42.480,38.574,43.457,0
213551.659,20.996,34.180,32.715,17.578,59.082,0
213551.663,30.273,36.621,40.039,26.367,64.453,0
213551.667,57.129,39.062,49.805,44.434,45.898,0
213551.671,44.434,39.062,53.223,33.691,49.805,0
213551.674,15.625,39.551,51.758,18.555,62.500,0
213551.678,14.648,38.574,49.805,25.391,56.152,0
213551.682,48.828,40.527,48.340,45.898,54.199,0
213551.686,56.152,38.086,42.969,54.199,51.758,0
213551.690,8.301,38.574,32.227,28.320,35.645,0
213551.692,6.836,45.410,28.809,15.137,41.016,0
213551.696,31.250,39.551,30.273,28.809,54.199,0
213551.700,42.969,35.645,29.297,38.086,51.270,0
213551.704,35.156,40.039,29.785,36.133,37.109,0
213551.708,19.531,33.691,29.785,22.461,24.414,0
213551.712,30.762,33.691,30.273,29.297,35.645,0
213551.715,65.918,42.969,30.273,46.875,44.922,0
213551.719,41.504,39.551,26.855,33.691,35.156,0
213551.723,-2.441,34.668,23.438,16.113,36.133,0
213551.727,21.973,34.180,24.414,19.043,48.340,0
213551.731,54.199,34.668,35.645,43.945,49.805,0
213551.735,38.086,40.039,40.039,51.758,56.152,0
213551.737,11.719,41.504,33.203,41.504,68.848,0
213551.741,12.207,37.109,33.203,41.992,72.266,0
213551.745,35.645,35.645,33.203,44.922,58.105,0
213551.749,48.340,36.133,29.785,43.945,37.109,0
213551.753,38.086,41.504,32.715,33.203,27.832,0
213551.757,21.973,40.527,32.227,21.484,38.574,0
213551.760,39.062,33.203,28.809,28.809,55.176,0
213551.764,45.410,31.250,29.297,40.039,40.039,0
213551.768,24.414,33.691,29.785,27.832,24.902,0
213551.772,8.789,33.691,30.273,19.043,31.250,0
213551.776,16.113,30.273,30.273,31.738,36.621,0
213551.780,43.945,31.738,38.086,53.223,46.875,0
213551.782,31.738,37.109,38.086,46.387,49.316,0
213551.786,6.348,38.086,36.133,20.020,47.852,0
213551.790,25.879,36.621,39.551,27.344,55.176,0
213551.794,54.688,33.691,38.574,49.316,53.711,0
213551.798,38.574,30.273,26.855,40.039,35.645,0
213551.802,13.672,38.086,23.926,22.461,31.250,0
213551.806,21.973,38.574,31.250,22.949,42.969,0
213551.809,50.293,35.156,30.762,35.156,66.406,0
213551.813,50.781,40.527,30.273,41.992,43.457,0
213551.817,25.391,42.969,36.133,25.879,13.672,0
213551.821,24.902,41.992,34.180,14.160,39.062,0
213551.825,40.527,38.086,27.344,32.715,51.270,0
213551.828,43.457,34.180,20.996,43.457,41.992,0
213551.832,28.809,38.574,33.203,35.156,33.691,0
213551.836,25.879,39.062,43.945,27.832,29.297,0
213551.840,47.852,37.109,44.434,26.855,42.480,0
213551.844,42.969,37.109,43.945,34.668,45.898,0
213551.848,20.996,36.133,36.133,35.645,35.645,0
213551.852,8.301,34.668,31.250,20.508,34.668,0
213551.856,14.160,34.668,33.691,19.531,42.969,0
213551.860,44.434,35.645,41.504,36.621,45.410,0
213551.864,38.574,32.715,41.992,40.039,27.832,0
213551.867,13.184,30.273,39.062,27.832,23.926,0
213551.871,8.301,34.668,43.945,15.625,44.922,0
213551.873,25.391,38.086,48.340,25.391,57.129,0
213551.877,43.945,37.109,46.875,36.621,51.270,0
213551.881,13.672,34.668,40.527,21.484,45.898,0
213551.884,3.418,29.297,44.434,6.836,51.758,0
213551.888,27.344,26.367,43.945,20.996,41.992,0
213551.892,44.434,29.297,42.480,40.039,45.410,0
213551.896,28.809,28.809,44.922,27.832,49.805,0
213551.900,11.719,25.391,41.016,8.301,20.020,0
213551.904,15.137,25.391,41.504,10.254,12.207,0
213551.908,28.809,24.902,39.551,32.227,18.555,0
213551.912,23.926,25.879,36.621,37.109,11.719,0
213551.916,-0.977,31.738,41.016,16.113,15.137,0
213551.917,12.207,26.855,47.852,15.625,23.926,0
213551.921,34.180,24.902,47.363,37.598,40.039,0
213551.925,19.043,31.250,41.016,38.086,43.945,0
213551.929,9.766,30.762,44.434,21.973,39.551,0
213551.933,25.879,31.738,48.828,19.043,48.340,0
213551.937,56.152,34.668,43.457,34.668,47.363,0
213551.940,47.363,35.645,39.551,41.992,36.621,0
213551.944,15.625,32.227,36.133,25.391,35.156,0
213551.948,10.254,31.738,41.992,9.277,46.387,0
213551.952,16.113,29.297,51.270,17.090,43.945,0
213551.956,28.320,27.832,41.016,33.203,29.785,0
213551.960,29.297,28.809,32.715,24.902,25.391,0
213551.963,21.973,32.227,42.480,5.371,36.133,0
213551.967,12.695,32.227,41.992,5.371,67.383,0
213551.971,30.762,32.227,39.551,31.738,60.547,0
213551.974,42.969,33.691,44.922,46.387,41.992,0
213551.978,16.602,39.551,46.387,26.367,48.828,0
213551.982,14.648,40.039,40.039,14.160,49.316,0
213551.986,37.109,33.691,39.551,38.574,54.199,0
213551.990,31.738,33.691,38.086,46.875,44.434,0
213551.994,9.277,33.203,28.320,19.531,32.715,0
213551.998,7.812,32.227,22.461,4.883,26.855,0
213552.002,41.016,33.203,26.855,18.066,22.949,0
213552.006,48.340,38.086,31.738,30.273,27.344,0
213552.022,4.395,39.551,34.668,23.926,24.414,0
213552.026,-5.859,32.715,31.738,15.137,17.578,0
213552.030,25.391,27.832,34.668,18.066,27.832,0
213552.033,39.551,28.320,41.504,33.203,44.434,0
213552.037,32.227,33.691,40.527,36.621,47.852,0
213552.041,22.949,37.598,35.156,16.602,49.805,0
213552.045,32.715,33.691,39.062,21.973,55.664,0
213552.049,44.434,31.250,44.922,47.852,52.246,0
213552.053,31.250,30.762,37.598,45.410,41.016,0
213552.057,20.020,32.227,28.809,15.137,38.086,0
213552.061,7.324,33.203,31.250,7.812,40.039,0
213552.065,17.578,30.762,34.180,35.156,44.922,0
213552.067,27.344,32.715,36.133,40.039,42.480,0
213552.071,12.207,35.156,27.832,24.414,26.855,0
213552.075,15.625,35.645,25.391,12.207,25.879,0
213552.079,23.438,35.645,42.969,19.043,32.227,0
213552.083,21.484,35.156,43.457,31.250,30.762,0
213552.087,18.066,37.109,37.598,28.809,28.320,0
213552.090,21.973,45.410,43.457,24.414,43.457,0
213552.094,31.250,47.852,43.457,30.273,61.523,0
213552.098,47.363,39.062,33.691,47.363,51.270,0
213552.102,42.969,31.738,29.297,39.062,29.785,0
213552.106,12.695,33.203,30.762,17.090,21.484,0
213552.110,11.230,38.086,40.527,23.926,27.832,0
213552.112,25.879,34.668,46.387,35.156,36.133,0
213552.116,32.715,34.668,45.410,37.109,30.273,0
213552.120,20.020,41.504,41.504,24.902,35.645,0
213552.124,18.555,41.016,36.621,12.207,52.734,0
213552.128,31.738,35.645,37.109,29.297,61.035,0
213552.132,49.316,35.645,30.273,40.039,57.617,0
213552.136,45.410,40.039,19.043,26.855,43.457,0
213552.139,32.227,41.016,32.715,20.020,47.852,0
213552.143,34.180,37.598,46.875,36.133,72.266,0
213552.147,35.645,36.133,43.945,47.852,72.266,0
213552.151,22.461,33.203,40.039,31.738,58.594,0
213552.155,7.812,31.738,37.109,10.254,57.617,0
213552.157,16.113,31.738,39.062,13.672,36.621,0
213552.161,36.133,28.320,45.410,34.180,12.695,0
213552.165,25.391,32.227,41.016,27.832,16.113,0
213552.169,-0.488,34.180,30.273,3.906,29.785,0
213552.173,14.160,27.344,24.902,1.953,37.109,0
213552.177,36.133,25.391,28.809,24.414,26.367,0
213552.180,34.668,30.273,34.668,39.062,25.391,0
213552.184,32.227,32.715,33.203,20.996,40.039,0
213552.188,19.043,30.273,28.809,7.324,53.223,0
213552.192,12.695,27.832,28.809,17.578,55.664,0
213552.196,23.926,29.297,30.762,34.668,57.129,0
213552.200,14.160,35.156,19.531,21.973,50.293,0
213552.202,3.418,38.086,14.160,3.906,48.828,0
213552.206,20.996,36.133,26.367,20.996,72.266,0
213552.210,37.598,32.227,28.809,41.992,64.453,0
213552.214,33.691,33.203,27.344,35.156,37.109,0
213552.218,19.531,34.668,30.273,17.578,49.805,0
213552.222,23.926,33.691,35.645,15.137,56.152,0
213552.225,48.340,32.715,41.992,30.762,41.504,0
213552.229,54.199,35.156,35.645,39.062,42.969,0
213552.233,29.785,33.203,29.297,19.531,59.082,0
213552.237,16.113,33.203,37.109,18.066,69.824,0
213552.241,27.832,32.715,37.109,36.133,43.457,0
213552.245,26.367,30.273,32.715,38.086,21.973,0
213552.247,21.484,33.691,35.156,24.414,24.902,0
213552.251,17.090,30.273,34.180,4.395,33.203,0
213552.255,20.996,26.367,25.391,12.695,40.039,0
213552.259,36.133,30.273,28.809,27.344,31.738,0
213552.263,17.090,29.785,29.297,7.812,20.020,0
213552.267,3.418,27.832,24.902,-2.930,24.414,0
213552.270,25.391,29.785,28.809,14.648,39.062,0
213552.274,45.898,38.086,27.832,32.227,47.363,0
213552.278,31.250,35.645,34.180,37.109,56.152,0
213552.282,9.277,22.461,35.645,29.297,72.754,0
213552.286,17.090,18.066,28.320,27.832,83.496,0
213552.290,61.035,24.414,29.297,44.922,67.871,0
213552.294,43.457,29.297,26.855,44.922,42.969,0
213552.298,-6.836,31.250,25.391,21.973,35.645,0
213552.302,4.883,39.062,25.391,18.066,45.898,0
213552.306,27.832,41.016,21.973,36.621,53.223,0
213552.310,35.156,35.156,20.508,38.086,46.875,0
213552.313,22.461,31.738,25.391,15.625,17.578,0
213552.317,18.066,29.297,31.738,3.906,5.371,0
213552.321,32.227,31.250,37.598,18.555,25.879,0
213552.325,41.504,34.668,37.109,33.691,34.180,0
213552.329,24.414,31.250,33.691,22.949,39.551,0
213552.333,4.883,31.738,33.691,6.348,43.457,0
213552.337,7.812,34.180,29.297,7.324,52.734,0
213552.337,33.203,29.297,30.273,26.367,56.152,0
213552.341,35.645,27.832,33.691,27.344,22.461,0
213552.345,-0.488,26.367,27.832,3.418,1.465,0
213552.349,-1.465,25.391,21.973,-5.859,9.766,0
213552.353,17.090,24.414,18.066,13.672,21.484,0
213552.357,23.438,23.926,14.648,23.926,21.973,0
213552.361,6.348,26.855,24.414,8.301,22.949,0
213552.365,-5.371,29.785,35.645,9.277,54.688,0
213552.368,20.020,30.762,33.203,29.297,71.289,0
213552.372,36.621,25.879,28.809,41.504,46.387,0
213552.376,26.855,27.344,36.621,30.762,31.250,0
213552.380,13.184,28.809,38.574,17.578,48.340,0
213552.397,23.438,28.320,33.691,22.949,70.312,0
213552.401,41.504,31.250,34.668,26.855,47.852,0
213552.405,21.973,37.598,33.691,15.625,21.973,0
213552.409,1.953,40.527,29.785,-3.418,25.879,0
213552.413,6.348,34.180,22.949,-1.465,13.184,0
213552.417,19.043,29.785,24.902,15.625,11.719,0
213552.420,19.043,33.203,26.855,17.090,17.090,0
213552.424,4.395,39.062,22.461,6.348,0.977,0
213552.428,2.441,37.598,24.902,5.371,4.883,0
213552.432,30.762,31.250,24.414,23.438,26.367,0
213552.436,37.598,31.738,20.996,33.203,27.832,0
213552.440,14.648,34.180,22.949,17.090,24.902,0
213552.442,24.414,34.180,22.461,12.695,42.480,0
213552.446,33.691,33.691,18.555,31.250,59.570,0
213552.450,29.297,30.273,11.230,36.621,45.898,0
213552.454,24.902,32.227,12.695,22.949,31.250,0
213552.458,33.203,35.156,11.230,19.531,38.574,0
213552.462,42.480,28.809,9.766,29.297,42.480,0
213552.465,41.992,27.344,17.578,36.621,37.109,0
213552.469,46.387,32.715,21.484,34.180,44.922,0
213552.473,37.109,37.109,26.855,20.020,65.430,0
213552.477,29.297,38.086,25.879,21.973,72.754,0
213552.481,50.781,31.250,23.438,41.504,73.242,0
213552.485,56.152,26.855,22.949,37.598,74.219,0
213552.487,33.203,31.738,22.461,20.996,59.082,0
213552.491,26.855,29.785,23.926,15.625,55.176,0
213552.495,43.457,27.832,24.902,23.438,63.477,0
213552.499,49.805,36.133,21.973,28.809,48.828,0
213552.503,33.691,39.551,16.602,19.531,37.109,0
213552.506,14.648,31.738,17.090,9.277,42.480,0
213552.510,18.066,26.367,20.996,20.996,32.715,0
213552.514,25.391,23.926,19.531,39.551,4.883,0
213552.518,8.789,28.809,22.949,34.668,1.953,0
213552.522,0.000,35.645,32.715,20.996,18.555,0
213552.526,21.973,28.809,35.156,26.855,32.227,0
213552.530,30.273,23.438,31.250,40.527,39.551,0
213552.532,15.137,28.320,24.902,31.738,37.109,0
213552.536,-6.836,29.785,22.461,16.113,38.086,0
213552.540,-0.977,22.949,25.391,13.672,51.270,0
213552.544,30.273,21.484,29.785,31.250,66.406,0
213552.548,42.969,25.879,36.133,41.992,52.734,0
213552.551,36.133,28.320,37.598,22.949,43.457,0
213552.555,25.391,30.762,43.945,19.043,50.293,0
213552.559,40.527,33.203,47.363,39.062,39.551,0
213552.563,46.387,32.227,39.062,44.434,38.574,0
213552.567,24.902,29.785,36.133,24.414,52.246,0
213552.571,10.742,23.438,30.273,7.812,50.781,0
213552.575,29.297,31.250,31.738,26.367,41.504,0
213552.577,53.711,36.621,35.645,44.922,49.805,0
213552.581,37.598,27.344,28.320,33.203,51.758,0
213552.585,11.230,26.855,28.320,18.555,54.688,0
213552.589,36.621,31.738,37.109,31.250,64.941,0
213552.593,50.781,32.715,37.109,50.293,62.500,0
213552.597,20.996,29.785,29.297,48.340,51.758,0
213552.601,3.418,26.855,32.227,33.691,41.016,0
213552.605,15.137,29.297,33.691,23.926,41.992,0
213552.608,40.527,29.297,29.785,37.598,44.434,0
213552.612,37.109,24.902,36.621,47.852,40.527,0
213552.616,23.926,24.414,38.086,26.367,42.480,0
213552.620,20.996,30.762,39.062,20.020,50.293,0
213552.622,29.297,30.762,43.945,35.645,47.852,0
213552.626,23.926,22.949,33.203,33.691,33.691,0
213552.630,-0.488,25.391,26.855,13.184,42.969,0
213552.634,-5.859,29.297,34.180,1.465,46.387,0
213552.638,13.672,31.738,42.969,20.508,49.316,0
213552.642,29.297,38.086,42.480,34.668,46.387,0
213552.646,7.324,33.691,35.156,20.020,29.297,0
213552.650,-1.465,25.879,30.273,-4.395,23.438,0
213552.653,23.438,28.320,38.086,-7.324,20.508,0
213552.657,17.578,28.809,38.574,11.230,16.602,0
213552.661,4.395,32.715,33.691,14.160,6.348,0
213552.665,-1.953,36.133,33.691,2.441,-1.953,0
213552.667,0.000,41.504,33.691,0.000,14.160,0
213552.671,18.555,41.016,41.504,20.020,21.484,0
213552.675,35.645,37.598,50.781,32.715,16.113,0
213552.679,19.531,40.039,51.270,23.438,26.367,0
213552.683,4.883,35.645,46.387,20.508,20.508,0
213552.687,32.715,26.855,39.551,33.203,20.996,0
213552.691,42.969,27.832,36.133,44.922,33.691,0
213552.695,17.090,33.203,33.203,26.367,26.855,0
213552.699,5.371,32.227,33.691,7.812,21.973,0
213552.703,18.066,29.785,35.645,17.578,50.781,0
213552.707,33.691,32.715,35.645,29.785,47.852,0
213552.710,39.062,43.945,34.668,27.832,20.020,0
213552.713,26.367,43.457,31.250,11.719,20.996,0
213552.717,25.879,31.250,29.785,8.301,19.531,0
213552.721,41.992,29.785,31.738,28.809,27.344,0
213552.725,24.414,29.297,22.461,37.598,16.113,0
213552.729,2.930,24.902,16.602,20.996,21.484,0
213552.733,12.695,28.809,17.090,18.066,42.480,0
