timestamps,TP9,AF7,AF8,TP10,Right AUX,Marker0
213855.824,11.230,33.203,22.461,7.812,3.906,0
213855.828,4.883,34.180,20.996,4.395,4.883,0
213855.832,10.742,37.598,36.621,15.625,11.719,0
213855.834,39.062,38.574,39.551,35.645,16.113,0
213855.838,20.020,32.715,23.438,23.926,8.301,0
213855.841,-3.418,29.297,16.113,3.906,19.531,0
213855.845,21.973,33.691,32.227,18.066,37.598,0
213855.849,34.180,36.133,41.504,33.691,25.391,0
213855.853,27.832,38.574,36.133,28.809,12.207,0
213855.857,9.277,41.504,33.691,15.625,7.812,0
213855.861,8.301,38.574,26.367,4.395,10.254,0
213855.865,29.785,37.109,26.367,15.137,18.555,0
213855.869,34.668,34.668,30.762,20.508,24.414,0
213855.873,7.812,34.668,21.973,7.324,20.508,0
213855.877,7.324,33.691,9.766,5.859,26.855,0
213855.878,35.645,31.250,18.555,20.020,43.457,0
213855.882,28.809,35.645,21.484,32.227,36.621,0
213855.886,11.230,38.086,24.414,22.949,16.602,0
213855.890,14.648,33.203,42.969,12.695,17.090,0
213855.894,33.203,29.297,47.363,23.438,20.020,0
213855.898,46.875,33.203,41.992,38.574,11.719,0
213855.902,21.484,39.551,40.039,31.250,16.113,0
213855.906,3.418,36.133,35.645,12.695,31.738,0
213855.910,21.484,30.273,29.297,18.555,40.527,0
213855.914,48.828,35.156,28.809,41.016,43.457,0
213855.917,34.668,37.109,30.273,40.039,33.203,0
213855.921,10.254,34.668,33.203,20.508,35.156,0
213855.923,31.738,38.086,38.574,20.508,48.828,0
213855.927,50.781,38.574,31.738,33.691,45.898,0
213855.931,44.434,36.621,23.438,37.109,40.527,0
213855.935,27.344,38.086,31.250,23.926,52.246,0
213855.939,19.043,37.109,40.039,13.184,47.852,0
213855.943,36.621,37.598,44.434,26.367,25.391,0
213855.947,44.922,39.062,38.574,34.668,6.836,0
213855.951,35.645,34.668,37.109,18.555,3.418,0
213855.955,12.695,32.227,44.434,8.301,10.742,0
213855.959,11.719,35.645,41.016,24.414,32.227,0
213855.962,41.992,36.133,37.109,39.062,45.410,0
213855.966,24.414,35.645,38.086,32.227,39.062,0
213855.971,1.953,36.133,34.668,24.902,47.363,0
213855.975,19.531,39.551,35.645,28.320,66.406,0
213855.979,41.992,42.480,33.203,43.457,70.312,0
213855.983,40.039,36.133,25.391,38.086,58.594,0
213855.987,15.137,27.832,23.438,13.184,45.410,0
213855.991,6.836,28.320,27.832,5.859,38.574,0
213855.995,22.461,32.715,34.180,18.066,28.809,0
213855.998,35.156,35.645,39.062,22.461,8.789,0
213856.002,25.391,36.621,34.668,9.277,8.301,0
213856.006,14.648,38.086,30.762,10.254,43.945,0
213856.010,31.738,38.086,27.832,23.438,50.781,0
213856.014,37.109,36.621,20.996,28.809,20.020,0
213856.014,32.227,41.504,23.926,20.508,12.695,0
213856.018,29.785,42.969,28.320,16.113,32.227,0
213856.022,36.133,39.551,31.250,26.367,37.109,0
213856.026,42.480,39.062,40.039,35.645,19.531,0
213856.030,22.949,36.621,48.828,27.832,8.301,0
213856.034,15.625,32.227,52.246,13.184,24.414,0
213856.038,14.648,31.250,43.945,12.695,46.387,0
213856.042,28.320,30.273,37.598,24.902,32.715,0
213856.046,25.391,31.250,32.715,27.832,14.648,0
213856.050,0.488,33.203,23.438,15.137,18.555,0
213856.053,14.648,33.203,20.996,15.625,26.855,0
213856.057,32.227,37.598,33.203,33.203,36.621,0
213856.059,26.367,40.039,40.527,37.598,30.762,0
213856.063,18.555,39.062,32.715,26.855,25.879,0
213856.066,15.137,37.598,42.480,18.066,38.574,0
213856.070,35.645,36.133,29.297,27.832,42.969,0
213856.074,46.875,39.062,5.859,43.457,36.621,0
213856.078,41.016,41.504,31.250,32.715,31.738,0
213856.082,37.109,43.457,60.059,11.230,32.715,0
213856.086,22.949,40.527,55.664,11.230,24.902,0
213856.090,30.762,37.598,47.363,23.926,10.254,0
213856.094,23.926,38.574,40.527,21.484,4.395,0
213856.098,12.695,39.062,32.227,10.742,4.395,0
213856.102,9.766,37.109,36.133,10.742,14.648,0
213856.118,21.973,36.133,37.109,28.320,23.438,0
213856.122,24.414,36.133,39.062,35.156,13.672,0
213856.126,11.719,36.621,36.133,23.926,28.809,0
213856.130,13.672,37.598,23.438,21.973,54.199,0
213856.134,26.367,35.645,25.879,31.250,54.688,0
213856.138,51.270,38.086,24.414,40.039,47.852,0
213856.142,44.434,39.551,25.391,27.344,37.598,0
213856.146,13.184,40.527,40.039,15.137,32.227,0
213856.150,22.461,40.039,47.852,25.391,34.180,0
213856.154,33.203,34.180,50.781,32.715,28.809,0
213856.158,15.137,29.785,44.922,20.996,18.555,0
213856.161,-2.930,28.320,29.297,6.348,18.555,0
213856.164,6.836,30.273,27.344,15.625,22.949,0
213856.168,31.250,31.738,43.945,33.203,45.410,0
213856.171,29.297,35.156,53.711,30.273,61.523,0
213856.175,18.555,34.668,51.270,20.508,36.133,0
213856.179,25.391,30.762,42.969,21.973,36.621,0
213856.183,45.898,31.738,33.203,31.250,49.805,0
213856.187,65.430,33.691,25.391,30.273,51.758,0
213856.191,46.875,38.574,18.066,20.996,74.707,0
213856.195,27.344,39.551,20.996,21.484,56.152,0
213856.199,39.062,35.156,27.832,30.762,12.207,0
213856.203,32.227,29.785,32.227,35.645,6.348,0
213856.207,19.043,30.273,44.922,27.344,6.836,0
213856.209,9.277,34.180,41.992,19.531,6.836,0
213856.213,12.207,35.156,34.668,27.344,24.902,0
213856.216,23.438,34.180,35.156,35.645,44.922,0
213856.220,19.043,34.180,25.879,29.297,32.227,0
213856.224,6.836,31.738,23.438,19.531,11.230,0
213856.228,20.020,27.832,23.926,16.113,15.625,0
213856.232,36.133,30.762,39.062,27.832,22.461,0
213856.236,32.227,37.598,48.828,28.809,25.879,0
213856.240,31.250,35.645,30.273,12.207,22.949,0
213856.244,25.391,31.250,23.926,8.789,25.391,0
213856.248,41.504,35.645,24.902,27.344,30.273,0
213856.252,38.574,36.621,31.250,32.715,30.762,0
213856.254,29.297,33.691,48.340,14.160,25.391,0
213856.258,29.785,36.133,47.363,9.277,21.973,0
213856.262,23.438,34.668,29.785,21.484,27.344,0
213856.266,25.391,31.250,25.879,32.227,35.645,0
213856.270,5.371,34.180,25.879,28.320,28.809,0
213856.273,-1.465,32.715,28.809,11.230,18.555,0
213856.277,16.113,29.785,42.480,10.742,15.625,0
213856.281,37.109,32.715,46.875,27.344,10.742,0
213856.285,37.109,39.062,47.852,30.273,18.066,0
213856.289,25.391,41.016,44.434,16.113,29.297,0
213856.293,30.273,41.016,45.410,19.043,34.668,0
213856.297,44.922,38.086,51.758,35.156,43.457,0
213856.299,43.457,38.086,20.996,35.645,33.203,0
213856.303,42.969,41.016,-5.371,20.508,28.809,0
213856.307,24.902,45.410,29.785,12.695,32.715,0
213856.311,16.602,41.504,52.734,20.996,23.438,0
213856.314,40.527,35.156,45.898,33.691,22.461,0
213856.318,20.996,36.133,36.621,25.879,23.926,0
213856.322,13.184,39.551,30.762,20.996,39.062,0
213856.326,39.062,45.410,37.109,40.527,59.082,0
213856.330,47.852,44.434,47.852,51.270,50.781,0
213856.334,30.762,40.039,45.898,38.574,40.039,0
213856.338,23.926,38.574,26.367,22.461,41.992,0
213856.342,35.156,31.738,21.973,27.832,36.621,0
213856.344,58.105,29.297,25.879,35.645,31.738,0
213856.348,51.758,34.180,34.180,27.344,30.762,0
213856.351,8.789,32.715,40.527,19.531,36.621,0
213856.355,5.371,28.809,33.203,17.578,46.875,0
213856.359,32.227,32.227,29.785,34.180,38.574,0
213856.363,36.621,34.668,33.203,41.504,17.578,0
213856.367,20.020,35.156,33.203,23.926,13.672,0
213856.371,19.531,37.598,18.555,20.020,24.414,0
213856.375,36.133,34.668,29.785,33.691,30.762,0
213856.379,58.105,33.203,33.691,41.016,38.574,0
213856.383,45.410,35.645,28.320,29.785,57.129,0
213856.387,6.348,37.109,37.109,20.508,56.152,0
213856.388,12.207,35.156,36.133,28.320,41.016,0
213856.392,37.598,31.250,40.527,32.715,39.551,0
213856.396,24.414,30.762,45.898,20.996,32.227,0
213856.400,1.953,33.691,40.527,16.602,43.457,0
213856.404,10.742,34.180,35.645,21.973,45.898,0
213856.408,30.273,34.668,36.621,33.691,24.414,0
213856.412,39.551,38.086,31.738,40.039,25.879,0
213856.416,20.996,37.109,30.273,25.879,26.855,0
213856.420,5.859,34.180,40.527,23.438,26.855,0
213856.423,25.391,32.715,39.062,37.109,25.391,0
213856.427,39.551,29.297,32.227,33.203,18.066,0
213856.431,29.785,25.391,31.738,14.648,26.855,0
213856.436,23.926,26.367,32.227,10.254,48.828,0
213856.440,35.156,34.180,31.250,26.367,53.711,0
213856.444,41.992,41.016,29.785,39.062,39.551,0
213856.448,34.668,38.086,32.715,28.809,33.203,0
213856.451,16.602,34.668,35.645,10.742,27.344,0
213856.455,24.414,35.156,38.574,20.020,24.902,0
213856.459,59.082,37.598,31.738,35.156,28.809,0
213856.463,34.668,39.551,28.809,22.949,26.855,0
213856.467,4.883,38.086,33.691,11.719,32.227,0
213856.471,27.344,39.551,36.621,20.996,47.852,0
213856.475,48.340,42.969,43.457,38.086,62.500,0
213856.479,45.410,41.504,42.480,34.668,77.148,0
213856.494,32.715,39.551,35.156,16.113,54.199,0
213856.498,26.855,36.133,34.180,17.578,26.367,0
213856.501,45.410,35.156,43.457,34.668,41.016,0
213856.505,50.781,36.133,34.668,33.203,31.250,0
213856.509,26.367,38.086,21.484,16.113,26.367,0
213856.513,20.996,41.504,21.484,11.719,27.344,0
213856.517,28.809,41.992,35.156,22.949,8.301,0
213856.521,35.156,41.992,50.293,38.086,1.465,0
213856.525,23.438,40.039,44.922,28.809,2.930,0
213856.529,18.555,37.109,45.410,16.602,13.672,0
213856.533,27.344,36.133,49.805,23.438,27.832,0
213856.537,33.203,39.062,37.109,38.086,33.203,0
213856.539,42.480,41.504,24.414,40.527,33.691,0
213856.542,22.461,36.621,33.203,27.832,46.875,0
213856.546,25.391,33.203,40.039,31.250,62.988,0
213856.550,57.129,33.691,32.715,47.852,46.875,0
213856.554,40.039,37.109,28.809,44.922,28.320,0
213856.558,20.020,35.156,33.203,26.855,39.062,0
213856.562,18.555,32.715,43.457,20.020,39.062,0
213856.566,26.855,37.598,44.434,29.785,35.645,0
213856.570,43.457,37.109,26.855,32.715,22.949,0
213856.574,32.227,33.691,20.996,18.066,17.090,0
213856.578,6.348,35.156,35.156,14.648,26.855,0
213856.581,34.668,35.156,46.875,33.691,27.344,0
213856.584,44.922,35.645,52.246,45.898,36.133,0
213856.588,19.043,37.598,42.480,38.086,44.922,0
213856.592,17.090,33.203,25.879,26.367,41.016,0
213856.595,23.438,33.203,45.898,27.832,38.086,0
213856.599,35.156,38.086,62.012,41.992,48.828,0
213856.603,29.785,34.668,49.805,39.551,41.504,0
213856.607,16.113,31.738,38.574,19.531,23.926,0
213856.611,25.879,30.762,39.551,18.066,23.438,0
213856.615,32.715,30.762,38.086,30.273,16.113,0
213856.619,33.203,36.621,39.551,36.621,11.719,0
213856.623,16.602,38.086,42.480,30.273,21.484,0
213856.627,12.695,34.180,41.016,22.461,36.133,0
213856.629,40.527,33.203,40.527,36.621,62.988,0
213856.633,43.945,32.715,40.039,45.410,55.664,0
213856.636,10.742,35.645,39.062,32.715,35.156,0
213856.640,7.324,35.156,29.297,24.902,39.062,0
213856.644,33.691,34.180,29.297,33.691,42.480,0
213856.648,50.781,35.156,39.551,46.387,37.598,0
213856.652,36.621,37.109,35.645,42.969,22.949,0
213856.656,32.715,41.992,37.598,35.645,28.809,0
213856.660,45.410,41.016,47.852,41.504,33.691,0
213856.664,34.668,35.645,53.711,43.945,18.066,0
213856.668,23.926,36.621,49.316,37.598,7.812,0
213856.672,23.926,39.551,44.434,31.738,14.160,0
213856.674,36.621,39.062,47.363,26.855,35.156,0
213856.678,44.922,40.527,45.898,37.598,52.246,0
213856.682,41.016,43.945,35.156,47.852,36.621,0
213856.686,30.762,40.039,29.297,28.320,32.227,0
213856.689,30.273,31.738,38.574,15.137,34.668,0
213856.693,32.227,32.227,49.316,32.227,35.645,0
213856.697,33.203,36.133,49.316,41.016,30.762,0
213856.701,14.160,32.227,43.945,24.902,20.508,0
213856.705,4.395,32.227,44.922,10.254,20.996,0
213856.709,18.066,37.598,39.062,18.066,18.555,0
213856.713,31.250,37.109,32.227,29.297,33.203,0
213856.717,22.461,33.691,36.621,20.508,25.879,0
213856.719,14.648,33.691,26.855,12.695,12.695,0
213856.723,24.902,35.156,26.367,18.555,34.180,0
213856.726,25.391,35.645,44.922,32.715,29.297,0
213856.730,33.691,41.016,34.668,35.156,21.973,0
213856.734,28.809,41.504,22.461,18.066,55.664,0
213856.738,10.742,35.156,37.598,11.230,50.781,0
213856.742,25.391,36.133,48.340,28.809,31.738,0
213856.746,32.715,37.598,39.551,34.668,32.715,0
213856.750,23.438,34.180,37.109,23.926,34.668,0
213856.754,13.184,33.203,42.969,24.414,32.227,0
213856.758,20.020,37.598,36.621,35.645,32.715,0
213856.762,36.621,39.551,31.250,38.574,31.250,0
213856.764,27.344,39.551,35.156,26.367,21.484,0
213856.768,19.531,41.504,36.621,16.113,22.461,0
213856.771,22.949,36.133,33.691,21.484,41.016,0
213856.775,37.598,36.133,32.715,31.250,38.086,0
213856.779,33.203,41.504,32.715,29.785,21.484,0
213856.783,19.531,41.992,32.715,21.973,33.691,0
213856.787,23.926,40.527,26.367,20.996,42.969,0
213856.791,40.039,36.621,26.367,29.297,44.922,0
213856.795,44.434,39.062,35.156,33.691,54.688,0
213856.799,29.297,39.551,33.691,20.020,44.922,0
213856.803,26.367,37.598,37.598,13.672,28.809,0
213856.807,33.203,39.551,39.062,26.367,18.066,0
213856.809,30.273,38.574,35.645,27.344,-3.418,0
213856.812,20.996,39.551,31.738,14.160,-7.812,0
213856.816,2.930,42.480,30.762,7.324,11.719,0
213856.820,16.113,38.086,33.203,13.184,20.996,0
213856.824,32.227,34.180,33.203,29.297,31.250,0
213856.828,16.113,35.156,38.086,26.855,40.039,0
213856.832,16.113,38.086,41.016,18.555,44.434,0
213856.836,36.621,43.945,34.180,35.156,48.828,0
213856.840,56.641,49.316,42.969,54.688,46.387,0
213856.844,50.293,42.480,42.480,45.410,35.645,0
213856.848,21.973,35.156,35.645,18.555,30.762,0
213856.852,28.320,36.133,44.434,17.090,41.016,0
213856.869,38.574,33.691,40.527,33.203,38.574,0
213856.873,29.297,34.668,36.621,33.691,30.762,0
213856.877,16.602,38.086,41.016,20.020,41.992,0
213856.881,9.766,37.598,41.016,16.602,53.223,0
213856.884,27.832,40.039,45.410,26.855,50.293,0
213856.888,41.016,39.551,39.551,31.738,41.992,0
213856.892,28.320,38.086,32.227,22.461,34.180,0
213856.896,13.184,39.062,36.621,16.602,40.039,0
213856.900,20.508,39.062,42.480,33.691,34.180,0
213856.904,40.039,36.133,42.969,49.805,39.062,0
213856.908,48.828,39.062,43.945,44.922,37.109,0
213856.912,24.902,39.062,34.180,25.391,18.066,0
213856.914,17.578,34.180,27.344,22.949,16.602,0
213856.918,38.574,34.180,24.902,33.203,15.137,0
213856.922,34.668,35.645,30.273,33.203,5.371,0
213856.926,18.066,34.668,44.434,19.043,7.812,0
213856.929,6.836,34.180,49.316,12.207,11.719,0
213856.933,26.367,32.715,50.293,28.320,12.207,0
213856.937,42.480,37.109,42.969,27.344,17.578,0
213856.941,20.996,43.945,42.480,10.254,20.996,0
213856.945,9.277,39.062,42.480,8.301,28.320,0
213856.949,45.410,36.133,35.645,25.879,46.875,0
213856.953,55.176,37.598,36.621,40.039,44.922,0
213856.957,20.020,36.621,37.598,27.344,47.363,0
213856.960,5.859,34.668,34.180,16.113,57.129,0
213856.964,15.625,36.133,29.785,28.809,36.621,0
213856.968,39.551,37.598,32.715,44.922,20.996,0
213856.972,34.180,33.691,34.668,39.551,20.508,0
213856.976,14.160,32.715,29.785,25.879,34.668,0
213856.980,24.902,37.109,38.574,28.809,42.969,0
213856.984,42.969,37.109,41.016,39.551,35.156,0
213856.988,39.062,33.691,34.668,39.062,41.016,0
213856.991,32.715,32.715,30.273,27.832,40.527,0
213856.995,37.109,35.645,30.273,29.785,42.480,0
213856.999,62.500,39.062,36.133,45.410,63.477,0
213857.003,62.012,34.668,24.414,46.387,52.734,0
213857.004,29.297,34.668,21.973,30.273,33.203,0
213857.008,17.578,35.645,34.180,18.555,35.156,0
213857.012,36.621,35.156,36.621,30.273,29.297,0
213857.016,42.480,39.551,33.691,38.086,22.949,0
213857.020,17.578,42.480,29.785,21.484,28.320,0
213857.023,14.648,40.039,34.180,9.277,27.832,0
213857.027,15.137,35.645,36.133,20.020,24.902,0
213857.031,13.672,30.273,32.715,31.738,27.344,0
213857.035,13.184,31.250,32.227,23.926,21.973,0
213857.039,-1.953,35.645,27.344,18.066,9.277,0
213857.043,19.531,38.574,25.391,27.344,15.137,0
213857.047,38.086,36.133,34.180,36.621,30.273,0
213857.049,19.531,33.203,34.668,33.691,28.320,0
213857.052,16.113,34.668,29.297,18.555,21.973,0
213857.056,19.531,31.738,32.715,11.719,25.879,0
213857.060,22.461,32.715,37.109,28.809,37.598,0
213857.064,36.133,38.574,34.180,37.598,37.598,0
213857.068,24.902,38.086,31.250,20.508,23.926,0
213857.072,11.719,34.180,33.691,11.230,20.020,0
213857.076,34.180,33.203,35.645,21.973,28.320,0
213857.080,44.434,34.668,33.691,33.203,33.203,0
213857.084,18.066,32.227,36.621,24.414,30.762,0
213857.088,10.254,31.738,34.668,11.230,37.109,0
213857.092,23.926,34.668,25.879,19.531,48.828,0
213857.094,36.133,34.668,25.391,33.691,43.945,0
213857.098,31.738,38.086,29.785,30.273,43.457,0
213857.101,19.531,46.387,35.156,18.066,47.363,0
213857.105,21.973,46.387,43.945,20.508,36.133,0
213857.109,48.828,41.016,41.016,34.668,27.832,0
213857.113,61.523,44.434,33.203,37.598,34.180,0
213857.117,37.109,45.898,34.180,29.785,47.363,0
213857.121,24.414,42.969,37.598,23.438,45.410,0
213857.125,26.855,40.527,39.062,30.762,32.715,0
213857.129,26.855,36.621,34.180,39.062,22.461,0
213857.133,9.766,35.645,40.527,26.367,28.809,0
213857.137,0.488,33.691,47.852,18.555,34.668,0
213857.138,14.160,31.738,41.992,31.250,33.203,0
213857.142,31.738,32.715,36.133,42.480,41.504,0
213857.146,24.902,33.203,34.668,31.250,35.645,0
213857.150,14.648,35.645,29.297,16.602,24.902,0
213857.154,23.438,39.062,26.855,22.949,24.414,0
213857.158,46.387,40.527,33.203,35.645,26.367,0
213857.162,48.828,40.527,36.133,31.250,15.625,0
213857.166,19.043,38.086,37.109,12.695,15.625,0
213857.170,22.949,40.039,29.785,12.207,41.992,0
213857.174,45.410,43.457,20.020,26.855,54.688,0
213857.178,27.832,40.039,25.391,27.832,36.621,0
213857.181,8.301,35.645,38.086,17.090,29.785,0
213857.185,11.230,37.598,40.039,13.672,45.410,0
213857.189,28.809,35.156,33.203,27.344,47.363,0
213857.193,42.480,35.156,32.715,37.109,29.785,0
213857.197,23.926,39.062,36.133,26.367,25.879,0
213857.201,17.090,44.434,37.109,16.602,27.344,0
213857.205,31.250,46.387,45.410,27.344,28.320,0
213857.209,51.270,41.016,48.828,39.551,27.344,0
213857.213,27.832,39.551,41.016,29.785,28.320,0
213857.217,-0.488,37.109,38.086,13.184,18.066,0
213857.221,13.672,36.621,30.273,12.207,16.113,0
213857.225,26.855,41.016,26.855,25.391,19.531,0
213857.228,31.250,41.016,32.715,29.785,9.766,0
213857.244,27.344,40.039,36.133,20.020,27.344,0
213857.248,29.297,42.969,38.086,20.020,53.223,0
213857.251,38.574,42.969,41.016,36.133,51.758,0
213857.255,41.504,39.551,41.504,34.668,28.320,0
213857.259,20.020,34.668,40.039,15.625,21.973,0
213857.263,2.930,32.227,41.992,4.883,31.250,0
213857.267,20.996,31.250,44.922,15.137,35.645,0
213857.271,46.875,33.203,45.410,27.344,25.879,0
213857.275,41.016,36.621,40.039,19.531,29.297,0
213857.279,17.578,40.039,23.438,14.160,52.734,0
213857.283,24.902,39.062,16.602,27.832,64.453,0
213857.287,36.621,35.156,35.645,42.480,39.551,0
213857.289,26.855,37.109,43.945,35.156,37.598,0
213857.293,17.578,40.527,47.852,23.438,55.176,0
213857.296,23.926,37.598,47.852,27.344,43.945,0
213857.300,41.016,29.785,33.203,35.156,31.250,0
213857.304,47.852,28.809,27.344,26.855,25.879,0
213857.308,30.273,35.156,30.762,13.672,22.949,0
213857.312,9.766,35.156,31.250,11.719,15.137,0
213857.316,17.578,33.691,29.297,21.484,6.348,0
213857.320,41.016,39.062,31.250,29.785,18.066,0
213857.324,23.926,38.086,20.996,16.113,19.531,0
213857.328,1.953,32.715,14.160,2.441,13.672,0
213857.332,23.438,33.203,28.809,14.648,39.062,0
213857.334,38.086,35.156,39.551,31.738,32.227,0
213857.338,22.461,30.762,37.598,22.949,4.395,0
213857.342,10.742,30.273,36.133,11.230,20.508,0
213857.346,23.438,36.621,41.992,20.020,44.922,0
213857.349,38.086,36.621,34.180,35.645,45.410,0
213857.353,38.574,38.086,27.832,33.203,34.668,0
213857.357,19.043,38.086,34.668,20.508,30.273,0
213857.361,10.254,32.715,31.738,21.973,23.926,0
213857.365,41.504,34.668,25.879,34.668,21.484,0
213857.369,50.781,37.598,28.320,34.668,6.348,0
213857.373,13.672,38.574,34.180,20.996,1.953,0
213857.377,19.531,38.086,34.180,11.719,28.320,0
213857.379,41.504,41.016,41.504,21.484,38.086,0
213857.382,30.273,42.480,49.316,34.668,29.297,0
213857.386,13.672,32.227,40.039,22.949,32.715,0
213857.390,13.672,27.832,38.086,14.648,41.016,0
213857.394,33.691,32.227,30.273,29.297,54.688,0
213857.398,38.574,32.715,20.996,40.527,51.270,0
213857.402,25.879,33.203,31.250,26.855,28.809,0
213857.406,19.043,33.691,39.551,12.695,22.949,0
213857.410,25.391,35.645,37.598,20.508,21.484,0
213857.414,34.180,39.062,38.574,32.227,3.906,0
213857.418,22.949,36.621,40.527,26.367,-2.441,0
213857.422,9.766,31.250,36.621,8.301,12.207,0
213857.425,28.809,29.785,30.762,4.395,32.715,0
213857.429,33.203,30.273,27.344,20.508,36.621,0
213857.433,23.926,31.738,21.484,26.855,23.438,0
213857.437,17.578,35.156,19.043,14.160,30.273,0
213857.441,13.672,34.668,15.625,12.695,30.273,0
213857.444,36.621,35.645,16.113,29.785,26.855,0
213857.448,50.293,40.527,30.273,43.457,38.574,0
213857.452,28.809,40.527,22.461,36.133,39.062,0
213857.456,11.719,36.621,17.578,19.043,35.645,0
213857.460,31.738,33.691,40.039,24.414,26.855,0
213857.464,42.969,33.203,48.828,36.133,8.789,0
213857.468,21.484,32.227,41.504,22.461,5.371,0
213857.469,10.742,32.715,36.621,7.324,8.789,0
213857.473,16.602,38.086,37.598,12.207,20.508,0
213857.476,33.691,41.504,37.598,31.250,25.391,0
213857.480,36.621,39.551,34.180,38.086,20.996,0
213857.484,18.555,36.133,30.762,26.855,37.598,0
213857.488,20.508,34.180,21.484,25.879,54.688,0
213857.492,41.504,36.133,33.691,38.574,57.617,0
213857.496,43.457,34.668,33.691,31.738,47.852,0
213857.500,14.648,31.738,28.320,13.672,33.691,0
213857.504,13.672,31.250,44.922,12.695,30.762,0
213857.508,39.551,30.762,49.316,25.879,14.648,0
213857.512,38.574,31.250,42.969,32.715,-6.836,0
213857.514,24.902,35.156,33.203,24.414,-7.324,0
213857.518,10.742,37.598,31.250,15.625,2.930,0
213857.522,16.602,31.738,38.086,17.090,9.277,0
213857.526,32.715,31.250,39.062,26.855,13.184,0
213857.529,28.809,37.109,30.762,31.738,30.273,0
213857.533,21.484,36.133,29.785,25.879,57.617,0
213857.537,24.902,32.227,36.133,19.043,61.035,0
213857.541,37.109,35.645,41.504,30.762,66.895,0
213857.545,38.086,40.527,40.039,36.621,61.523,0
213857.549,20.020,44.434,34.180,20.996,29.785,0
213857.553,13.184,40.527,31.738,9.277,24.902,0
213857.557,28.809,32.715,30.273,17.578,44.434,0
213857.559,31.250,26.855,28.809,24.414,38.574,0
213857.563,11.230,31.738,22.949,17.578,23.926,0
213857.566,10.742,40.039,21.484,15.137,40.039,0
213857.570,31.738,40.039,29.785,22.461,49.805,0
213857.574,42.969,36.133,32.715,36.133,29.785,0
213857.578,29.297,39.062,39.551,32.715,21.973,0
213857.582,14.160,39.551,41.992,14.648,40.527,0
213857.586,15.625,28.320,43.457,9.766,41.992,0
213857.590,34.180,23.926,37.109,23.438,35.156,0
213857.594,36.621,35.156,30.762,24.414,42.480,0
213857.598,8.301,41.504,45.898,11.230,44.922,0
213857.602,-0.977,30.762,51.758,7.324,33.691,0
213857.619,19.531,28.320,46.875,21.973,22.949,0
213857.623,22.461,33.203,39.551,25.391,12.207,0
213857.627,9.766,32.227,26.367,15.137,11.230,0
213857.631,8.301,31.250,31.738,16.602,19.043,0
213857.635,24.902,31.738,41.992,30.762,22.949,0
213857.639,40.527,34.668,44.434,41.016,28.320,0
213857.642,30.762,37.109,46.875,30.273,26.367,0
213857.646,23.926,36.133,47.363,22.949,43.457,0
213857.650,38.086,37.109,48.828,37.109,76.172,0
213857.654,49.316,39.062,34.180,46.875,67.383,0
213857.658,32.715,36.621,28.320,36.133,38.086,0
213857.662,19.043,37.109,44.434,26.367,33.691,0
213857.664,31.738,39.551,31.738,32.715,30.273,0
213857.668,35.645,31.738,14.160,40.039,19.043,0
213857.671,21.484,26.855,27.832,26.367,3.418,0
213857.675,11.230,31.250,43.945,17.090,-0.488,0
213857.679,19.043,33.691,46.387,20.996,22.949,0
213857.683,40.039,36.621,47.363,29.785,28.320,0
213857.687,46.875,43.945,53.223,39.062,24.414,0
213857.691,33.203,41.016,43.457,28.320,39.062,0
213857.695,28.809,31.738,29.297,19.043,44.922,0
213857.699,41.504,29.785,32.715,28.320,42.969,0
213857.703,43.457,30.273,36.133,37.598,43.945,0
213857.707,28.320,33.691,32.715,33.691,41.016,0
213857.709,24.414,37.109,29.297,22.949,32.227,0
213857.713,32.715,36.621,27.832,23.926,23.438,0
213857.716,42.480,35.156,30.273,33.691,15.625,0
213857.720,32.227,38.086,35.156,27.344,6.836,0
213857.724,14.648,41.504,32.715,12.207,11.719,0
213857.728,17.578,39.062,25.879,12.207,20.996,0
213857.732,38.574,36.621,29.785,31.250,31.738,0
213857.736,39.551,35.156,35.645,37.598,40.039,0
213857.740,17.090,34.668,27.832,22.461,33.203,0
213857.744,17.090,35.645,22.461,19.043,34.180,0
213857.748,38.086,35.156,30.762,36.133,58.105,0
213857.752,45.410,41.016,35.156,46.875,55.176,0
213857.754,23.438,40.527,28.320,26.367,40.527,0
213857.758,11.230,36.621,23.438,9.277,53.223,0
213857.762,34.180,43.457,24.902,29.297,31.250,0
213857.765,40.527,39.551,29.297,39.551,-6.348,0
213857.769,20.996,29.785,26.855,22.949,-0.977,0
213857.773,18.555,30.273,23.926,7.812,9.766,0
213857.777,23.438,31.250,39.062,14.160,-0.977,0
213857.781,38.574,35.645,41.992,34.180,14.160,0
213857.785,38.574,39.551,25.391,34.668,23.926,0
213857.789,7.324,37.109,24.902,17.578,17.578,0
213857.793,12.695,37.598,38.574,22.949,39.551,0
213857.797,39.062,36.621,49.805,44.434,62.012,0
213857.799,41.016,33.691,42.969,43.945,54.688,0
213857.803,18.066,29.785,29.785,23.438,38.086,0
213857.807,19.043,28.320,26.855,15.625,33.203,0
213857.811,28.809,28.320,22.949,25.879,32.227,0
213857.815,28.320,29.297,33.203,31.738,20.508,0
213857.818,15.625,29.785,40.527,19.531,10.742,0
213857.822,1.953,28.809,35.645,10.254,18.066,0
213857.826,21.484,31.738,29.297,20.020,37.598,0
213857.830,46.387,40.527,22.461,37.109,46.875,0
213857.834,30.762,40.039,22.949,31.738,48.340,0
213857.838,12.695,36.133,21.973,18.555,45.410,0
213857.842,25.391,34.180,25.879,24.414,40.039,0
213857.844,36.621,32.715,36.133,37.109,50.293,0
213857.848,32.715,35.645,43.945,36.621,51.758,0
213857.851,19.043,35.156,37.598,20.508,46.875,0
213857.855,20.996,33.691,33.203,18.555,40.039,0
213857.859,30.273,33.691,37.109,28.809,26.855,0
213857.863,44.922,32.715,38.574,31.250,17.578,0
213857.867,32.227,35.156,32.715,21.973,10.742,0
213857.871,3.418,35.645,31.250,17.090,36.621,0
213857.875,21.484,34.180,27.344,29.785,43.457,0
213857.879,36.621,32.715,18.555,37.109,24.414,0
213857.883,23.926,32.715,28.809,25.879,37.109,0
213857.887,21.484,32.715,37.598,19.043,55.664,0
213857.890,35.156,35.156,33.203,33.691,62.500,0
213857.894,45.410,39.062,26.855,47.363,60.547,0
213857.898,42.480,35.156,22.949,33.203,54.199,0
213857.902,26.855,28.809,26.855,16.602,43.457,0
213857.906,16.602,31.250,35.645,21.484,36.133,0
213857.910,33.691,34.668,27.344,37.109,23.926,0
213857.914,30.273,33.203,7.324,34.668,5.859,0
213857.917,14.160,32.715,10.742,19.531,15.137,0
213857.921,31.250,33.203,29.297,17.578,33.203,0
213857.925,40.527,36.133,42.480,26.367,27.344,0
213857.929,26.855,37.109,41.504,34.668,20.020,0
213857.933,15.625,37.109,37.109,29.297,32.227,0
213857.934,11.719,31.250,27.832,16.602,43.457,0
213857.937,24.414,24.902,19.043,17.578,44.434,0
213857.941,31.738,28.809,17.090,23.926,34.668,0
213857.945,21.484,31.250,23.926,11.230,25.391,0
213857.949,13.672,33.203,28.320,-1.465,21.973,0
213857.953,15.137,38.086,27.832,7.812,32.715,0
213857.957,26.855,37.109,33.203,23.926,36.133,0
213857.961,15.625,29.785,37.598,17.090,13.184,0
213857.965,8.301,31.250,39.551,3.906,1.465,0
213857.969,15.137,32.715,35.645,6.836,0.488,0
213857.973,21.973,27.344,27.832,18.555,11.230,0
213857.977,28.320,31.738,32.227,21.484,12.207,0
213857.994,12.695,36.621,40.527,9.277,2.441,0
213857.998,14.648,35.645,30.273,6.348,22.949,0
213858.001,32.715,34.668,29.785,23.926,36.133,0
213858.005,38.086,38.574,45.898,31.738,24.414,0
213858.009,25.391,43.457,47.363,23.926,24.414,0
213858.013,22.949,38.086,38.574,16.602,28.809,0
213858.017,54.199,36.621,41.992,25.391,29.297,0
213858.021,46.875,39.062,50.293,38.574,26.367,0
213858.025,15.625,34.668,49.805,32.715,14.160,0
213858.029,13.672,33.691,49.805,23.438,20.020,0
213858.033,26.855,35.156,47.363,27.344,31.250,0
213858.037,37.109,36.133,44.434,42.969,36.621,0
213858.038,27.832,38.086,45.410,46.387,28.809,0
213858.042,13.184,39.551,42.969,32.715,33.691,0
213858.046,19.043,40.527,43.457,32.227,62.988,0
213858.050,35.156,33.203,38.086,44.922,64.941,0
213858.054,37.109,29.297,28.320,42.969,38.086,0
213858.058,22.461,30.762,30.273,25.879,40.527,0
213858.062,12.695,30.762,31.250,18.555,30.273,0
213858.066,37.598,32.227,34.668,28.320,-0.488,0
213858.069,43.457,36.133,42.969,35.156,6.836,0
213858.073,12.695,37.598,41.504,18.555,21.973,0
213858.077,4.883,38.086,41.016,5.859,19.043,0
213858.081,24.902,40.527,41.992,19.043,7.812,0
213858.084,52.734,41.016,41.992,30.273,10.742,0
213858.088,40.527,42.969,38.574,24.902,29.297,0
213858.091,9.277,39.551,30.273,7.812,47.852,0
213858.095,26.367,29.297,31.250,12.207,51.758,0
213858.099,48.340,28.809,35.156,36.621,53.711,0
213858.103,32.227,34.180,37.598,40.527,44.922,0
213858.107,14.648,32.227,33.203,26.855,28.809,0
213858.111,6.348,31.250,26.855,23.438,23.438,0
213858.115,8.301,37.109,33.691,35.156,17.578,0
213858.119,13.184,37.598,41.016,33.691,9.277,0
213858.123,2.441,35.156,42.480,21.484,15.625,0
213858.127,-2.441,33.203,39.062,15.625,29.785,0
213858.129,21.973,31.250,36.621,22.949,33.203,0
213858.133,37.598,33.203,32.227,33.691,35.645,0
213858.136,27.832,34.180,28.320,25.879,39.551,0
213858.140,37.598,38.086,36.621,14.160,49.316,0
213858.144,49.316,44.434,36.621,20.996,54.688,0
213858.148,48.340,43.457,26.855,36.133,43.945,0
213858.152,37.598,41.992,33.203,31.250,37.598,0
213858.156,24.414,41.504,41.504,10.742,44.922,0
213858.160,33.203,45.410,42.969,15.625,53.223,0
213858.164,53.711,47.852,40.039,36.133,59.082,0
213858.168,48.828,39.551,35.645,32.715,55.664,0
213858.172,17.090,36.133,28.320,15.625,45.898,0
213858.175,16.602,34.668,27.832,16.113,48.340,0
213858.179,40.039,32.715,35.645,32.715,55.664,0
213858.183,45.898,33.203,41.504,43.457,41.504,0
213858.187,34.668,33.691,35.645,32.715,43.457,0
213858.191,21.973,35.645,31.738,20.020,51.270,0
213858.195,39.551,35.645,32.715,27.344,48.828,0
213858.199,38.574,29.297,33.203,34.668,41.016,0
213858.203,15.137,29.785,35.645,23.926,34.180,0
213858.206,9.766,32.227,36.621,11.230,47.852,0
213858.210,30.762,31.250,38.574,20.508,49.805,0
213858.214,48.340,31.738,38.574,32.715,36.621,0
213858.218,41.992,38.086,38.086,28.320,31.738,0
213858.219,28.320,46.875,37.598,18.066,29.785,0
213858.223,32.715,42.480,42.969,16.602,24.902,0
213858.226,38.574,35.156,36.133,27.832,20.020,0
213858.230,29.297,33.203,22.461,27.344,27.832,0
213858.234,10.254,31.250,25.879,13.184,39.062,0
213858.238,8.301,31.250,32.227,13.672,41.992,0
213858.242,31.250,33.203,30.273,28.809,46.875,0
213858.246,27.832,37.598,30.762,34.668,52.734,0
213858.250,4.395,40.527,35.645,22.949,44.922,0
213858.254,0.488,39.062,37.109,14.160,41.504,0
213858.258,14.648,34.668,41.504,19.531,37.598,0
213858.262,23.438,31.738,27.832,25.391,21.973,0
213858.264,7.812,28.320,21.973,16.602,14.160,0
213858.268,-5.371,27.344,33.203,2.930,17.578,0
213858.272,5.859,30.273,29.785,5.859,12.695,0
213858.276,31.250,32.227,34.180,20.020,16.602,0
213858.279,31.738,33.203,40.039,22.461,2.441,0
213858.283,2.441,36.133,44.922,14.160,-1.953,0
213858.287,14.648,40.039,47.852,16.113,8.301,0
213858.291,38.086,34.180,43.457,32.715,3.906,0
213858.295,25.879,30.762,38.574,35.156,1.465,0
213858.299,13.672,33.691,30.273,19.531,1.953,0
213858.303,21.484,37.109,27.344,17.578,20.020,0
213858.307,34.180,38.574,24.414,31.250,33.691,0
213858.309,51.758,40.527,25.879,39.551,32.715,0
213858.313,41.016,42.969,23.926,30.762,27.832,0
213858.317,12.695,41.016,27.344,15.625,39.062,0
213858.321,15.625,37.598,34.180,16.602,39.551,0
213858.324,33.691,38.086,31.250,31.250,24.902,0
213858.328,27.344,40.039,20.996,25.879,22.461,0
213858.332,5.859,38.574,13.184,13.184,29.785,0
213858.336,12.207,36.621,26.855,20.508,39.062,0
213858.340,34.668,34.668,35.645,35.645,36.133,0
213858.344,31.738,32.715,26.855,31.738,38.086,0
213858.348,21.973,36.133,26.367,17.578,38.574,0
213858.352,29.297,37.109,35.156,17.578,37.109,0
213858.355,36.133,28.809,32.715,28.809,33.691,0
213858.359,31.250,26.367,27.832,29.785,10.254,0
213858.363,16.602,33.203,32.227,18.555,7.324,0
213858.367,32.227,30.273,36.133,18.066,29.297,0
213858.371,49.805,34.180,32.715,29.785,38.574,0
213858.375,36.133,46.875,31.250,22.949,26.855,0
213858.379,23.926,49.805,31.250,10.742,22.949,0
213858.383,7.812,40.527,29.297,-3.418,21.973,0
213858.387,17.090,32.715,27.344,-8.789,22.949,0
213858.390,25.879,33.691,27.344,12.695,19.531,0
213858.394,9.277,37.109,20.020,15.625,12.695,0
213858.398,4.395,40.039,27.832,1.465,19.531,0
213858.413,21.973,40.527,35.156,8.789,37.109,0
213858.417,37.598,39.062,30.273,29.785,41.016,0
213858.421,31.738,35.156,26.855,31.738,33.691,0
213858.425,20.020,31.738,20.996,17.578,48.828,0
213858.429,15.625,32.715,34.668,18.066,48.340,0
213858.433,36.621,36.133,48.340,41.016,28.320,0
213858.437,47.363,34.668,43.945,45.410,37.598,0
213858.441,18.555,31.738,41.504,27.344,41.016,0
213858.445,12.207,33.691,35.645,25.391,27.344,0
213858.449,28.809,34.180,29.297,31.250,38.574,0
213858.453,44.922,30.273,28.809,36.133,49.805,0
213858.456,30.273,30.273,28.320,31.250,44.434,0
213858.459,4.883,34.180,34.180,19.531,38.574,0
213858.463,16.113,35.156,37.109,22.949,19.531,0
213858.467,33.203,35.645,27.344,31.738,3.906,0
213858.470,26.855,39.551,20.996,24.902,-2.930,0
213858.474,11.230,42.480,29.785,12.695,-0.977,0
213858.478,11.230,40.039,36.621,9.766,12.695,0
213858.482,27.832,34.180,32.227,19.043,12.695,0
213858.486,24.414,33.203,26.367,20.996,-1.953,0
213858.490,9.277,35.645,32.715,7.324,-0.488,0
213858.494,13.184,35.156,37.109,3.418,11.719,0
213858.498,33.203,35.156,35.156,21.484,24.902,0
213858.502,34.668,33.691,32.227,27.832,16.113,0
213858.504,14.160,32.715,25.879,11.719,6.836,0
213858.507,19.043,35.156,26.367,5.371,14.648,0
213858.511,31.250,40.039,26.367,17.578,14.160,0
213858.515,35.645,42.480,23.926,28.809,12.207,0
213858.519,34.668,38.086,24.902,20.020,12.207,0
213858.523,22.461,38.574,33.203,12.207,18.066,0
213858.527,22.461,39.062,40.039,21.973,31.250,0
213858.531,34.180,34.668,29.785,35.645,20.996,0
213858.535,31.250,32.227,21.484,30.273,-6.836,0
213858.539,12.207,32.715,30.762,13.184,-2.930,0
213858.543,13.184,36.133,36.133,10.254,22.949,0
213858.546,33.691,33.691,32.715,18.555,20.020,0
213858.549,44.922,30.762,27.832,19.043,15.625,0
213858.553,19.531,31.738,33.203,8.301,16.602,0
213858.557,7.324,33.203,32.715,0.000,8.789,0
213858.560,29.785,36.621,25.391,12.207,9.277,0
213858.564,32.227,34.180,28.809,21.484,24.902,0
213858.568,15.137,33.203,33.203,14.160,33.203,0
213858.572,8.789,35.645,31.250,6.348,26.367,0
213858.576,18.555,29.785,19.043,9.766,20.996,0
213858.580,26.367,25.391,15.137,15.625,6.348,0
213858.584,19.531,24.414,27.832,4.395,3.418,0
213858.588,14.160,24.902,37.109,-4.395,13.672,0
213858.592,2.441,28.320,40.527,5.371,23.926,0
213858.593,20.508,26.367,41.992,20.996,28.809,0
213858.597,23.926,26.367,39.062,20.508,27.344,0
213858.601,-8.301,26.367,28.320,7.812,13.184,0
213858.605,-4.395,28.809,22.949,3.418,12.207,0
213858.609,21.484,34.668,31.738,13.184,44.922,0
213858.613,21.484,31.738,33.691,19.531,28.809,0
213858.616,7.324,30.273,41.016,14.648,-2.441,0
213858.620,13.672,32.715,50.293,13.184,17.578,0
213858.624,24.414,30.273,46.387,19.531,30.273,0
213858.628,31.250,31.250,36.621,28.320,28.320,0
213858.632,17.090,31.250,28.320,22.949,18.555,0
213858.636,3.418,29.297,27.344,8.301,19.043,0
213858.639,19.531,32.227,20.508,11.230,32.715,0
213858.643,25.879,33.203,10.742,25.879,30.762,0
213858.647,8.789,33.203,25.391,20.996,17.090,0
213858.651,3.418,34.668,43.457,6.348,33.691,0
213858.655,18.066,37.598,37.598,11.719,42.969,0
213858.659,34.180,36.621,37.109,25.879,17.578,0
213858.663,25.391,35.156,35.645,25.391,15.625,0
213858.667,18.555,36.621,31.250,13.672,29.297,0
213858.671,29.785,35.645,36.621,8.789,23.926,0
213858.675,40.039,41.016,33.203,28.809,25.879,0
213858.678,40.039,44.922,28.809,38.574,27.344,0
213858.682,34.180,38.574,25.879,21.973,18.555,0
213858.683,22.461,36.621,20.020,10.742,33.691,0
213858.687,25.879,38.086,20.020,20.508,35.156,0
213858.691,38.086,39.551,21.484,33.203,17.578,0
213858.695,22.949,40.039,29.785,23.438,12.695,0
213858.699,27.344,41.504,30.273,11.719,21.484,0
213858.703,43.457,46.387,25.391,22.461,31.738,0
213858.707,36.133,43.945,34.180,38.086,28.320,0
213858.710,20.508,42.480,34.668,28.320,21.973,0
213858.714,3.906,43.945,28.320,6.836,23.438,0
213858.718,22.461,39.062,31.250,6.836,47.363,0
213858.722,38.086,39.551,32.227,21.973,50.293,0
213858.726,24.414,42.480,29.785,27.832,26.855,2
213858.744,23.438,38.574,29.297,17.090,29.785,0
213858.747,33.203,36.133,20.508,13.184,50.293,0
213858.751,29.785,36.621,14.648,25.391,47.852,0
213858.755,23.438,32.715,26.855,29.297,23.438,0
213858.759,22.461,38.574,38.086,23.926,20.020,0
213858.763,17.090,41.992,36.621,21.973,35.156,0
213858.767,24.902,33.203,31.250,25.391,42.480,0
213858.771,36.133,28.320,29.785,31.250,42.969,0
213858.775,24.902,31.250,28.320,26.855,34.668,0
213858.779,21.484,31.738,21.484,18.066,32.227,0
213858.783,30.762,32.715,22.949,20.508,42.969,0
213858.787,33.691,33.203,36.133,31.250,23.926,0
213858.789,29.297,32.715,40.527,29.297,3.906,0
213858.793,10.742,37.598,38.574,15.625,5.859,0
213858.797,10.254,41.016,37.598,13.672,7.324,0
213858.800,30.762,37.109,32.227,25.879,9.277,0
213858.804,40.039,31.250,31.738,34.180,9.766,0
213858.808,27.344,26.855,31.738,20.508,10.742,0
213858.812,2.930,27.832,28.809,6.348,23.438,0
213858.816,12.207,30.762,38.574,21.973,26.367,0
213858.820,32.227,34.180,43.457,33.691,34.180,0
213858.824,25.879,38.086,37.598,18.555,24.414,0
213858.828,17.090,36.133,34.668,12.695,12.695,0
213858.832,28.320,32.227,32.227,27.832,33.691,0
213858.834,37.109,36.621,30.273,39.062,31.738,0
213858.838,22.461,42.969,27.832,31.738,27.832,0
213858.842,12.207,40.527,30.762,20.996,36.133,0
213858.846,19.043,37.109,26.855,20.508,46.387,0
213858.850,43.945,35.156,21.973,30.273,40.527,0
213858.853,43.945,36.621,29.297,31.250,32.227,0
213858.857,17.578,38.086,31.738,19.531,31.738,0
213858.861,19.043,38.086,24.902,19.531,40.527,0
213858.865,35.645,37.109,27.832,31.250,43.945,0
213858.869,36.133,35.156,33.691,34.668,30.273,0
213858.873,24.414,33.203,26.855,23.926,28.320,0
213858.877,31.250,34.180,21.973,17.578,47.852,0
213858.878,43.457,34.180,26.855,28.809,61.035,0
213858.882,40.039,35.645,30.273,41.016,37.109,0
213858.886,24.414,36.133,31.250,32.715,29.785,0
213858.890,10.254,33.203,32.715,22.461,47.363,0
213858.894,22.461,32.715,35.156,31.738,60.059,0
213858.898,35.645,33.203,34.668,41.016,56.641,0
213858.902,31.250,35.645,27.832,32.715,41.016,0
213858.906,31.738,38.086,23.438,18.555,41.016,0
213858.910,25.879,37.109,32.715,21.973,45.410,0
213858.914,33.691,34.180,39.062,35.156,43.945,0
213858.918,55.664,37.109,33.691,37.109,42.969,0
213858.921,36.621,38.574,33.691,25.391,44.922,0
213858.924,16.602,32.227,37.598,18.066,33.691,0
213858.928,32.715,29.297,30.273,28.320,20.508,0
213858.932,41.992,28.809,25.391,31.738,20.996,0
213858.935,23.438,26.855,25.391,21.973,21.973,0
213858.939,6.836,29.297,21.484,16.113,20.508,0
213858.943,38.086,31.250,30.273,30.273,30.273,0
213858.947,46.875,35.645,44.434,44.922,37.109,0
213858.951,13.672,43.457,41.992,33.691,45.898,0
213858.955,7.812,42.480,40.039,26.367,53.223,0
213858.959,17.090,35.156,38.574,35.645,50.293,0
213858.963,36.133,35.645,34.668,41.504,42.969,0
213858.967,38.574,37.109,41.016,33.691,34.668,0
213858.985,20.020,37.598,43.945,19.531,25.391,0
213858.989,10.742,36.133,39.551,14.160,16.113,0
213858.993,29.785,34.668,32.227,26.367,22.949,0
213858.997,39.062,36.133,33.203,32.715,27.832,0
213859.000,21.973,40.039,36.133,17.578,28.320,0
213859.004,18.555,44.434,38.086,14.160,43.945,0
213859.008,37.109,40.527,41.016,34.668,58.594,0
213859.012,67.871,34.668,32.227,40.039,57.129,0
213859.016,31.738,38.086,25.391,22.949,53.711,0
213859.020,-10.742,38.574,25.879,10.254,45.410,0
213859.024,15.137,36.133,24.414,21.973,36.133,0
213859.028,32.715,35.156,29.297,34.668,45.898,0
213859.014,15.625,33.203,31.738,22.461,30.762,0
213859.018,5.859,36.621,31.738,12.695,17.090,0
213859.021,27.344,37.598,38.086,20.020,18.555,0
213859.025,44.922,32.715,34.668,36.133,6.836,0
213859.029,31.250,33.691,32.715,35.156,12.207,0
213859.033,19.531,33.691,37.109,18.555,22.949,0
213859.037,30.762,33.203,38.086,22.461,42.480,0
213859.041,38.086,34.668,37.598,38.086,48.828,0
213859.045,62.012,35.156,31.738,38.086,47.852,0
213859.049,53.223,41.016,28.809,26.855,62.988,0
213859.053,20.020,42.969,32.715,27.344,62.988,0
213859.057,36.621,41.992,25.391,38.086,54.688,0
213859.058,45.898,41.016,25.391,41.016,32.715,0
213859.062,23.438,36.621,35.156,30.273,12.695,0
213859.066,13.672,34.668,35.156,26.367,29.785,0
213859.070,24.902,35.156,37.598,39.062,43.457,0
213859.074,42.969,37.598,39.062,48.340,45.410,0
213859.078,44.434,38.574,35.645,40.527,36.621,0
213859.082,20.020,37.598,40.527,32.227,18.555,0
213859.086,16.113,43.945,45.410,39.062,30.273,0
213859.090,32.715,47.363,37.109,46.387,42.969,0
213859.094,39.551,41.016,32.227,35.156,40.527,0
213859.098,20.508,34.668,35.645,16.602,38.574,0
213859.101,9.766,32.227,29.297,13.672,22.949,0
213859.106,38.086,34.668,26.367,25.879,19.043,0
213859.110,52.734,36.621,28.320,29.297,24.414,0
213859.113,20.996,36.621,28.320,12.695,16.113,0
213859.117,10.742,35.645,38.086,4.883,18.066,0
213859.121,44.434,40.527,37.598,22.461,26.367,0
213859.125,42.969,42.969,25.879,29.785,17.090,0
213859.129,15.625,38.086,20.020,11.719,11.719,0
213859.133,6.836,34.668,22.461,-0.488,13.184,0
213859.137,21.973,34.668,30.762,12.207,29.785,0
213859.141,43.945,33.203,32.715,25.879,30.762,0
213859.145,36.621,34.668,28.320,21.973,23.926,0
213859.149,18.555,38.086,24.414,12.207,43.457,0
213859.164,31.250,40.039,18.066,14.648,45.410,0
213859.168,45.898,40.039,27.832,27.832,25.879,0
213859.171,39.062,42.969,41.016,33.691,5.371,0
213859.175,16.113,40.527,40.527,22.949,-2.441,0
213859.179,4.883,30.273,40.039,15.137,8.789,0
213859.183,36.133,29.297,41.016,29.297,20.020,0
213859.187,44.434,35.156,38.086,33.203,20.996,0
213859.191,15.137,35.645,34.180,17.578,22.461,0
213859.195,25.391,33.691,30.273,14.648,31.250,0
213859.199,49.316,31.738,29.297,18.066,32.227,0
213859.203,33.203,32.227,31.250,24.902,20.996,0
213859.207,16.602,38.574,28.809,20.996,24.414,0
213859.208,8.789,35.156,27.832,7.812,26.367,0
213859.212,31.250,32.227,31.250,17.578,31.738,0
213859.216,47.852,36.133,29.297,31.738,31.250,0
213859.220,23.438,35.645,15.625,23.438,20.996,0
213859.224,9.277,31.738,17.578,7.324,28.809,0
213859.228,20.508,29.297,28.320,5.371,35.156,0
213859.232,32.227,31.250,31.738,22.461,19.043,0
213859.236,29.785,36.133,37.598,28.809,14.160,0
213859.240,15.137,36.133,35.645,16.602,19.043,0
213859.244,11.719,33.691,27.344,9.766,23.438,0
213859.248,22.949,29.785,25.879,19.043,24.414,0
213859.251,39.062,30.762,33.691,32.227,15.137,0
213859.254,41.504,37.109,31.250,22.461,11.230,0
213859.258,21.973,33.203,14.648,5.859,10.742,0
213859.262,23.438,27.832,18.066,13.184,17.578,0
213859.266,35.645,31.250,30.273,26.367,17.090,0
213859.270,20.020,36.621,35.645,19.043,12.207,0
213859.274,16.113,39.062,29.297,11.230,25.391,0
213859.277,35.645,35.156,27.832,19.043,32.715,0
213859.281,41.992,33.691,31.738,31.738,28.809,0
213859.285,33.691,32.715,24.902,32.715,39.062,0
213859.289,30.273,32.715,28.320,22.949,41.016,0
213859.293,35.645,38.086,33.691,29.297,42.480,0
213859.297,36.621,38.574,24.414,41.992,62.012,0
213859.299,35.645,40.039,23.438,45.898,42.969,0
213859.303,15.137,44.922,35.156,33.691,19.531,0
213859.306,23.926,44.434,37.598,24.902,24.414,0
213859.310,50.781,39.551,41.504,39.062,36.133,0
213859.314,33.691,39.062,49.805,46.387,28.320,0
213859.318,12.695,39.062,52.246,29.785,13.184,0
213859.322,18.066,37.598,43.457,18.066,26.367,0
213859.326,45.898,41.504,36.621,27.344,34.180,0
213859.330,49.805,45.898,44.434,37.109,37.598,0
213859.334,29.297,43.945,51.270,32.715,35.156,0
213859.338,16.602,43.457,43.457,21.484,34.668,0
213859.342,22.461,39.062,27.344,21.484,43.945,0
213859.344,42.969,34.180,26.855,37.598,59.082,0
213859.348,37.598,34.668,34.180,36.621,50.293,0
213859.351,33.691,40.039,30.762,20.508,33.203,0
213859.355,30.762,42.480,32.715,18.555,39.551,0
213859.359,27.832,39.551,36.621,29.785,40.039,0
213859.363,32.715,38.086,34.180,37.598,22.949,0
213859.367,21.973,41.504,30.273,20.996,19.043,0
213859.371,16.602,44.922,31.738,15.625,31.250,0
213859.375,21.484,42.969,39.062,29.297,33.691,0
213859.379,32.715,41.504,41.992,34.180,20.020,0
213859.383,16.602,38.086,37.598,23.926,5.371,0
213859.387,8.301,31.250,29.785,10.742,14.648,0
213859.391,26.367,29.785,31.738,18.066,26.855,0
213859.395,31.250,28.320,45.410,33.203,27.344,0
213859.399,24.902,31.250,42.480,29.785,27.832,0
213859.403,17.090,38.086,35.645,17.578,29.785,0
213859.406,19.531,43.457,43.457,25.391,50.781,0
213859.410,45.898,43.457,48.340,41.504,59.082,0
213859.414,39.062,37.109,30.762,38.574,14.160,0
213859.418,1.465,32.227,21.484,23.926,-3.418,0
213859.422,1.465,30.273,27.344,19.043,20.508,0
213859.426,24.902,31.250,25.879,29.785,41.992,0
213859.430,30.273,33.691,35.645,34.180,33.203,0
213859.434,16.602,34.668,43.457,23.926,8.301,0
213859.434,10.254,38.574,41.016,13.672,14.648,0
213859.438,24.414,35.156,39.062,18.555,48.340,0
213859.442,40.527,29.785,38.574,31.250,49.316,0
213859.446,20.020,31.738,34.668,28.320,21.973,0
213859.449,2.930,30.762,25.391,16.602,20.996,0
213859.453,36.133,30.762,25.391,24.902,31.738,0
213859.457,40.527,31.250,21.484,33.691,20.508,0
213859.461,9.766,34.180,10.742,24.902,7.812,0
213859.465,4.883,36.133,21.484,16.113,3.906,0
213859.469,13.184,33.203,28.809,18.555,8.301,0
213859.473,31.250,36.621,34.668,27.344,16.113,0
213859.477,35.645,40.527,44.434,29.297,22.461,0
213859.494,24.414,38.086,37.598,20.508,29.297,0
213859.498,23.438,38.086,29.785,16.602,41.016,0
213859.502,43.457,40.039,27.344,28.809,59.082,0
213859.506,51.758,36.133,26.855,34.668,69.336,0
213859.509,28.320,34.180,24.902,25.879,49.805,0
213859.513,21.484,38.086,26.367,19.043,38.086,0
213859.517,31.738,37.598,27.344,22.461,41.992,0
213859.521,39.551,34.668,27.832,27.832,19.043,0
213859.525,25.879,33.691,33.691,22.949,5.371,0
213859.529,-0.977,28.809,29.785,0.000,12.695,0
213859.533,15.625,28.320,28.320,5.371,19.531,0
213859.537,48.828,30.273,30.762,36.133,36.621,0
213859.539,20.996,28.809,28.809,36.133,45.410,0
213859.543,0.000,32.227,31.738,12.207,27.344,0
213859.547,16.602,33.203,35.156,7.812,25.391,0
213859.551,27.832,30.273,33.691,28.320,42.969,0
213859.555,31.250,31.738,31.738,34.180,47.852,0
213859.558,23.438,33.691,30.762,22.461,38.574,0
213859.562,18.555,32.227,29.297,19.043,23.926,0
213859.566,32.227,35.645,33.691,28.809,18.555,0
213859.570,38.086,39.062,38.086,38.574,11.719,0
213859.574,17.578,36.133,35.156,23.438,0.000,0
213859.578,6.836,37.109,35.645,10.742,7.812,0
213859.582,20.508,37.109,38.574,22.461,23.926,0
213859.583,34.668,33.691,34.180,36.621,21.973,0
213859.587,21.973,36.133,22.461,29.297,13.672,0
213859.591,5.371,38.574,23.926,9.277,20.020,0
213859.595,23.926,38.574,29.785,15.625,40.527,0
213859.599,52.246,38.574,30.762,33.203,41.504,0
213859.603,46.875,33.203,35.156,28.809,33.203,0
213859.607,17.090,33.203,40.039,17.578,37.109,0
213859.611,17.090,39.551,45.898,19.531,45.410,0
213859.615,38.574,38.574,42.480,32.227,56.641,0
213859.619,37.109,34.180,33.203,32.227,41.504,0
213859.623,22.461,34.180,29.785,15.625,6.836,0
213859.626,24.414,33.691,29.297,4.883,33.203,0
213859.630,35.645,37.109,31.738,19.043,58.105,0
213859.634,37.598,38.574,37.598,37.598,9.277,0
213859.638,23.926,33.691,35.156,30.762,-12.207,0
213859.642,9.766,28.809,26.855,19.043,6.348,0
213859.646,19.043,28.809,35.156,22.461,25.391,0
213859.650,34.668,32.715,39.551,32.715,37.598,0
213859.654,30.762,30.762,32.715,26.367,34.180,0
213859.657,14.648,29.297,31.250,12.695,20.996,0
213859.661,13.184,32.715,30.273,13.184,21.484,0
213859.665,25.879,29.785,35.156,26.855,25.879,0
213859.669,31.738,27.344,35.156,31.250,15.625,0
213859.673,24.902,26.855,18.555,18.555,18.555,0
213859.674,14.648,26.367,20.996,12.207,25.879,0
213859.678,22.461,32.227,45.410,30.273,19.531,0
213859.681,21.973,33.203,43.945,34.668,18.066,0
213859.685,15.137,30.273,35.156,16.602,37.109,0
213859.689,11.230,30.762,38.086,10.742,41.992,0
213859.693,12.695,34.180,35.645,18.066,30.762,0
213859.697,30.273,37.598,35.645,30.762,37.598,0
213859.701,26.367,34.668,38.574,27.832,32.715,0
213859.705,16.113,30.762,41.992,12.695,29.297,0
213859.709,30.273,28.320,36.133,14.648,44.922,0
213859.713,39.062,30.762,28.809,27.832,45.410,0
213859.717,22.949,32.715,28.320,21.484,14.648,0
213859.719,11.230,33.203,24.902,9.277,18.555,0
213859.723,15.625,37.598,29.785,12.207,42.969,0
213859.727,31.250,39.062,32.227,28.320,23.926,0
213859.731,40.527,36.133,34.180,36.621,16.113,0
213859.734,13.184,33.203,31.738,25.391,24.902,0
213859.738,9.766,35.645,20.020,20.996,31.738,0
213859.742,31.738,36.133,22.461,31.250,42.480,0
213859.746,30.762,39.551,28.809,32.227,36.621,0
213859.750,16.602,40.039,37.109,20.508,24.902,0
213859.754,13.184,34.668,41.504,11.230,27.832,0
213859.758,32.715,34.668,30.273,21.973,45.898,0
213859.762,47.852,36.621,29.297,34.180,51.758,0
213859.764,25.391,35.645,30.273,25.879,32.715,0
213859.768,8.301,32.715,28.809,17.090,20.996,0
213859.772,26.367,35.156,37.109,24.414,29.297,0
213859.775,45.410,39.062,40.039,37.109,36.621,0
213859.779,38.086,38.086,33.203,32.715,31.250,0
213859.783,18.066,31.250,31.250,19.043,28.320,0
213859.787,20.020,29.785,36.133,18.555,45.898,0
213859.791,35.156,30.762,41.016,33.691,45.898,0
213859.795,37.109,33.203,38.574,46.387,33.203,0
213859.799,17.578,34.180,29.297,35.156,31.250,0
213859.803,12.207,29.785,26.367,22.949,30.762,0
213859.807,39.062,28.809,21.484,32.715,50.781,0
213859.809,50.293,29.785,29.785,42.969,49.805,0
213859.813,22.461,28.320,48.828,31.250,26.855,0
213859.817,0.000,28.809,51.270,17.090,21.484,0
213859.821,13.672,31.250,42.969,21.973,34.668,0
213859.825,37.109,32.715,30.273,33.691,39.551,0
213859.829,35.645,34.668,31.250,33.203,35.156,0
213859.833,23.438,41.992,36.621,23.926,42.480,0
213859.837,26.367,40.527,37.598,20.508,40.527,0
213859.840,45.898,31.738,42.480,36.621,47.363,0
213859.844,41.504,32.227,37.598,40.039,49.316,0
213859.848,28.320,35.645,25.391,25.391,44.434,0
213859.852,35.156,33.203,30.273,20.996,49.316,0
213859.856,35.156,35.156,35.645,26.367,37.598,0
213859.860,34.668,38.086,29.785,30.273,13.672,0
213859.864,21.484,33.691,37.109,24.414,7.812,0
213859.868,9.766,30.762,41.504,14.648,30.273,0
213859.872,27.344,31.250,38.086,20.020,28.809,0
213859.876,40.527,32.715,38.086,34.668,14.160,0
213859.880,27.344,36.621,39.551,30.273,18.066,0
213859.884,17.090,38.086,41.016,20.020,22.461,0
213859.887,27.344,33.691,38.086,24.902,29.297,0
213859.891,45.410,37.109,35.156,35.156,30.273,0
213859.895,39.551,41.504,25.879,29.785,37.109,0
213859.899,17.578,36.133,16.113,12.695,43.945,0
213859.914,33.691,33.691,18.066,13.672,36.621,0
213859.918,63.965,38.574,27.832,29.297,37.598,0
213859.921,36.133,36.133,39.062,21.973,37.109,0
213859.925,12.207,36.621,34.668,3.906,15.625,0
213859.929,15.137,39.551,34.180,3.418,2.441,0
213859.933,25.879,37.109,25.391,17.578,16.113,0
213859.937,34.180,40.039,15.625,24.414,14.648,0
213859.941,19.531,43.945,22.949,16.602,10.254,0
213859.945,11.230,37.598,26.367,10.742,18.555,0
213859.949,23.438,30.762,27.344,14.648,15.137,0
213859.953,34.180,30.273,25.879,24.414,13.672,0
213859.957,22.949,30.762,25.391,19.531,19.043,0
213859.959,6.836,30.273,28.320,6.836,18.555,0
213859.963,10.742,28.809,34.668,10.254,13.184,0
213859.966,24.414,30.762,43.457,27.832,22.461,0
213859.970,16.602,32.715,42.480,24.902,4.883,0
213859.974,-1.953,32.227,32.715,11.230,-8.301,0
213859.978,10.742,25.391,25.879,13.672,15.137,0
213859.982,38.086,23.926,26.855,23.438,23.926,0
213859.986,21.484,32.227,25.391,25.391,16.113,0
213859.990,1.953,33.203,22.461,13.184,18.555,0
213859.994,10.742,32.715,26.367,10.254,39.062,0
213859.998,26.367,34.180,34.668,25.391,46.875,0
213860.002,29.297,34.180,39.062,35.156,42.480,0
213860.004,13.672,33.691,17.090,23.438,43.457,0
213860.008,12.207,30.273,8.789,14.160,36.621,0
213860.012,36.621,28.809,21.484,24.902,32.227,0
213860.016,39.062,30.762,29.785,30.273,28.320,0
213860.020,17.578,34.668,35.156,20.508,22.949,0
213860.023,7.812,36.621,37.109,5.859,10.254,0
213860.027,13.672,34.180,39.062,5.859,5.859,0
213860.031,28.320,38.574,30.762,24.414,26.367,0
213860.035,23.926,40.527,28.809,29.297,13.672,0
213860.039,7.812,33.691,38.086,10.254,7.324,0
213860.043,17.578,28.809,40.039,10.742,21.484,0
213860.047,32.715,29.785,34.180,32.227,28.320,0
213860.049,35.156,34.180,25.879,36.133,28.320,0
213860.053,28.320,37.598,30.273,20.020,20.996,0
213860.057,26.367,37.598,31.250,16.113,30.273,0
213860.060,39.551,40.039,31.738,34.180,42.480,0
213860.064,54.688,42.969,32.715,38.086,36.621,0
213860.068,37.598,40.527,23.926,23.438,20.508,0
213860.072,21.973,43.457,29.785,15.625,28.809,0
213860.076,47.363,42.969,24.414,24.902,47.363,0
213860.080,54.199,36.133,17.090,38.086,41.992,0
213860.084,25.391,36.133,26.367,30.273,34.668,0
213860.088,11.230,38.086,31.738,20.996,40.527,0
213860.092,22.461,34.180,30.273,26.367,38.086,0
213860.095,42.480,35.645,31.250,41.992,40.527,0
213860.099,34.668,41.016,29.785,38.086,38.086,0
213860.103,9.766,36.133,21.973,18.066,36.621,0
213860.107,12.695,31.738,31.250,17.578,43.457,0
213860.111,33.691,31.738,41.016,28.809,39.551,0
213860.115,37.109,29.785,37.109,33.691,25.879,0
213860.119,27.344,32.715,29.297,23.438,19.043,0
213860.123,27.832,37.598,22.461,18.555,21.973,0
213860.126,35.645,37.598,24.414,25.879,31.250,0
213860.130,39.062,32.715,29.297,25.879,30.273,0
213860.134,24.414,28.320,31.738,21.973,19.043,0
213860.138,13.672,27.344,36.133,18.555,32.715,0
213860.138,25.879,26.367,41.016,17.578,39.062,0
213860.142,39.551,31.250,41.016,26.367,34.180,0
213860.146,36.621,32.715,34.668,22.461,36.133,0
213860.150,12.207,31.250,27.832,10.742,41.016,0
213860.154,7.324,36.133,26.367,15.625,47.363,0
213860.158,28.320,35.645,30.762,30.273,50.293,0
213860.162,30.273,30.273,31.250,30.762,28.320,0
213860.166,12.207,27.832,24.902,11.230,-15.137,0
213860.170,1.465,29.297,24.902,4.883,-11.719,0
213860.174,18.066,33.691,30.273,20.508,18.066,0
213860.178,33.691,38.574,32.715,32.227,26.855,0
213860.181,23.926,37.109,33.203,26.855,25.879,0
213860.184,3.418,33.203,42.480,15.137,32.715,0
213860.188,19.531,33.203,46.875,21.484,37.598,0
213860.192,45.898,39.062,32.715,40.039,36.621,0
213860.196,32.715,40.039,20.996,35.645,35.156,0
213860.199,23.926,32.227,26.367,22.461,34.180,0
213860.203,39.551,30.762,36.621,27.832,41.016,0
213860.207,45.898,32.715,40.039,33.691,39.062,0
213860.211,44.434,31.738,42.969,29.785,22.461,0
213860.215,28.320,33.691,42.480,16.602,15.137,0
213860.219,20.020,34.668,38.086,12.207,14.160,0
213860.223,38.086,43.945,38.574,32.715,28.809,0
213860.227,54.199,49.805,37.109,38.086,46.387,0
213860.243,38.086,37.598,30.273,19.043,32.227,0
213860.247,18.555,33.691,26.367,14.648,26.367,0
213860.251,39.551,33.691,20.996,26.855,48.340,0
213860.255,47.363,32.227,17.578,35.645,57.617,0
213860.259,17.578,35.645,13.184,26.367,44.922,0
213860.263,12.695,37.598,16.602,20.020,41.504,0
213860.267,40.527,41.016,31.250,30.762,43.457,0
213860.271,43.945,41.016,35.156,37.109,42.969,0
213860.275,10.742,33.691,38.574,24.902,41.016,0
213860.279,0.977,29.785,40.039,8.789,16.602,0
213860.283,15.137,31.738,36.621,6.348,6.836,0
213860.286,26.855,32.227,29.785,17.578,3.906,0
213860.289,20.020,30.273,28.320,19.531,-7.324,0
213860.293,3.418,31.250,31.738,5.371,13.184,0
213860.297,12.695,35.156,31.738,13.184,33.691,0
213860.300,38.574,38.086,24.902,37.109,31.250,0
213860.304,41.992,33.203,17.090,39.551,37.109,0
213860.308,24.902,37.598,27.344,24.414,36.621,0
213860.312,20.996,41.504,39.062,16.602,34.668,0
213860.316,40.527,33.691,36.133,22.461,34.668,0
213860.320,45.898,31.250,33.691,29.785,9.766,0
213860.324,24.902,33.203,30.273,23.926,-4.883,0
213860.328,2.930,32.715,37.109,13.672,-3.906,0
213860.332,17.578,34.668,41.504,25.879,18.066,0
213860.334,41.504,38.086,41.992,42.969,27.344,0
213860.338,11.230,36.133,33.691,31.738,4.883,0
213860.341,-9.277,36.621,26.855,17.578,12.695,0
213860.345,15.137,35.645,35.156,23.438,33.691,0
213860.349,42.969,33.691,32.715,42.480,43.945,0
213860.353,38.086,32.715,28.320,42.969,52.734,0
213860.357,22.461,30.273,31.250,23.926,56.152,0
213860.361,29.785,35.156,35.645,22.949,67.383,0
213860.365,45.410,43.457,44.922,36.621,59.082,0
213860.369,38.574,38.574,38.574,35.156,22.949,0
213860.373,24.902,30.762,30.762,17.090,16.602,0
213860.377,21.973,30.273,27.344,4.883,29.785,0
213860.379,22.949,31.250,23.926,12.695,44.434,0
213860.383,38.574,36.621,30.273,28.809,40.039,0
213860.386,27.344,40.527,31.738,19.531,7.324,0
213860.390,2.441,42.480,31.738,6.348,21.484,0
213860.394,15.137,42.480,40.527,16.113,41.992,0
213860.398,32.715,36.133,35.645,28.809,28.809,0
213860.402,27.344,31.250,34.668,27.344,29.297,0
213860.406,10.742,32.227,37.109,14.160,34.180,0
213860.410,7.812,33.691,35.645,10.742,38.086,0
213860.414,25.391,35.156,34.668,26.367,29.785,0
213860.418,29.785,37.109,34.180,33.691,12.695,0
213860.422,16.113,41.016,32.715,21.973,15.137,0
213860.423,22.461,42.969,34.668,21.484,29.785,0
213860.427,38.574,34.668,35.156,27.832,39.551,0
213860.431,44.922,30.273,32.227,27.344,32.715,0
213860.435,31.738,33.203,31.250,18.066,24.414,0
213860.439,12.207,34.668,28.320,5.859,27.344,0
213860.443,19.043,34.668,23.438,10.254,36.133,0
213860.447,35.645,34.668,23.438,26.855,41.992,0
213860.451,30.273,37.598,29.785,17.090,19.043,0
213860.455,7.324,36.133,33.691,-1.953,11.719,0
213860.459,17.090,34.180,39.062,9.277,20.020,0
213860.462,46.875,34.180,36.621,23.926,19.043,0
213860.466,32.227,36.621,30.762,18.066,18.066,0
213860.468,5.859,37.598,26.367,9.277,9.766,0
213860.472,8.301,35.156,24.902,10.742,3.906,0
213860.476,29.297,38.086,28.320,27.344,16.602,0
213860.480,39.551,37.598,25.879,33.203,24.414,0
213860.484,25.391,39.062,26.367,17.578,30.273,0
213860.488,11.719,42.480,31.738,12.695,47.363,0
213860.492,26.855,41.992,37.109,33.691,32.715,0
213860.496,37.109,41.992,49.316,41.992,22.461,0
213860.500,28.809,34.668,51.758,20.996,31.250,0
213860.504,32.227,33.691,48.828,16.602,33.691,0
213860.508,26.367,36.133,41.992,28.320,41.992,0
213860.511,29.785,34.180,35.156,36.621,29.297,0
213860.513,27.344,35.645,41.016,35.645,9.277,0
213860.517,20.996,39.062,37.109,21.973,8.301,0
213860.521,34.668,40.039,31.738,20.508,27.832,0
213860.525,40.039,33.691,27.832,33.203,41.992,0
213860.529,28.320,28.809,26.367,33.203,25.879,0
213860.533,16.602,33.203,29.785,22.461,19.531,0
213860.537,23.438,34.668,25.391,21.973,34.180,0
213860.541,46.387,36.133,20.508,36.621,53.223,0
213860.545,59.082,40.039,17.578,46.875,61.523,0
213860.549,45.410,41.504,29.297,34.180,46.875,0
213860.552,30.273,37.109,43.457,17.090,44.434,0
213860.556,33.691,30.762,41.504,28.809,56.152,0
213860.560,35.645,30.762,39.062,44.434,32.227,0
213860.564,30.273,33.203,37.598,33.203,22.949,0
213860.567,20.020,33.691,37.109,16.113,43.945,0
213860.571,21.484,34.668,36.621,26.367,41.504,0
213860.575,46.875,39.551,33.203,47.852,31.250,0
213860.579,45.410,40.039,30.273,40.527,33.203,0
213860.583,12.695,34.668,35.156,22.949,45.410,0
213860.587,15.625,39.062,41.992,23.438,54.199,0
213860.591,36.621,38.086,37.598,38.086,43.945,0
213860.595,30.762,34.180,23.438,32.227,24.414,0
213860.599,19.043,36.621,17.578,14.648,23.438,0
213860.603,19.531,36.133,28.809,12.695,35.645,0
213860.605,27.344,33.203,36.621,22.461,27.832,0
213860.609,32.227,35.156,36.621,25.879,10.254,0
213860.613,15.625,41.504,35.156,14.648,4.395,0
213860.617,9.766,36.621,32.227,8.301,13.672,0
213860.620,23.438,32.227,34.180,18.555,37.109,0
213860.624,43.945,33.691,29.785,28.809,42.480,0
213860.628,28.320,34.668,24.902,21.973,6.348,0
213860.632,-4.883,34.668,20.508,11.230,-7.812,0
213860.636,5.859,34.180,21.973,17.090,23.926,0
213860.640,26.855,31.738,34.668,31.250,39.062,0
213860.644,26.855,33.691,37.598,32.715,27.832,0
213860.648,10.742,31.250,34.180,20.996,18.555,0
213860.663,5.859,29.297,34.180,17.090,27.344,0
213860.667,29.785,31.250,35.156,29.785,41.016,0
213860.671,27.832,26.367,37.109,32.227,25.879,0
213860.675,10.254,26.367,32.227,14.160,8.789,0
213860.679,24.414,30.762,25.391,7.324,22.461,0
213860.683,30.273,32.227,24.414,16.113,32.715,0
213860.687,32.227,31.250,26.855,21.973,26.855,0
213860.691,27.832,33.203,30.762,19.043,29.785,0
213860.695,14.160,37.109,34.668,18.066,49.805,0
213860.699,32.715,37.109,32.227,22.461,50.781,0
213860.703,45.410,32.227,25.391,32.227,32.715,0
213860.706,26.367,26.855,25.879,28.320,26.855,0
213860.709,13.184,28.320,32.715,12.695,22.461,0
213860.712,12.695,30.273,34.668,12.207,9.766,0
213860.716,28.320,30.273,29.297,21.973,11.719,0
213860.720,31.250,33.691,26.855,23.438,11.719,0
213860.724,11.719,39.551,21.973,11.230,-8.301,0
213860.728,8.789,37.109,22.949,9.277,0.000,0
213860.732,28.320,29.785,28.809,25.879,14.160,0
213860.736,32.715,28.809,23.926,33.203,8.789,0
213860.740,26.855,30.762,20.996,18.555,12.207,0
213860.744,28.809,31.738,27.344,15.625,32.715,0
213860.748,32.227,32.227,29.297,35.156,46.387,0
213860.751,38.086,32.715,26.855,46.387,50.293,0
213860.754,30.273,33.691,25.879,34.668,33.691,0
213860.757,27.832,34.668,34.180,20.020,26.855,0
213860.761,33.691,37.109,38.086,28.320,45.410,0
213860.765,38.574,40.527,33.203,43.945,25.391,0
213860.769,23.438,35.645,24.414,24.414,2.930,0
213860.773,10.254,31.738,24.414,4.883,21.484,0
213860.777,33.203,32.715,30.273,17.090,36.133,0
213860.781,36.621,31.738,30.273,29.297,37.109,0
213860.785,30.273,34.180,27.832,30.273,35.156,0
213860.789,28.809,34.180,32.715,16.602,34.668,0
213860.793,22.461,37.109,36.133,16.113,51.270,0
213860.797,36.621,42.480,37.109,36.133,58.105,0
213860.798,38.574,38.574,34.668,38.086,26.367,0
213860.802,16.602,37.109,27.344,19.043,18.066,0
213860.806,11.719,35.645,24.414,14.160,28.809,0
213860.810,31.250,30.273,23.438,24.414,33.691,0
213860.814,38.086,29.297,23.438,32.715,31.250,0
213860.818,21.973,31.738,26.855,24.902,23.926,0
213860.822,13.184,34.668,32.715,18.555,33.203,0
213860.826,30.762,34.668,27.344,25.391,47.852,0
213860.830,51.758,26.367,23.438,33.203,39.551,0
213860.834,27.832,24.902,27.344,32.227,15.137,0
213860.838,0.000,29.297,29.297,23.926,8.301,0
213860.841,16.602,31.738,35.156,31.250,12.207,0
213860.845,39.551,34.180,35.156,43.457,20.996,0
213860.849,37.598,32.715,34.180,41.504,28.809,0
213860.853,20.996,31.250,30.273,31.738,39.062,0
213860.857,26.367,34.668,16.113,23.926,44.922,0
213860.861,53.223,38.086,22.949,35.645,49.805,0
213860.865,48.340,33.691,32.227,42.969,58.594,0
213860.868,21.484,27.344,26.855,26.855,49.805,0
213860.872,18.555,30.273,25.879,18.066,55.176,0
213860.876,32.715,34.180,32.227,30.273,68.359,0
213860.880,41.016,32.227,41.016,45.410,49.805,0
213860.884,52.246,30.273,39.551,34.668,32.227,0
213860.888,25.879,31.738,37.109,18.555,44.434,0
213860.889,4.395,33.691,41.016,24.414,59.082,0
213860.893,37.598,30.273,37.109,35.156,53.223,0
213860.897,29.785,28.809,27.832,28.320,43.945,0
213860.900,11.230,32.227,20.020,15.625,37.598,0
213860.904,28.320,34.668,15.137,15.625,35.645,0
213860.908,42.480,39.062,22.461,30.273,35.156,0
213860.912,35.156,37.598,27.344,35.156,44.434,0
213860.916,16.113,32.227,25.879,19.531,48.828,0
213860.920,17.578,33.691,34.180,15.137,53.223,0
213860.924,39.062,36.621,44.434,29.785,63.477,0
213860.928,40.527,35.156,42.969,36.621,38.574,0
213860.932,22.949,35.156,38.574,22.461,18.066,0
213860.933,30.762,37.598,34.180,13.184,23.926,0
213860.937,36.133,33.203,32.227,23.926,37.598,0
213860.941,34.668,30.273,36.133,34.668,37.598,0
213860.945,29.297,35.156,32.227,31.250,19.043,0
213860.949,9.277,34.668,26.367,19.531,18.555,0
213860.953,27.344,34.180,28.320,23.926,42.969,0
213860.957,53.711,36.133,38.086,41.992,51.758,0
213860.961,39.551,35.645,41.504,35.645,37.109,0
213860.965,30.762,35.156,31.250,17.090,38.086,0
213860.969,33.691,32.227,25.879,15.137,48.340,0
213860.973,33.203,34.668,34.668,30.273,47.852,0
213860.976,37.598,38.086,41.992,33.203,47.363,0
213860.993,19.531,35.645,38.574,16.602,30.762,0
213860.997,6.348,35.645,42.969,8.789,19.043,0
213861.001,26.855,36.133,40.039,17.578,36.621,0
213861.005,39.062,37.109,33.203,28.320,38.574,0
213861.009,40.527,40.039,39.062,21.484,15.625,0
213861.013,36.133,37.598,30.762,13.184,18.555,0
213861.017,27.344,33.691,18.066,22.461,46.387,0
213861.021,41.016,32.227,19.531,36.133,44.434,0
213861.025,29.297,32.227,26.855,28.320,15.137,0
213861.029,7.324,35.156,38.086,17.090,15.625,0
213861.033,20.996,36.621,43.945,21.484,31.738,0
213861.036,41.504,36.133,51.270,36.133,21.973,0
213861.038,37.598,36.133,49.805,41.016,10.742,0
213861.042,29.785,36.621,37.598,32.715,12.695,0
213861.046,26.367,36.621,30.762,27.832,14.648,0
213861.050,25.879,29.785,26.367,33.203,13.672,0
213861.054,34.668,28.320,20.508,38.574,20.020,0
213861.058,28.809,34.180,14.160,27.832,30.273,0
213861.062,22.949,37.598,22.461,19.043,22.949,0
213861.066,19.043,36.133,31.738,26.367,24.902,0
213861.070,26.367,32.715,36.133,39.062,26.855,0
213861.074,19.043,33.203,35.156,29.785,9.277,0
213861.078,12.695,37.598,34.668,16.113,20.996,0
213861.081,28.320,39.062,33.203,25.391,36.621,0
213861.083,36.621,43.457,33.203,37.109,27.344,0
213861.087,26.367,45.898,28.809,28.809,12.207,0
213861.091,22.461,39.062,20.020,8.789,4.395,0
213861.095,32.227,34.668,20.508,4.883,15.625,0
213861.099,40.527,35.645,23.926,18.066,40.527,0
213861.103,36.133,38.574,20.508,19.043,34.180,0
213861.107,20.508,39.062,24.414,8.789,14.648,0
213861.111,26.855,40.039,31.250,14.160,29.785,0
213861.115,53.711,42.969,23.926,31.250,51.758,0
213861.119,56.641,42.480,20.020,42.969,54.199,0
213861.123,25.879,38.086,29.785,32.715,42.969,0
213861.126,4.883,29.785,34.180,12.207,32.715,0
213861.128,19.043,27.832,35.156,18.066,24.414,0
213861.132,35.156,30.273,33.691,30.273,-2.930,0
213861.136,5.859,30.273,29.297,24.902,-16.602,0
213861.140,1.465,32.715,27.832,13.672,-1.953,0
213861.144,20.996,34.668,26.855,10.742,8.789,0
213861.148,16.602,36.133,24.414,22.461,8.301,0
213861.152,5.859,40.039,21.973,20.020,16.113,0
213861.156,-1.953,38.086,20.996,2.930,18.066,0
213861.160,10.742,35.156,27.832,2.930,11.230,0
213861.164,22.949,31.250,30.273,19.043,16.113,0
213861.168,28.809,31.250,26.367,30.273,15.625,0
213861.171,22.949,34.180,27.832,20.508,19.043,0
213861.174,9.766,33.203,33.691,10.742,36.621,0
213861.178,29.785,35.645,40.039,25.391,43.457,0
213861.182,38.574,37.598,40.527,37.109,23.926,0
213861.185,23.926,31.250,30.762,24.902,2.441,0
213861.189,24.902,30.762,26.855,12.207,8.789,0
213861.193,39.062,37.598,34.180,27.344,36.133,0
213861.197,39.062,36.621,29.785,37.598,29.785,0
213861.201,23.438,32.715,25.879,29.785,21.973,0
213861.205,13.184,32.715,31.250,20.020,40.527,0
213861.209,20.996,35.645,33.203,20.996,41.504,0
213861.213,41.992,38.086,24.414,36.133,35.645,0
213861.217,39.551,32.715,24.414,38.086,37.598,0
213861.219,22.949,29.297,26.855,23.438,33.203,0
213861.223,27.344,32.715,29.785,16.602,29.785,0
213861.226,39.062,36.133,43.457,30.273,22.949,0
213861.230,25.879,37.109,42.969,36.621,13.184,0
213861.234,13.672,34.180,31.250,20.020,15.137,0
213861.238,21.484,38.574,34.668,15.625,38.574,0
213861.242,35.156,42.969,42.480,30.762,60.547,0
213861.246,40.039,33.691,40.527,36.133,41.016,0
213861.250,20.508,28.320,41.992,22.949,20.020,0
213861.254,9.277,31.738,37.598,15.625,32.227,0
213861.258,16.113,31.738,27.344,25.879,56.641,0
213861.262,32.715,29.785,31.738,45.410,49.805,0
213861.263,31.250,34.180,36.621,45.898,32.715,0
213861.267,14.648,38.574,31.250,25.879,47.852,0
213861.271,20.996,38.086,39.062,20.996,47.363,0
213861.275,31.250,35.156,43.945,34.180,18.066,0
213861.279,29.297,32.227,37.598,35.156,5.371,0
213861.283,21.973,33.203,33.203,21.484,16.113,0
213861.287,23.438,36.621,29.785,18.555,37.598,0
213861.291,38.086,35.645,30.273,29.785,42.969,0
213861.295,27.832,31.250,32.715,35.645,36.133,0
213861.299,13.184,31.738,31.738,22.949,41.016,0
213861.302,14.648,31.738,31.738,18.555,52.246,0
213861.306,39.062,33.203,36.133,31.250,59.570,0
213861.310,49.805,35.156,35.156,40.527,63.477,0
213861.314,23.926,30.273,27.344,29.785,49.316,0
213861.318,16.113,29.785,26.855,15.625,47.363,0
213861.321,28.320,31.250,29.785,20.020,49.316,0
213861.325,33.691,30.762,18.555,38.574,39.551,0
213861.329,23.438,32.715,18.066,35.156,13.184,0
213861.333,11.230,36.133,33.691,18.066,-5.859,0
213861.337,26.855,38.574,37.109,19.531,21.973,0
213861.341,41.992,31.738,37.598,29.297,19.043,0
213861.345,23.926,31.250,39.062,31.738,3.418,0
213861.349,7.812,36.133,37.109,18.066,32.227,0
213861.353,6.836,29.297,33.203,9.766,36.621,0
213861.368,24.414,24.902,28.809,28.320,24.414,0
213861.372,39.551,26.367,32.227,38.086,33.203,0
213861.376,28.809,26.855,34.180,26.855,34.180,0
213861.380,7.324,29.297,34.180,17.578,38.086,0
213861.384,13.672,30.273,35.156,24.414,37.598,0
213861.388,34.668,32.227,27.344,35.645,26.855,0
213861.392,22.949,31.738,30.273,23.926,12.207,0
213861.396,7.812,27.344,39.062,6.348,-8.789,0
213861.400,25.879,27.832,42.969,13.672,-7.812,0
213861.404,53.223,28.320,44.434,35.156,7.812,0
213861.408,36.621,30.273,31.738,34.668,16.113,0
213861.411,16.113,34.180,23.438,20.996,29.785,0
213861.413,24.902,33.691,24.902,22.949,54.199,0
213861.417,37.598,34.668,26.367,37.109,67.871,0
213861.421,42.480,38.086,24.902,42.480,63.965,0
213861.425,25.391,41.504,30.762,27.832,44.434,0
213861.429,22.949,41.992,38.086,20.508,46.387,0
213861.433,43.457,36.133,36.621,30.762,49.316,0
213861.437,38.574,31.738,29.785,32.715,23.926,0
213861.441,20.508,32.715,27.832,20.996,-1.465,0
213861.445,22.461,34.668,32.715,16.113,-5.859,0
213861.449,30.762,34.180,37.109,24.902,4.395,0
213861.453,38.574,37.598,34.668,34.668,9.766,0
213861.456,29.785,36.621,32.715,26.855,25.879,0
213861.458,8.789,35.645,35.645,17.090,32.227,0
213861.462,18.066,40.527,34.668,21.973,34.180,0
213861.466,43.457,35.156,32.715,30.762,47.363,0
213861.470,37.598,31.250,31.250,29.785,46.875,0
213861.474,14.160,34.668,29.297,19.043,39.551,0
213861.478,19.531,35.645,29.297,19.043,26.367,0
213861.482,40.527,34.180,28.809,31.738,24.414,0
213861.486,28.809,34.668,30.762,35.645,25.879,0
213861.490,5.371,35.156,31.250,19.043,11.719,0
213861.494,0.488,36.133,33.691,8.789,9.277,0
213861.498,16.113,39.062,37.109,21.973,12.207,0
213861.501,42.969,38.574,37.109,34.180,10.254,0
213861.504,24.414,34.668,34.668,24.902,11.230,0
213861.508,3.418,32.715,36.621,19.043,22.949,0
213861.511,24.414,34.668,41.504,31.250,45.898,0
213861.515,42.969,33.691,36.621,43.457,53.223,0
213861.519,35.156,33.203,31.738,34.668,52.246,0
213861.523,28.809,37.109,34.180,18.066,55.664,0
213861.527,36.621,38.574,35.156,19.043,58.105,0
213861.531,27.344,34.180,29.785,30.762,34.668,0
213861.535,19.531,32.227,25.391,27.832,4.883,0
213861.539,5.371,32.715,27.832,7.324,6.836,0
213861.543,4.883,34.668,26.855,0.977,18.066,0
213861.547,30.762,39.062,32.227,21.973,32.227,0
213861.548,37.598,43.457,35.645,32.227,39.551,0
213861.552,13.672,40.527,29.297,17.090,20.996,0
213861.556,8.301,38.086,26.855,10.742,26.367,0
213861.560,38.574,43.457,26.367,28.809,43.945,0
213861.564,55.664,42.969,26.367,41.016,44.434,0
213861.568,25.391,37.598,28.320,30.762,63.965,0
213861.572,5.859,38.574,22.461,20.996,69.824,0
213861.576,29.785,40.527,31.250,25.879,41.504,0
213861.580,57.129,39.551,37.598,35.156,35.156,0
213861.584,36.133,39.062,31.738,32.227,14.160,0
213861.588,22.949,41.992,35.645,21.973,-2.441,0
213861.591,36.133,40.039,38.086,19.531,15.137,0
213861.594,41.992,36.621,35.645,31.250,23.438,0
213861.598,39.551,38.086,32.715,34.668,26.367,0
213861.602,27.832,41.504,32.715,17.578,38.574,0
213861.605,29.297,39.062,34.668,13.672,51.758,0
213861.609,38.086,35.645,39.551,32.227,59.082,0
213861.613,34.668,35.156,46.387,45.898,54.199,0
213861.617,11.719,34.180,39.062,31.738,45.898,0
213861.621,8.789,35.645,26.855,20.508,43.457,0
213861.625,24.902,33.203,34.180,34.180,40.039,0
213861.629,28.809,27.832,42.969,42.480,27.344,0
213861.633,23.438,31.738,40.039,25.879,35.645,0
213861.637,9.277,38.574,39.551,8.789,31.738,0
213861.638,7.324,41.016,37.109,9.277,7.324,0
213861.642,23.438,37.598,36.133,24.414,0.977,0
213861.646,25.879,33.203,31.738,24.902,2.441,0
213861.650,27.832,34.180,26.367,10.742,15.625,0
213861.654,19.043,35.156,24.902,9.766,35.645,0
213861.658,31.738,38.574,27.832,28.320,35.645,0
213861.662,33.691,37.598,26.367,36.133,26.367,0
213861.666,10.742,32.227,24.902,18.555,20.020,0
213861.670,9.766,31.738,27.832,9.766,27.832,0
213861.674,21.973,34.180,31.250,22.461,36.133,0
213861.678,37.109,33.691,37.598,39.062,30.762,0
213861.681,26.367,30.273,34.668,32.715,41.016,0
213861.683,15.625,32.227,30.762,19.531,41.992,0
213861.687,31.250,29.785,30.762,29.297,53.711,0
213861.691,49.316,29.297,31.738,45.898,58.105,0
213861.695,51.758,32.227,34.180,41.016,33.691,0
213861.699,33.203,30.762,30.273,27.344,35.156,0
213861.703,22.949,32.227,29.785,27.344,44.922,0
213861.707,43.457,36.621,34.180,34.668,33.691,0
213861.711,38.574,36.621,36.133,30.762,17.578,0
213861.715,10.254,31.738,40.527,14.648,16.602,0
213861.719,7.812,30.273,36.621,12.695,33.203,0
213861.723,27.344,35.156,30.762,29.785,38.574,0
213861.726,31.250,36.133,23.926,36.621,26.367,0
213861.743,15.625,32.715,18.555,21.973,18.066,0
213861.747,13.184,32.227,32.715,20.020,25.879,0
213861.751,34.180,33.691,39.062,37.109,46.387,0
213861.755,47.363,39.062,35.156,47.852,47.852,0
213861.759,26.855,40.527,34.180,38.086,45.410,0
213861.763,15.625,37.109,34.180,31.738,73.730,0
213861.767,33.691,39.062,33.203,39.062,72.266,0
213861.771,54.199,37.598,34.180,47.363,45.410,0
213861.775,57.129,37.598,35.156,41.504,41.992,0
213861.779,38.086,41.016,37.598,24.414,49.805,0
213861.783,27.344,38.086,32.227,21.973,52.246,0
213861.786,35.156,36.133,28.809,37.109,41.016,0
213861.788,41.992,38.574,28.320,37.109,35.156,0
213861.792,33.203,43.457,18.555,17.578,28.809,0
213861.796,24.902,40.527,16.113,9.766,16.113,0
213861.800,38.574,32.227,25.879,23.926,13.184,0
213861.804,48.340,32.227,31.250,34.180,10.742,0
213861.808,33.691,33.691,28.809,25.879,21.484,0
213861.812,25.879,37.109,26.855,20.020,36.133,0
213861.816,40.039,40.039,32.227,33.203,43.457,0
213861.820,47.363,33.203,33.691,42.480,41.016,0
213861.824,48.828,32.227,33.691,31.738,38.086,0
213861.828,31.250,36.621,30.762,22.461,42.969,0
213861.831,19.531,34.180,30.762,30.273,37.109,0
213861.835,37.598,30.273,41.992,46.387,41.016,0
213861.839,33.203,32.227,40.527,42.480,41.992,0
213861.843,22.461,36.133,36.133,23.926,25.391,0
213861.847,28.320,34.180,36.621,26.855,22.461,0
213861.851,44.922,35.156,30.762,42.480,32.227,0
213861.855,46.387,37.109,29.785,42.480,29.785,0
213861.859,30.273,37.598,33.691,26.855,34.180,0
213861.862,20.020,43.457,27.344,12.207,42.480,0
213861.866,47.363,42.969,23.438,19.043,38.574,0
213861.870,68.359,40.527,31.250,32.227,31.250,0
213861.874,21.484,40.039,25.391,22.461,29.297,0
213861.878,0.000,36.621,15.137,7.324,35.645,0
213861.878,27.832,36.621,26.855,17.578,36.133,0
213861.882,31.250,39.062,32.715,37.109,33.203,0
213861.886,18.066,41.016,20.996,29.785,30.762,0
213861.890,7.324,39.551,20.508,15.625,26.855,0
213861.894,14.648,38.086,29.785,20.508,28.809,0
213861.898,39.551,40.039,31.250,35.156,27.344,0
213861.902,37.598,39.062,26.855,37.598,24.414,0
213861.906,13.672,35.645,25.391,22.949,24.414,0
213861.910,19.043,31.738,27.832,19.531,24.414,0
213861.914,34.668,31.250,26.855,32.227,22.949,0
213861.918,40.527,36.621,27.344,33.203,27.344,0
213861.921,37.598,37.109,24.414,17.090,34.180,0
213861.924,20.508,32.715,18.555,7.324,27.344,0
213861.928,25.879,28.809,17.578,16.113,27.832,0
213861.932,40.527,30.762,20.508,27.832,32.227,0
213861.936,20.020,33.691,20.020,18.066,18.555,0
213861.940,8.301,35.156,23.438,1.465,16.113,0
213861.944,20.996,34.668,24.902,12.207,29.785,0
213861.948,27.832,33.691,22.461,26.855,27.344,0
213861.951,23.438,38.086,22.949,22.949,30.762,0
213861.955,12.207,43.945,22.949,16.602,32.227,0
213861.959,14.160,39.551,24.902,20.996,38.574,0
213861.963,31.250,31.738,22.461,31.738,43.945,0
213861.967,40.039,32.715,17.578,29.785,22.461,0
213861.969,39.062,36.133,15.625,18.555,11.719,0
213861.973,25.391,36.621,17.578,19.043,18.555,0
213861.977,32.715,38.086,21.973,29.785,22.949,0
213861.981,41.504,40.527,15.625,34.668,19.531,0
213861.984,27.344,40.527,12.207,23.438,21.973,0
213861.988,28.809,43.457,18.066,16.602,36.133,0
213861.992,47.852,48.828,18.555,24.902,44.434,0
213861.996,40.039,41.992,13.672,30.762,40.527,0
213862.000,23.926,35.645,7.812,25.879,21.973,0
213862.004,14.648,31.738,15.625,14.160,16.602,0
213862.008,22.461,30.762,25.879,18.066,28.320,0
213862.012,34.668,29.785,27.344,37.598,30.273,0
213862.013,21.973,27.832,27.344,37.598,36.621,0
213862.017,15.137,34.668,21.973,21.973,47.363,0
213862.021,21.973,41.016,8.301,11.719,48.828,0
213862.025,23.438,40.039,1.465,21.484,38.086,0
213862.029,11.230,39.062,10.742,23.926,20.020,0
213862.033,4.395,37.598,22.461,8.789,16.113,0
213862.037,20.020,33.691,20.020,7.324,34.180,0
213862.041,28.809,30.273,14.160,21.484,35.645,0
213862.045,30.762,35.645,13.184,28.809,21.973,0
213862.049,23.926,40.039,15.625,20.020,29.785,0
213862.052,6.836,34.180,9.277,6.836,52.246,0
213862.056,17.578,31.738,8.301,12.695,60.059,0
213862.060,36.621,34.180,17.578,26.855,21.484,0
213862.064,25.391,34.668,14.648,21.484,-0.977,0
213862.068,16.113,38.086,11.230,13.672,22.461,0
213862.072,27.344,38.574,18.066,22.949,36.133,0
213862.076,41.016,34.668,24.902,35.156,37.598,0
213862.080,39.062,36.621,21.973,29.785,32.227,0
213862.083,34.180,42.969,21.973,16.602,40.039,0
213862.087,38.574,41.016,24.414,14.160,43.945,0
213862.091,52.734,35.156,27.832,26.367,35.156,0
213862.095,51.758,34.180,23.438,33.691,39.551,0
213862.099,21.484,38.086,20.508,24.414,43.945,0
213862.103,10.742,40.039,15.625,19.531,41.016,0
213862.119,34.668,35.645,13.184,32.227,41.992,0
213862.123,43.457,32.715,20.996,41.016,29.297,0
213862.126,23.438,33.203,25.879,30.762,3.906,0
213862.130,16.602,34.668,25.391,19.531,10.742,0
213862.134,32.227,33.691,19.043,27.832,53.223,0
213862.138,46.387,35.156,17.578,42.480,65.430,0
213862.142,33.691,37.109,17.578,34.180,24.902,0
213862.146,18.555,33.203,14.648,21.973,5.859,0
213862.150,20.020,32.715,17.090,30.273,24.902,0
213862.154,28.320,31.250,23.438,41.016,16.602,0
213862.158,19.043,25.391,20.508,34.668,5.859,0
213862.162,4.395,28.320,21.973,23.926,16.113,0
213862.163,13.672,32.227,28.809,25.391,23.438,0
213862.167,33.691,31.738,28.809,41.016,29.297,0
213862.171,28.320,29.297,17.090,41.992,24.414,0
213862.175,4.883,29.785,17.090,25.879,8.301,0
213862.179,18.555,31.738,28.809,24.414,17.578,0
213862.183,42.969,29.785,28.809,36.133,27.832,0
213862.186,41.504,31.250,24.902,41.992,15.137,0
213862.190,23.926,35.156,23.438,27.832,16.602,0
213862.194,7.812,32.715,26.367,14.160,30.273,0
213862.198,18.555,29.297,27.832,18.066,36.133,0
213862.202,24.414,27.344,32.715,28.809,29.785,0
213862.206,14.648,27.344,33.203,23.926,26.367,0
213862.208,5.371,27.344,26.855,8.789,33.203,0
213862.212,13.672,27.344,31.738,12.695,37.109,0
213862.216,38.574,33.691,33.203,25.879,48.828,0
213862.220,38.574,41.016,25.879,27.344,42.480,0
213862.224,22.949,39.551,26.855,15.625,19.531,0
213862.228,17.090,36.133,31.738,13.184,15.137,0
213862.232,21.973,33.203,33.203,23.438,5.371,0
213862.235,22.949,32.715,31.250,24.902,-2.441,0
213862.239,12.207,35.645,30.273,13.184,-1.465,0
213862.243,5.371,38.574,38.574,6.836,12.695,0
213862.247,15.137,41.016,33.691,20.020,39.062,0
213862.251,23.926,36.621,26.367,29.297,17.090,0
213862.253,10.254,28.809,30.273,18.066,-12.207,0
213862.257,0.000,29.297,36.621,8.789,12.207,0
213862.261,15.625,32.715,36.621,13.184,28.809,0
213862.265,31.250,30.762,36.133,25.391,11.719,0
213862.269,22.461,30.762,36.621,24.414,7.324,0
213862.273,9.766,31.250,34.180,10.742,26.367,0
213862.276,8.789,33.203,32.227,13.184,43.945,0
213862.280,21.973,36.133,32.715,28.320,36.133,0
213862.284,24.414,35.156,29.785,28.809,22.461,0
213862.288,10.254,34.668,32.227,15.137,26.855,0
213862.292,14.160,36.621,39.551,16.602,34.668,0
213862.296,32.715,39.062,41.016,30.762,38.086,0
213862.299,41.016,35.156,37.109,31.738,22.949,0
213862.303,19.043,30.273,36.133,17.090,10.742,0
213862.307,-1.953,31.250,33.691,7.812,28.320,0
213862.311,14.648,32.227,30.273,15.137,47.852,0
213862.315,44.922,40.527,38.086,34.180,33.691,0
213862.319,42.969,44.434,43.945,30.762,20.020,0
213862.323,17.090,37.109,46.875,16.602,28.320,0
213862.327,25.391,36.133,40.527,20.508,32.227,0
213862.331,41.992,37.109,36.621,32.715,30.762,0
213862.335,31.738,38.574,33.691,30.273,33.203,0
213862.339,17.578,37.109,25.391,14.648,29.785,0
213862.342,23.926,33.691,26.367,14.648,28.320,0
213862.344,35.645,36.133,25.879,31.250,28.320,2
213862.348,39.551,41.016,31.250,37.109,17.578,0
213862.352,31.250,41.504,40.039,24.902,34.668,0
213862.356,27.832,37.598,32.715,16.113,47.363,0
213862.360,33.203,32.227,26.855,26.855,35.645,0
213862.364,32.715,32.227,35.156,30.762,34.668,0
213862.368,20.020,36.621,37.598,17.090,38.574,0
213862.371,9.766,39.062,35.156,9.766,48.828,0
213862.375,23.438,37.598,34.668,13.672,42.480,0
213862.379,38.574,34.180,34.180,25.879,34.180,0
213862.383,35.645,33.691,27.344,25.391,41.992,0
213862.387,10.742,34.668,27.832,10.742,42.480,0
213862.389,6.836,36.621,33.203,17.578,32.227,0
213862.393,27.832,31.250,33.691,33.203,31.738,0
213862.396,20.508,27.344,33.691,23.438,21.973,0
213862.400,9.277,30.762,37.598,11.230,16.113,0
213862.404,16.113,30.273,33.203,16.113,20.020,0
213862.408,23.926,29.297,26.855,30.762,34.180,0
213862.412,28.809,32.227,31.738,35.645,47.363,0
213862.416,18.066,36.621,29.297,21.484,25.391,0
213862.420,1.953,35.645,32.715,15.137,12.207,0
213862.424,23.438,33.203,41.504,26.855,20.020,0
213862.428,38.574,32.227,40.527,36.621,23.926,0
213862.432,13.672,33.203,43.945,24.902,20.020,0
213862.433,0.977,32.715,45.898,12.695,23.926,0
213862.437,15.137,29.297,47.363,23.926,38.574,0
213862.441,30.273,29.785,47.852,39.551,41.504,0
213862.445,21.484,31.250,34.668,33.203,37.598,0
213862.449,5.371,34.668,28.320,16.602,42.969,0
213862.453,10.742,35.645,31.250,16.602,43.457,0
213862.457,39.551,34.668,27.832,36.133,23.926,0
213862.461,45.410,31.250,22.461,36.621,20.508,0
213862.465,12.695,28.809,34.668,21.973,31.250,0
213862.469,5.859,30.273,48.340,21.973,39.551,0
213862.473,25.879,29.785,43.457,32.227,42.480,0
213862.476,35.645,27.344,41.016,33.691,26.367,0
213862.479,21.484,30.762,41.016,21.973,14.160,0
213862.483,3.418,34.668,37.109,16.113,23.438,0
213862.486,17.090,30.762,41.016,28.809,26.367,0
213862.490,35.156,26.367,39.062,36.133,13.184,0
213862.494,24.902,29.785,34.668,23.438,13.672,0
213862.498,8.301,32.227,39.062,13.672,24.902,0
213862.502,27.832,32.227,40.527,21.484,42.480,0
213862.506,37.109,31.250,37.109,35.156,57.129,0
213862.510,15.137,28.809,26.855,34.180,37.109,0
213862.514,5.859,31.250,19.043,20.020,34.668,0
213862.518,13.184,35.156,20.508,19.043,52.246,0
213862.522,30.273,31.250,29.785,35.156,52.734,0
213862.539,30.762,31.250,31.738,39.062,43.945,0
213862.543,12.695,35.645,32.715,24.414,46.387,0
213862.547,28.809,34.668,41.016,20.020,60.059,0
213862.551,41.992,31.738,35.645,36.133,55.176,0
213862.554,22.461,28.809,26.855,39.062,47.363,0
213862.558,9.277,29.297,25.879,24.414,32.227,0
213862.562,0.488,28.809,27.344,16.113,13.184,0
213862.566,16.602,30.273,32.227,24.414,18.555,0
213862.570,40.039,29.297,31.738,39.551,25.391,0
213862.574,25.879,26.855,24.414,31.250,28.809,0
213862.578,1.465,29.785,32.715,17.578,39.551,0
213862.582,18.555,29.297,38.574,23.926,44.434,0
213862.584,39.551,28.320,28.320,41.992,48.828,0
213862.588,31.250,31.738,25.879,43.457,49.316,0
213862.592,10.742,30.762,34.180,24.414,38.086,0
213862.596,16.113,27.832,39.551,16.602,28.809,0
213862.599,40.527,33.203,43.457,26.855,26.855,0
213862.603,31.738,33.691,36.621,27.832,21.973,0
213862.607,11.719,28.809,31.738,13.184,32.715,0
213862.611,9.766,27.832,39.551,7.812,26.367,0
213862.615,21.484,30.273,45.898,22.949,17.090,0
213862.619,34.180,28.320,44.434,31.250,17.090,0
213862.623,27.832,31.250,38.574,22.461,32.227,0
213862.627,9.766,36.621,38.574,19.043,49.805,0
213862.629,16.602,34.180,43.457,30.273,40.527,0
213862.633,35.156,32.227,44.922,41.992,38.086,0
213862.637,21.484,31.250,45.410,32.715,39.551,0
213862.640,14.648,29.297,44.922,16.602,39.062,0
213862.644,33.691,32.715,40.527,21.973,42.480,0
213862.648,34.668,31.738,42.969,35.645,40.039,0
213862.652,23.438,31.250,49.316,30.762,11.719,0
213862.656,17.090,36.621,52.246,19.531,15.625,0
213862.660,17.578,35.645,49.805,20.508,27.832,0
213862.664,29.785,35.156,46.875,36.133,20.020,0
213862.668,41.016,39.551,43.945,44.434,31.250,0
213862.672,29.785,38.574,42.969,34.180,51.270,0
213862.674,20.020,33.203,49.316,30.273,55.664,0
213862.678,44.434,33.691,49.316,42.480,51.270,0
213862.682,53.711,36.133,43.945,55.176,61.523,0
213862.685,22.949,36.133,40.039,46.387,45.898,0
213862.689,15.625,37.109,38.086,33.691,21.484,0
213862.693,48.340,40.527,41.504,37.598,34.180,0
213862.697,46.875,40.527,35.645,40.039,35.156,0
213862.701,17.578,36.621,21.484,30.762,29.785,0
213862.705,8.789,30.273,25.391,15.137,31.250,0
213862.709,19.531,29.785,40.039,18.066,37.598,0
213862.713,41.992,32.227,39.551,37.109,36.621,0
213862.717,41.992,33.691,38.086,40.527,28.809,0
213862.719,33.203,35.156,33.691,26.367,31.738,0
213862.723,29.297,35.645,27.344,19.531,48.828,0
213862.727,29.785,36.133,33.691,32.227,60.547,0
213862.730,37.109,34.668,29.785,42.480,44.922,0
213862.734,25.391,35.156,25.391,30.762,17.090,0
213862.738,15.137,36.621,32.227,20.020,7.812,0
213862.742,27.344,34.668,30.273,23.438,10.254,0
213862.746,37.598,33.203,27.344,31.738,7.324,0
213862.750,25.879,34.180,28.320,22.949,9.766,0
213862.754,20.508,35.156,24.414,9.766,15.625,0
213862.758,29.297,38.574,15.137,20.020,27.832,0
213862.762,52.246,41.016,20.020,39.551,31.250,0
213862.766,49.316,39.551,30.273,37.598,20.020,0
213862.769,20.508,38.574,29.785,25.879,26.855,0
213862.773,20.996,35.156,22.461,24.902,39.062,0
213862.777,46.875,35.156,25.879,34.668,30.762,0
213862.781,44.434,35.645,34.668,37.598,6.836,0
213862.785,20.508,34.180,35.156,24.902,3.418,0
213862.789,21.484,38.086,33.691,20.020,20.508,0
213862.793,36.133,40.527,32.227,28.809,17.090,0
213862.797,48.340,36.621,28.320,34.180,12.695,0
213862.801,34.668,35.156,24.902,23.926,25.391,0
213862.805,20.508,32.715,26.367,18.555,39.062,0
213862.808,39.551,33.203,30.273,32.715,42.480,0
213862.809,53.223,37.598,27.344,47.363,43.457,0
213862.813,38.086,36.133,31.250,35.645,46.875,0
213862.817,28.320,38.086,44.434,21.973,55.176,0
213862.821,45.410,45.410,52.246,34.668,54.688,0
213862.824,52.734,39.551,42.480,45.410,31.250,0
213862.828,39.062,33.691,24.414,36.133,5.859,0
213862.832,30.762,35.645,28.809,23.926,-4.395,0
213862.836,35.645,36.133,38.086,20.996,0.488,0
213862.840,47.852,35.645,38.574,29.785,16.602,0
213862.844,29.297,35.645,37.109,36.621,15.625,0
213862.848,4.395,38.574,39.551,22.949,11.719,0
213862.852,12.695,40.527,43.945,18.555,17.578,0
213862.854,28.320,38.574,45.410,31.738,24.414,0
213862.858,33.203,35.156,46.387,38.086,28.809,0
213862.862,20.508,37.109,42.969,28.320,20.996,0
213862.866,15.137,37.598,36.133,14.648,26.855,0
213862.869,17.090,31.250,34.668,17.578,41.504,0
213862.873,25.879,29.297,38.574,24.414,27.344,0
213862.877,23.926,32.227,42.969,21.973,8.301,0
213862.881,1.465,35.645,45.898,8.301,23.438,0
213862.885,10.742,36.133,42.969,6.348,17.090,0
213862.889,34.668,30.762,44.922,27.344,2.930,0
213862.893,35.156,28.320,45.898,33.691,8.301,0
213862.897,14.648,32.227,45.410,18.066,15.137,0
213862.914,11.719,33.203,43.945,15.137,27.344,0
213862.918,29.297,34.668,43.945,33.203,31.250,0
213862.921,47.852,35.645,46.875,41.016,36.133,0
213862.925,40.039,34.668,41.992,28.320,44.922,0
213862.929,18.555,37.598,42.969,20.508,39.551,0
213862.933,32.227,37.598,45.898,35.156,42.480,0
213862.937,42.480,32.227,44.434,42.969,39.551,0
213862.941,25.391,32.227,49.805,31.250,12.695,0
213862.945,20.020,30.273,49.805,21.484,5.371,0
213862.949,24.414,27.344,44.922,29.297,20.996,0
213862.953,22.949,29.297,46.387,40.527,16.113,0
213862.957,19.043,31.250,48.340,34.180,25.879,0
213862.959,20.020,36.133,51.270,24.902,38.086,0
213862.963,25.879,37.598,55.176,30.273,17.578,0
213862.967,43.945,33.203,48.828,44.434,20.508,0
213862.970,49.316,30.273,41.992,47.852,22.461,0
213862.974,37.109,34.668,43.457,35.156,29.785,0
213862.978,35.156,35.156,46.875,29.297,44.434,0
213862.982,34.668,31.738,50.293,40.039,39.551,0
213862.986,39.551,36.133,52.246,47.363,38.086,0
213862.990,41.992,40.039,49.316,40.039,43.945,0
213862.994,31.738,33.691,48.828,29.297,37.598,0
213862.998,31.250,31.250,55.176,37.598,35.645,0
213863.002,38.574,35.156,53.711,51.758,28.809,0
213863.004,21.973,39.062,56.641,40.527,20.996,0
213863.007,16.602,39.062,55.664,20.996,36.621,0
213863.011,28.809,35.645,43.945,17.578,46.875,0
213863.015,31.738,33.691,45.898,26.855,45.898,0
213863.019,28.320,36.133,42.480,25.391,48.340,0
213863.023,18.066,39.062,36.621,16.602,47.363,0
213863.027,16.113,37.109,43.457,21.973,49.805,0
213863.031,38.574,35.645,51.270,36.621,58.105,0
213863.035,41.504,36.133,49.316,38.574,49.805,0
213863.039,27.832,33.691,47.363,23.438,32.715,0
213863.043,20.508,36.621,50.781,16.113,20.996,0
213863.047,30.762,36.621,42.480,25.391,10.254,0
213863.050,37.109,30.273,33.691,30.762,5.371,0
213863.054,16.602,30.762,37.109,19.043,11.230,0
213863.058,18.066,31.738,38.574,7.812,26.855,0
213863.062,34.180,29.297,37.598,15.625,41.504,0
213863.066,26.367,31.250,44.434,32.227,35.156,0
213863.070,14.648,31.738,47.363,28.809,48.828,0
213863.073,10.254,33.203,44.434,11.719,57.617,0
213863.077,24.414,40.039,44.434,16.113,30.273,0
213863.081,41.016,39.551,48.828,32.227,27.344,0
213863.085,37.598,32.715,47.852,26.367,25.391,0
213863.089,22.461,33.203,44.434,16.113,20.508,0
213863.093,19.531,32.227,44.434,16.113,14.648,0
213863.094,27.832,30.762,49.316,23.438,3.906,0
213863.097,25.879,31.738,49.805,23.926,2.441,0
213863.101,18.066,34.668,43.457,9.277,13.672,0
213863.105,16.602,42.480,39.062,4.395,29.297,0
213863.109,24.902,40.039,39.062,18.555,25.391,0
213863.113,32.227,35.156,41.016,34.180,14.160,0
213863.117,19.531,36.621,33.203,24.414,18.555,0
213863.121,13.184,37.598,33.691,14.648,36.621,0
213863.125,30.273,39.062,49.805,28.320,56.152,0
213863.129,49.805,39.551,55.664,38.574,41.992,0
213863.133,50.293,41.016,38.574,32.715,17.578,0
213863.137,19.043,39.551,31.738,19.043,13.184,0
213863.139,4.883,33.203,35.156,18.555,14.160,0
213863.143,32.715,30.273,41.016,32.227,17.090,0
213863.146,41.504,32.227,43.457,33.203,17.578,0
213863.150,23.438,35.156,42.969,14.648,14.648,0
213863.154,14.160,35.645,43.945,9.766,20.020,0
213863.158,21.484,31.250,44.922,27.832,32.227,0
213863.162,29.785,35.645,39.551,35.156,39.062,0
213863.166,18.066,40.527,26.855,18.066,36.621,0
213863.170,10.254,36.621,31.250,9.766,42.480,0
213863.174,30.762,34.180,39.062,24.902,41.992,0
213863.178,48.828,33.691,35.645,35.156,18.555,0
213863.182,36.133,34.668,32.227,28.320,12.695,0
213863.184,22.461,35.645,27.832,14.648,25.879,0
213863.188,27.832,37.598,28.320,16.602,31.738,0
213863.192,30.273,40.039,37.109,30.273,26.855,0
213863.196,31.250,41.016,41.504,29.297,28.809,0
213863.200,18.555,39.062,40.039,17.090,33.691,0
213863.204,12.207,37.598,39.551,19.043,41.504,0
213863.208,42.480,38.086,39.062,34.180,44.434,0
213863.211,47.852,37.598,36.133,38.574,40.527,0
213863.215,16.113,38.086,41.992,25.879,48.340,0
213863.219,13.184,36.133,47.363,21.484,56.641,0
213863.223,37.598,36.133,45.898,42.969,50.293,0
213863.227,46.875,41.016,43.457,54.688,41.016,0
213863.230,29.785,43.457,40.039,37.598,44.434,0
213863.234,34.180,42.480,40.039,27.344,51.758,0
213863.238,40.039,37.598,40.527,30.273,35.645,0
213863.242,29.297,36.133,33.203,34.668,20.020,0
213863.246,25.879,36.133,25.879,27.344,25.391,0
213863.250,13.672,33.203,34.180,13.184,27.832,0
213863.253,18.555,33.691,46.387,16.602,27.344,0
213863.257,40.527,37.109,48.340,32.715,40.039,0
213863.261,30.273,35.645,42.480,36.621,42.969,0
213863.265,14.160,32.227,37.109,22.949,44.434,0
213863.269,21.973,31.738,37.598,20.020,52.246,0
213863.273,37.109,32.227,38.574,35.645,46.387,0
213863.289,27.832,31.250,35.156,34.668,36.133,0
213863.293,9.766,35.645,35.645,13.184,34.668,0
213863.297,13.184,39.062,41.504,10.254,36.621,0
213863.301,30.762,36.133,43.457,26.855,33.691,0
213863.305,48.828,34.668,30.762,36.133,37.109,0
213863.309,35.645,32.227,11.230,20.508,36.133,0
213863.313,10.254,35.156,27.832,7.324,41.504,0
213863.317,25.879,37.598,46.387,19.531,49.316,0
213863.321,38.574,33.203,40.527,31.738,42.480,0
213863.325,31.738,33.691,38.574,28.809,31.250,0
213863.328,26.367,39.062,45.898,22.461,30.273,0
213863.332,27.344,39.062,46.875,28.320,42.969,0
213863.334,36.133,34.668,38.574,38.086,41.504,0
213863.337,31.250,33.691,24.902,33.203,24.902,0
213863.341,9.277,31.250,21.484,15.137,17.090,0
213863.345,6.836,29.785,29.785,8.789,22.949,0
213863.349,35.156,30.762,34.180,27.832,26.855,0
213863.353,37.109,29.785,34.180,32.227,12.207,0
213863.357,9.277,31.250,37.598,17.090,5.371,0
213863.361,16.602,36.133,40.039,14.160,20.020,0
213863.365,35.645,37.109,33.691,32.715,43.457,0
213863.369,40.039,35.156,41.992,45.898,40.527,0
213863.373,30.273,32.227,44.434,35.645,32.715,0
213863.376,15.625,31.738,37.598,24.414,42.969,0
213863.379,21.973,30.762,41.992,28.809,46.387,0
213863.382,37.109,31.250,42.480,42.969,47.852,0
213863.386,35.156,37.109,37.598,40.527,49.316,0
213863.390,23.926,39.551,37.598,23.926,43.457,0
213863.394,20.508,35.156,42.969,22.949,42.480,0
213863.398,42.969,35.645,43.945,39.062,39.551,0
213863.402,36.621,39.551,33.203,36.133,34.180,0
213863.406,12.695,35.156,21.973,19.043,32.227,0
213863.410,14.160,30.762,24.414,17.578,25.879,0
213863.414,25.391,32.227,26.855,31.738,30.762,0
213863.418,44.922,33.691,27.344,36.133,47.852,0
213863.421,42.480,35.645,32.227,25.879,50.781,0
213863.424,28.320,38.086,41.992,24.902,44.434,0
213863.427,37.598,38.086,52.246,36.133,38.574,0
213863.431,44.922,34.668,50.293,41.016,29.297,0
213863.435,23.926,32.227,42.480,29.297,19.531,0
213863.439,9.277,35.156,39.062,11.230,11.719,0
213863.443,18.555,34.180,36.621,15.625,17.578,0
213863.447,35.156,31.250,26.367,39.062,27.832,0
213863.451,42.969,31.738,27.344,41.992,24.902,0
213863.455,27.832,34.668,40.039,22.461,30.273,0
213863.459,18.066,36.621,41.016,22.461,51.758,0
213863.463,43.457,37.109,41.992,41.504,51.758,0
213863.467,41.016,37.109,35.156,43.945,39.062,0
213863.468,19.531,32.715,30.762,24.414,40.039,0
213863.472,24.414,36.133,40.039,18.066,41.504,0
213863.476,39.062,41.016,41.016,30.762,34.668,0
213863.480,45.898,36.621,41.016,39.062,27.344,0
213863.484,20.508,35.156,35.645,25.879,18.555,0
213863.488,21.484,37.109,33.691,17.090,31.250,0
213863.492,41.016,36.133,39.062,32.227,53.223,0
213863.496,33.691,35.156,36.133,38.574,31.250,0
213863.500,26.367,37.598,40.527,32.227,22.949,0
213863.504,21.973,39.062,47.363,22.461,41.992,0
213863.507,29.785,40.527,43.945,28.320,44.434,0
213863.511,45.410,40.527,39.551,46.387,36.621,0
213863.515,36.133,34.180,40.039,40.039,16.602,0
213863.519,21.973,29.297,35.156,24.414,25.391,0
213863.522,29.297,29.785,23.926,20.996,38.574,0
213863.526,42.969,30.762,36.133,31.250,20.508,0
213863.530,39.062,30.273,48.828,38.086,8.301,0
213863.534,30.762,36.621,45.898,25.391,16.602,0
213863.538,42.480,47.363,42.480,20.508,19.043,0
213863.542,41.016,41.016,35.645,25.879,14.160,0
213863.546,32.227,29.785,39.551,27.344,16.113,0
213863.550,34.668,28.809,36.621,15.137,20.508,0
213863.554,12.207,31.250,34.180,9.277,24.414,0
213863.558,12.695,30.762,32.715,22.461,28.809,0
213863.559,34.180,30.762,24.902,30.273,32.227,0
213863.563,24.414,33.203,11.719,26.855,35.645,0
213863.567,12.207,33.691,0.488,17.578,36.621,0
213863.571,25.879,37.598,3.906,25.391,39.551,0
213863.575,48.340,38.086,-10.254,47.363,42.969,0
213863.578,49.316,32.715,-23.926,36.133,30.273,0
213863.582,28.320,31.738,-22.461,12.695,20.508,0
213863.586,13.672,34.180,-20.020,16.113,32.227,0
213863.590,28.320,36.133,-18.555,32.715,27.344,0
213863.594,44.922,37.109,-25.391,40.527,29.297,0
213863.598,33.203,38.086,-24.414,31.738,45.410,0
213863.602,18.555,37.598,-19.531,29.297,35.645,0
213863.618,32.227,41.016,-21.484,44.434,34.180,0
213863.622,48.340,43.945,-26.367,51.270,39.551,0
213863.626,30.762,38.086,-38.086,37.598,30.762,0
213863.630,25.391,32.715,-45.410,18.555,30.273,0
213863.634,36.621,33.203,-40.039,20.508,38.574,0
213863.638,38.086,34.180,-34.668,35.645,36.133,0
213863.642,28.809,35.645,-36.621,30.762,22.949,0
213863.646,10.254,37.598,-45.410,20.508,26.367,0
213863.650,16.113,40.527,-42.969,30.273,22.949,0
213863.654,37.109,41.504,-36.133,41.992,20.020,0
213863.657,39.062,42.969,-38.574,38.574,30.273,0
213863.661,23.926,38.574,-42.480,25.879,28.320,0
213863.664,31.738,34.668,-43.457,20.508,30.273,0
213863.667,49.805,37.109,-39.551,37.598,46.387,0
213863.671,43.945,37.598,-35.645,46.875,40.039,0
213863.675,27.344,36.621,-33.691,31.250,33.691,0
213863.679,31.738,37.109,-32.715,20.020,46.387,0
213863.683,33.203,36.621,-36.133,26.367,39.551,0
213863.687,36.621,39.551,-40.039,40.039,28.320,0
213863.691,36.621,40.527,-40.527,33.691,33.203,0
213863.695,24.902,37.598,-44.922,16.602,48.340,0
213863.699,35.645,36.133,-46.875,21.973,35.645,0
213863.703,50.293,33.691,-37.598,35.156,27.832,0
213863.707,48.828,35.645,-37.109,33.691,37.109,0
213863.709,28.320,36.133,-46.875,21.973,34.180,0
213863.713,19.531,32.715,-42.969,15.625,34.668,0
213863.717,37.598,36.621,-34.668,29.785,39.551,0
213863.720,49.316,37.109,-38.574,32.715,36.133,0
213863.724,36.133,35.645,-43.457,19.043,26.855,0
213863.728,18.066,40.039,-34.668,20.020,45.898,0
213863.732,29.297,38.574,-21.973,32.227,51.758,0
213863.736,34.668,33.203,-22.461,33.203,23.926,0
213863.740,19.531,33.203,-23.926,20.996,12.695,0
213863.744,23.926,32.227,-20.020,8.789,13.672,0
213863.748,32.715,34.668,-19.531,18.066,18.066,0
213863.752,25.391,38.086,-19.531,30.273,21.973,0
213863.754,21.484,36.621,-15.625,22.461,23.926,0
213863.757,9.766,33.203,-19.531,8.789,26.855,0
213863.761,23.438,36.133,-22.949,14.160,39.062,0
213863.765,43.945,38.574,-17.090,33.203,43.457,0
213863.769,30.273,37.109,-9.277,29.785,32.227,0
213863.773,16.113,37.109,-10.254,15.137,39.062,0
213863.777,13.184,37.109,-12.695,13.184,47.363,0
213863.781,29.785,38.086,-8.789,26.855,47.363,0
213863.785,30.762,35.645,-10.742,31.250,23.926,0
213863.789,11.230,34.668,-14.160,14.160,7.812,0
213863.793,14.160,34.180,-8.301,7.324,16.602,0
213863.797,25.391,35.645,-1.465,20.996,25.391,0
213863.799,24.902,34.668,-1.953,26.367,24.414,0
213863.802,12.207,36.133,-5.859,12.207,24.902,0
213863.806,13.672,33.691,-5.371,2.930,29.297,0
213863.810,19.043,30.762,-11.230,14.160,29.785,0
213863.814,20.996,33.691,-10.742,30.762,18.066,0
213863.818,14.160,30.762,-2.441,25.391,13.672,0
213863.822,0.488,32.715,-1.953,14.160,21.484,0
213863.826,11.719,34.180,-6.348,13.672,34.180,0
213863.830,44.434,33.691,-6.348,26.367,51.270,0
213863.834,37.598,40.527,2.441,36.133,44.922,0
213863.838,12.695,41.504,-1.465,20.020,18.066,0
213863.842,15.625,33.691,-8.301,11.230,12.695,0
213863.844,26.367,27.832,-4.395,24.414,23.926,0
213863.848,31.738,29.785,6.348,33.691,20.020,0
213863.851,29.785,33.691,4.883,24.414,14.160,0
213863.855,24.902,34.668,-2.441,16.602,21.973,0
213863.859,24.414,34.668,-2.441,30.762,30.273,0
213863.863,42.969,38.086,0.977,44.922,36.621,0
213863.867,37.109,40.527,-3.418,34.180,44.922,0
213863.871,21.484,38.574,-14.160,21.484,71.777,0
213863.875,28.320,40.039,0.488,32.227,62.988,0
213863.879,38.086,37.598,12.207,42.480,31.250,0
213863.883,29.297,33.203,1.953,25.391,23.438,0
213863.887,14.160,32.227,-1.465,9.766,16.113,0
213863.889,13.672,32.227,-0.977,11.719,14.648,0
213863.893,23.926,35.156,-6.348,21.973,28.320,0
213863.896,27.344,37.109,-9.277,25.391,35.645,0
213863.900,18.555,35.156,-0.488,15.625,35.156,0
213863.904,13.184,38.574,11.230,15.137,42.480,0
213863.908,32.715,36.621,11.230,31.250,31.738,0
213863.912,49.805,35.156,4.395,38.574,13.184,0
213863.916,23.926,38.574,3.418,29.785,21.973,0
213863.920,18.066,35.645,-0.977,21.973,48.340,0
213863.924,34.180,32.227,-1.953,26.367,45.410,0
213863.928,25.391,32.227,-7.324,28.320,14.160,0
213863.932,13.184,33.203,-10.742,18.066,10.742,0
213863.933,10.254,36.621,5.371,9.277,20.996,0
213863.937,18.066,35.156,12.207,14.648,20.508,0
213863.941,34.180,30.273,12.207,26.367,24.902,0
213863.945,29.785,31.250,14.648,28.320,14.648,0
213863.949,11.230,39.062,13.672,20.996,5.371,0
213863.953,25.879,37.109,10.254,17.578,20.508,0
213863.957,39.551,31.250,9.277,27.344,38.574,0
213863.961,26.367,30.762,2.441,30.762,39.551,0
213863.965,23.438,35.156,0.488,23.926,33.691,0
213863.969,18.555,36.133,2.930,18.066,48.340,0
213863.973,29.297,31.250,7.812,28.320,55.176,0
213863.976,50.293,38.086,8.301,40.039,47.852,0
213863.982,21.484,41.016,2.441,20.508,25.391,0
213863.986,4.883,34.668,-2.930,5.859,9.277,0
213863.990,21.484,31.738,-5.859,16.113,8.789,0
213863.994,35.156,34.180,6.348,28.809,23.438,0
213863.998,28.320,38.574,18.555,26.855,41.992,0
213864.002,17.578,39.551,15.625,19.043,39.062,0
213864.006,25.391,39.062,17.578,24.902,43.457,0
213864.010,42.480,41.016,18.066,38.086,48.828,0
213864.014,42.969,40.039,7.324,35.156,35.156,0
213864.018,27.344,35.156,6.348,21.484,33.203,0
213864.021,26.367,34.668,6.836,22.461,36.621,0
213864.025,42.480,36.621,8.789,38.086,36.133,0
213864.039,47.852,37.598,10.254,41.504,32.715,0
213864.043,37.109,34.180,8.301,25.879,21.484,0
213864.046,20.020,34.668,9.766,12.695,29.785,0
213864.050,19.531,36.133,10.254,22.949,27.832,0
213864.054,39.062,30.762,8.301,34.180,6.348,0
213864.058,27.832,26.855,5.371,21.484,8.301,0
213864.062,-0.977,28.320,4.883,9.766,14.648,0
213864.066,11.230,31.250,10.254,18.555,19.043,0
213864.070,36.621,34.668,14.648,34.180,34.668,0
213864.074,37.109,36.133,12.207,27.344,45.898,0
213864.078,26.855,36.133,7.812,12.695,51.758,0
213864.082,37.598,35.645,10.742,15.137,49.316,0
213864.083,59.082,35.645,12.695,29.297,47.363,0
213864.087,43.457,36.621,7.812,34.180,41.016,0
213864.091,16.602,34.180,8.789,16.602,35.645,0
213864.095,15.625,30.273,8.789,5.859,22.461,0
213864.099,30.273,29.297,9.277,21.973,21.973,0
213864.103,39.062,35.156,21.484,36.621,31.738,0
213864.107,25.391,40.527,21.484,27.832,28.809,0
213864.111,20.020,35.156,17.578,20.996,32.715,0
213864.115,32.715,34.180,16.113,34.668,34.180,0
213864.119,29.297,39.062,13.672,40.527,26.367,0
213864.123,19.531,37.598,23.438,31.738,36.133,0
213864.126,8.301,31.738,27.344,23.438,56.641,0
213864.129,20.508,29.297,20.508,24.902,48.828,0
213864.132,43.457,34.180,19.531,39.551,40.039,0
213864.136,33.203,40.039,28.320,37.109,33.691,0
213864.140,16.113,41.016,25.879,17.090,23.926,0
213864.144,35.645,37.598,25.879,15.137,20.020,0
213864.148,50.293,33.691,24.902,29.297,20.996,0
213864.152,29.297,34.668,18.066,26.367,14.160,0
213864.156,19.043,33.203,9.766,7.324,34.668,0
213864.160,38.086,33.203,7.812,6.836,37.109,0
213864.164,51.270,37.109,19.531,23.438,20.020,0
213864.168,39.062,38.086,23.926,31.738,26.367,0
213864.171,37.598,38.574,19.043,24.902,32.227,0
213864.173,34.180,34.668,16.113,20.020,50.781,0
213864.177,34.668,34.180,17.578,28.320,48.340,0
213864.181,45.410,36.133,17.578,37.109,27.832,0
213864.185,30.762,34.668,17.578,28.320,21.973,0
213864.189,16.113,34.668,18.066,16.602,25.879,0
213864.193,27.344,36.133,23.438,24.902,32.715,0
213864.197,41.016,38.086,28.809,36.133,21.973,0
213864.201,24.902,36.621,19.043,27.832,15.137,0
213864.205,15.137,35.156,18.555,10.742,14.648,0
213864.209,36.621,32.227,22.949,9.766,21.484,0
213864.213,40.527,32.715,16.113,27.344,42.969,0
213864.216,33.691,36.133,16.602,36.133,46.387,0
213864.218,9.277,32.715,21.484,24.902,38.574,0
213864.222,1.953,26.855,24.902,20.508,31.250,0
213864.226,21.973,24.902,21.484,35.645,31.250,0
213864.230,28.809,27.832,18.555,39.062,29.297,0
213864.234,19.531,35.645,24.902,25.879,18.555,0
213864.238,12.695,35.156,26.855,15.625,7.812,0
213864.242,25.879,27.832,25.391,20.020,0.977,0
213864.246,40.039,32.227,23.438,29.785,16.602,0
213864.250,33.691,35.156,24.902,17.578,15.137,0
213864.254,17.090,29.297,32.715,5.371,23.438,0
213864.257,17.578,28.320,30.273,11.230,46.875,0
213864.261,29.785,30.273,19.043,22.461,37.598,0
213864.264,23.926,27.832,17.578,20.508,34.668,0
213864.267,12.695,32.227,18.555,15.137,45.410,0
213864.271,13.672,34.180,18.555,21.973,42.480,0
213864.275,24.902,28.320,29.297,37.109,39.551,0
213864.279,25.391,31.250,27.832,33.203,21.484,0
213864.283,16.113,36.133,13.184,16.602,18.066,0
213864.287,22.949,29.297,11.719,8.301,22.461,0
213864.291,36.133,26.367,23.438,16.113,4.395,0
213864.295,30.273,26.855,28.320,29.297,5.371,0
213864.299,4.395,28.809,25.879,27.344,26.855,0
213864.303,2.930,34.180,26.367,18.555,35.156,0
213864.306,25.879,33.203,25.391,24.414,31.738,0
213864.309,44.922,33.203,22.949,41.016,31.738,0
213864.313,35.645,37.598,20.996,32.227,33.691,0
213864.316,19.043,38.574,21.973,12.695,29.297,0
213864.320,27.832,37.109,20.508,14.648,31.738,0
213864.324,41.992,34.180,22.461,24.414,27.344,0
213864.328,41.992,34.668,29.785,25.391,21.484,0
213864.332,33.691,40.039,27.344,15.625,27.832,0
213864.336,23.438,37.598,25.879,10.742,20.020,0
213864.340,28.320,32.715,29.785,25.391,14.648,0
213864.344,31.738,35.156,25.391,34.180,22.949,0
213864.348,16.602,36.133,14.160,18.555,28.809,0
213864.352,13.184,39.551,16.113,9.766,45.898,0
213864.369,34.180,40.039,22.461,22.461,57.617,0
213864.372,45.410,35.645,21.484,35.645,47.852,0
213864.376,27.832,34.180,20.996,24.902,44.434,0
213864.380,17.578,34.180,25.879,15.137,33.691,0
213864.384,29.785,36.621,30.762,23.926,25.879,0
213864.388,55.664,36.133,28.320,29.297,30.273,0
213864.392,44.434,33.691,27.832,21.973,14.648,0
213864.396,5.371,38.086,24.414,13.672,17.578,0
213864.400,7.812,41.992,23.926,14.160,23.438,0
213864.404,28.320,39.551,24.414,22.949,43.457,0
213864.408,29.785,38.086,18.555,29.297,51.758,0
213864.412,16.602,37.109,26.367,21.973,21.484,0
213864.414,12.207,34.180,33.691,15.625,26.367,0
213864.417,31.738,32.227,33.691,29.785,33.203,0
213864.421,41.016,33.203,33.691,41.992,26.367,0
213864.425,22.949,32.227,22.949,31.738,30.762,0
213864.429,14.648,31.250,20.508,22.461,46.387,0
213864.433,30.273,33.203,33.203,29.297,56.152,0
213864.437,39.062,31.738,33.203,40.527,59.082,0
213864.441,41.016,33.203,22.949,37.109,53.711,0
213864.445,33.203,40.039,27.832,27.344,45.410,0
213864.449,16.113,38.086,33.203,22.949,35.645,0
213864.453,28.809,29.785,34.180,27.344,11.230,0
213864.457,26.367,26.855,31.250,31.250,-8.789,0
213864.459,17.578,27.344,25.879,23.438,-2.930,0
213864.462,35.645,29.297,22.461,20.020,20.508,0
213864.466,37.109,30.273,25.879,33.203,40.527,0
213864.470,28.320,34.180,30.273,42.969,34.180,0
213864.474,27.832,38.086,28.320,36.133,37.109,0
213864.478,25.391,29.297,21.484,27.344,49.316,0
213864.482,35.156,26.855,22.461,33.203,45.410,0
213864.486,32.715,32.715,24.902,37.109,26.367,0
213864.490,11.230,29.297,18.555,21.973,12.207,0
213864.494,0.488,26.367,14.648,6.836,14.160,0
213864.498,13.672,28.320,20.508,8.789,9.766,0
213864.502,26.855,28.809,22.461,20.020,0.488,0
213864.505,16.602,24.902,20.996,14.160,11.719,0
213864.509,3.906,26.855,23.926,5.371,19.531,0
213864.513,16.602,33.691,32.715,18.555,20.020,0
213864.517,47.852,36.133,34.668,37.598,22.461,0
213864.520,51.270,38.574,29.297,35.645,20.020,0
213864.524,25.391,35.645,29.297,19.531,33.691,0
213864.528,11.719,29.297,28.809,13.184,45.898,0
213864.532,21.484,27.832,27.832,24.414,42.969,0
213864.536,36.621,33.203,36.133,40.039,34.180,0
213864.540,23.926,35.645,32.715,28.320,24.414,0
213864.544,9.277,32.227,15.137,16.113,12.695,0
213864.548,26.855,28.320,23.438,27.344,13.184,0
213864.548,36.621,29.297,31.250,34.180,19.531,0
213864.552,20.996,35.645,22.949,21.973,10.742,0
213864.556,17.578,33.203,26.367,11.719,5.859,0
213864.560,33.691,30.762,28.809,18.066,27.832,0
213864.564,40.039,32.715,27.344,30.762,49.316,0
213864.568,32.227,35.156,23.926,28.809,41.016,0
213864.572,25.391,39.062,21.484,21.484,40.527,0
213864.576,31.738,37.598,22.949,25.879,58.594,0
213864.580,42.969,36.621,25.391,39.062,76.660,0
213864.584,34.180,33.691,21.973,38.086,63.477,0
213864.587,20.020,29.297,21.973,17.578,23.926,0
213864.591,20.508,31.250,26.855,12.207,22.461,0
213864.594,29.297,33.691,27.344,28.809,35.645,0
213864.598,49.316,29.785,20.996,35.156,19.043,0
213864.601,35.156,25.879,12.695,18.066,6.348,0
213864.605,2.441,29.785,20.020,8.301,22.461,0
213864.609,11.719,28.809,27.832,21.973,38.574,0
213864.613,32.227,27.832,27.832,39.062,42.480,0
213864.617,25.391,33.203,34.180,35.645,40.039,0
213864.621,12.695,36.133,31.250,20.020,34.180,0
213864.625,24.902,35.645,30.762,22.461,36.133,0
213864.629,45.410,35.645,34.180,35.156,31.738,0
213864.633,41.016,42.480,29.297,26.855,18.066,0
213864.637,19.043,41.016,29.785,10.742,12.695,0
213864.638,12.695,32.227,29.297,12.207,21.973,0
213864.642,25.879,31.738,25.391,27.344,19.531,0
213864.646,38.086,32.715,21.484,30.273,8.301,0
213864.650,30.273,34.668,18.555,16.113,24.414,0
213864.654,23.438,32.715,20.508,11.719,39.062,0
213864.658,37.598,34.668,32.227,30.273,37.598,0
213864.662,36.133,37.598,29.785,37.598,29.297,0
213864.666,25.391,37.598,19.043,23.926,16.113,0
213864.670,24.414,33.203,21.973,10.254,14.160,0
213864.673,29.785,29.297,26.855,20.996,26.855,0
213864.677,39.551,25.391,23.926,35.156,17.090,0
213864.681,25.391,25.391,18.555,24.414,1.953,0
213864.683,2.441,31.250,19.043,8.789,0.488,0
213864.687,19.531,36.133,23.926,14.160,10.742,0
213864.691,40.039,41.504,31.250,29.297,20.020,0
213864.695,29.297,41.992,29.297,25.391,17.578,0
213864.699,7.812,36.133,26.367,11.719,30.273,0
213864.703,17.090,33.203,36.621,13.672,40.039,0
213864.707,45.410,32.227,34.180,28.320,31.250,0
213864.711,39.551,32.227,25.879,30.762,22.949,0
213864.715,20.996,35.156,27.344,18.555,25.879,0
213864.719,21.973,35.645,27.832,12.695,41.016,0
213864.723,50.781,36.133,31.250,24.414,41.504,0
213864.726,45.410,37.109,40.039,34.180,43.945,0
213864.730,9.277,38.574,44.922,24.414,34.668,0
213864.734,7.324,37.598,41.504,11.230,24.414,0
213864.738,19.043,34.668,39.062,20.508,35.645,0
213864.741,31.738,32.227,40.039,36.133,35.645,0
213864.745,20.996,29.297,34.180,26.855,40.039,0
213864.749,8.301,29.785,25.391,16.602,55.664,0
213864.753,18.555,28.809,31.738,20.020,49.316,0
213864.757,40.527,29.297,40.039,35.156,40.527,0
213864.761,52.734,34.180,27.832,43.945,33.203,0
213864.765,28.809,36.133,30.273,31.250,31.738,0
213864.769,15.137,37.598,36.621,24.902,41.992,0
213864.773,48.340,34.180,34.180,38.086,43.457,0
213864.789,58.594,30.762,34.180,35.156,32.227,0
213864.793,17.090,33.203,36.133,18.066,29.785,0
213864.796,4.395,35.156,37.109,11.719,32.227,0
213864.800,27.832,38.086,33.691,19.043,23.926,0
213864.804,36.133,36.621,33.691,29.785,15.137,0
213864.808,21.973,33.691,32.715,20.508,18.066,0
213864.812,15.137,37.598,28.809,12.207,26.855,0
213864.816,31.738,43.457,32.715,28.809,30.273,0
213864.820,45.898,39.551,35.645,40.039,28.809,0
213864.824,29.297,30.273,36.133,29.297,19.043,0
213864.828,12.207,30.762,41.016,18.555,23.438,0
213864.832,17.090,36.133,41.504,21.973,34.668,0
213864.834,33.691,39.551,29.297,35.645,33.691,0
213864.837,37.109,37.109,21.973,36.621,17.090,0
213864.841,10.742,36.133,24.414,18.555,6.836,0
213864.845,5.371,40.039,26.855,12.695,20.020,0
213864.849,29.785,39.062,30.762,29.785,27.344,0
213864.853,34.180,32.715,31.738,30.762,22.461,0
213864.857,12.695,30.762,34.668,13.672,21.973,0
213864.861,3.418,32.715,38.574,8.301,33.691,0
213864.865,19.043,32.227,41.016,17.578,46.387,0
213864.869,39.062,31.738,41.016,27.832,44.434,0
213864.873,26.855,32.227,36.621,20.996,32.715,0
213864.877,8.789,33.691,29.297,7.812,37.598,0
213864.879,25.391,31.738,30.762,14.160,37.598,0
213864.882,40.039,32.227,34.180,30.762,21.484,0
213864.886,33.691,38.574,30.273,28.320,38.086,0
213864.890,22.461,43.945,28.320,17.090,29.785,0
213864.894,22.949,41.016,31.250,18.066,-4.883,0
213864.898,34.180,32.227,28.809,28.320,-2.930,0
213864.902,31.250,29.297,25.391,27.344,11.719,0
213864.906,14.160,27.344,22.461,11.719,14.160,0
213864.910,17.578,29.785,19.531,6.836,8.301,0
213864.914,40.527,33.203,25.879,24.414,22.949,0
213864.918,53.223,36.133,33.203,41.016,27.344,0
213864.921,41.504,40.527,31.250,27.344,26.367,0
213864.923,19.531,40.039,35.156,12.695,32.715,0
213864.927,21.484,34.668,35.645,20.020,36.133,0
213864.931,35.645,32.715,29.785,28.809,40.527,0
213864.935,29.297,34.668,30.273,17.090,35.156,0
213864.939,18.555,35.156,31.738,0.977,31.250,0
213864.943,34.180,36.133,31.250,11.719,42.480,0
213864.947,50.293,36.133,37.598,31.250,48.828,0
213864.951,37.598,39.551,45.898,34.668,24.902,0
213864.955,13.184,41.504,38.086,20.508,18.066,0
213864.959,16.113,37.109,31.738,13.184,34.180,0
213864.963,37.598,34.180,29.785,28.320,50.781,0
213864.966,41.504,33.691,23.438,33.691,62.012,0
213864.985,23.926,36.133,22.461,18.066,45.410,0
213864.989,15.625,37.109,31.738,16.602,32.227,0
213864.993,34.668,37.598,41.504,33.203,42.480,0
213864.996,39.062,35.645,36.621,36.621,36.621,0
213865.000,18.066,33.691,29.297,20.020,21.484,0
213865.004,9.766,33.203,27.344,11.230,28.809,0
213865.008,35.156,34.668,35.156,26.367,40.039,0
213865.012,41.504,41.016,31.250,34.668,36.621,0
213865.016,24.902,42.969,25.879,26.367,41.016,0
213865.020,19.043,34.180,33.691,12.695,34.180,0
213865.024,14.160,31.738,32.227,15.625,32.227,0
213865.028,25.391,34.180,33.203,30.762,41.504,0
213865.013,31.250,32.715,36.133,29.297,24.902,0
213865.017,11.230,31.250,29.297,13.672,20.508,0
213865.021,7.324,29.785,24.902,7.324,41.016,0
213865.025,36.133,29.785,32.715,21.973,40.039,0
213865.029,42.480,33.691,32.227,28.809,26.367,0
213865.033,18.066,37.598,30.762,19.043,10.254,0
213865.037,12.207,42.480,35.156,14.160,15.137,0
213865.041,30.273,42.969,35.645,24.902,9.766,0
213865.045,45.410,42.480,36.621,35.645,-0.488,0
213865.049,28.320,40.527,36.621,21.973,4.395,0
213865.053,15.137,36.133,33.203,7.812,22.949,0
213865.056,24.902,35.156,35.156,18.555,40.039,0
213865.059,35.156,35.156,38.086,31.738,39.551,0
213865.063,33.203,36.621,40.039,32.227,44.922,0
213865.067,28.809,40.527,37.109,21.973,52.734,0
213865.071,31.250,41.992,40.039,21.484,54.688,0
213865.075,54.199,43.945,50.293,43.457,62.988,0
213865.079,64.941,46.875,43.457,46.875,58.105,0
213865.082,31.738,45.410,35.645,26.367,48.340,0
213865.086,20.508,40.527,30.762,26.367,47.363,0
213865.090,41.992,35.645,31.738,39.551,61.523,0
213865.094,39.062,36.621,40.527,42.480,62.500,0
213865.098,7.324,37.598,35.156,34.180,41.504,0
213865.102,4.883,37.109,31.250,28.809,34.668,0
213865.118,29.785,41.504,34.668,30.762,39.551,0
213865.122,46.387,44.922,39.551,39.551,29.297,0
213865.126,40.527,44.434,46.875,38.574,13.672,0
213865.130,19.043,37.109,41.016,20.508,20.020,0
213865.134,20.508,31.250,35.156,24.902,12.695,0
213865.138,41.504,34.668,37.109,42.480,12.695,0
213865.142,36.621,37.598,36.133,36.621,14.648,0
213865.146,24.414,34.668,36.133,18.066,30.273,0
213865.150,23.438,34.180,36.133,19.531,45.898,0
213865.154,41.992,34.180,34.180,38.086,37.598,0
213865.158,45.410,34.668,33.691,44.922,20.996,0
213865.161,17.578,38.574,40.527,36.621,22.461,0
213865.163,20.508,38.574,44.434,30.273,40.527,0
213865.167,44.922,33.691,39.062,38.086,45.898,0
213865.171,46.875,32.715,40.527,44.922,50.781,0
213865.175,28.320,31.250,42.969,31.250,55.664,0
213865.179,26.855,29.297,38.086,23.438,44.434,0
213865.183,41.016,34.668,40.527,36.133,47.363,0
213865.187,44.922,34.668,48.828,41.992,40.039,0
213865.191,31.250,28.809,44.434,29.297,20.508,0
213865.195,19.531,34.180,41.016,12.695,22.461,0
213865.199,25.879,41.992,39.062,12.207,41.016,0
213865.202,42.969,40.039,35.156,27.832,41.016,0
213865.206,40.527,34.180,31.738,29.297,17.578,0
213865.209,28.809,33.203,26.855,16.113,12.695,0
213865.212,32.715,37.109,31.738,16.602,16.113,0
213865.216,40.039,37.109,44.922,33.203,20.996,0
213865.220,31.738,33.203,46.875,35.156,17.578,0
213865.224,15.137,30.762,35.156,18.066,22.949,0
213865.228,18.066,31.250,35.156,14.160,45.410,0
213865.232,36.133,30.762,41.016,30.762,56.152,0
213865.236,41.504,33.203,41.504,37.598,42.969,0
213865.240,24.414,37.598,37.598,28.809,48.828,0
213865.244,17.090,33.203,34.668,18.066,62.012,0
213865.248,31.738,30.762,46.387,24.902,43.945,0
213865.252,33.203,33.203,53.711,40.039,38.086,0
213865.254,24.902,30.762,47.363,29.785,33.203,0
213865.257,16.602,25.879,38.574,11.230,27.832,0
213865.261,13.672,28.320,36.133,17.090,34.668,0
213865.265,31.250,32.227,36.621,31.250,29.297,0
213865.269,37.598,33.203,36.133,27.832,27.344,0
213865.273,21.484,38.086,36.621,18.555,29.785,0
213865.277,19.531,39.551,39.062,21.484,36.621,0
213865.281,42.969,41.016,40.527,37.598,42.969,0
213865.285,48.828,40.039,38.574,43.945,50.293,0
213865.289,27.832,34.668,38.086,25.879,56.641,0
213865.293,20.996,34.180,27.832,15.625,57.129,0
213865.297,36.133,32.227,23.926,28.320,46.387,0
213865.299,50.293,33.203,34.668,36.133,33.691,0
213865.303,34.180,37.109,41.016,27.344,37.109,0
213865.307,10.254,41.016,41.992,16.113,51.270,0
213865.311,20.508,41.016,45.410,21.973,33.691,0
213865.315,38.574,36.133,46.875,38.086,17.578,0
213865.319,34.668,32.715,31.738,27.832,21.484,0
213865.322,20.508,35.645,24.414,13.184,24.414,0
213865.326,19.043,39.062,38.574,18.555,30.762,0
213865.330,36.621,35.156,46.387,29.785,31.738,0
213865.334,40.527,33.691,49.316,33.691,15.625,0
213865.338,24.414,36.621,54.199,21.973,20.020,0
213865.342,16.602,41.504,62.012,14.648,46.387,0
213865.344,29.297,41.992,64.453,23.438,42.480,0
213865.348,50.781,36.621,62.500,29.297,20.508,0
213865.351,30.273,35.645,60.547,16.602,14.160,0
213865.355,-2.441,31.738,57.129,5.371,18.555,0
213865.359,17.578,29.785,56.152,19.531,37.109,0
213865.363,39.062,35.156,59.570,36.621,42.969,0
213865.367,23.926,38.574,66.406,27.344,38.086,0
213865.371,6.836,34.180,70.801,11.719,36.621,0
213865.375,17.578,31.738,76.172,19.043,33.691,0
213865.379,31.738,35.645,74.219,33.203,29.297,0
213865.383,24.902,38.086,75.195,29.785,29.297,0
213865.387,14.648,39.062,83.008,17.090,38.086,0
213865.389,20.020,36.133,85.938,12.695,44.922,0
213865.392,32.715,33.203,74.707,22.461,37.109,0
213865.396,36.621,33.691,64.453,25.879,21.973,0
213865.400,20.996,32.715,76.660,13.184,16.113,0
213865.404,16.602,31.250,84.473,4.883,21.973,0
213865.408,39.551,35.156,83.984,19.531,26.367,0
213865.412,45.898,39.551,79.102,32.227,23.926,0
213865.416,23.926,38.086,80.566,23.926,31.738,0
213865.420,11.230,37.109,94.238,12.695,49.316,0
213865.424,12.695,35.156,88.379,21.973,48.340,0
213865.428,27.832,28.809,77.148,34.180,40.527,0
213865.432,20.996,27.832,78.613,25.879,17.578,0
213865.435,3.418,29.785,81.055,13.184,10.254,0
213865.439,17.578,28.809,81.055,17.090,25.391,0
213865.443,40.527,35.156,85.938,35.645,24.902,0
213865.447,38.086,38.086,89.355,40.039,21.484,0
213865.451,13.672,34.180,82.520,23.438,19.043,0
213865.455,23.926,34.668,74.219,22.461,25.391,0
213865.459,46.387,33.691,75.684,40.039,40.039,0
213865.463,32.227,31.738,75.684,40.039,34.180,0
213865.467,15.625,32.715,71.777,26.855,22.461,0
213865.471,6.348,33.203,74.707,18.555,21.484,0
213865.474,31.250,32.715,82.031,27.832,30.762,0
213865.478,52.246,34.180,85.449,38.574,30.273,0
213865.494,19.531,36.133,78.125,25.879,31.738,0
213865.498,5.371,34.180,74.219,11.719,48.340,0
213865.502,22.949,30.762,77.637,18.555,47.363,0
213865.506,36.621,32.227,81.055,35.156,41.016,0
213865.510,31.738,33.691,72.754,33.691,30.762,0
213865.514,21.973,32.227,62.012,16.602,25.879,0
213865.518,26.855,33.203,64.941,14.160,32.715,0
213865.521,36.621,34.668,67.383,29.785,41.016,0
213865.525,29.297,32.227,62.988,30.273,19.531,0
213865.529,12.207,33.691,63.477,11.719,23.438,0
213865.533,19.043,36.621,71.777,11.719,41.016,0
213865.537,38.086,40.039,69.824,30.762,13.184,0
213865.539,39.062,42.480,61.523,36.133,3.418,0
213865.543,21.484,40.039,55.664,18.555,-1.953,0
213865.547,12.695,35.645,54.688,6.836,-3.418,0
213865.551,34.180,34.668,59.082,19.043,12.695,0
213865.555,41.992,35.645,61.523,27.832,16.602,0
213865.559,31.250,36.621,54.688,20.508,14.160,0
213865.563,15.625,38.574,55.664,16.113,26.855,0
213865.566,10.254,39.551,63.477,18.555,36.133,0
213865.570,33.203,38.086,61.523,28.320,38.574,0
213865.574,33.203,35.645,62.012,23.438,31.738,0
213865.578,11.230,40.039,69.336,11.230,40.527,0
213865.582,9.277,40.039,71.289,15.137,57.617,0
213865.584,23.438,31.738,58.105,27.344,61.035,0
213865.588,35.645,31.738,51.270,29.785,48.828,0
213865.592,20.996,36.621,56.152,13.672,18.066,0
213865.596,12.695,40.039,59.082,7.812,23.438,0
213865.599,38.574,42.480,56.152,20.020,31.250,0
213865.603,31.250,41.504,58.594,27.832,13.672,0
213865.607,7.324,36.621,55.176,15.137,19.043,0
213865.611,6.348,35.645,49.316,3.906,25.879,0
213865.615,21.973,35.645,50.781,17.578,22.949,0
213865.619,41.016,37.598,52.734,29.297,28.809,0
