timestamps,TP9,AF7,AF8,TP10,Right AUX,Marker0
214273.633,39.062,28.809,29.297,35.156,36.133,0
214273.637,41.992,31.738,30.762,38.574,27.344,0
214273.641,17.090,29.297,24.414,19.043,15.137,0
214273.645,3.906,25.391,14.648,9.766,22.949,0
214273.649,22.949,27.344,11.719,23.438,20.508,0
214273.653,32.715,29.785,14.648,29.785,16.602,0
214273.656,20.020,35.156,35.156,21.973,7.324,0
214273.660,13.672,34.668,48.340,14.160,0.000,0
214273.664,24.902,32.227,39.062,22.461,14.160,0
214273.668,35.156,33.691,35.156,37.109,31.738,0
214273.672,27.344,34.668,36.133,31.250,39.551,0
214273.676,15.137,35.645,34.180,16.602,39.551,0
214273.675,25.879,35.156,34.180,20.508,44.434,0
214273.679,43.945,33.691,43.457,35.156,41.992,0
214273.683,39.062,36.133,47.363,38.086,31.738,0
214273.687,20.996,32.715,38.574,27.344,40.527,0
214273.691,20.508,32.227,38.086,21.973,39.551,0
214273.695,36.133,35.645,36.133,33.203,29.785,0
214273.699,36.133,29.297,24.902,32.227,24.414,0
214273.703,14.648,25.391,25.879,12.207,20.020,0
214273.707,8.301,30.762,30.273,6.348,23.438,0
214273.711,28.809,36.133,27.832,24.414,39.551,0
214273.715,46.875,39.551,29.785,37.598,26.367,0
214273.718,34.180,39.062,29.785,21.973,10.254,0
214273.735,22.461,37.109,28.320,10.742,23.438,0
214273.739,34.180,36.133,34.180,23.926,36.133,0
214273.743,49.805,37.598,38.574,41.504,45.410,0
214273.747,40.039,40.039,34.668,32.715,40.527,0
214273.751,20.996,39.551,25.391,17.090,33.203,0
214273.754,33.691,40.039,24.414,29.297,32.715,0
214273.758,50.781,35.645,31.738,39.551,25.879,0
214273.762,41.016,33.203,32.227,29.297,22.461,0
214273.766,23.438,34.668,35.645,15.137,25.391,0
214273.770,27.344,33.691,40.039,18.066,26.367,0
214273.774,43.457,32.227,37.109,38.574,38.086,0
214273.778,45.898,34.180,32.227,46.387,53.711,0
214273.780,37.109,39.062,33.203,37.598,57.617,0
214273.784,25.879,36.621,33.203,30.273,52.246,0
214273.788,36.133,34.180,33.691,36.133,48.828,0
214273.792,43.457,34.668,31.738,43.945,41.016,0
214273.795,27.344,30.762,24.902,31.250,31.250,0
214273.799,19.531,28.320,22.949,15.625,42.969,0
214273.803,34.668,32.715,21.973,21.973,58.105,0
214273.807,56.152,36.621,23.438,42.969,42.480,0
214273.811,52.734,41.016,32.227,44.922,29.785,0
214273.815,36.133,44.434,39.551,27.832,33.203,0
214273.819,37.109,41.992,37.598,23.438,41.504,0
214273.823,48.828,36.133,33.691,37.598,47.852,0
214273.825,43.945,32.227,35.156,44.922,37.109,0
214273.829,24.414,31.738,33.691,32.227,37.598,0
214273.833,25.879,36.621,34.180,27.344,40.527,0
214273.837,46.387,39.551,35.156,39.551,42.969,0
214273.841,52.734,41.992,39.551,46.387,42.969,0
214273.844,38.086,43.945,45.898,38.086,33.203,0
214273.848,22.461,37.109,37.109,24.902,20.996,0
214273.852,34.668,34.180,36.621,34.668,20.020,0
214273.856,49.805,34.668,41.016,47.363,26.855,0
214273.860,35.156,34.180,36.133,35.156,24.414,0
214273.864,19.531,31.738,31.738,20.020,30.762,0
214273.868,30.762,30.762,29.297,26.855,38.086,0
214273.870,51.270,37.598,35.156,53.711,44.922,0
214273.874,42.969,36.621,40.039,52.246,41.992,0
214273.878,21.484,28.320,36.621,34.180,32.715,0
214273.882,23.438,28.809,39.062,38.574,37.598,0
214273.886,36.621,28.320,37.598,49.805,42.969,0
214273.890,36.133,27.344,30.273,53.223,32.227,0
214273.893,16.602,32.227,37.109,38.574,8.789,0
214273.897,14.648,31.738,44.434,29.297,15.137,0
214273.901,41.016,32.715,38.086,43.457,32.715,0
214273.905,50.781,36.621,35.156,49.805,23.438,0
214273.909,29.785,33.691,41.016,38.574,21.973,0
214273.913,20.020,31.738,40.527,32.715,46.875,0
214273.915,33.203,32.227,33.691,45.410,66.895,0
214273.919,49.316,34.668,35.645,59.082,43.457,0
214273.923,39.551,35.645,43.457,53.711,19.043,0
214273.927,20.508,35.156,47.852,38.574,24.414,0
214273.930,27.832,35.156,42.969,41.016,37.598,0
214273.934,47.363,35.645,41.016,58.594,43.945,0
214273.938,36.133,32.715,37.109,49.805,21.973,0
214273.942,14.648,33.203,26.855,28.320,11.230,0
214273.946,25.879,42.480,34.668,33.203,23.438,0
214273.950,41.992,41.992,42.969,48.828,33.203,0
214273.954,36.621,34.668,39.062,43.945,27.344,0
214273.958,24.414,36.621,41.504,33.691,24.902,0
214273.961,19.043,37.598,42.480,31.250,36.621,0
214273.965,37.598,38.574,40.039,43.457,53.711,0
214273.968,53.711,41.016,36.133,49.316,54.199,0
214273.972,33.203,38.574,31.738,36.621,40.527,0
214273.976,14.648,39.062,34.668,23.926,34.668,0
214273.980,22.949,40.039,41.016,29.297,29.297,0
214273.984,36.133,38.574,41.992,43.457,25.879,0
214273.988,28.320,38.086,39.062,39.551,26.855,0
214273.992,16.113,40.039,40.039,23.926,21.973,0
214273.996,25.879,43.457,38.086,31.738,21.484,0
214274.000,36.621,35.645,33.691,41.992,23.926,0
214274.004,21.973,22.949,33.203,28.320,24.414,0
214274.006,1.465,21.484,33.203,15.625,22.949,0
214274.010,9.277,29.297,38.086,18.066,19.043,0
214274.014,40.039,36.621,43.457,37.598,24.414,0
214274.018,44.434,32.715,36.133,39.551,33.691,0
214274.022,25.391,33.203,27.344,23.438,38.574,0
214274.026,22.949,38.086,31.250,20.996,42.969,0
214274.030,35.645,37.109,32.715,25.879,39.551,0
214274.034,40.039,35.156,27.832,28.320,22.461,0
214274.038,23.438,37.598,24.414,19.531,11.719,0
214274.042,12.695,40.039,20.020,9.766,16.602,0
214274.046,20.996,38.086,21.973,14.160,22.461,0
214274.049,39.062,38.574,28.320,29.785,28.809,0
214274.050,39.062,41.992,33.691,34.180,24.414,0
214274.054,20.996,41.992,31.738,23.438,29.297,0
214274.058,23.438,40.039,25.879,22.949,46.387,0
214274.062,39.551,38.086,21.973,35.156,46.387,0
214274.066,37.109,39.551,20.020,35.645,46.875,0
214274.070,21.484,40.527,27.832,21.973,44.922,0
214274.074,19.043,39.062,36.621,15.625,36.133,0
214274.078,36.621,41.504,41.504,31.250,50.781,0
214274.082,38.574,37.109,28.809,32.715,48.340,0
214274.086,10.254,31.250,19.531,14.648,16.113,0
214274.090,0.488,33.691,25.391,6.836,2.441,0
214274.093,24.902,36.621,25.391,20.020,9.766,0
214274.110,47.363,40.039,27.344,38.086,13.672,0
214274.114,37.598,42.969,33.203,30.273,13.184,0
214274.118,21.973,41.504,35.645,14.160,31.250,0
214274.122,28.320,37.598,26.855,20.020,42.969,0
214274.126,45.410,40.527,20.508,38.086,36.133,0
214274.130,36.133,41.016,33.691,35.156,35.156,0
214274.134,11.719,37.109,37.598,10.742,34.668,0
214274.138,18.555,38.574,36.621,9.277,41.504,0
214274.141,38.086,37.109,38.574,27.344,44.922,0
214274.145,40.039,38.574,41.016,29.785,41.504,0
214274.149,20.996,41.504,39.551,16.113,44.922,0
214274.153,21.973,40.527,36.133,18.066,46.875,0
214274.155,42.969,37.598,33.691,32.227,38.574,0
214274.159,40.527,33.203,31.738,34.668,15.625,0
214274.163,21.484,33.203,38.086,25.879,23.438,0
214274.167,16.113,32.227,43.945,18.555,41.992,0
214274.170,29.297,33.203,42.480,25.879,33.691,0
214274.174,42.969,37.109,34.180,38.086,30.762,0
214274.178,30.273,35.156,26.367,34.668,33.691,0
214274.182,8.301,33.691,26.855,20.508,43.457,0
214274.186,13.184,37.109,33.203,19.531,49.805,0
214274.190,24.902,31.738,38.086,28.809,41.504,0
214274.194,17.090,25.879,42.480,28.809,20.996,0
214274.198,15.625,38.574,53.223,34.180,20.508,0
214274.200,20.996,42.480,48.340,35.645,29.785,0
214274.204,28.320,32.227,35.156,37.109,22.461,0
214274.208,31.250,29.785,27.344,40.039,12.695,0
214274.212,25.879,31.250,24.414,29.785,22.949,0
214274.215,25.879,35.156,32.715,27.344,37.109,0
214274.219,38.086,35.645,42.480,46.387,43.945,0
214274.223,46.387,32.227,37.598,58.105,49.805,0
214274.227,24.902,33.203,29.785,45.410,38.086,0
214274.231,4.883,31.738,24.902,22.949,38.574,0
214274.235,19.043,28.809,31.738,23.438,51.270,0
214274.239,33.203,27.344,41.016,36.621,40.039,0
214274.243,21.484,30.273,34.668,30.762,19.531,0
214274.245,7.324,32.227,31.738,19.043,19.043,0
214274.249,16.113,30.273,37.598,24.902,30.762,0
214274.253,40.527,33.203,38.086,43.457,32.715,0
214274.257,42.969,41.016,36.621,47.363,31.250,0
214274.261,24.902,41.504,39.062,29.785,32.715,0
214274.265,21.973,34.668,36.133,20.996,38.574,0
214274.268,35.156,34.180,28.320,38.574,46.875,0
214274.272,41.504,38.574,26.367,49.805,40.039,0
214274.276,32.227,46.387,34.668,38.086,42.969,0
214274.280,25.879,51.270,39.062,28.809,56.641,0
214274.284,32.715,38.574,26.367,32.227,39.062,0
214274.288,41.016,27.832,24.414,40.039,24.902,0
214274.290,25.391,28.320,29.297,26.855,30.273,0
214274.294,17.090,36.133,33.691,20.020,34.668,0
214274.298,24.414,37.109,35.645,28.320,25.391,0
214274.302,34.668,29.785,28.320,34.180,8.301,0
214274.305,30.273,31.250,24.902,34.180,1.953,0
214274.309,15.625,35.645,20.508,24.902,14.160,0
214274.313,20.996,39.551,22.949,28.320,31.250,0
214274.317,37.598,38.574,38.574,39.551,37.109,0
214274.321,33.203,33.691,43.945,35.156,21.484,0
214274.325,9.766,34.180,41.992,19.043,13.672,0
214274.329,5.371,33.691,37.109,14.648,24.414,0
214274.333,27.344,33.691,34.180,28.320,30.762,0
214274.335,35.645,35.156,35.156,35.645,20.020,0
214274.339,17.578,36.621,28.320,24.414,20.508,0
214274.343,14.648,38.574,26.855,19.043,30.273,0
214274.346,37.598,44.922,40.039,38.086,28.809,0
214274.350,46.387,44.922,46.387,50.781,30.762,0
214274.354,28.320,33.203,32.715,37.598,27.344,0
214274.358,12.695,25.391,21.973,25.391,13.672,0
214274.362,18.066,25.879,22.461,30.273,18.555,0
214274.366,33.691,31.250,21.484,41.504,33.691,0
214274.370,30.273,33.691,34.668,37.109,30.762,0
214274.374,9.277,26.855,36.621,15.137,11.719,0
214274.378,9.277,26.855,26.367,10.254,12.207,0
214274.380,32.715,30.762,29.297,26.855,20.020,0
214274.384,38.574,34.668,34.668,34.668,12.695,0
214274.388,24.902,38.574,32.227,22.461,21.973,0
214274.392,22.949,38.574,28.809,18.555,30.762,0
214274.395,41.992,43.457,29.297,31.738,33.203,0
214274.399,55.664,48.340,34.668,40.527,40.039,0
214274.403,38.086,41.992,35.645,27.832,32.715,0
214274.407,21.484,36.133,27.832,13.184,32.227,0
214274.411,35.645,36.133,34.668,24.414,37.598,0
214274.415,52.734,39.062,41.504,39.062,32.715,0
214274.419,45.410,43.457,31.738,36.133,34.668,0
214274.423,30.273,42.480,26.367,23.438,46.387,0
214274.425,28.809,35.156,31.250,22.461,54.199,0
214274.429,39.551,32.227,33.691,35.156,46.875,0
214274.433,34.668,35.156,33.691,34.180,25.391,0
214274.437,21.484,41.504,34.180,25.391,18.555,0
214274.441,20.996,38.086,32.227,24.414,24.902,0
214274.444,32.715,34.180,31.738,36.133,21.973,0
214274.448,39.551,40.039,43.945,44.922,22.949,0
214274.452,20.996,36.621,48.828,30.273,26.855,0
214274.456,15.625,33.691,38.574,18.066,31.738,0
214274.460,29.297,33.691,26.855,24.902,35.645,0
214274.464,35.645,33.691,29.297,31.250,36.133,0
214274.468,25.879,40.039,39.551,26.855,31.250,0
214274.472,10.742,34.668,37.109,19.531,37.109,0
214274.476,20.996,31.738,36.621,26.855,42.969,0
214274.479,35.645,38.086,39.551,36.133,22.949,0
214274.483,28.809,40.039,33.203,26.855,9.766,0
214274.487,10.742,33.691,24.902,8.789,9.277,0
214274.491,10.254,30.273,22.949,9.277,12.207,0
214274.495,29.785,34.180,27.832,30.273,24.414,0
214274.499,28.320,32.227,34.180,33.691,29.785,0
214274.503,15.625,36.133,38.574,27.832,25.391,0
214274.507,22.949,41.016,38.574,32.715,33.203,0
214274.511,36.133,33.203,33.691,39.551,38.086,0
214274.515,31.738,25.391,28.809,33.203,21.973,0
214274.531,15.625,25.391,26.367,18.066,15.137,0
214274.535,20.508,32.715,35.156,20.020,31.738,0
214274.539,31.250,32.715,31.738,27.344,36.621,0
214274.543,34.668,31.738,24.902,32.227,16.113,0
214274.547,27.344,38.086,26.367,25.879,10.254,0
214274.551,13.672,39.551,30.762,9.766,15.137,0
214274.554,16.113,33.691,32.227,8.789,3.418,0
214274.558,32.715,32.227,33.203,27.344,3.906,0
214274.562,25.879,34.668,37.109,32.227,10.254,0
214274.566,11.230,34.180,37.598,21.484,22.461,0
214274.570,20.020,34.180,32.715,22.949,37.109,0
214274.574,43.457,39.062,38.574,38.574,45.410,0
214274.576,56.641,47.852,50.781,57.129,55.664,0
214274.580,34.668,41.504,42.969,41.504,44.922,0
214274.584,18.555,24.902,29.785,20.508,31.250,0
214274.587,34.180,23.926,28.320,33.691,36.621,0
214274.591,43.457,30.273,34.668,48.828,29.785,0
214274.595,32.227,33.203,39.062,44.434,18.066,0
214274.599,24.414,30.762,34.668,33.691,16.113,0
214274.603,39.551,36.133,37.109,40.527,12.695,0
214274.607,55.176,38.574,35.156,48.828,20.508,0
214274.611,32.227,27.832,26.855,33.203,30.762,0
214274.615,14.648,25.879,25.391,17.578,35.645,0
214274.619,26.855,30.273,23.438,24.902,32.715,0
214274.620,41.504,28.320,28.809,46.387,31.250,0
214274.624,41.992,31.738,42.480,51.270,34.180,0
214274.628,29.785,36.133,45.898,37.598,42.969,0
214274.631,31.250,31.738,35.645,28.809,43.457,0
214274.635,49.316,30.273,28.809,38.086,36.621,0
214274.639,44.922,34.180,24.414,41.992,29.297,0
214274.643,27.832,37.109,28.320,29.297,29.297,0
214274.647,37.109,40.527,39.551,32.227,33.203,0
214274.651,51.270,41.016,41.504,44.434,34.180,0
214274.655,43.945,33.203,30.762,40.527,29.297,0
214274.659,32.227,34.668,33.691,34.668,24.414,0
214274.663,24.902,41.016,40.527,30.273,23.926,0
214274.665,33.203,39.062,38.086,36.621,27.344,0
214274.669,43.457,32.227,34.668,43.457,33.203,0
214274.673,31.250,32.715,30.762,32.227,31.738,0
214274.676,15.625,30.762,26.855,18.555,29.785,0
214274.680,25.391,29.297,24.902,23.926,39.062,0
214274.684,43.945,32.715,27.344,40.039,44.922,0
214274.688,36.621,30.273,29.785,35.645,22.461,0
214274.692,20.020,33.203,33.203,21.973,12.695,0
214274.696,20.996,38.086,36.621,27.344,18.555,0
214274.700,40.527,37.109,40.039,41.992,15.137,0
214274.704,42.969,35.156,44.434,42.480,17.090,0
214274.708,28.320,38.574,44.922,37.109,39.062,0
214274.710,28.320,39.062,44.434,36.133,55.664,0
214274.714,39.062,29.297,34.668,37.109,52.734,0
214274.718,48.340,31.738,30.762,44.434,44.434,0
214274.721,37.598,36.621,37.109,38.574,32.715,0
214274.725,24.902,33.203,36.621,26.855,37.598,0
214274.729,31.250,30.762,35.156,29.785,38.574,0
214274.733,42.480,28.809,38.574,36.621,35.645,0
214274.737,33.691,33.691,44.434,25.391,17.090,0
214274.741,15.625,35.645,41.016,7.324,6.348,0
214274.745,17.090,26.855,28.320,6.836,17.090,0
214274.749,44.434,29.785,34.180,31.250,23.438,0
214274.753,41.992,35.645,40.039,39.062,12.207,0
214274.756,16.602,30.273,32.227,19.043,11.719,0
214274.760,24.902,30.273,39.062,21.973,40.039,0
214274.764,46.387,35.645,35.645,38.086,64.453,0
214274.768,46.387,35.645,34.180,41.504,69.336,0
214274.772,29.785,36.133,40.527,35.645,57.129,0
214274.776,33.691,44.922,48.340,37.598,52.246,0
214274.779,42.480,40.039,43.945,42.480,48.828,0
214274.783,36.133,23.926,27.832,36.621,23.438,0
214274.787,25.879,28.320,32.227,29.785,5.859,0
214274.791,16.113,34.668,39.062,21.484,10.742,0
214274.795,25.391,36.133,40.527,24.902,16.602,0
214274.799,37.598,31.738,33.691,30.273,6.348,0
214274.800,23.438,29.785,32.227,25.879,5.859,0
214274.804,9.766,36.133,40.527,19.043,20.508,0
214274.808,19.531,34.668,34.668,22.949,44.922,0
214274.812,36.621,29.785,32.227,35.156,57.129,0
214274.815,36.133,31.250,41.016,40.039,49.805,0
214274.819,18.066,35.156,44.434,32.227,41.504,0
214274.823,16.113,33.203,39.062,23.926,44.434,0
214274.827,36.621,31.250,36.133,34.180,43.945,0
214274.831,43.457,33.203,35.156,38.574,22.949,0
214274.835,24.414,33.203,29.297,27.832,12.207,0
214274.839,19.531,38.574,32.715,27.344,25.879,0
214274.843,34.668,42.480,48.340,35.156,40.527,0
214274.860,43.945,41.016,46.387,39.062,40.527,0
214274.864,35.645,43.945,39.551,34.668,36.133,0
214274.868,17.578,36.621,38.574,20.020,28.809,0
214274.872,25.391,23.438,33.691,22.461,33.203,0
214274.876,46.875,25.391,36.133,42.480,48.828,0
214274.879,45.898,36.621,41.016,48.828,62.500,0
214274.883,29.785,36.621,43.457,39.062,58.105,0
214274.887,22.461,28.809,35.156,29.785,40.039,0
214274.891,36.621,29.785,28.809,34.180,42.480,0
214274.895,34.668,30.273,31.250,33.691,34.668,0
214274.899,9.277,30.273,37.598,16.602,13.672,0
214274.903,5.371,33.203,43.945,10.254,6.348,0
214274.905,22.949,31.250,39.551,21.484,7.324,0
214274.909,29.785,29.785,27.344,28.320,9.766,0
214274.913,17.090,36.133,30.762,21.484,12.207,0
214274.916,15.137,40.527,47.363,13.184,23.438,0
214274.920,27.832,33.203,45.898,18.066,41.016,0
214274.924,35.645,30.762,32.227,29.785,43.945,0
214274.928,26.855,33.691,33.691,29.785,46.875,0
214274.932,18.555,35.645,40.527,22.461,52.246,0
214274.936,26.855,34.180,36.133,27.832,51.270,0
214274.940,45.898,38.086,33.691,46.387,53.711,0
214274.944,43.945,42.969,39.551,45.410,28.320,0
214274.948,16.113,30.273,31.250,21.973,2.441,0
214274.950,14.648,22.949,30.762,19.531,8.301,0
214274.954,36.621,25.879,36.621,31.250,14.160,0
214274.958,41.992,31.738,32.715,35.645,16.602,0
214274.961,32.227,41.504,29.297,31.738,37.598,0
214274.965,30.762,38.574,31.738,29.785,50.781,0
214274.969,43.457,29.297,31.250,40.039,52.246,0
214274.973,55.176,34.668,31.250,53.711,58.594,0
214274.977,44.434,34.668,31.738,48.340,53.223,0
214274.981,29.785,33.691,35.645,36.621,52.246,0
214274.985,36.621,36.133,33.203,38.086,55.176,0
214274.989,49.316,35.156,29.297,48.340,38.574,0
214274.993,35.645,34.668,35.156,43.945,20.508,0
214274.997,19.043,38.574,39.062,27.832,19.531,0
214275.000,25.879,35.156,37.109,28.320,13.672,0
214275.004,42.480,26.855,33.203,34.668,13.184,0
214275.008,39.062,29.785,32.227,31.250,15.137,0
214275.012,23.926,33.203,36.621,25.391,20.020,0
214275.016,23.926,35.645,46.387,25.391,39.062,0
214275.020,35.156,37.109,46.387,38.574,45.410,0
214275.024,37.598,34.180,37.598,45.410,40.039,0
214275.028,21.484,31.250,37.109,34.180,38.086,0
214275.032,16.113,30.762,29.785,26.367,42.969,0
214275.036,30.762,33.203,20.508,30.762,50.781,0
214275.039,39.062,34.668,27.832,35.645,34.180,0
214275.040,25.391,34.668,33.203,26.855,15.137,0
214275.044,14.648,33.691,37.598,19.531,20.996,0
214275.048,25.391,31.738,41.504,25.391,20.996,0
214275.051,41.504,36.621,37.109,33.691,26.855,0
214275.055,37.109,42.969,33.691,35.645,33.691,0
214275.059,27.344,46.387,33.203,35.645,37.598,0
214275.063,33.203,42.480,29.297,38.086,53.711,0
214275.067,52.246,42.969,33.691,51.270,73.242,0
214275.071,51.270,42.969,33.691,52.734,55.176,0
214275.075,26.855,35.645,28.809,32.227,34.668,0
214275.079,20.996,33.691,35.645,24.902,40.527,0
214275.083,32.715,33.691,40.039,34.180,32.227,0
214275.085,31.738,33.203,35.645,31.250,7.812,0
214275.089,14.648,30.273,34.180,13.184,-8.789,0
214275.093,8.301,28.320,26.367,-1.465,-1.953,0
214275.097,21.973,31.250,23.438,5.371,14.160,0
214275.100,37.598,33.203,31.250,25.391,24.902,0
214275.104,28.320,32.227,35.156,25.391,28.320,0
214275.108,14.160,30.273,35.645,15.137,36.133,0
214275.112,26.855,30.273,36.133,19.531,54.688,0
214275.116,46.387,34.180,37.598,39.551,54.199,0
214275.120,43.945,32.715,40.527,46.875,43.945,0
214275.124,23.926,31.738,37.598,22.949,42.480,0
214275.128,20.508,33.691,38.574,20.996,46.387,0
214275.130,36.133,31.738,47.363,43.457,41.504,0
214275.134,34.180,31.738,41.992,40.039,10.742,0
214275.138,18.066,35.645,34.180,26.855,1.465,0
214275.142,13.672,37.598,41.504,23.438,16.113,0
214275.146,24.414,30.762,36.133,23.438,20.996,0
214275.150,39.062,29.297,31.250,37.598,38.086,0
214275.154,31.250,32.715,41.992,40.527,39.551,0
214275.158,21.973,31.738,38.574,25.879,33.691,0
214275.161,33.203,31.250,31.250,25.391,39.551,0
214275.165,43.945,28.320,28.809,35.645,36.621,0
214275.169,32.715,31.250,25.879,33.203,39.551,0
214275.173,17.578,32.227,26.855,22.461,43.945,0
214275.175,29.785,36.133,31.738,27.344,45.898,0
214275.179,44.434,39.551,37.109,41.992,25.879,0
214275.183,26.367,31.250,33.203,29.297,-3.906,0
214275.186,2.930,29.785,29.785,10.254,-10.742,0
214275.190,7.324,31.738,33.691,12.207,-2.441,0
214275.194,23.926,29.297,36.621,24.902,1.465,0
214275.198,28.809,32.715,43.945,34.180,10.254,0
214275.202,9.766,33.691,39.551,20.996,17.090,0
214275.206,2.930,28.809,27.344,9.277,24.902,0
214275.210,31.738,31.738,31.250,30.273,53.223,0
214275.214,44.922,28.809,33.691,44.434,56.152,0
214275.218,28.809,29.297,29.297,28.809,40.039,0
214275.221,21.484,33.203,33.203,19.043,38.086,0
214275.225,33.203,33.691,33.203,28.320,49.316,0
214275.229,47.363,36.133,35.645,40.527,45.410,0
214275.233,40.527,40.527,43.945,42.480,24.902,0
214275.237,26.855,46.387,45.898,38.086,20.996,0
214275.241,28.809,41.016,38.086,28.320,15.625,0
214275.245,41.016,32.715,30.273,27.832,8.789,0
214275.249,39.062,38.086,24.414,35.645,10.742,0
214275.253,20.996,39.062,24.902,26.367,22.461,0
214275.257,23.438,35.156,34.668,26.367,41.504,0
214275.260,50.293,39.062,44.434,48.340,62.500,0
214275.264,51.758,37.109,39.551,53.223,49.316,0
214275.280,25.879,29.785,34.668,33.691,36.621,0
214275.284,20.508,30.273,40.527,27.344,46.387,0
214275.288,36.133,34.668,39.551,39.551,47.852,0
214275.292,42.480,33.691,27.344,46.875,34.180,0
214275.296,23.926,32.715,24.902,32.227,15.625,0
214275.299,15.137,33.691,29.785,21.973,20.020,0
214275.303,30.762,33.691,33.203,27.344,20.996,0
214275.307,43.945,33.691,35.156,32.715,15.137,0
214275.311,32.715,33.203,35.156,27.832,4.883,0
214275.315,12.695,31.250,38.086,12.695,6.836,0
214275.319,13.672,30.273,33.203,13.672,23.926,0
214275.323,31.250,34.180,25.391,30.273,29.785,0
214275.325,33.691,35.645,24.414,32.715,39.551,0
214275.329,22.949,35.156,26.367,24.902,48.340,0
214275.333,22.461,33.691,24.902,21.973,41.992,0
214275.337,34.668,30.762,24.902,25.879,46.875,0
214275.340,41.016,31.738,28.320,30.762,36.621,0
214275.344,24.414,32.715,23.438,21.484,10.742,0
214275.348,15.625,35.156,22.461,9.277,17.578,0
214275.352,32.715,34.180,30.762,16.113,26.855,0
214275.356,50.781,37.109,37.598,34.668,19.531,0
214275.360,41.016,39.062,37.109,32.227,8.789,0
214275.364,23.438,33.203,25.391,15.137,16.113,0
214275.368,33.203,32.227,24.414,20.020,41.016,0
214275.370,45.410,30.273,28.320,34.668,53.223,0
214275.374,38.574,32.715,28.809,37.109,57.129,0
214275.378,27.832,40.039,36.133,30.762,57.129,0
214275.382,32.715,41.992,39.062,33.203,61.523,0
214275.385,39.551,32.715,26.367,32.715,63.477,0
214275.389,37.598,36.133,19.531,34.668,35.156,0
214275.393,24.902,44.922,31.738,32.227,19.043,0
214275.397,13.672,32.715,37.598,19.043,23.926,0
214275.401,21.973,25.391,37.109,23.438,22.461,0
214275.405,25.879,24.902,36.621,27.344,12.207,0
214275.409,13.672,25.879,36.621,18.066,8.301,0
214275.413,13.672,28.809,40.039,15.137,26.367,0
214275.415,35.156,34.180,43.457,30.762,43.457,0
214275.419,46.875,32.227,38.086,41.992,42.480,0
214275.423,38.086,30.762,28.809,36.621,42.969,0
214275.427,30.273,37.109,29.785,27.832,45.898,0
214275.430,39.062,39.062,35.645,29.785,54.199,0
214275.434,55.176,40.527,42.480,43.945,55.664,0
214275.438,42.969,40.527,38.086,38.086,19.531,0
214275.442,20.508,40.039,31.738,18.066,-2.441,0
214275.446,18.066,36.621,34.668,12.207,8.301,0
214275.450,34.180,36.133,39.062,27.832,15.137,0
214275.454,41.016,40.039,39.062,39.062,22.461,0
214275.458,19.043,38.086,32.715,24.902,33.203,0
214275.460,17.090,36.621,32.715,20.996,31.738,0
214275.464,47.363,41.992,33.203,39.551,47.363,0
214275.468,54.199,39.062,27.832,42.480,42.969,0
214275.471,32.227,33.691,26.855,28.809,20.020,0
214275.475,17.578,31.738,33.691,14.160,26.367,0
214275.479,27.344,30.762,42.969,20.020,23.926,0
214275.483,42.969,34.180,43.945,36.621,15.625,0
214275.487,33.691,32.227,39.062,31.250,10.742,0
214275.491,20.996,29.297,40.527,20.020,14.160,0
214275.495,29.785,33.203,41.016,25.391,22.461,0
214275.499,44.922,32.227,39.551,35.645,26.855,0
214275.503,41.016,32.227,40.527,38.574,31.250,0
214275.505,18.066,35.156,35.156,26.367,27.832,0
214275.509,13.672,33.203,33.203,19.043,39.062,0
214275.513,39.551,36.133,41.992,42.969,57.617,0
214275.517,45.898,35.645,41.504,52.246,41.016,0
214275.520,25.879,30.762,37.598,33.203,26.367,0
214275.524,22.461,31.738,35.156,23.438,20.996,0
214275.528,40.039,33.203,34.180,32.715,30.273,0
214275.532,50.293,33.691,36.621,41.992,42.480,0
214275.536,37.598,38.086,34.668,34.180,32.715,0
214275.540,30.762,40.527,36.133,23.926,22.949,0
214275.544,41.992,36.133,42.969,30.762,28.320,0
214275.548,60.059,37.598,44.434,45.898,37.598,0
214275.550,50.293,40.039,41.016,41.992,22.461,0
214275.554,22.461,34.180,32.227,20.020,18.066,0
214275.558,25.391,29.785,26.367,19.043,39.551,0
214275.561,48.340,33.203,29.297,36.133,53.711,0
214275.565,47.363,35.645,34.668,40.527,49.316,0
214275.569,26.855,35.645,34.668,31.250,42.969,0
214275.573,25.391,40.527,38.574,31.250,49.316,0
214275.577,43.457,41.504,44.434,47.363,53.711,0
214275.581,53.223,44.922,47.363,52.734,51.270,0
214275.585,34.668,43.945,38.086,32.715,40.527,0
214275.589,20.508,35.645,30.762,20.508,27.344,0
214275.593,35.156,37.109,36.621,32.227,46.387,0
214275.610,45.410,36.133,38.574,41.016,42.969,0
214275.614,40.527,40.039,43.457,38.574,17.090,0
214275.618,36.133,44.922,44.922,34.180,28.320,0
214275.622,35.156,34.668,35.156,24.902,34.668,0
214275.626,52.246,32.715,40.527,41.016,46.875,0
214275.630,46.875,31.250,41.504,44.922,54.688,0
214275.633,21.484,30.273,36.621,23.926,42.480,0
214275.637,24.902,30.273,36.621,23.926,42.969,0
214275.641,43.945,32.227,38.086,40.527,48.828,0
214275.645,41.504,40.527,42.969,45.410,32.715,0
214275.649,22.949,40.039,39.062,31.738,22.949,0
214275.653,17.090,37.109,39.551,22.949,28.809,0
214275.655,34.180,36.621,43.457,33.203,31.738,0
214275.659,44.434,33.203,34.668,43.457,29.785,0
214275.663,21.484,29.785,28.809,32.715,10.742,0
214275.666,10.254,30.273,28.809,21.484,3.418,0
214275.670,31.250,35.645,32.715,31.250,29.297,0
214275.674,42.969,37.109,37.109,42.969,36.133,0
214275.678,32.227,37.598,35.156,36.133,24.902,0
214275.682,28.320,43.457,37.109,29.785,34.668,0
214275.686,34.668,45.410,38.574,28.320,31.250,0
214275.690,40.039,38.574,31.738,34.668,13.184,0
214275.694,30.273,34.668,28.320,32.715,13.672,0
214275.698,12.207,35.645,25.879,16.602,18.555,0
214275.700,16.113,39.551,22.949,17.578,9.277,0
214275.704,36.621,44.434,24.414,31.738,20.508,0
214275.708,38.574,43.457,27.344,35.156,20.996,0
214275.711,26.855,46.875,32.715,23.438,9.766,0
214275.715,27.832,43.457,33.691,21.973,39.551,0
214275.719,39.551,41.992,27.832,35.156,61.523,0
214275.723,42.969,44.434,23.926,41.992,53.223,0
214275.727,26.367,36.133,25.391,27.832,42.480,0
214275.731,15.625,33.691,32.227,17.578,39.062,0
214275.735,27.832,36.133,37.109,29.297,42.480,0
214275.739,44.922,39.551,43.457,47.852,40.039,0
214275.743,25.879,33.203,35.156,36.621,18.555,0
214275.747,3.418,25.879,27.344,15.137,16.602,0
214275.751,10.742,29.297,34.180,20.020,28.809,0
214275.755,28.809,30.273,34.668,35.156,25.391,0
214275.759,25.391,29.785,31.738,30.273,10.254,0
214275.762,11.719,34.668,36.133,17.090,15.625,0
214275.766,19.043,34.668,38.086,20.020,39.062,0
214275.770,35.645,32.715,31.250,33.203,51.270,0
214275.774,45.410,36.133,27.344,48.340,46.875,0
214275.778,31.250,33.691,25.879,37.109,32.227,0
214275.782,25.391,35.156,27.344,23.926,34.180,0
214275.786,44.922,38.086,30.273,36.133,49.316,0
214275.790,46.875,28.809,27.344,37.598,42.480,0
214275.790,27.344,27.344,30.273,26.855,19.531,0
214275.794,23.438,32.227,42.969,27.832,23.926,0
214275.798,37.109,31.738,45.898,34.668,41.504,0
214275.802,53.223,35.645,43.945,41.504,39.551,0
214275.805,45.898,37.598,41.504,37.598,36.133,0
214275.809,23.926,31.250,28.320,15.625,31.738,0
214275.813,28.320,31.738,31.250,16.602,34.668,0
214275.817,44.434,32.227,31.738,35.156,36.621,0
214275.821,42.480,26.855,29.297,36.621,28.320,0
214275.825,24.902,27.344,38.574,28.320,24.902,0
214275.829,27.344,34.180,41.504,30.762,32.227,0
214275.833,47.852,33.691,41.016,43.457,34.668,0
214275.835,51.270,31.738,42.969,44.434,29.785,0
214275.839,34.180,33.691,41.504,29.785,31.738,0
214275.843,25.879,32.715,29.785,20.508,37.109,0
214275.847,37.598,34.668,29.785,28.320,37.109,0
214275.850,46.875,36.133,40.039,40.039,26.367,0
214275.854,35.645,32.227,37.109,38.574,27.344,0
214275.858,20.020,34.668,33.203,26.855,38.086,0
214275.862,25.879,32.227,36.133,25.391,46.875,0
214275.866,46.875,25.879,39.551,37.598,45.898,0
214275.870,44.922,27.832,31.250,36.133,26.855,0
214275.874,31.738,31.250,20.996,21.973,31.738,0
214275.878,36.133,33.203,27.344,21.484,54.199,0
214275.880,50.781,36.133,39.062,39.062,63.965,0
214275.884,52.734,39.062,40.527,45.898,47.363,0
214275.888,34.668,39.062,38.574,29.785,30.762,0
214275.892,30.762,41.992,41.504,23.926,40.039,0
214275.895,46.387,38.574,37.109,37.598,35.645,0
214275.899,46.875,31.250,27.832,40.527,19.043,0
214275.903,34.180,33.203,36.621,33.691,18.066,0
214275.907,28.809,35.645,46.387,28.809,30.762,0
214275.911,37.109,33.203,42.480,31.250,41.504,0
214275.915,48.340,29.785,35.645,39.551,40.527,0
214275.919,43.457,31.738,35.156,38.086,36.621,0
214275.923,29.297,30.762,34.668,24.902,30.762,0
214275.925,28.809,25.391,30.273,21.973,29.785,0
214275.929,43.945,26.367,34.668,37.109,20.020,0
214275.933,39.551,28.809,41.016,35.645,5.371,0
214275.937,17.578,26.855,43.457,19.043,14.648,0
214275.940,16.602,24.902,42.969,16.602,37.109,0
214275.944,32.227,26.855,41.992,29.785,35.156,0
214275.948,29.297,28.320,36.621,30.762,18.555,0
214275.952,11.719,27.344,36.133,21.484,18.066,0
214275.956,11.230,30.273,40.527,22.949,34.180,0
214275.960,28.320,32.715,40.039,38.574,46.875,0
214275.964,39.062,30.273,36.621,48.828,29.785,0
214275.968,20.996,27.344,37.109,33.691,17.578,0
214275.971,10.742,27.832,41.016,23.438,24.902,0
214275.975,22.461,26.367,42.480,31.738,26.855,0
214275.979,29.297,27.344,41.016,43.945,26.367,0
214275.983,20.996,27.832,40.527,43.457,29.297,0
214275.987,13.672,27.832,41.504,26.855,21.484,0
214275.991,24.902,30.273,39.551,24.902,30.273,0
214275.995,39.551,33.203,33.203,38.086,46.387,0
214275.998,28.809,31.250,33.203,34.180,28.809,0
214276.002,8.301,28.320,39.062,20.996,25.879,0
214276.006,11.230,29.297,41.992,23.926,38.086,0
214276.010,30.273,30.273,41.992,38.086,46.875,0
214276.014,37.109,32.715,40.527,44.434,43.945,0
214276.030,21.484,34.180,36.621,29.785,42.480,0
214276.034,19.043,36.621,35.645,22.461,45.898,0
214276.038,42.480,40.527,34.180,41.504,52.734,0
214276.042,50.293,38.086,28.320,51.758,38.574,0
214276.046,33.203,35.645,26.855,38.574,18.555,0
214276.050,22.461,37.109,31.738,20.996,27.344,0
214276.053,31.250,37.109,42.480,30.762,41.016,0
214276.057,44.922,35.645,44.434,47.852,34.180,0
214276.061,33.691,33.203,36.621,39.062,8.301,0
214276.065,9.766,30.762,29.785,19.043,9.766,0
214276.069,10.254,28.809,23.926,15.625,38.574,0
214276.073,26.367,27.344,24.902,30.762,43.945,0
214276.075,23.926,25.879,24.902,32.715,23.926,0
214276.079,11.230,23.926,23.438,19.043,16.113,0
214276.083,15.625,28.809,28.809,19.531,27.832,0
214276.087,28.809,29.297,31.738,27.344,32.715,0
214276.090,31.738,26.367,33.691,32.715,22.461,0
214276.094,14.160,29.785,28.320,23.926,7.812,0
214276.098,5.371,30.762,29.785,14.160,8.301,0
214276.102,30.273,31.738,35.645,26.367,29.297,0
214276.106,49.316,34.668,32.227,38.574,38.086,0
214276.110,31.738,35.645,30.273,28.809,27.832,0
214276.114,18.066,38.086,33.203,20.020,39.062,0
214276.118,29.785,39.062,35.645,25.879,61.523,0
214276.120,45.410,36.621,31.738,37.109,68.359,0
214276.124,35.645,31.250,25.391,36.621,51.270,0
214276.128,14.160,28.320,17.578,23.438,25.879,0
214276.132,20.020,32.227,22.461,21.973,31.250,0
214276.135,35.156,33.691,36.621,35.645,37.109,0
214276.139,33.203,34.668,36.133,37.109,25.879,0
214276.143,20.020,37.598,34.180,21.484,22.461,0
214276.147,17.090,37.598,38.574,16.113,27.344,0
214276.151,38.086,39.551,39.062,31.250,31.738,0
214276.155,47.363,37.598,33.203,42.480,16.113,0
214276.159,28.809,34.180,32.227,33.203,7.324,0
214276.163,15.137,33.691,30.762,17.090,19.043,0
214276.166,33.203,39.551,36.621,27.832,42.480,0
214276.170,50.293,38.574,39.062,48.340,43.457,0
214276.173,37.109,35.645,26.855,41.504,26.367,0
214276.177,22.949,40.039,25.879,26.855,37.598,0
214276.181,27.832,39.062,30.762,27.344,49.805,0
214276.185,41.504,38.574,39.551,43.945,53.223,0
214276.189,35.156,40.039,35.156,46.387,56.152,0
214276.193,12.695,37.109,25.391,23.438,42.480,0
214276.197,11.230,32.227,31.250,19.531,37.109,0
214276.201,32.715,30.273,32.227,40.527,29.297,0
214276.205,38.086,31.738,30.273,49.316,5.371,0
214276.209,25.391,35.645,39.062,42.480,6.836,0
214276.212,17.578,34.668,36.621,33.203,16.602,0
214276.215,35.645,30.762,28.320,38.574,21.973,0
214276.219,49.316,35.156,28.320,53.223,14.648,0
214276.223,28.809,37.598,27.832,40.039,-3.418,0
214276.227,15.137,34.180,30.273,26.367,1.465,0
214276.231,28.320,31.738,33.203,33.691,10.742,0
214276.235,40.527,33.203,27.832,41.016,14.160,0
214276.239,33.203,35.156,24.902,36.133,12.695,0
214276.243,17.578,38.574,33.203,24.414,8.789,0
214276.247,18.066,35.156,35.645,23.926,22.461,0
214276.251,41.016,31.738,32.227,37.598,39.062,0
214276.254,42.969,29.785,26.855,42.480,39.062,0
214276.255,23.438,29.297,26.855,27.832,39.062,0
214276.259,21.973,29.785,32.227,23.926,58.105,0
214276.263,40.039,29.297,30.762,40.039,69.824,0
214276.267,46.387,35.156,25.391,47.363,53.223,0
214276.270,32.715,37.109,31.738,38.574,28.320,0
214276.274,29.297,35.645,37.598,31.738,28.320,0
214276.278,44.922,34.668,36.133,41.016,48.828,0
214276.282,47.852,32.715,37.598,49.316,41.504,0
214276.286,33.203,33.203,41.992,41.016,33.203,0
214276.290,25.879,37.109,44.434,34.668,49.316,0
214276.294,37.598,36.621,44.434,39.551,63.477,0
214276.298,51.758,32.227,39.551,51.270,56.641,0
214276.300,45.410,31.250,36.133,51.758,35.156,0
214276.304,29.785,33.203,37.598,36.133,37.109,0
214276.308,38.574,36.133,39.062,42.480,54.688,0
214276.312,66.406,36.621,41.504,69.336,62.988,0
214276.316,57.129,37.109,35.156,57.129,42.969,0
214276.320,23.926,44.922,25.879,20.020,12.207,0
214276.324,25.391,44.922,32.227,18.066,21.484,0
214276.327,40.039,37.598,42.969,32.227,31.738,0
214276.331,40.039,34.180,41.016,34.668,20.996,0
214276.335,28.320,35.156,32.227,28.809,26.367,0
214276.339,24.414,38.086,33.691,24.902,35.156,0
214276.343,39.551,37.109,36.621,33.203,50.293,0
214276.345,56.641,39.551,42.969,52.734,54.688,0
214276.349,45.410,43.457,50.781,55.176,42.969,0
214276.353,21.484,40.039,44.922,35.645,45.898,0
214276.357,23.438,32.715,40.039,34.180,50.781,0
214276.361,38.574,29.297,37.598,50.781,37.598,0
214276.365,35.156,35.645,35.156,48.828,20.020,0
214276.369,21.973,36.621,37.598,33.203,18.555,0
214276.373,28.320,34.180,36.133,30.762,31.250,0
214276.377,44.434,37.109,37.109,38.086,41.504,0
214276.380,44.922,40.039,41.504,40.527,37.109,0
214276.384,29.297,38.574,34.668,27.832,34.180,0
214276.388,19.531,35.645,32.227,19.531,43.945,0
214276.405,33.203,31.250,38.086,32.715,55.664,0
214276.409,46.387,31.250,42.969,44.922,58.105,0
214276.413,28.320,34.668,43.457,39.551,64.453,0
214276.417,19.043,34.668,41.992,32.227,52.734,0
214276.421,32.715,34.180,41.992,35.645,33.691,0
214276.425,42.969,34.668,43.457,43.945,38.086,0
214276.429,34.180,38.574,39.551,40.039,35.645,0
214276.433,16.113,34.668,35.156,25.391,29.785,0
214276.436,20.996,31.738,36.621,29.785,33.203,0
214276.440,40.527,34.180,41.016,46.387,33.691,0
214276.444,36.133,36.133,41.016,39.551,21.973,0
214276.448,17.578,34.180,34.668,25.391,8.301,0
214276.450,23.926,34.668,29.297,27.344,14.648,0
214276.454,41.016,35.645,28.809,33.203,6.836,0
214276.458,42.969,35.156,33.691,36.621,-7.324,0
214276.462,25.879,35.645,32.715,25.879,-2.441,0
214276.466,20.020,35.645,32.227,16.113,-0.977,0
214276.470,41.992,38.086,37.598,35.645,10.254,0
214276.474,47.363,38.574,35.645,42.969,15.137,0
214276.478,20.996,33.203,36.133,29.297,10.254,0
214276.482,16.113,28.320,39.062,29.297,31.738,0
214276.486,38.086,37.598,43.945,32.227,50.293,0
214276.489,43.945,46.387,43.945,31.738,36.133,0
214276.493,36.621,49.316,38.574,34.180,26.855,0
214276.495,21.484,46.387,36.621,25.879,14.648,0
214276.499,16.113,40.527,41.992,23.926,15.625,0
214276.503,38.086,41.504,45.410,37.109,28.809,0
214276.507,42.969,43.457,39.062,35.645,22.949,0
214276.511,26.855,42.480,30.762,23.926,30.273,0
214276.514,27.344,39.551,27.832,22.949,46.387,0
214276.518,42.969,39.551,35.645,32.715,40.527,0
214276.522,42.480,37.598,38.574,38.574,23.926,0
214276.526,26.855,39.062,34.180,29.785,17.578,0
214276.530,21.973,43.457,32.715,19.043,26.855,0
214276.534,34.668,41.504,31.738,29.297,34.668,0
214276.538,48.828,41.016,35.645,45.410,34.180,0
214276.539,39.551,41.992,35.156,38.574,29.785,0
214276.543,24.902,38.574,29.785,21.484,29.297,0
214276.547,32.715,37.109,28.809,25.879,42.969,0
214276.551,47.852,36.621,35.645,38.086,51.270,0
214276.555,41.504,39.551,40.527,37.109,37.109,0
214276.559,26.367,42.969,36.133,29.785,45.410,0
214276.563,30.762,42.480,30.762,31.738,58.594,0
214276.567,46.875,41.504,29.785,42.480,50.781,0
214276.571,43.945,39.551,32.227,44.434,40.039,0
214276.575,23.438,41.992,30.762,30.762,35.156,0
214276.578,18.066,42.969,31.250,19.043,31.738,0
214276.582,36.133,40.039,35.645,28.320,29.297,0
214276.585,43.457,41.016,37.109,38.086,22.461,0
214276.589,22.949,42.480,35.645,23.926,18.066,0
214276.593,13.672,42.969,38.574,10.742,21.973,0
214276.597,30.762,41.016,42.969,20.996,32.227,0
214276.601,41.992,41.016,42.480,31.738,26.367,0
214276.605,26.855,40.039,36.621,20.020,21.484,0
214276.609,9.277,37.598,27.344,4.883,28.320,0
214276.612,20.020,40.527,30.762,12.207,32.227,0
214276.616,38.574,43.457,41.016,30.273,25.391,0
214276.620,31.738,44.434,39.551,30.762,6.836,0
214276.624,16.602,43.945,35.156,17.090,8.301,0
214276.628,19.531,41.016,38.574,14.648,13.184,0
214276.629,34.668,36.133,46.875,24.902,14.160,0
214276.633,32.227,31.250,47.363,28.809,8.301,0
214276.637,18.555,35.156,41.992,20.996,17.578,0
214276.641,20.996,37.598,37.598,17.090,41.016,0
214276.645,39.551,36.133,34.668,29.297,46.387,0
214276.649,47.363,37.109,35.156,37.598,37.598,0
214276.653,29.785,37.109,36.621,27.832,37.109,0
214276.657,16.113,38.574,40.527,18.066,37.598,0
214276.661,28.320,41.504,41.992,24.902,40.527,0
214276.665,40.527,39.551,39.062,37.109,36.133,0
214276.668,28.320,38.086,39.062,33.203,27.832,0
214276.672,12.207,38.574,35.645,17.578,39.062,0
214276.676,16.113,34.180,37.109,19.043,39.062,0
214276.680,29.297,33.691,37.109,35.156,39.062,0
214276.684,25.391,35.156,38.086,32.227,30.762,0
214276.688,6.836,33.691,38.574,16.602,7.812,0
214276.692,11.230,36.621,29.785,14.648,14.160,0
214276.696,26.367,35.156,27.832,23.926,16.113,0
214276.699,25.879,32.715,32.715,27.832,4.883,0
214276.703,11.719,35.156,36.621,16.113,3.906,0
214276.707,9.766,40.039,40.039,15.137,16.602,0
214276.711,27.832,39.062,38.574,27.344,26.367,0
214276.715,36.621,36.621,36.621,39.062,17.578,1
214276.719,19.043,40.039,34.668,32.227,8.301,0
214276.735,9.277,41.504,31.738,15.625,13.672,0
214276.738,26.367,40.527,36.621,24.414,26.855,0
214276.742,45.410,42.480,40.527,41.504,35.645,0
214276.746,33.691,42.969,40.039,34.180,35.645,0
214276.750,12.695,41.016,33.203,21.484,38.574,0
214276.754,16.602,38.086,22.949,22.949,44.434,0
214276.758,32.715,36.621,25.879,33.203,31.738,0
214276.762,29.785,36.133,32.715,36.133,11.719,0
214276.766,14.160,35.645,34.668,28.320,19.043,0
214276.770,19.531,40.527,41.016,28.320,39.062,0
214276.774,41.504,40.039,39.551,40.039,45.898,0
214276.778,44.434,37.598,32.227,41.992,37.598,0
214276.780,22.461,40.039,31.250,28.809,23.926,0
214276.784,17.090,40.527,31.250,19.531,19.531,0
214276.788,39.062,39.062,30.762,30.762,30.273,0
214276.792,47.363,39.551,32.715,40.527,29.785,0
214276.796,30.273,41.016,34.668,29.785,25.879,0
214276.800,20.508,41.992,33.203,20.020,31.738,0
214276.804,28.809,39.551,33.203,27.344,37.109,0
214276.808,41.016,40.039,28.320,37.109,33.203,0
214276.812,32.715,42.480,29.297,33.691,28.809,0
214276.816,21.973,42.969,39.062,25.879,31.738,0
214276.820,29.785,43.945,40.527,28.809,29.785,0
214276.823,45.898,41.992,34.668,38.086,29.297,0
214276.825,43.945,40.039,34.668,39.062,22.949,0
214276.829,24.902,39.551,34.668,22.949,12.695,0
214276.833,22.949,38.574,38.086,19.043,24.902,0
214276.837,38.086,36.133,40.039,30.762,38.086,0
214276.841,37.598,32.715,36.621,34.668,34.668,0
214276.845,17.090,35.156,33.691,28.809,38.574,0
214276.849,8.789,33.203,34.668,22.949,39.062,0
214276.853,28.809,31.738,36.621,35.645,36.133,0
214276.856,46.875,39.062,36.133,51.758,31.250,0
214276.860,31.738,41.504,41.504,41.992,24.414,0
214276.864,11.719,38.574,43.457,20.996,23.926,0
214276.868,21.973,39.062,41.504,28.320,32.227,0
214276.870,41.016,41.016,42.969,47.852,41.992,0
214276.874,34.180,40.527,42.480,43.945,36.133,0
214276.878,15.625,37.598,41.016,28.809,33.203,0
214276.882,19.043,36.133,35.645,26.367,47.852,0
214276.885,37.598,37.598,35.645,38.086,58.594,0
214276.889,36.621,39.551,33.203,38.086,41.016,0
214276.893,18.066,41.992,35.156,25.879,40.039,0
214276.897,14.160,43.945,42.969,28.320,67.871,0
214276.901,33.691,39.551,40.039,40.527,59.082,0
214276.905,36.621,34.668,39.551,45.898,29.785,0
214276.909,15.137,36.621,40.527,36.133,34.180,0
214276.913,16.113,36.621,42.969,22.949,41.504,0
214276.915,29.785,31.738,49.316,28.320,31.250,0
214276.919,46.387,34.668,43.457,40.527,25.879,0
214276.923,34.180,37.598,33.691,33.691,25.391,0
214276.927,13.184,33.691,33.691,20.996,27.832,0
214276.931,18.066,32.227,39.551,23.438,38.574,0
214276.935,33.203,31.250,41.992,40.527,34.668,0
214276.938,31.250,33.203,45.898,47.363,19.043,0
214276.942,10.742,36.621,44.922,26.855,17.090,0
214276.946,12.695,36.133,39.551,14.648,19.043,0
214276.950,39.062,37.109,44.434,33.203,22.949,0
214276.954,44.922,37.598,44.922,37.598,33.203,0
214276.958,17.578,37.598,39.062,23.438,37.109,0
214276.961,18.555,37.109,39.551,22.949,45.410,0
214276.965,31.250,36.133,40.527,32.715,53.223,0
214276.969,41.016,37.109,42.480,40.527,43.945,0
214276.973,35.156,41.016,44.922,31.738,26.367,0
214276.976,19.043,42.480,42.969,22.949,26.367,0
214276.980,25.879,40.039,38.574,29.297,47.852,0
214276.984,47.363,38.574,35.156,39.551,41.992,0
214276.988,41.504,40.039,36.133,33.203,27.344,0
214276.992,16.602,39.062,46.387,18.555,36.133,0
214276.996,22.949,39.551,46.387,23.438,44.922,0
214277.000,43.945,41.504,44.922,41.016,44.922,0
214277.004,42.480,41.992,49.805,44.922,40.527,0
214277.006,30.273,41.992,50.293,33.203,27.344,0
214277.010,25.879,40.527,50.781,28.809,24.414,0
214277.013,43.945,41.992,47.363,42.480,40.527,0
214277.017,54.199,43.457,44.434,44.922,38.086,0
214277.021,31.250,41.992,41.016,33.691,34.180,0
214277.025,19.531,41.992,40.039,30.273,43.457,0
214277.029,31.738,38.574,40.039,37.109,42.480,0
214277.033,40.039,37.598,42.969,44.434,35.156,0
214277.037,31.250,39.062,46.875,34.668,35.156,0
214277.041,26.855,39.551,45.898,23.926,35.645,0
214277.045,30.762,41.016,43.457,25.391,33.203,0
214277.049,46.875,41.016,44.922,34.668,35.645,0
214277.050,41.992,37.598,44.434,37.598,31.738,0
214277.054,21.484,37.598,38.086,20.508,32.227,0
214277.058,21.973,42.480,37.109,15.137,24.902,0
214277.062,37.109,40.527,39.551,30.762,18.066,0
214277.066,33.691,37.598,41.992,31.250,6.348,0
214277.069,15.137,41.504,42.480,15.625,7.324,0
214277.073,13.672,39.551,43.457,10.254,24.902,0
214277.077,28.809,32.715,47.363,16.113,28.809,0
214277.081,36.621,35.156,43.945,22.949,27.344,0
214277.085,24.414,40.039,38.086,17.090,25.391,0
214277.089,13.184,37.109,39.551,5.859,27.832,0
214277.093,28.809,34.180,44.434,15.137,27.832,0
214277.110,46.387,41.504,49.805,33.691,15.625,0
214277.114,35.156,46.387,48.828,29.785,-3.906,0
214277.118,12.207,35.645,43.945,13.184,-1.953,0
214277.122,10.742,30.762,38.574,13.672,14.648,0
214277.126,28.320,32.227,39.551,30.762,22.949,0
214277.130,28.809,32.227,41.016,33.203,22.949,0
214277.133,12.695,35.645,43.457,17.578,10.254,0
214277.137,18.555,36.133,46.387,21.973,12.695,0
214277.141,38.086,34.180,46.387,37.109,20.996,0
214277.145,33.691,32.715,48.340,35.645,10.742,0
214277.149,17.578,33.203,44.922,22.949,12.695,0
214277.153,16.113,30.762,43.457,18.066,30.762,0
214277.155,31.738,26.367,44.434,29.785,42.969,0
214277.159,41.992,29.297,42.480,41.504,38.086,0
214277.163,28.320,33.691,46.875,32.227,25.391,0
214277.167,19.043,35.156,54.688,22.949,25.879,0
214277.170,41.504,36.621,48.828,34.180,39.062,0
214277.174,53.223,36.133,41.504,44.434,34.668,0
214277.178,22.461,36.133,41.504,34.180,17.090,0
214277.182,6.348,33.203,43.945,22.949,20.996,0
214277.186,20.508,32.715,51.758,29.297,38.086,0
214277.190,35.156,33.691,51.758,39.062,39.062,0
214277.194,29.297,38.086,49.316,37.109,31.738,0
214277.198,14.648,39.551,46.875,24.414,35.156,0
214277.201,13.184,35.156,38.574,15.625,33.203,0
214277.205,32.715,39.062,43.945,29.785,29.297,0
214277.209,39.551,44.922,54.688,37.109,24.414,0
214277.213,15.137,39.551,48.340,16.602,19.531,0
214277.217,7.324,35.156,43.945,6.348,25.391,0
214277.221,29.297,37.109,46.387,22.949,37.109,0
214277.224,44.922,40.527,46.387,38.574,38.574,0
214277.228,26.855,35.645,41.992,28.809,23.926,0
214277.232,7.812,30.273,41.992,11.719,24.902,0
214277.236,13.672,28.320,40.527,12.207,19.043,0
214277.240,24.902,29.297,46.387,24.902,7.324,0
214277.244,18.555,36.133,48.828,26.367,3.418,0
214277.245,9.277,38.574,43.457,16.602,10.742,0
214277.249,20.020,34.668,41.504,17.090,24.414,0
214277.253,43.945,33.691,40.039,36.133,38.086,0
214277.257,45.410,36.133,40.039,40.527,46.875,0
214277.261,18.555,27.832,34.668,19.043,34.180,0
214277.264,20.020,25.391,42.480,19.043,37.109,0
214277.268,40.039,27.344,50.781,33.691,49.316,0
214277.272,41.504,27.832,47.852,33.691,38.086,0
214277.276,21.973,28.320,46.875,20.020,25.391,0
214277.280,14.648,25.879,47.852,12.695,28.320,0
214277.284,38.574,28.320,53.711,32.227,50.293,0
214277.288,47.852,30.273,51.758,43.457,47.852,0
214277.290,26.367,26.367,41.504,25.879,32.227,0
214277.294,23.926,33.691,47.852,21.484,47.852,0
214277.298,32.715,38.086,43.945,27.832,39.062,0
214277.302,36.621,29.785,30.273,25.879,4.883,0
214277.306,28.320,27.832,32.227,18.555,1.953,0
214277.309,5.859,28.809,37.598,5.371,7.812,0
214277.313,19.531,36.133,46.387,14.160,32.715,0
214277.317,40.527,37.598,45.410,22.949,49.805,0
214277.321,33.691,34.668,37.598,19.043,42.969,0
214277.325,18.555,38.086,40.039,15.137,38.086,0
214277.329,23.926,39.062,40.039,15.625,37.109,0
214277.333,46.387,36.133,35.156,23.438,38.086,0
214277.335,57.617,35.645,38.086,30.762,35.156,0
214277.339,37.598,38.574,46.875,29.785,43.945,0
214277.343,20.020,38.574,51.270,25.391,53.223,0
214277.347,36.621,35.645,49.316,31.738,54.688,0
214277.350,49.805,38.086,43.457,43.457,51.270,0
214277.354,33.691,43.945,44.434,36.133,35.156,0
214277.358,19.043,43.945,51.270,25.391,33.691,0
214277.362,25.879,38.574,51.270,25.879,31.250,0
214277.366,38.574,36.133,47.363,34.668,13.672,0
214277.370,33.203,40.039,54.688,41.016,14.648,0
214277.374,15.137,39.551,52.734,25.391,19.043,0
214277.378,9.277,33.203,41.016,16.602,21.484,0
214277.380,30.762,31.738,39.551,30.273,32.227,0
214277.384,40.527,32.715,40.527,36.133,31.738,0
214277.388,25.879,37.109,51.758,30.762,36.133,0
214277.392,23.926,37.109,61.035,28.809,51.758,0
214277.396,35.645,33.691,61.035,36.133,41.504,0
214277.400,41.992,38.574,62.012,48.340,31.738,0
214277.403,21.973,33.691,50.293,37.109,27.832,0
214277.407,5.859,30.273,48.828,24.414,27.344,0
214277.411,28.320,38.086,60.547,39.062,37.109,0
214277.415,45.410,35.156,56.641,50.781,34.180,0
214277.419,28.320,31.250,47.363,32.227,20.996,0
214277.423,18.066,36.133,49.805,15.625,30.273,0
214277.427,36.133,36.133,55.176,24.414,43.945,0
214277.431,46.875,32.715,58.105,36.621,35.156,0
214277.434,30.273,27.832,56.152,28.809,16.113,0
214277.438,16.113,25.879,49.805,15.137,17.090,0
214277.442,20.996,27.344,45.898,21.484,29.297,0
214277.446,36.133,32.715,54.199,43.457,36.133,0
214277.450,45.898,37.109,58.594,47.852,37.598,0
214277.454,31.250,37.109,60.059,33.691,38.574,0
214277.458,8.789,28.809,62.012,22.461,33.203,0
214277.462,21.973,24.902,63.965,33.203,36.133,0
214277.466,42.480,32.715,60.059,48.828,25.879,0
214277.470,25.391,34.180,59.082,36.621,2.441,0
214277.485,9.766,28.809,61.035,20.996,8.301,0
214277.489,34.180,32.715,66.406,34.180,33.691,0
214277.493,57.617,36.621,72.754,55.664,50.781,0
214277.497,37.109,30.273,62.012,45.410,37.109,0
214277.500,17.578,24.414,53.711,28.320,27.344,0
214277.504,25.879,27.344,58.105,28.809,41.016,0
214277.508,37.598,31.738,61.523,38.574,41.992,0
214277.512,29.785,30.762,62.500,40.527,22.949,0
214277.516,13.184,33.203,68.359,28.320,12.695,0
214277.520,21.973,34.180,69.336,25.879,30.273,0
214277.524,38.086,32.715,64.453,38.086,42.969,0
214277.528,36.621,34.180,62.988,46.387,23.926,0
214277.530,26.367,36.133,63.965,40.527,16.602,0
214277.534,18.555,33.203,62.012,25.879,31.250,0
214277.538,23.926,28.809,56.152,24.414,37.598,0
214277.542,33.691,29.297,59.570,35.645,22.461,0
214277.546,24.414,31.738,66.406,32.715,3.906,0
214277.550,14.160,30.273,66.406,23.926,9.766,0
214277.554,24.414,24.414,57.617,28.809,25.391,0
214277.557,39.062,23.926,51.758,39.551,24.414,0
214277.561,31.738,27.832,58.105,34.668,26.855,0
214277.565,15.137,24.902,62.012,17.578,45.410,0
214277.569,23.926,23.926,62.012,19.531,38.574,0
214277.573,38.574,28.809,63.477,35.645,15.625,0
214277.575,34.668,34.180,64.941,38.086,0.977,0
214277.579,31.738,39.062,65.918,28.320,5.371,0
214277.583,20.508,30.273,56.641,16.113,17.090,0
214277.587,16.113,22.461,46.875,20.508,24.902,0
214277.590,36.621,29.297,53.711,33.691,33.203,0
214277.594,25.879,29.785,58.594,24.414,35.156,0
214277.598,11.719,27.344,51.758,11.719,41.504,0
214277.602,33.203,35.645,52.246,28.320,57.617,0
214277.606,48.340,38.086,61.035,41.016,51.758,0
214277.610,28.320,30.273,63.965,26.367,12.207,0
214277.614,13.184,27.832,58.105,9.277,0.977,0
214277.618,31.738,28.809,50.293,15.137,25.391,0
214277.620,47.852,29.297,46.875,35.645,26.367,0
214277.624,37.598,29.297,52.246,33.203,7.812,0
214277.627,23.926,34.180,61.523,25.391,22.461,0
214277.631,27.344,39.062,64.453,31.250,45.410,0
214277.635,41.992,32.715,69.336,38.086,25.391,0
214277.639,45.898,29.297,69.824,36.621,1.953,0
214277.643,19.043,29.297,61.523,20.996,1.465,0
214277.647,6.348,26.855,58.594,13.184,16.113,0
214277.651,34.180,28.320,56.641,32.227,37.109,0
214277.655,53.223,33.691,57.129,50.293,35.156,0
214277.659,33.203,34.668,58.105,40.039,34.668,0
214277.663,21.484,28.809,59.570,19.531,44.434,0
214277.665,38.574,33.691,65.918,30.762,46.875,0
214277.669,47.852,34.180,66.895,48.828,43.945,0
214277.673,28.809,27.344,61.035,34.180,20.996,0
214277.677,15.625,28.809,62.500,25.391,19.043,0
214277.681,29.297,29.297,63.477,32.227,41.504,0
214277.685,43.945,31.738,61.523,44.922,42.969,0
214277.689,35.645,29.785,50.293,44.434,23.926,0
214277.693,14.160,25.391,42.480,29.297,19.531,0
214277.697,13.672,25.879,48.828,25.391,29.297,0
214277.700,34.668,29.297,55.664,34.180,21.484,0
214277.704,37.109,30.273,57.129,37.598,3.418,0
214277.708,10.254,24.414,55.664,19.531,-4.395,0
214277.710,11.230,24.414,56.152,13.672,17.578,0
214277.714,40.039,31.738,53.223,34.668,41.992,0
214277.718,42.969,32.227,53.711,43.457,28.809,0
214277.722,27.344,31.738,52.734,25.391,15.137,0
214277.726,20.508,32.227,46.387,12.207,26.855,0
214277.729,28.809,29.297,45.410,14.648,36.621,0
214277.733,36.621,24.414,47.852,28.809,37.598,0
214277.737,32.227,25.879,44.434,30.273,26.367,0
214277.741,16.602,27.344,41.992,15.625,24.414,0
214277.745,22.949,30.273,48.340,19.531,49.805,0
214277.749,47.363,31.250,51.270,33.691,48.340,0
214277.753,41.992,31.250,53.223,37.598,33.203,0
214277.755,20.508,37.109,57.129,22.461,30.762,0
214277.759,20.508,38.086,56.641,17.578,27.832,0
214277.763,36.133,31.738,55.664,33.691,31.738,0
214277.767,44.434,29.785,54.688,39.062,26.855,0
214277.770,28.809,31.250,51.270,23.926,14.160,0
214277.774,11.719,29.297,49.805,15.137,26.367,0
214277.778,24.414,28.320,52.246,29.297,41.016,0
214277.782,35.645,30.273,53.223,42.969,33.691,0
214277.786,19.043,33.691,54.199,35.156,29.297,0
214277.790,5.859,33.691,54.688,23.438,31.250,0
214277.794,15.137,31.738,57.617,20.508,32.715,0
214277.798,43.945,32.227,63.477,28.809,30.273,0
214277.800,30.273,30.273,58.594,20.996,4.395,0
214277.804,-0.488,32.227,51.758,4.883,-6.836,0
214277.808,19.531,32.715,55.664,12.207,24.902,0
214277.812,39.062,28.809,62.988,32.227,31.738,0
214277.815,36.133,28.320,62.012,40.527,19.043,0
214277.819,35.156,29.297,57.129,31.738,25.391,0
214277.823,25.391,30.762,58.105,23.926,36.133,0
214277.827,19.531,26.367,62.988,24.902,33.203,0
214277.831,33.203,25.879,64.941,28.809,16.602,0
214277.835,16.113,28.320,56.641,20.020,3.418,0
214277.839,1.465,27.344,51.758,7.324,10.742,0
214277.843,23.926,24.902,50.781,16.602,22.949,0
214277.860,38.574,26.367,50.781,36.133,30.762,0
214277.864,27.832,33.691,53.223,35.156,29.297,0
214277.868,23.438,32.715,57.129,22.461,40.039,0
214277.871,23.926,26.855,58.594,29.297,53.711,0
214277.875,32.715,25.391,60.547,44.922,43.457,0
214277.879,22.461,25.391,58.105,35.156,20.020,0
214277.883,10.742,26.367,61.035,18.066,15.137,0
214277.887,27.344,30.762,64.941,20.508,34.180,0
214277.891,35.645,33.691,62.012,38.086,44.434,0
214277.895,44.922,38.574,65.918,52.734,41.016,0
214277.899,33.691,36.133,62.012,38.086,39.551,0
214277.903,17.090,24.414,48.340,20.996,40.527,0
214277.905,33.691,24.414,49.316,32.227,45.898,0
214277.909,48.828,29.785,53.223,42.480,44.922,0
214277.913,32.715,29.785,53.223,35.645,29.297,0
214277.917,21.484,30.273,53.711,29.297,24.902,0
214277.921,36.621,37.109,60.059,41.504,45.898,0
214277.924,44.922,32.715,56.152,47.852,41.992,0
214277.928,31.250,25.391,50.293,32.227,25.879,0
214277.932,17.090,26.367,56.152,18.066,37.109,0
214277.936,24.414,26.367,61.035,21.973,45.410,0
214277.940,49.316,28.320,57.617,34.668,37.109,0
214277.944,44.434,30.762,54.199,33.203,25.879,0
214277.948,24.414,37.109,59.570,27.832,35.645,0
214277.950,28.320,43.945,65.918,34.180,66.895,0
214277.954,35.156,33.691,55.664,37.598,63.477,0
214277.958,26.367,22.949,44.434,32.227,32.227,0
214277.962,15.625,28.320,50.781,22.461,26.367,0
214277.966,10.742,30.762,54.199,12.207,28.320,0
214277.969,27.344,27.344,55.176,17.090,32.227,0
214277.973,37.109,27.344,58.594,26.855,33.203,0
214277.977,17.090,26.855,52.734,17.578,24.414,0
214277.981,13.672,31.738,48.828,13.184,43.945,0
214277.985,33.691,35.645,53.711,23.438,52.246,0
214277.989,48.828,33.203,55.176,35.645,31.250,0
214277.993,38.574,35.156,56.152,35.645,28.320,0
214277.995,22.461,34.180,55.664,20.020,31.250,0
214277.999,32.715,26.367,54.688,20.020,42.969,0
214278.003,51.270,24.902,58.105,35.645,57.617,0
214278.007,41.992,31.738,57.617,41.016,34.668,0
214278.011,25.879,32.715,56.641,28.320,14.648,0
214278.014,23.438,29.297,58.105,21.973,34.180,0
214278.018,36.133,30.273,65.430,33.203,45.410,0
214278.022,51.270,31.738,69.336,37.109,26.855,0
214278.026,37.598,36.133,62.500,26.367,21.484,0
214278.030,22.461,35.156,55.176,16.602,30.762,0
214278.034,36.133,30.273,51.270,22.949,36.133,0
214278.038,46.875,35.645,49.805,39.551,35.156,0
214278.040,34.668,39.062,54.199,35.156,18.066,0
214278.044,25.391,35.645,55.176,19.043,17.090,0
214278.048,39.062,33.203,45.410,24.414,36.621,0
214278.052,64.453,33.691,44.922,42.480,41.504,0
214278.055,57.617,34.180,55.176,39.551,32.715,0
214278.059,25.879,34.180,62.012,24.414,38.574,0
214278.063,25.391,35.645,67.383,28.320,47.852,0
214278.067,55.664,33.691,63.477,39.551,35.156,0
214278.071,63.965,30.762,49.805,35.645,17.090,0
214278.075,12.207,29.297,46.875,23.438,20.508,0
214278.079,2.930,30.273,48.828,17.090,41.992,0
214278.083,26.367,28.320,46.387,26.367,49.805,0
214278.085,17.578,28.320,42.480,39.062,46.875,0
214278.089,-1.953,33.203,44.434,33.203,42.969,0
214278.093,-3.906,32.715,48.828,22.949,32.715,0
214278.097,24.902,31.738,50.781,26.367,22.461,0
214278.100,49.805,32.227,48.828,24.902,10.742,0
214278.104,34.668,29.785,44.922,16.113,3.906,0
214278.108,5.859,28.809,48.828,10.742,18.555,0
214278.112,24.902,32.227,53.223,20.508,45.898,0
214278.116,48.828,34.180,55.664,39.062,58.594,0
214278.120,28.809,30.273,51.270,36.133,37.598,0
214278.124,13.672,25.391,43.945,18.555,21.484,0
214278.128,23.926,27.344,45.410,16.602,22.949,0
214278.132,35.156,29.785,44.922,27.344,20.020,0
214278.136,32.227,27.832,39.062,32.227,16.113,0
214278.140,17.578,27.832,38.086,25.391,17.578,0
214278.144,19.043,29.297,46.387,19.043,20.508,0
214278.147,40.039,28.809,54.199,29.297,20.508,0
214278.151,41.992,27.344,57.129,36.621,20.996,0
214278.155,25.879,26.367,54.688,19.043,16.602,0
214278.159,19.043,29.297,55.664,8.301,21.484,0
214278.163,30.762,27.832,57.617,18.066,25.391,0
214278.167,40.039,22.461,48.340,31.738,6.348,0
214278.171,27.344,24.902,45.898,31.250,-4.395,0
214278.175,13.672,23.926,47.852,15.625,3.906,0
214278.176,32.715,21.973,48.828,19.043,29.297,0
214278.180,50.293,25.391,56.152,41.992,41.504,0
214278.184,29.297,24.902,54.688,41.504,35.156,0
214278.188,14.648,21.973,48.828,22.949,34.180,0
214278.192,21.484,20.020,52.734,19.043,32.715,0
214278.196,27.832,22.949,57.617,37.598,30.762,0
214278.200,28.809,25.391,55.176,43.457,18.555,0
214278.203,15.625,24.902,45.898,23.438,20.508,0
214278.207,16.113,27.344,45.410,24.414,46.875,0
214278.211,44.434,28.809,51.270,44.922,49.805,0
214278.215,47.363,23.438,49.316,45.898,22.461,0
214278.219,19.043,21.973,48.340,25.879,2.930,0
214278.220,5.859,21.484,48.340,10.254,10.254,0
214278.224,17.090,21.484,48.828,17.578,21.973,0
214278.228,35.645,23.926,47.852,32.227,20.508,0
214278.232,27.832,26.367,41.504,26.855,10.742,0
214278.235,12.207,27.832,42.969,17.578,24.414,0
214278.239,20.508,25.879,43.945,21.973,43.457,0
214278.243,41.016,26.855,41.016,35.156,43.457,0
214278.247,35.645,27.344,46.875,36.133,32.715,0
214278.251,10.742,24.414,51.270,21.484,26.855,0
214278.255,9.766,22.461,45.898,15.625,26.367,0
214278.259,30.762,23.926,42.969,29.785,27.344,0
214278.263,34.668,29.297,44.434,38.574,15.625,0
214278.280,24.414,34.668,48.340,26.367,10.254,0
214278.284,24.414,34.668,43.945,17.090,25.879,0
214278.288,38.574,26.367,41.016,27.344,43.945,0
214278.292,49.316,22.461,43.945,37.598,47.852,0
214278.295,26.855,22.949,44.922,31.738,32.227,0
214278.299,12.207,23.438,48.340,29.297,31.738,0
214278.303,20.996,25.391,44.922,36.133,24.414,0
214278.307,35.156,27.832,47.852,47.852,16.602,0
214278.311,32.227,30.273,47.363,43.945,13.184,0
214278.315,12.695,29.297,41.504,21.484,11.719,0
214278.319,13.672,28.320,46.875,17.578,25.879,0
214278.323,34.180,26.367,46.387,32.227,33.203,0
214278.325,36.621,26.367,40.039,34.668,15.625,0
214278.329,15.625,26.367,40.039,21.973,17.578,0
214278.333,14.648,24.902,40.039,18.066,34.668,0
214278.337,36.621,26.367,44.434,29.785,29.297,0
214278.340,38.574,29.297,48.340,37.109,7.812,0
214278.344,17.578,30.273,47.363,25.879,0.977,0
214278.348,7.324,27.344,42.480,13.184,15.625,0
214278.352,20.508,25.391,35.156,20.020,26.855,0
214278.356,42.480,26.367,33.203,32.715,29.785,0
214278.360,26.367,28.320,31.738,27.832,31.250,0
214278.364,1.953,26.855,25.879,16.113,16.113,0
214278.368,20.020,28.320,34.180,26.367,9.277,0
214278.370,35.645,33.691,46.875,42.480,10.254,0
214278.374,25.391,31.250,42.969,34.180,2.441,0
214278.378,5.859,27.832,39.062,18.066,12.207,0
214278.382,13.672,28.809,40.039,23.438,44.434,0
214278.386,33.203,26.367,40.039,36.133,42.480,0
214278.390,26.855,26.367,37.109,34.180,24.902,0
214278.394,19.531,33.691,38.086,24.902,37.109,0
214278.398,22.949,35.645,36.133,22.949,48.340,0
214278.401,31.250,33.203,27.832,27.344,42.969,0
214278.405,42.969,35.156,27.344,34.180,26.367,0
214278.409,30.762,33.691,26.367,27.344,20.508,0
214278.413,15.137,29.785,29.297,13.672,26.367,0
214278.416,31.738,29.785,38.574,21.484,38.574,0
214278.420,40.039,32.227,40.527,37.598,42.969,0
214278.424,26.367,37.598,36.621,38.574,34.668,0
214278.428,14.160,39.551,38.086,27.344,39.062,0
214278.432,23.438,35.156,36.133,26.855,50.781,0
214278.436,45.410,34.180,32.227,40.039,35.645,0
214278.440,34.668,30.762,32.715,36.133,5.371,0
214278.444,10.742,26.855,31.250,18.555,12.207,0
214278.448,20.020,27.344,33.203,17.090,34.668,0
214278.452,42.969,33.691,40.527,35.645,57.129,0
214278.456,41.016,38.086,39.551,43.457,51.270,0
214278.459,19.043,32.227,27.832,24.902,34.668,0
214278.460,10.254,29.297,22.949,16.602,22.949,0
214278.464,27.344,31.250,28.320,30.273,11.230,0
214278.468,38.574,33.203,34.180,40.039,15.625,0
214278.472,25.879,34.668,30.273,28.809,12.695,0
214278.475,19.043,37.109,27.344,14.648,25.391,0
214278.479,36.621,38.574,33.691,24.414,49.805,0
214278.483,49.805,38.086,41.016,41.016,43.945,0
214278.487,33.203,36.133,40.039,39.062,26.855,0
214278.491,14.160,31.250,29.785,23.438,25.391,0
214278.495,22.949,31.250,22.949,25.879,32.715,0
214278.499,44.434,34.180,28.320,45.410,38.574,0
214278.503,43.945,39.062,38.574,46.875,27.344,0
214278.505,24.414,39.551,37.598,31.738,29.785,0
214278.509,23.926,33.203,30.273,28.809,48.828,0
214278.513,45.410,32.227,35.645,43.945,45.410,0
214278.517,46.387,30.762,39.062,48.828,32.715,0
214278.520,23.926,27.832,38.574,33.691,32.227,0
214278.524,17.090,26.367,41.504,26.855,30.273,0
214278.528,31.250,25.879,34.668,33.203,38.086,0
214278.532,40.039,29.297,27.832,38.086,26.855,0
214278.536,28.320,32.715,25.391,31.738,8.789,0
214278.540,22.949,35.156,24.902,24.414,37.109,0
214278.544,39.551,36.621,31.250,28.809,57.129,0
214278.548,47.852,33.203,33.203,39.551,41.016,0
214278.550,40.527,30.273,32.227,39.062,34.180,0
214278.554,26.855,30.273,39.062,27.832,32.227,0
214278.558,19.531,28.320,40.527,24.414,27.832,0
214278.562,30.762,27.344,36.133,35.645,24.902,0
214278.565,26.367,27.344,32.715,41.016,17.090,0
214278.569,8.301,25.879,34.180,21.973,21.973,0
214278.573,8.301,24.414,33.691,13.184,34.668,0
214278.577,28.320,24.414,27.832,32.227,32.227,0
214278.581,41.016,32.227,32.715,51.758,35.156,0
214278.585,23.926,30.273,33.203,41.992,34.668,0
214278.589,7.324,20.020,32.227,21.973,28.320,0
214278.593,27.832,26.855,41.016,28.809,36.133,0
214278.610,40.527,31.738,37.109,35.645,23.438,0
214278.614,19.531,25.391,27.832,21.973,12.207,0
214278.618,6.348,26.367,26.855,5.859,19.531,0
214278.622,14.160,27.832,23.438,7.812,18.066,0
214278.625,33.203,29.785,25.879,27.344,21.484,0
214278.629,28.320,32.715,25.391,27.832,28.320,0
214278.633,9.277,31.250,22.949,10.254,31.250,0
214278.637,12.207,33.691,32.227,16.602,23.438,0
214278.641,27.832,32.227,34.180,35.156,11.719,0
214278.645,30.762,28.809,30.762,38.574,-1.465,0
214278.649,15.625,31.250,33.691,28.809,2.441,0
214278.653,14.648,29.785,33.203,20.020,18.555,0
214278.655,34.180,34.180,36.133,30.273,22.461,0
214278.659,40.527,34.668,37.598,38.574,23.438,0
214278.663,26.367,31.738,36.133,33.203,33.691,0
214278.666,20.508,38.574,38.086,29.785,45.898,0
214278.670,31.250,36.133,29.297,28.809,36.133,0
214278.674,40.039,29.785,24.414,33.691,24.414,0
214278.678,28.809,33.691,30.762,25.879,13.672,0
214278.682,15.137,34.668,35.645,12.207,20.508,0
214278.686,21.484,30.273,28.809,17.090,33.203,0
214278.690,36.621,32.227,25.879,31.738,34.180,0
214278.694,31.738,34.668,31.738,29.785,30.273,0
214278.698,18.555,36.133,34.668,18.066,30.273,0
214278.700,20.020,36.133,31.250,16.602,34.180,0
214278.704,32.227,37.109,27.344,25.391,24.414,0
214278.708,35.156,36.133,23.926,31.250,4.883,0
214278.712,17.090,34.180,22.461,20.020,1.953,0
214278.715,11.719,35.645,26.367,19.043,21.973,0
214278.719,30.273,32.227,31.250,39.551,35.645,0
214278.723,38.574,30.762,38.086,45.898,42.480,0
214278.727,23.926,35.645,38.086,29.297,47.852,0
214278.731,10.254,33.691,39.062,15.625,33.203,0
214278.735,18.555,29.785,42.480,21.973,28.809,0
214278.739,32.715,30.762,34.668,37.109,27.832,0
214278.743,21.484,30.273,28.809,31.250,3.906,0
214278.745,6.836,28.809,29.785,20.996,-1.953,0
214278.749,14.648,27.832,31.250,25.391,24.902,0
214278.753,40.039,31.250,38.086,46.387,49.805,0
214278.757,40.039,33.691,42.969,50.781,37.598,0
214278.760,16.113,30.273,36.621,30.273,22.949,0
214278.764,17.090,30.762,34.180,24.414,26.855,0
214278.768,33.203,28.809,35.645,33.203,27.344,0
214278.772,35.645,31.250,32.715,34.180,16.602,0
214278.776,21.973,34.180,30.273,21.973,15.625,0
214278.780,14.648,33.203,30.273,18.066,26.367,0
214278.784,27.832,33.203,28.320,31.250,29.297,0
214278.788,39.551,34.668,28.809,43.457,25.879,0
214278.790,27.832,39.062,29.297,38.574,20.020,0
214278.794,16.602,38.574,27.832,27.832,32.715,0
214278.798,22.461,32.715,25.391,29.785,41.504,0
214278.802,36.133,35.645,26.855,41.992,32.715,0
214278.805,28.809,36.621,29.785,37.109,22.949,0
214278.809,14.160,33.691,34.180,21.484,26.855,0
214278.813,17.090,31.250,35.645,28.320,45.898,0
214278.817,38.086,30.762,35.645,49.805,41.992,0
214278.821,43.945,35.156,31.738,50.293,25.391,0
214278.825,15.625,27.832,22.949,25.391,28.809,0
214278.829,8.301,22.949,21.973,16.602,19.531,0
214278.833,29.297,27.344,20.508,24.414,23.926,0
214278.835,36.133,29.785,22.461,31.250,24.902,0
214278.839,19.531,28.320,31.738,25.879,5.859,0
214278.843,12.207,29.785,38.086,13.672,17.090,0
214278.847,27.832,30.273,40.039,24.902,36.133,0
214278.851,43.457,32.227,38.574,41.504,32.715,0
214278.854,27.344,32.227,29.297,31.738,28.320,0
214278.858,8.301,28.809,25.391,19.531,28.320,0
214278.862,17.578,30.273,25.879,22.461,32.715,0
214278.866,33.203,28.809,23.438,33.203,29.785,0
214278.870,27.832,28.320,23.438,30.762,15.137,0
214278.874,13.184,32.715,31.738,18.066,21.484,0
214278.878,16.602,32.227,34.668,17.090,36.133,0
214278.882,32.227,27.832,31.738,27.344,26.367,0
214278.886,30.762,26.855,29.297,28.320,12.695,0
214278.889,13.184,28.809,20.996,15.137,17.578,0
214278.893,14.160,29.785,21.973,10.742,26.367,0
214278.897,30.762,28.809,28.809,22.461,21.484,0
214278.901,38.574,32.227,27.832,33.203,17.578,0
214278.905,24.902,36.133,23.438,27.832,35.645,0
214278.909,16.602,34.180,23.926,22.949,42.480,0
214278.913,32.715,33.203,26.367,37.109,32.227,0
214278.917,41.016,30.273,32.715,41.016,29.785,0
214278.921,24.414,27.832,35.645,24.902,28.809,0
214278.925,9.277,28.809,29.297,13.184,36.133,0
214278.925,18.066,27.344,25.391,18.555,42.480,0
214278.929,38.086,29.297,25.391,36.133,44.922,0
214278.933,35.156,31.250,27.832,36.133,18.066,0
214278.937,21.484,32.227,31.738,21.973,24.414,0
214278.940,25.879,33.203,32.715,26.367,60.547,0
214278.944,38.574,29.785,30.273,42.480,36.621,0
214278.948,36.133,28.809,37.109,45.898,11.719,0
214278.952,19.531,33.691,35.645,31.738,42.480,0
214278.956,17.578,33.203,27.832,22.461,39.551,0
214278.960,34.668,30.762,35.156,33.203,-5.859,0
214278.964,42.969,34.180,36.621,39.062,-8.301,0
214278.968,26.855,29.785,30.273,31.738,4.395,0
214278.985,14.160,23.926,25.879,22.461,20.508,0
214278.989,30.273,27.344,26.367,30.762,41.504,0
214278.993,44.434,25.879,25.879,45.898,40.527,0
214278.997,31.738,25.391,26.855,41.992,32.227,0
214279.000,17.090,30.762,27.832,30.762,37.109,0
214279.004,26.855,32.715,34.180,36.621,44.434,0
214279.008,44.922,33.203,37.598,52.734,44.922,0
214279.012,38.086,28.320,28.320,44.922,33.203,0
214279.016,21.973,24.902,28.809,22.461,35.156,0
214279.020,25.391,30.273,31.250,19.531,48.340,0
214279.024,42.480,33.203,28.320,29.785,47.852,0
214279.028,46.387,33.691,31.738,32.227,32.715,0
214279.030,33.203,36.133,34.668,24.902,32.715,0
214279.034,29.785,40.527,35.645,20.996,47.852,0
214279.038,36.133,40.039,36.133,26.855,38.086,0
214279.042,41.504,35.645,29.297,35.156,22.461,0
214279.045,30.762,37.109,21.973,27.344,38.086,0
214279.049,20.996,39.062,24.414,19.531,50.781,0
214279.053,32.715,35.156,27.832,28.809,42.480,0
214279.057,44.922,34.180,28.320,39.551,27.344,0
214279.061,39.551,37.598,32.227,40.527,23.926,0
214279.065,25.879,38.574,37.109,30.762,33.691,0
214279.069,32.715,38.086,32.227,26.855,34.180,0
214279.073,49.316,36.133,27.832,34.668,24.414,0
214279.075,42.480,33.691,31.250,31.250,9.277,0
214279.079,21.484,34.668,21.973,19.043,14.648,0
214279.083,19.531,34.180,15.137,19.043,31.250,0
214279.087,36.133,31.250,23.438,32.715,35.645,0
214279.091,45.898,31.738,26.855,43.457,36.621,0
214279.094,30.273,34.180,29.297,29.297,33.691,0
214279.098,14.648,32.227,29.785,11.230,27.832,0
214279.102,28.809,28.809,33.203,19.043,36.621,0
214279.106,42.969,27.344,32.227,31.250,38.574,0
214279.110,25.391,30.273,32.227,26.367,20.020,0
214279.114,11.230,33.691,32.715,18.066,35.645,0
214279.118,28.809,34.180,24.414,28.809,65.430,0
214279.120,43.457,33.691,21.973,41.016,45.410,0
214279.124,32.715,31.738,20.508,32.227,17.090,0
214279.128,15.625,31.738,18.066,15.137,15.137,0
214279.132,17.578,29.785,29.785,11.230,24.414,0
214279.135,32.227,29.297,40.039,22.461,21.973,0
214279.139,35.156,36.133,40.039,29.297,2.930,0
214279.143,21.484,35.156,34.668,17.578,4.883,0
214279.147,22.461,31.738,28.320,11.719,25.879,0
214279.151,37.598,35.645,26.367,25.391,38.086,0
214279.155,31.250,31.250,27.344,31.738,36.133,0
214279.159,17.578,29.785,23.926,23.438,36.133,0
214279.163,15.137,36.621,26.855,15.137,25.391,0
214279.165,22.949,35.156,29.785,20.996,20.020,0
214279.169,37.109,32.715,30.762,34.180,19.531,0
214279.173,25.879,35.156,35.156,29.785,19.043,0
214279.177,8.301,33.203,35.645,15.625,26.855,0
214279.181,18.555,31.250,34.668,20.508,37.598,0
214279.185,36.621,30.762,33.691,33.203,41.504,0
214279.189,32.227,29.297,32.227,34.180,26.855,0
214279.193,20.020,32.227,32.227,20.020,17.090,0
214279.197,24.902,37.598,32.715,13.672,29.785,0
214279.201,42.969,38.086,34.668,29.785,27.832,0
214279.204,45.898,37.598,34.180,36.133,10.254,0
214279.208,29.297,39.551,31.250,24.414,17.578,0
214279.210,20.996,34.668,21.973,17.090,35.645,0
214279.214,34.668,33.203,27.832,32.227,43.457,0
214279.218,45.898,33.203,37.598,49.805,42.480,0
214279.222,36.621,39.551,39.062,42.480,33.691,0
214279.225,24.414,41.504,41.992,25.391,29.785,0
214279.229,29.785,35.156,37.109,27.832,32.227,0
214279.233,38.086,34.668,36.133,40.527,20.020,0
214279.237,20.996,31.738,30.273,33.203,8.301,0
214279.241,3.906,28.320,27.344,19.043,18.555,0
214279.245,18.555,33.203,30.273,22.461,36.621,0
214279.249,39.062,37.598,33.691,33.691,32.227,0
214279.253,28.809,35.156,35.156,29.297,16.113,0
214279.255,15.625,36.621,39.551,19.043,27.832,0
214279.259,22.461,39.551,45.410,20.020,44.434,0
214279.263,31.738,34.180,38.086,25.879,27.832,0
214279.267,33.691,30.762,36.621,28.320,6.348,0
214279.270,21.484,34.180,44.922,26.855,12.695,0
214279.274,15.137,35.645,43.945,24.414,29.785,0
214279.278,29.297,33.691,44.434,35.156,43.945,0
214279.282,41.992,33.691,43.457,47.363,43.945,0
214279.286,31.250,37.598,29.297,40.527,41.992,0
214279.290,13.672,31.738,23.926,22.949,36.133,0
214279.294,22.461,26.367,30.762,25.391,38.086,0
214279.298,39.551,29.297,35.645,42.969,38.086,0
214279.300,31.250,30.762,37.109,44.434,29.297,0
214279.304,16.602,33.691,37.598,30.273,36.133,0
214279.308,22.461,34.180,36.621,35.156,42.480,0
214279.312,43.457,37.109,35.645,48.340,38.086,0
214279.315,42.480,39.062,36.133,43.457,30.273,0
214279.319,25.391,35.645,30.762,29.297,25.391,0
214279.323,24.902,38.574,25.879,23.438,33.203,0
214279.327,40.039,36.621,32.227,32.715,33.691,0
214279.331,44.922,32.715,38.086,37.109,17.090,0
214279.335,26.367,35.156,35.645,29.297,15.625,0
214279.339,20.508,37.109,34.180,21.973,33.203,0
214279.343,34.668,34.180,34.180,26.367,44.434,0
214279.346,49.316,36.133,38.086,40.039,41.992,0
214279.350,37.598,37.109,36.133,34.668,37.598,0
214279.354,15.625,30.762,30.762,15.137,26.855,0
214279.358,23.438,29.297,32.227,23.926,26.367,0
214279.362,40.527,27.832,35.645,39.062,30.273,0
214279.366,35.156,29.785,38.574,33.691,20.996,0
214279.369,17.090,32.715,35.156,26.855,29.785,0
214279.373,19.531,33.691,31.250,29.785,49.316,0
214279.377,39.551,34.668,30.762,44.922,45.410,0
214279.381,41.504,35.645,32.715,51.270,25.879,0
214279.385,21.973,33.691,31.738,33.691,25.391,0
214279.389,18.555,32.715,30.273,18.555,38.086,0
214279.406,38.574,35.156,28.809,21.484,36.621,0
214279.410,47.852,36.133,31.738,31.250,23.926,0
214279.414,31.738,37.598,38.574,24.414,22.461,0
214279.418,23.926,37.598,40.527,16.602,33.691,0
214279.422,39.062,35.645,34.668,25.391,35.156,0
214279.426,51.758,38.086,25.391,37.598,33.203,0
214279.430,36.133,40.039,26.855,30.762,34.668,0
214279.433,18.555,38.086,29.297,19.531,37.598,0
214279.437,27.832,36.621,30.273,26.367,36.133,0
214279.441,42.969,36.621,36.133,38.086,22.461,0
214279.445,38.574,38.086,32.715,37.109,14.648,0
214279.449,25.879,35.156,31.250,23.926,21.973,0
214279.450,30.273,33.691,39.062,22.461,34.668,0
214279.454,47.852,33.203,39.551,34.180,41.992,0
214279.458,47.363,31.738,33.203,34.668,36.621,0
214279.461,27.832,34.180,30.273,24.414,32.715,0
214279.465,20.020,34.668,31.738,20.996,41.504,0
214279.469,33.203,32.715,32.227,34.180,49.805,0
214279.473,42.969,35.156,33.691,42.480,34.180,0
214279.477,22.949,33.203,31.738,23.926,14.160,0
214279.481,13.672,29.785,34.180,11.719,23.438,0
214279.485,37.109,35.156,39.551,24.414,50.781,0
214279.489,43.457,35.645,40.039,35.156,52.246,0
214279.493,24.414,29.785,38.086,27.832,17.578,0
214279.495,14.160,30.273,37.109,16.113,4.883,0
214279.499,19.531,30.762,36.133,17.090,20.508,0
214279.503,38.574,29.297,33.203,35.156,20.996,0
214279.507,39.062,30.273,32.715,43.457,12.207,0
214279.510,22.949,33.691,27.832,32.715,14.160,0
214279.514,31.738,36.621,28.320,30.762,38.574,0
214279.518,57.129,38.574,39.062,43.945,55.176,0
214279.522,51.270,35.156,39.062,43.457,38.574,0
214279.526,24.902,34.668,35.156,28.809,37.598,0
214279.530,20.996,33.691,35.645,20.020,40.527,0
214279.534,38.086,31.738,37.109,28.809,28.809,0
214279.538,49.316,34.180,35.156,42.480,24.414,0
214279.541,34.180,35.156,30.273,37.598,21.973,0
214279.545,23.438,36.133,30.273,29.297,32.715,0
214279.548,36.133,33.691,28.320,35.645,45.410,0
214279.552,52.246,33.203,33.691,52.246,47.852,0
214279.556,45.410,35.645,41.504,53.711,43.457,0
214279.560,25.391,33.203,39.551,34.180,39.551,0
214279.564,26.855,32.227,39.551,32.715,47.852,0
214279.568,36.621,26.855,35.156,45.410,47.363,0
214279.572,35.156,26.855,27.832,39.551,30.273,0
214279.576,28.320,35.156,25.879,27.344,27.832,0
214279.580,26.855,34.668,28.809,28.809,39.062,0
214279.584,37.598,32.715,28.320,36.133,33.203,0
214279.585,42.969,35.645,31.738,40.527,30.273,0
214279.589,23.926,36.621,30.273,32.227,26.855,0
214279.593,16.113,34.668,25.391,22.949,33.203,0
214279.597,31.738,31.738,33.203,30.762,44.434,0
214279.600,44.434,28.320,42.969,39.551,33.203,0
214279.604,32.715,28.809,42.480,32.227,23.926,0
214279.608,18.555,30.273,36.621,18.555,41.504,0
214279.612,27.832,30.762,37.109,20.020,56.152,0
214279.616,43.945,33.691,39.062,37.598,47.363,0
214279.620,39.551,33.691,39.062,38.086,32.715,0
214279.624,20.996,34.668,36.133,28.320,20.508,0
214279.628,23.438,32.715,34.668,28.809,24.902,0
214279.631,42.969,32.227,30.762,40.039,28.809,0
214279.635,44.434,34.180,29.785,45.898,23.438,0
214279.639,24.902,32.227,35.156,28.320,26.855,0
214279.643,15.625,29.297,37.109,18.066,33.691,0
214279.647,34.180,28.809,40.527,31.250,40.527,0
214279.651,45.898,28.809,43.945,41.992,47.363,0
214279.655,27.832,32.227,40.527,31.250,43.457,0
214279.659,13.672,32.715,34.180,18.555,31.738,0
214279.663,27.832,30.762,32.715,25.879,19.043,0
214279.667,44.434,33.203,30.273,39.551,11.230,0
214279.671,33.691,35.645,33.691,40.039,32.227,0
214279.674,17.578,33.691,30.273,29.785,47.852,0
214279.675,24.902,30.273,28.320,28.809,50.293,0
214279.679,43.945,31.250,34.668,46.875,50.781,0
214279.683,41.016,33.691,38.574,48.340,21.973,0
214279.687,21.484,34.668,42.969,31.250,2.930,0
214279.690,20.996,33.203,36.133,25.879,17.090,0
214279.694,41.016,35.645,33.203,36.133,33.203,0
214279.698,43.457,34.668,28.320,39.551,29.297,0
214279.702,23.438,30.762,24.902,27.344,27.832,0
214279.706,17.578,30.762,26.367,23.926,39.551,0
214279.710,38.574,33.203,26.367,38.086,46.387,0
214279.714,47.852,34.668,26.855,45.898,47.363,0
214279.718,30.273,35.645,32.227,32.715,38.574,0
214279.735,20.996,35.156,33.691,22.949,45.898,0
214279.739,34.668,32.715,33.691,30.273,59.570,0
214279.743,46.387,35.156,41.992,42.969,47.852,0
214279.746,33.691,34.180,38.574,35.645,32.227,0
214279.750,21.973,30.762,31.250,26.367,34.180,0
214279.754,31.738,31.738,36.621,36.133,40.039,0
214279.758,42.969,34.668,38.574,48.340,41.016,0
214279.762,34.180,32.715,31.250,45.898,38.574,0
214279.766,22.461,33.691,34.668,36.133,34.180,0
214279.770,24.902,34.668,39.551,32.715,33.691,0
214279.774,36.133,29.785,30.273,32.715,30.762,0
214279.778,43.457,32.715,25.879,29.785,22.461,0
214279.780,35.156,36.133,33.203,22.949,25.391,0
214279.784,29.297,39.551,35.645,22.461,41.992,0
214279.788,42.969,42.480,34.668,35.645,56.152,0
214279.792,48.340,36.621,31.738,45.410,40.039,0
214279.795,32.227,36.621,26.855,35.645,25.391,0
214279.799,25.391,45.898,28.320,23.438,33.691,0
214279.803,34.668,40.527,30.273,25.391,40.039,0
214279.807,41.992,33.203,29.297,35.156,27.832,0
214279.811,30.762,32.715,34.180,32.715,16.113,0
214279.815,20.508,35.156,32.227,21.484,28.809,0
214279.819,25.391,35.645,31.250,24.902,45.410,0
214279.823,39.062,34.668,37.598,41.504,59.082,0
214279.825,43.945,39.062,40.527,44.922,49.316,0
214279.829,24.902,37.109,41.504,34.668,27.832,0
214279.833,16.602,33.691,38.086,24.902,14.648,0
214279.837,37.598,36.621,37.598,33.203,19.043,0
214279.840,46.387,35.156,35.156,40.039,33.203,0
214279.844,28.320,33.691,31.738,26.367,35.645,0
214279.848,19.043,33.691,34.180,17.090,31.738,0
214279.852,34.668,34.180,37.109,30.273,53.223,0
214279.856,47.363,34.180,32.715,38.086,56.641,0
214279.860,31.738,30.762,23.926,29.297,29.785,0
214279.864,21.484,31.738,28.320,28.320,49.805,0
214279.868,32.227,33.203,35.645,36.133,60.059,0
214279.872,46.875,32.715,35.645,48.340,41.504,0
214279.876,41.504,34.180,30.273,45.410,33.691,0
214279.880,25.879,38.086,29.297,33.203,26.855,0
214279.884,26.855,41.016,37.598,30.273,28.809,0
214279.887,43.945,38.086,40.039,41.504,32.227,0
214279.891,46.387,36.621,37.109,41.504,22.949,0
214279.895,24.902,33.691,31.738,20.020,14.648,0
214279.899,20.996,31.738,24.414,14.648,20.996,0
214279.903,41.992,32.227,19.531,24.902,36.133,0
214279.907,50.293,32.715,20.508,28.809,35.645,0
214279.911,32.715,32.227,29.297,22.461,11.719,0
214279.915,23.438,33.691,37.598,22.949,8.789,0
214279.915,33.203,34.180,38.086,27.832,28.320,0
214279.919,40.039,31.738,35.645,34.668,28.809,0
214279.923,26.367,29.785,29.297,24.902,16.113,0
214279.927,14.648,29.785,25.879,14.160,30.762,0
214279.931,28.809,35.156,34.180,22.949,36.133,0
214279.935,45.410,37.109,34.180,35.156,28.809,0
214279.939,41.504,36.621,31.250,38.574,20.996,0
214279.943,26.367,35.156,33.691,26.367,22.461,0
214279.947,26.855,32.227,33.691,17.090,38.086,0
214279.950,44.434,32.227,34.180,25.879,41.016,0
214279.954,49.316,34.180,32.227,37.109,31.250,0
214279.958,31.250,34.180,31.250,26.367,25.391,0
214279.962,22.461,32.227,31.738,16.113,26.855,0
214279.966,35.645,31.250,33.203,26.367,28.320,0
214279.970,42.969,33.203,33.203,34.668,24.414,0
214279.974,30.273,35.645,33.691,28.320,30.762,0
214279.978,19.043,32.715,34.180,15.625,23.926,0
214279.982,29.785,30.762,34.180,20.508,17.578,0
214279.986,48.340,30.762,36.133,35.645,28.809,0
214279.990,39.551,28.809,32.227,35.156,25.391,0
214279.994,23.926,31.250,26.367,22.461,30.762,0
214279.997,36.133,35.645,32.227,28.809,52.246,0
214280.001,56.641,34.180,39.551,48.828,52.246,0
214280.005,46.875,31.738,40.039,46.387,35.156,0
214280.005,22.461,28.320,37.598,27.344,27.344,0
214280.009,25.879,25.391,36.621,27.832,26.367,0
214280.013,44.922,28.320,33.203,37.598,32.715,0
214280.017,39.062,37.109,28.809,29.785,6.836,0
214280.020,22.461,45.410,22.949,16.602,-5.371,0
214280.024,14.648,42.480,26.367,14.160,15.137,0
214280.028,25.879,35.645,37.598,24.414,22.461,0
214280.032,37.598,38.086,37.109,32.227,20.508,0
214280.036,27.344,40.039,40.039,31.250,20.996,0
214280.040,25.879,39.062,38.574,27.832,24.414,0
214280.044,35.156,36.621,33.691,29.297,34.668,0
214280.048,44.922,33.691,31.738,39.551,39.062,0
214280.050,38.086,34.668,34.180,38.574,38.574,0
214280.054,22.461,36.133,39.062,25.391,42.480,0
214280.058,28.809,36.621,36.621,27.344,52.734,0
214280.062,45.898,35.156,33.691,41.016,51.270,0
214280.066,40.039,35.156,28.320,42.969,35.645,0
214280.070,22.949,38.086,28.320,30.273,34.180,0
214280.074,19.043,37.109,33.691,21.973,29.297,0
214280.078,35.156,37.109,38.086,32.715,33.691,0
214280.082,45.410,40.527,36.621,44.434,34.180,0
214280.086,23.926,36.621,28.809,29.785,27.344,0
214280.089,16.602,33.691,30.273,15.137,36.621,0
214280.093,35.156,36.133,33.203,27.344,47.363,0
214280.097,43.945,34.668,36.621,41.016,33.203,0
214280.101,28.320,31.250,39.551,33.691,12.695,0
214280.105,14.648,30.273,31.738,18.555,16.602,0
214280.109,23.438,28.320,26.855,16.113,18.555,0
214280.113,44.434,30.762,38.086,37.109,22.949,0
214280.116,35.645,32.227,38.574,40.527,18.555,0
214280.120,10.742,31.738,26.855,17.090,17.090,0
214280.124,18.066,33.203,21.973,15.137,29.297,0
214280.128,41.504,35.645,24.902,34.180,42.480,0
214280.132,41.016,36.133,26.367,36.133,36.621,0
214280.136,25.391,31.250,33.203,24.414,33.203,0
214280.140,24.902,28.320,39.062,22.949,37.109,0
214280.155,41.504,28.809,35.156,35.156,34.668,0
214280.159,47.852,29.297,32.715,43.457,32.715,0
214280.163,32.227,31.738,37.109,32.715,30.762,0
214280.167,19.531,36.621,35.645,21.484,35.645,0
214280.171,22.949,34.180,29.785,26.855,37.109,0
214280.175,31.738,31.250,30.762,38.086,27.832,0
214280.179,17.090,29.297,31.250,30.762,10.742,0
214280.183,6.348,31.250,37.109,19.043,7.812,0
214280.187,19.531,32.227,44.434,28.320,19.043,0
214280.190,38.086,31.250,43.457,44.922,22.461,0
214280.194,38.086,33.203,44.434,44.922,16.602,0
214280.198,21.484,33.203,46.387,28.320,21.973,0
214280.200,21.973,33.691,38.574,23.438,43.457,0
214280.204,40.039,39.062,33.691,37.598,52.734,0
214280.208,37.109,35.645,34.180,41.504,24.414,0
214280.212,19.043,31.250,30.762,23.438,8.789,0
214280.215,15.625,34.668,27.832,16.113,15.625,0
214280.219,28.320,35.156,20.020,28.320,22.949,0
214280.223,36.133,34.668,22.461,37.109,20.996,0
214280.227,23.438,35.645,38.086,35.156,18.555,0
214280.231,16.113,36.621,41.504,27.344,32.715,0
214280.235,30.273,38.086,46.387,29.297,41.504,0
214280.239,46.875,38.574,51.270,42.480,44.434,0
214280.243,36.133,32.227,41.504,35.156,33.691,0
214280.244,19.531,31.250,37.598,18.555,31.250,0
214280.248,28.320,35.645,39.551,23.926,43.945,0
214280.252,44.434,35.645,34.668,37.598,48.340,0
214280.256,39.062,35.645,31.250,37.109,38.086,0
214280.260,19.531,35.645,28.809,25.879,18.066,0
214280.264,19.531,34.180,32.715,21.484,12.207,0
214280.268,39.551,33.691,39.551,32.227,24.902,0
214280.272,42.480,35.645,37.598,38.086,24.414,0
214280.276,22.949,38.574,38.086,24.414,22.949,0
214280.280,14.648,40.527,41.504,20.996,38.086,0
214280.283,25.391,34.180,38.086,32.715,35.156,0
214280.287,35.156,29.785,34.180,41.016,19.531,0
214280.289,25.391,31.738,33.691,35.645,16.113,0
214280.293,12.207,35.156,30.762,25.391,25.879,0
214280.297,23.438,33.203,32.715,27.832,45.898,0
214280.301,42.480,31.738,38.086,42.480,45.898,0
214280.305,36.621,32.227,34.668,37.109,21.973,0
214280.309,25.879,35.645,33.203,21.973,24.414,0
214280.313,29.785,38.574,35.645,20.020,41.504,0
214280.317,41.504,36.133,30.762,32.227,37.598,0
214280.321,38.574,34.180,32.227,38.086,33.691,0
214280.325,18.066,36.133,31.250,23.926,42.480,0
214280.328,20.996,36.621,27.344,17.578,51.270,0
214280.332,41.504,31.738,25.391,31.250,42.480,0
214280.335,43.945,32.227,25.391,46.875,35.156,0
214280.339,29.297,38.574,30.273,36.133,40.527,0
214280.343,21.973,37.598,30.273,24.902,56.152,0
214280.347,38.086,36.621,31.738,37.109,64.941,0
214280.351,56.641,41.016,33.691,53.223,52.734,0
214280.355,40.527,40.527,29.297,41.992,26.367,0
214280.358,19.043,39.551,28.320,24.902,23.438,0
214280.362,26.855,40.527,34.668,30.273,39.551,0
214280.366,40.039,37.598,37.598,38.574,33.203,0
214280.370,33.691,37.598,35.156,32.227,29.785,0
214280.374,21.484,38.574,33.203,20.020,35.156,0
214280.378,24.902,35.645,27.832,18.555,32.227,0
214280.380,44.434,35.156,22.949,30.762,29.785,0
214280.384,48.828,35.645,26.367,39.551,30.762,0
214280.388,30.762,37.109,35.645,28.320,36.133,0
214280.392,29.297,38.574,45.410,23.926,50.781,0
214280.396,46.387,36.621,43.457,35.156,53.711,0
214280.400,45.898,31.738,30.762,40.527,39.551,0
214280.404,23.438,28.320,30.762,29.785,33.691,2
214280.408,9.766,25.391,30.762,16.113,39.062,0
214280.412,20.996,24.414,25.879,25.879,43.945,0
214280.416,34.180,27.344,25.879,40.039,34.180,0
214280.420,25.391,34.180,31.738,32.227,10.742,0
214280.423,17.578,39.062,37.109,20.508,17.090,0
214280.425,29.785,36.621,39.062,25.879,41.016,0
214280.429,48.340,38.086,39.062,38.574,32.715,0
214280.433,44.434,39.062,37.598,37.109,19.043,0
214280.436,23.926,35.156,33.203,23.926,20.020,0
214280.440,20.996,33.203,30.273,19.043,22.949,0
214280.444,40.039,32.227,32.227,38.574,31.250,0
214280.448,45.898,34.668,37.598,48.340,26.855,0
214280.452,25.879,37.109,37.598,32.227,23.438,0
214280.456,20.508,37.109,35.156,23.926,33.691,0
214280.460,35.156,33.203,34.180,32.715,40.527,0
214280.464,42.480,31.738,30.762,40.527,36.621,0
214280.468,33.691,39.062,31.250,33.691,35.156,0
214280.485,23.926,41.016,29.297,24.902,43.945,0
214280.489,31.738,37.598,24.902,28.320,52.734,0
214280.493,47.852,38.086,18.555,39.551,47.852,0
214280.497,33.203,38.086,18.066,34.180,27.832,0
214280.501,13.672,39.551,31.250,24.414,24.414,0
214280.505,24.414,38.574,44.434,26.855,34.180,0
214280.508,40.039,37.109,50.781,35.645,45.898,0
214280.512,37.109,37.109,47.363,39.062,33.203,0
214280.516,22.461,35.156,37.109,31.738,22.461,0
214280.520,22.949,32.227,35.645,28.320,28.809,0
214280.524,36.621,28.809,43.457,36.621,23.926,0
214280.528,42.480,31.250,46.387,46.875,25.879,0
214280.530,31.738,37.109,43.457,40.527,32.715,0
214280.534,24.902,35.156,36.621,30.273,33.691,0
214280.538,35.645,29.785,35.645,38.574,36.133,0
214280.542,41.504,27.832,35.156,45.898,35.156,0
214280.546,31.250,31.250,30.762,35.645,32.227,0
214280.549,21.973,33.691,36.621,26.855,33.691,0
214280.553,27.832,30.762,41.504,30.273,37.598,0
214280.557,40.527,28.809,38.574,46.387,41.504,0
214280.561,33.203,28.320,30.273,45.898,39.551,0
214280.565,16.113,29.785,28.320,25.391,43.457,0
214280.569,21.484,31.738,34.668,24.902,55.664,0
214280.573,40.039,33.203,37.109,42.969,54.688,0
214280.575,39.551,30.273,35.645,43.457,47.852,0
214280.579,21.973,29.297,33.203,29.297,53.711,0
214280.583,17.090,30.273,34.180,21.973,57.617,0
214280.587,31.738,28.320,35.645,32.227,48.828,0
214280.590,41.504,30.273,31.250,42.480,44.922,0
214280.594,25.391,32.715,26.855,33.203,45.898,0
214280.598,16.602,32.715,33.203,24.902,52.734,0
214280.602,32.227,30.762,35.645,38.086,63.477,0
214280.606,46.387,33.203,33.691,52.246,58.105,0
214280.610,33.203,40.527,34.668,45.898,34.668,0
214280.614,18.555,39.551,33.203,28.320,30.273,0
214280.618,30.762,35.645,36.621,30.762,41.504,0
214280.620,47.852,38.574,37.598,44.922,33.203,0
214280.624,42.969,40.527,33.691,42.969,24.414,0
214280.628,25.879,37.109,27.832,30.273,32.227,0
214280.632,27.344,34.668,27.832,28.809,46.875,0
214280.636,43.945,35.645,28.809,41.504,53.711,0
214280.639,43.457,35.156,31.250,47.852,39.551,0
214280.643,21.973,33.691,38.086,33.691,31.250,0
214280.647,17.578,33.691,43.945,25.879,33.691,0
214280.651,33.691,32.715,42.480,28.320,20.020,0
214280.655,35.156,29.785,32.715,26.855,5.859,0
214280.659,17.578,27.832,25.879,22.949,10.254,0
214280.663,5.371,27.344,24.902,16.113,20.996,0
214280.665,19.531,27.344,26.367,25.391,30.762,0
214280.669,39.062,27.344,28.809,43.457,36.133,0
214280.673,27.832,28.809,29.785,38.086,23.926,0
214280.677,15.625,27.344,35.156,26.367,26.367,0
214280.681,27.344,26.367,35.645,32.227,47.363,0
214280.684,44.922,26.855,30.762,42.480,51.758,0
214280.688,36.133,28.320,25.391,35.156,39.551,0
214280.692,15.137,29.297,28.320,20.508,20.020,0
214280.696,20.508,29.785,39.551,22.461,17.578,0
214280.700,40.039,32.715,40.527,37.109,26.367,0
214280.704,45.410,35.156,36.133,41.504,13.672,0
214280.708,29.297,36.133,33.691,29.785,13.184,0
214280.710,24.414,33.691,32.715,17.090,29.785,0
214280.714,42.969,34.180,35.645,30.273,42.480,0
214280.718,52.246,36.621,31.738,48.828,39.551,0
214280.722,33.203,35.156,29.297,43.457,33.691,0
214280.725,20.996,35.645,28.809,33.691,42.969,0
214280.729,36.133,38.574,28.809,40.039,38.086,0
214280.733,45.898,34.668,36.621,47.852,28.809,0
214280.737,35.156,32.715,41.992,41.992,29.785,0
214280.741,21.973,35.645,41.992,35.156,28.809,0
214280.745,26.855,36.621,42.480,34.668,25.391,0
214280.749,47.363,39.062,42.969,45.898,25.391,0
214280.753,40.039,37.109,33.203,42.480,20.020,0
214280.755,15.625,34.180,28.809,23.926,17.090,0
214280.759,16.602,35.156,33.203,24.414,35.156,0
214280.763,35.645,35.156,36.133,42.480,46.387,0
214280.766,44.922,34.180,38.086,49.805,45.898,0
214280.770,29.297,36.621,33.691,37.598,37.598,0
214280.774,20.508,37.109,32.227,33.691,28.320,0
214280.778,38.086,39.062,32.227,46.875,53.223,0
214280.782,52.734,43.945,35.156,56.641,51.270,0
214280.786,36.621,38.574,37.598,37.109,6.836,0
214280.790,17.090,33.691,33.203,13.672,-3.418,0
214280.794,21.973,30.273,28.809,14.160,3.906,0
214280.798,36.621,28.320,29.785,28.809,5.859,0
214280.801,30.762,32.227,30.762,27.344,1.465,0
214280.805,16.113,35.156,30.273,15.625,9.277,0
214280.809,21.484,34.668,33.203,20.020,32.715,0
214280.813,40.527,33.691,34.180,34.668,34.668,0
214280.817,41.504,36.133,28.809,35.645,16.602,0
214280.821,27.832,36.621,27.832,23.438,20.020,0
214280.825,30.273,36.621,34.668,19.043,36.133,0
214280.829,42.480,32.715,35.156,26.367,39.062,0
214280.833,42.969,28.809,33.203,34.668,26.855,0
214280.837,24.414,32.227,36.133,25.391,14.160,0
214280.840,12.695,31.250,39.062,16.602,15.137,0
214280.844,28.320,28.809,36.621,31.250,26.855,0
214280.846,41.504,31.738,38.574,47.852,35.156,0
214280.850,30.762,32.715,42.480,39.062,27.832,0
214280.854,18.555,30.273,33.691,19.531,17.578,0
214280.858,28.320,30.273,33.203,20.020,22.461,0
214280.862,43.945,35.156,37.598,35.645,36.621,0
214280.866,36.133,37.598,32.227,35.645,39.551,0
214280.869,18.555,34.668,27.832,19.531,39.551,0
214280.873,17.090,33.203,27.344,16.602,25.879,0
214280.877,30.273,32.227,25.879,27.832,7.812,0
214280.881,30.273,32.715,28.809,29.297,-2.441,0
214280.885,17.090,35.645,33.691,16.602,-2.930,0
214280.889,14.160,36.133,28.320,5.859,9.766,0
214280.905,26.855,32.227,28.809,13.184,14.648,0
214280.909,30.273,32.715,34.668,19.043,12.695,0
214280.913,23.926,39.551,36.133,14.160,22.461,0
214280.917,20.508,40.039,35.156,12.695,18.555,0
214280.920,26.855,35.156,28.809,17.090,16.602,0
214280.924,34.668,34.180,25.879,28.809,28.809,0
214280.928,24.414,33.691,24.902,27.832,20.508,0
214280.932,13.184,31.738,25.391,17.578,26.367,0
214280.936,22.949,32.227,22.949,20.020,31.738,0
214280.940,41.992,33.691,17.578,32.715,17.578,0
214280.944,37.109,34.180,29.785,30.273,8.789,0
214280.948,23.438,35.156,42.480,20.020,12.695,0
214280.950,26.855,34.180,39.551,19.531,30.762,0
214280.954,40.527,33.691,37.109,26.367,33.691,0
214280.958,42.480,34.668,36.621,26.855,17.578,0
214280.962,31.738,36.133,38.086,17.578,20.508,0
214280.966,30.762,38.574,37.109,14.160,30.762,0
214280.970,41.992,35.645,34.668,27.344,35.645,0
214280.974,48.828,32.715,32.715,42.969,44.434,0
214280.977,37.109,38.086,35.645,39.551,37.109,0
214280.981,24.902,41.992,37.598,30.273,38.086,0
214280.985,29.297,38.086,39.062,31.738,47.852,0
214280.989,39.551,31.738,43.945,44.922,32.227,0
214280.993,31.738,31.738,35.156,41.504,17.090,0
214280.995,20.508,33.691,32.715,25.879,27.344,0
214280.999,30.762,33.691,41.504,24.902,40.527,0
214281.003,47.363,34.668,44.434,39.551,36.133,0
214281.007,41.504,32.715,41.016,41.016,28.809,0
214281.010,27.344,36.621,41.504,30.762,42.480,0
214281.014,29.785,41.016,39.062,29.297,45.898,0
214281.018,47.852,38.574,36.133,39.551,33.203,0
214281.022,47.363,34.668,31.250,42.480,22.461,0
214281.026,21.973,31.738,26.367,30.273,26.855,0
214281.030,18.066,32.715,29.297,30.273,35.156,0
214281.034,35.156,35.156,33.203,45.410,41.992,0
214281.038,43.945,36.133,33.203,54.199,39.062,0
214281.040,32.227,36.621,35.156,45.410,32.715,0
214281.044,17.578,35.156,35.645,32.227,45.410,0
214281.048,28.809,31.250,33.203,35.156,59.570,0
214281.052,47.852,30.762,36.621,45.410,60.059,0
214281.056,38.086,31.738,36.133,41.504,37.598,0
214281.059,20.508,31.738,33.691,28.320,30.762,0
214281.063,25.879,30.273,32.715,23.438,37.598,0
214281.067,43.457,31.738,32.227,31.738,22.949,0
214281.071,42.480,37.109,37.109,41.992,18.555,0
214281.075,23.438,37.598,33.691,31.738,14.648,0
214281.079,18.555,35.156,25.879,23.926,20.020,0
214281.083,39.062,37.598,33.203,38.086,37.109,0
214281.086,48.828,38.086,40.039,47.363,41.016,0
214281.090,28.809,36.621,36.133,34.668,31.250,0
214281.094,17.578,35.645,30.273,25.391,29.785,0
214281.098,32.227,32.227,27.832,30.273,29.785,0
214281.102,43.945,27.832,33.203,37.598,21.973,0
214281.106,26.855,28.320,35.156,30.273,19.531,0
214281.109,17.090,35.645,37.598,20.996,32.227,0
214281.113,29.785,36.133,35.645,30.273,47.852,0
214281.117,41.992,32.227,32.715,41.016,47.852,0
214281.121,38.086,34.668,36.621,40.527,39.551,0
214281.125,20.996,35.645,38.086,31.738,41.992,0
214281.129,20.020,33.691,33.203,33.691,59.082,0
214281.130,39.551,34.668,26.855,47.852,65.918,0
214281.134,40.527,34.668,27.832,52.734,58.105,0
214281.138,22.461,35.156,29.785,41.504,44.922,0
214281.142,24.902,37.109,33.691,35.645,50.293,0
214281.146,38.574,34.180,42.480,46.875,57.617,0
214281.149,45.410,35.156,45.410,56.641,40.527,0
214281.153,29.785,34.668,36.621,41.504,18.066,0
214281.157,12.207,33.691,32.715,24.414,21.484,0
214281.161,24.902,32.715,35.645,30.273,36.133,0
214281.165,38.574,32.227,34.668,38.086,23.438,0
214281.169,23.926,33.203,29.297,32.227,14.160,0
214281.173,10.254,31.250,26.855,24.414,26.855,0
214281.175,20.508,30.762,30.273,29.297,29.297,0
214281.179,35.156,31.738,30.762,44.922,28.809,0
214281.183,36.621,33.203,25.879,46.875,39.551,0
214281.187,29.785,39.062,35.156,41.992,44.922,0
214281.191,26.367,35.645,45.410,39.551,31.250,0
214281.194,42.480,27.832,40.039,43.457,28.320,0
214281.198,50.781,30.273,40.039,46.875,28.320,0
214281.202,32.227,35.645,41.016,31.738,23.438,0
214281.206,23.438,36.621,36.133,26.367,24.414,0
214281.210,34.180,33.691,33.203,37.109,21.484,0
214281.214,39.062,31.250,36.133,40.039,19.043,0
214281.218,27.344,34.668,41.016,32.227,17.090,0
214281.235,24.414,40.039,45.410,27.344,23.438,0
214281.239,36.133,36.621,43.457,32.227,39.062,0
214281.243,48.340,35.645,36.621,46.875,36.133,0
214281.247,36.133,35.645,30.762,44.434,26.367,0
214281.251,17.578,30.762,33.691,24.902,34.668,0
214281.255,24.902,32.227,39.062,20.996,39.551,0
214281.258,42.480,34.180,41.504,36.621,32.227,0
214281.262,34.180,32.715,44.922,38.086,16.602,0
214281.266,14.648,32.715,42.480,20.508,12.695,0
214281.270,18.555,34.180,36.621,19.043,29.785,0
214281.274,37.598,32.715,36.621,32.227,37.109,0
214281.278,42.480,27.832,38.086,34.668,20.996,0
214281.280,27.832,28.320,33.203,25.879,8.301,0
214281.284,20.996,31.738,31.738,18.066,17.578,0
214281.288,34.180,33.203,38.086,24.414,34.180,0
214281.291,47.852,35.156,34.668,38.574,47.852,0
214281.295,40.039,37.598,28.320,35.645,49.316,0
214281.299,31.250,41.016,33.691,23.438,40.527,0
214281.303,41.016,39.551,38.574,29.785,33.691,0
214281.307,51.758,33.691,33.691,41.504,34.668,0
214281.311,41.992,34.668,30.762,34.668,32.227,0
214281.315,22.949,35.156,30.273,25.391,26.855,0
214281.319,26.855,34.668,32.227,30.762,29.297,0
214281.323,47.363,36.133,34.668,39.551,37.598,0
214281.325,47.363,37.109,34.668,43.945,33.691,0
214281.329,28.320,35.156,34.180,32.227,33.691,0
214281.333,26.855,33.691,26.855,22.949,40.039,0
214281.337,45.898,35.156,23.438,41.016,43.457,0
214281.340,52.246,38.086,33.203,56.641,50.293,0
214281.344,37.598,38.086,36.133,44.434,57.129,0
214281.348,32.715,36.133,32.227,30.762,58.594,0
214281.352,41.504,32.227,28.320,37.598,48.340,0
214281.356,49.805,33.691,25.879,46.387,41.992,0
214281.360,40.527,37.109,32.227,37.109,33.203,0
214281.364,25.391,34.668,35.156,21.973,17.090,0
214281.368,36.133,34.180,30.762,25.879,23.926,0
214281.370,52.734,34.668,34.180,44.922,43.945,0
214281.374,41.992,34.180,34.668,43.457,41.504,0
214281.378,26.367,36.621,30.762,25.391,42.969,0
214281.382,30.762,36.133,29.785,23.438,46.387,0
214281.386,45.898,33.203,27.832,38.574,45.410,0
214281.389,48.340,33.691,30.273,46.875,43.457,0
214281.393,35.156,36.621,32.227,38.086,45.410,0
214281.397,34.668,35.156,38.086,31.250,53.711,0
214281.401,52.246,35.645,37.109,40.527,47.852,0
214281.405,57.129,38.086,33.691,48.340,28.320,0
214281.409,36.621,33.691,36.133,33.691,19.043,0
214281.413,21.484,28.809,39.062,20.996,29.297,0
214281.415,32.715,28.809,37.109,29.785,30.762,0
214281.419,44.434,31.738,31.250,42.480,28.320,0
214281.423,31.250,33.691,31.738,37.598,38.086,0
214281.427,21.484,35.156,35.645,31.250,46.875,0
214281.430,33.691,35.156,40.039,36.133,43.457,0
214281.434,47.852,31.738,39.062,41.992,34.668,0
214281.438,43.457,32.227,35.156,43.945,32.227,0
214281.442,30.762,35.156,33.203,39.062,46.387,0
214281.446,31.738,36.133,37.109,40.039,56.152,0
214281.450,41.016,34.668,45.410,52.246,48.340,0
214281.454,36.621,30.762,43.945,53.223,29.785,0
214281.458,19.043,31.250,36.133,35.645,9.277,0
214281.460,17.090,31.250,36.621,26.855,19.043,0
214281.464,31.738,25.879,38.086,33.691,26.855,0
214281.468,39.551,25.391,37.109,41.504,20.508,0
214281.472,31.250,30.762,39.551,39.062,32.715,0
214281.475,19.043,30.762,41.016,29.297,39.551,0
214281.479,27.832,27.832,41.504,35.645,46.387,0
214281.483,43.457,27.344,40.039,48.340,55.176,0
214281.487,29.297,28.320,38.574,45.410,50.781,0
214281.491,15.137,33.691,38.574,33.203,44.922,0
214281.495,24.414,32.715,34.668,31.250,42.969,0
214281.499,33.691,28.809,32.227,40.039,26.855,0
214281.503,27.832,33.203,33.203,35.645,4.883,0
214281.505,10.742,35.156,30.762,24.902,1.953,0
214281.509,11.230,34.180,32.715,23.926,6.836,0
214281.513,33.691,39.062,37.109,35.645,20.508,0
214281.517,42.480,40.527,36.133,42.480,26.367,0
214281.521,25.879,33.691,39.551,31.738,26.855,0
214281.524,20.996,31.250,38.574,24.414,33.203,0
214281.528,38.574,34.668,29.785,33.203,48.340,0
214281.532,54.688,39.551,25.391,44.434,52.246,0
214281.536,43.945,42.969,27.344,38.086,46.387,0
214281.540,32.715,44.434,33.203,23.438,50.293,0
214281.544,40.527,43.945,38.086,26.367,50.293,0
214281.548,48.828,39.551,35.645,35.156,35.645,0
214281.551,42.480,39.062,37.598,35.645,26.367,0
214281.555,21.973,37.109,29.785,20.508,26.855,0
214281.559,21.973,32.715,20.508,15.137,28.809,0
214281.563,40.039,34.180,26.367,34.180,22.949,0
214281.567,41.016,37.109,31.738,38.086,17.090,0
214281.571,27.344,40.039,35.156,21.484,30.762,0
214281.575,25.879,41.992,31.250,14.648,41.992,0
214281.579,38.574,38.574,28.809,28.320,37.109,0
214281.583,40.039,32.715,29.297,35.645,31.250,0
214281.587,25.879,33.691,28.809,26.855,38.574,0
214281.590,19.531,34.668,36.621,23.926,48.828,0
214281.594,30.273,30.273,40.039,35.156,37.598,0
214281.610,41.992,30.762,33.691,41.992,24.414,0
214281.614,29.785,38.574,25.391,27.344,9.277,0
214281.618,14.648,38.574,22.949,11.719,-8.789,0
214281.622,21.973,35.645,25.879,17.578,-5.859,0
214281.625,33.203,33.691,30.273,27.832,-3.906,0
214281.629,29.297,29.297,35.156,27.344,-4.883,0
214281.633,20.020,34.180,32.227,20.020,15.137,0
214281.637,30.762,39.551,29.785,27.832,45.410,0
214281.641,48.340,33.691,24.902,47.852,60.059,0
214281.645,49.805,33.691,20.020,52.246,62.500,0
214281.649,39.551,37.598,25.391,39.062,66.406,0
214281.653,33.691,35.645,32.715,34.668,76.660,0
214281.655,50.781,37.109,35.645,48.340,74.219,0
214281.659,61.523,41.504,33.691,57.617,52.734,0
214281.663,35.645,41.504,32.715,43.457,36.133,0
214281.667,19.043,35.645,39.062,27.832,25.391,0
214281.670,34.180,35.156,42.969,35.156,29.297,0
214281.674,43.945,33.691,33.691,47.852,45.898,0
214281.678,25.391,30.762,28.320,37.598,29.785,0
214281.682,14.160,35.645,32.715,24.902,20.020,0
214281.686,23.926,37.598,33.203,28.320,24.414,0
214281.690,40.527,36.621,34.668,42.969,40.039,0
214281.694,42.969,41.016,38.086,49.316,52.246,0
214281.698,31.250,42.480,36.621,39.062,45.898,0
214281.700,35.156,38.574,37.109,36.621,57.129,0
214281.704,46.875,33.203,32.715,47.852,64.453,0
214281.708,46.387,33.691,20.996,46.387,45.898,0
214281.712,27.344,34.180,21.973,26.855,24.902,0
214281.716,16.113,33.203,32.715,15.625,29.297,0
214281.720,36.621,37.109,38.086,28.809,33.203,0
214281.723,43.457,37.109,38.086,36.133,20.020,0
214281.727,21.973,35.645,39.062,22.949,15.137,0
214281.731,14.648,36.133,39.551,17.090,32.227,0
214281.735,33.203,32.715,38.086,28.320,47.852,0
214281.739,45.410,30.762,38.086,41.016,40.039,0
214281.743,31.250,28.809,33.203,35.156,38.086,0
214281.745,18.555,26.855,32.715,23.926,51.758,0
214281.749,26.855,31.250,37.109,25.879,55.176,0
214281.753,43.457,31.738,31.738,38.574,40.527,0
214281.757,41.504,31.738,30.273,42.480,25.879,0
214281.760,25.391,31.738,32.227,36.621,23.926,0
214281.764,20.996,28.320,34.180,33.691,22.461,0
214281.768,35.156,31.738,35.645,40.039,23.438,0
214281.772,38.574,31.250,36.133,44.434,19.043,0
214281.776,27.832,28.320,39.551,35.156,25.879,0
214281.780,24.902,29.785,36.133,26.367,42.480,0
214281.784,38.574,30.273,37.109,38.574,59.570,0
214281.788,50.293,29.297,30.762,50.293,64.941,0
214281.790,37.109,33.691,28.809,40.527,56.152,0
214281.794,25.391,40.039,37.109,28.809,47.852,0
214281.798,35.645,37.109,33.691,34.180,47.363,0
214281.802,47.363,32.715,28.809,45.898,46.387,0
214281.806,37.598,35.645,26.855,41.016,29.785,0
214281.809,24.414,39.551,31.738,33.691,22.461,0
214281.813,29.297,41.016,33.203,32.715,19.043,0
214281.817,43.457,38.574,27.832,36.621,12.695,0
214281.821,42.969,40.039,32.227,38.574,17.090,0
214281.825,26.855,41.992,38.574,28.320,30.273,0
214281.829,20.020,36.621,36.621,21.973,33.203,0
214281.833,32.715,31.250,38.086,35.645,35.156,0
214281.835,36.621,29.785,34.668,43.945,39.551,0
214281.839,20.508,32.227,29.297,28.320,21.973,0
214281.843,13.672,35.156,33.203,20.508,20.508,0
214281.847,28.320,30.762,35.156,33.691,49.316,0
214281.851,42.480,30.762,41.504,47.852,52.246,0
214281.854,30.762,34.668,42.480,38.574,22.949,0
214281.858,17.090,32.227,41.016,26.367,-1.465,0
214281.862,22.949,32.715,43.457,34.180,-6.836,0
214281.866,36.133,32.715,38.574,42.969,-3.906,0
214281.870,30.273,30.762,33.203,39.551,-9.766,0
214281.874,14.160,32.227,34.668,24.414,-1.465,0
214281.878,20.996,32.715,38.086,25.879,32.715,0
214281.880,44.434,31.250,41.504,49.316,44.434,0
214281.884,47.363,32.715,36.621,57.129,34.180,0
214281.888,30.273,31.738,28.320,41.992,38.086,0
214281.892,25.391,30.762,34.180,33.691,56.641,0
214281.896,44.434,31.250,45.410,46.875,64.941,0
214281.900,53.711,30.273,44.434,57.129,48.340,0
214281.904,29.785,30.273,38.086,43.945,30.273,0
214281.907,17.090,30.273,35.645,32.715,31.738,0
214281.911,31.250,31.738,39.062,42.480,41.992,0
214281.915,40.527,31.738,35.156,45.410,26.367,0
214281.919,28.809,29.785,33.691,31.738,-1.953,0
214281.923,17.578,30.273,34.668,19.531,7.324,0
214281.925,21.484,29.297,34.668,20.508,21.973,0
214281.929,36.133,30.273,39.062,32.227,23.926,0
214281.933,37.109,33.691,41.504,34.668,28.320,0
214281.937,25.879,36.133,43.457,29.297,30.762,0
214281.940,31.250,36.133,41.016,37.598,37.598,0
214281.944,43.945,28.809,38.574,51.270,37.598,0
214281.948,45.898,28.320,35.645,54.199,28.809,0
214281.952,29.785,33.691,35.156,40.039,31.250,0
214281.956,20.996,33.203,33.691,27.344,31.738,0
214281.960,41.016,36.133,35.645,38.086,26.855,0
214281.964,47.363,37.109,35.645,41.016,23.926,0
214281.968,20.996,32.227,29.785,23.438,17.578,0
214281.972,11.719,29.785,29.297,16.113,27.344,0
214281.976,33.691,34.668,31.250,29.297,57.617,0
214281.980,52.246,37.109,39.062,45.898,74.219,0
214281.984,38.574,36.621,35.645,41.992,44.922,0
214281.988,26.367,41.992,29.297,33.691,31.738,0
214281.992,34.180,43.945,31.738,40.527,45.898,0
214281.996,48.828,40.039,33.691,50.781,44.434,0
214282.000,44.434,35.645,22.461,46.875,27.344,0
214282.004,24.902,33.203,19.531,29.785,26.855,0
214282.008,23.926,33.691,31.250,21.973,41.016,0
214282.011,46.387,36.133,35.156,37.109,38.574,0
214282.015,54.199,39.551,30.762,44.922,24.902,0
214282.030,36.133,41.504,29.785,31.738,25.391,0
214282.034,31.250,40.039,35.645,24.902,35.645,0
214282.038,43.457,33.691,35.645,31.738,45.410,0
214282.042,47.852,31.738,31.738,35.156,43.945,0
214282.046,29.297,35.156,28.809,24.902,33.691,0
214282.050,15.137,36.133,28.320,14.648,37.598,0
214282.053,23.926,34.180,31.250,22.949,39.062,0
214282.057,37.109,33.203,32.227,35.645,24.414,0
214282.061,28.320,32.715,28.320,27.832,18.555,0
214282.065,17.090,36.133,27.832,16.602,19.531,0
214282.069,30.762,42.969,29.785,20.020,28.809,0
214282.073,48.340,40.527,33.203,33.203,39.062,0
214282.076,44.434,37.598,31.250,37.109,29.297,0
214282.080,29.297,36.621,29.297,25.391,27.344,0
214282.084,26.367,32.715,29.785,21.484,34.180,0
214282.088,46.875,32.715,31.250,39.551,44.922,0
214282.092,52.734,32.715,30.273,50.293,51.758,0
214282.096,28.320,28.809,29.785,31.738,50.781,0
214282.100,22.949,32.227,34.668,24.902,51.270,0
214282.103,38.086,36.621,38.086,40.039,49.805,0
214282.107,38.574,31.738,34.668,48.340,44.434,0
214282.111,20.020,27.832,28.320,33.691,23.926,0
214282.115,7.812,25.391,31.250,20.996,17.090,0
214282.119,13.672,23.926,35.645,27.344,30.762,0
214282.120,26.855,26.367,35.645,36.621,30.762,0
214282.124,26.367,26.855,36.133,32.227,15.625,0
214282.128,19.043,29.785,39.551,23.926,13.672,0
214282.132,20.996,32.227,38.086,25.391,26.855,0
214282.136,35.156,27.344,33.691,38.574,42.969,0
214282.139,41.016,27.344,36.621,48.828,45.898,0
214282.143,23.438,29.297,36.133,37.109,42.480,0
214282.147,18.066,26.367,26.855,25.879,48.828,0
214282.151,38.574,26.367,32.715,37.598,56.152,0
214282.155,48.828,33.203,47.852,48.340,42.969,0
214282.159,32.715,36.621,42.969,38.086,22.949,0
214282.163,20.020,31.250,34.180,23.926,20.996,0
214282.165,33.203,30.762,33.691,28.809,32.715,0
214282.169,50.781,34.668,28.320,40.039,35.645,0
214282.173,40.527,36.621,23.926,30.762,25.879,0
214282.177,25.391,38.574,27.832,18.066,34.180,0
214282.181,33.691,35.645,31.738,20.508,56.152,0
214282.184,52.734,35.156,38.574,36.621,55.664,0
214282.188,51.758,41.016,38.086,41.504,42.969,0
214282.192,33.203,39.062,35.156,28.809,41.016,0
214282.196,27.832,35.156,42.969,20.996,39.551,0
214282.200,41.016,33.203,42.480,29.785,33.203,0
214282.204,45.410,34.180,39.551,38.086,29.785,0
214282.208,25.391,35.645,41.504,25.879,30.762,0
214282.210,17.578,37.598,39.062,16.113,30.762,0
214282.214,33.691,36.621,39.062,28.320,29.785,0
214282.218,42.969,35.156,41.016,41.016,23.438,0
214282.222,28.809,36.621,40.039,32.715,26.367,0
214282.226,16.113,35.645,43.457,19.043,24.414,0
214282.229,28.809,32.227,45.410,25.391,32.715,0
214282.233,47.852,36.133,38.086,33.691,42.480,0
214282.237,43.457,40.039,32.715,28.809,43.457,0
214282.241,24.414,38.086,37.109,20.020,41.016,0
214282.245,24.414,33.203,37.109,17.578,42.480,0
214282.249,39.551,33.203,34.180,33.691,47.363,0
214282.253,38.574,36.621,38.086,41.016,37.109,0
214282.255,19.043,32.715,39.551,23.438,25.391,0
214282.259,20.508,29.785,37.598,17.090,23.926,0
214282.263,41.504,31.250,34.180,26.855,31.738,0
214282.266,44.434,31.250,31.738,30.273,33.203,0
214282.270,29.785,32.227,31.250,22.949,23.438,0
214282.274,22.461,33.203,29.297,20.996,24.902,0
214282.278,38.086,31.738,27.832,34.668,43.457,0
214282.282,49.805,33.691,36.133,46.387,47.363,0
214282.286,38.086,39.062,44.434,42.480,32.227,0
214282.290,22.949,37.109,41.992,26.855,31.738,0
214282.294,31.738,34.180,37.109,24.902,36.621,0
214282.298,47.363,34.180,36.133,36.133,28.809,0
214282.302,41.992,36.133,40.527,34.180,30.762,0
214282.306,31.738,37.598,38.574,25.879,44.922,0
214282.310,35.645,40.039,35.156,30.762,44.922,0
214282.314,48.828,41.504,41.992,49.316,40.527,0
214282.318,46.875,34.668,37.598,46.387,38.086,0
214282.322,27.344,29.785,27.832,23.926,40.527,0
214282.326,22.461,28.320,32.227,19.531,47.363,0
214282.330,42.480,30.273,34.180,35.156,40.039,0
214282.334,53.223,34.668,37.598,47.363,39.062,0
214282.338,34.668,36.621,36.621,35.645,41.992,0
214282.341,23.438,36.133,41.016,22.461,54.199,0
214282.345,40.527,34.668,47.852,34.668,62.500,0
214282.345,50.781,31.738,46.387,47.363,30.273,0
214282.349,32.227,30.273,39.551,36.133,6.348,0
214282.353,17.090,28.809,35.645,23.926,18.066,0
214282.357,24.414,28.809,37.109,26.855,29.297,0
214282.360,39.062,32.227,37.598,38.086,34.668,0
214282.364,35.645,33.691,29.785,35.645,29.297,0
214282.368,18.555,32.227,24.902,17.090,11.230,0
214282.372,22.461,35.156,34.180,16.113,20.020,0
214282.376,45.410,37.109,40.039,31.738,41.016,0
214282.380,47.363,33.203,37.598,36.621,38.574,0
214282.384,27.832,34.668,37.109,25.391,34.180,0
214282.388,20.020,38.086,38.574,20.996,35.645,0
214282.405,34.668,35.645,43.945,31.738,33.203,0
214282.409,45.898,34.668,41.504,41.504,27.344,0
214282.413,28.320,32.227,29.785,29.785,18.066,0
214282.417,15.625,30.273,30.273,19.043,33.691,0
214282.420,26.367,29.297,37.109,31.250,43.457,0
214282.424,39.551,30.273,38.574,43.945,33.691,0
214282.428,30.273,34.668,37.598,38.086,36.133,0
214282.432,15.625,34.180,38.086,26.367,38.574,0
214282.436,25.879,27.832,38.574,33.691,42.969,0
214282.440,45.410,27.832,32.227,48.340,51.270,0
214282.444,43.945,32.715,33.203,48.340,42.969,0
214282.448,28.809,32.227,39.551,32.227,37.109,0
214282.450,38.086,40.039,40.039,31.250,49.316,0
214282.454,59.082,42.969,39.062,44.434,45.410,0
214282.458,52.246,33.691,35.156,42.969,19.531,0
214282.462,28.320,32.715,30.273,27.832,8.301,0
214282.466,22.949,31.738,35.156,18.555,17.090,0
214282.470,37.109,31.250,38.086,27.832,29.785,0
214282.473,44.434,33.203,38.574,39.062,33.203,0
214282.477,34.180,35.645,39.062,35.156,29.297,0
214282.481,27.344,39.551,35.156,29.785,44.922,0
214282.485,38.086,38.574,39.062,37.109,63.477,0
214282.489,52.734,34.668,36.133,46.387,51.270,0
214282.493,43.457,33.691,23.926,40.039,35.156,0
214282.495,23.926,35.156,24.902,20.996,41.504,0
214282.499,24.414,32.715,34.668,17.090,41.992,0
214282.503,39.062,34.668,39.062,29.297,21.484,0
214282.507,30.762,39.551,31.738,24.902,2.930,0
214282.511,8.301,34.180,27.344,8.789,0.000,0
214282.515,12.207,34.180,33.203,7.324,14.648,0
214282.518,29.297,34.668,30.273,20.020,20.996,0
214282.522,30.762,27.832,17.090,23.926,19.531,0
214282.526,14.648,29.297,24.414,13.672,27.832,0
214282.530,9.766,34.180,40.527,13.672,47.363,0
214282.534,29.785,33.203,47.852,33.691,61.035,0
214282.538,45.898,29.785,45.410,48.340,61.523,0
214282.541,35.156,31.738,39.062,43.457,71.777,0
214282.545,18.555,30.762,36.621,33.203,62.012,0
214282.549,26.855,31.250,35.156,35.645,31.738,0
214282.553,39.551,29.297,30.762,41.992,16.602,0
214282.557,24.902,24.414,31.250,31.738,4.883,0
214282.561,5.859,27.832,34.180,12.695,-1.953,0
214282.565,17.578,32.227,36.133,17.578,6.348,0
214282.569,35.156,31.738,36.133,32.715,12.695,0
214282.573,26.855,29.785,33.203,28.320,6.836,0
214282.577,6.836,29.785,37.109,13.184,7.324,0
214282.580,8.789,32.715,42.480,14.648,31.738,0
214282.584,23.438,31.738,41.992,24.414,36.621,0
214282.585,23.438,26.855,39.551,24.902,16.602,0
214282.589,10.742,26.855,39.551,19.531,20.996,0
214282.593,4.395,28.809,37.598,16.602,38.086,0
214282.597,27.344,33.203,34.668,25.879,50.781,0
214282.601,46.387,36.621,33.691,37.109,47.363,0
214282.605,31.738,35.645,31.738,23.926,31.738,0
214282.609,17.090,35.645,33.691,5.371,20.508,0
214282.613,27.832,39.062,32.227,9.277,22.949,0
214282.616,41.992,37.109,27.832,21.973,13.184,0
214282.620,30.273,34.180,27.832,18.066,8.789,0
214282.624,11.719,31.738,28.809,5.371,34.668,0
214282.628,20.020,31.738,34.668,14.648,33.691,0
214282.630,43.945,28.809,36.621,36.133,18.555,0
214282.634,48.340,29.297,35.156,41.504,31.738,0
214282.638,32.715,35.156,39.551,37.598,54.688,0
214282.642,31.250,34.668,43.457,39.062,48.828,0
214282.645,47.363,36.621,44.434,51.270,39.062,0
214282.649,49.805,37.598,40.039,58.105,31.250,0
214282.653,31.250,34.180,32.227,37.109,6.836,0
214282.657,19.531,33.203,29.785,20.020,6.348,0
214282.661,29.785,32.715,35.156,26.367,14.648,0
214282.665,42.969,32.715,33.203,34.180,12.207,0
214282.669,28.320,34.180,32.715,25.879,-0.977,0
214282.673,12.695,35.156,43.457,15.137,7.812,0
214282.675,21.973,36.133,48.340,20.020,32.227,0
214282.679,31.738,32.227,38.086,29.785,34.668,0
214282.683,23.926,28.809,31.250,28.809,32.715,0
214282.686,11.230,30.762,33.203,18.555,45.410,0
214282.690,19.043,34.668,34.180,22.461,57.617,0
214282.694,36.621,33.691,39.551,35.645,57.617,0
214282.698,39.062,33.203,39.551,40.527,46.387,0
214282.702,26.855,36.621,39.551,33.203,45.410,0
214282.706,26.855,40.039,42.969,23.926,47.852,0
214282.710,41.016,38.086,40.039,31.250,52.246,0
214282.714,43.945,31.738,36.621,38.086,55.176,0
214282.718,30.762,31.250,38.086,26.367,37.109,0
214282.735,19.531,31.250,39.551,20.020,27.832,0
214282.739,30.273,33.203,41.504,35.645,41.992,0
214282.743,46.875,32.227,46.875,48.340,42.969,0
214282.747,36.133,31.738,48.340,41.504,35.645,0
214282.751,20.508,36.133,44.922,31.738,27.344,0
214282.755,30.273,35.645,36.133,32.227,34.668,0
214282.759,46.875,31.738,31.738,40.527,46.387,0
214282.763,46.387,34.180,41.016,43.945,34.668,0
214282.766,26.367,33.203,41.992,30.762,16.113,0
214282.770,22.461,30.762,34.668,24.902,25.391,0
214282.774,42.969,32.227,36.621,39.062,35.645,0
214282.778,43.457,31.250,37.109,43.945,14.160,0
214282.780,23.926,34.668,35.645,32.227,12.207,0
214282.784,14.160,34.668,40.039,23.438,29.297,0
214282.788,27.344,30.273,44.434,32.715,45.410,0
214282.791,39.062,31.738,39.551,44.434,40.039,0
214282.795,24.902,35.645,38.574,31.738,31.250,0
214282.799,12.695,36.133,35.645,9.277,39.062,0
214282.803,22.461,32.227,30.762,7.324,37.598,0
214282.807,36.621,33.203,29.297,23.438,23.438,0
214282.811,29.785,34.180,30.273,26.367,10.742,0
214282.815,17.090,32.715,35.645,17.090,12.207,0
214282.819,22.949,35.156,39.551,21.973,26.855,0
214282.823,45.410,39.551,39.551,40.527,42.969,0
214282.825,45.410,37.598,34.668,37.598,20.996,0
214282.829,25.391,32.715,29.785,17.578,0.488,0
214282.833,27.344,32.227,27.344,16.602,21.973,0
214282.837,41.504,31.250,33.691,37.598,41.992,0
214282.840,44.434,30.273,40.039,46.387,37.109,0
214282.844,33.203,33.691,38.086,34.180,27.832,0
214282.848,24.414,36.133,41.504,25.391,30.273,0
214282.852,37.598,35.645,41.504,32.715,42.969,0
214282.856,51.758,35.156,41.016,45.898,41.992,0
214282.860,34.180,34.180,35.645,37.109,21.973,0
214282.864,18.066,34.668,31.250,20.996,35.645,0
214282.868,26.367,33.691,33.691,26.367,44.434,0
214282.870,41.992,33.203,33.691,43.945,27.344,0
214282.874,39.551,35.645,36.621,43.457,28.809,0
214282.878,19.531,35.156,37.109,31.738,45.410,0
214282.882,23.438,37.598,41.504,38.574,51.270,0
214282.885,43.945,36.621,47.852,51.758,47.363,0
214282.889,45.410,33.691,46.387,42.969,43.945,0
214282.893,29.785,35.645,43.945,23.926,41.992,0
214282.897,20.508,33.691,36.621,15.625,42.969,0
214282.901,33.203,32.227,35.156,26.367,52.246,0
214282.905,42.480,33.691,41.016,38.574,47.852,0
214282.909,25.391,32.715,41.992,31.738,20.508,0
214282.913,13.184,33.203,44.922,25.879,14.648,0
214282.916,25.879,32.227,47.363,31.250,36.133,0
214282.919,41.016,29.785,42.969,40.527,47.852,0
214282.923,34.668,35.156,38.086,39.062,46.387,0
214282.927,19.043,36.621,34.668,27.832,45.898,0
214282.931,21.484,31.738,37.109,28.320,47.363,0
214282.935,38.086,31.738,33.691,39.062,49.316,0
214282.939,38.574,36.133,33.203,43.945,58.105,0
214282.943,20.996,37.598,38.086,30.273,57.129,0
214282.947,17.090,32.227,35.645,15.625,30.273,0
214282.951,34.668,30.762,34.668,25.391,18.555,0
214282.955,37.109,33.691,35.156,32.715,15.625,0
214282.959,19.531,31.738,31.738,17.578,13.672,0
214282.960,9.766,27.832,31.250,10.254,20.020,0
214282.964,23.926,27.344,36.133,20.020,22.461,0
214282.968,38.574,32.715,40.039,31.738,21.973,0
214282.972,20.508,31.250,31.250,26.855,14.648,0
214282.975,9.766,28.320,20.508,13.184,24.902,0
214282.979,26.855,33.203,33.203,23.926,44.434,0
214282.983,36.133,32.227,41.992,33.691,35.645,0
214282.987,23.926,30.273,38.086,23.926,28.320,0
214282.991,10.254,29.785,37.109,16.602,31.250,0
214282.995,15.137,29.297,36.133,18.066,30.273,0
214282.999,37.109,30.762,36.621,28.320,34.180,0
214283.003,38.086,30.273,33.691,27.832,29.785,0
214283.005,19.531,28.809,28.809,15.137,28.320,0
214283.009,24.414,28.320,35.645,18.555,41.992,0
214283.013,47.363,31.738,42.480,40.039,52.734,0
214283.017,47.363,35.156,42.969,49.316,42.969,0
214283.021,24.414,32.227,41.504,42.969,40.039,0
214283.025,20.996,33.203,39.551,37.109,54.688,0
214283.029,36.133,36.133,38.574,38.574,51.270,0
214283.033,37.598,32.227,37.109,40.039,33.203,0
214283.037,18.066,27.832,32.715,31.250,26.855,0
214283.041,7.812,28.320,31.738,21.973,27.832,0
214283.044,21.484,31.738,38.574,28.320,27.344,0
214283.048,34.668,31.738,39.551,40.039,24.902,0
214283.050,27.344,33.203,36.621,33.691,6.836,0
214283.054,14.648,37.109,36.621,18.066,0.000,0
214283.058,20.020,35.156,32.227,11.230,15.137,0
214283.062,36.621,33.203,28.320,20.996,18.555,0
214283.065,32.227,31.738,30.273,23.926,6.348,0
214283.069,18.555,32.227,31.738,16.602,10.742,0
214283.073,19.531,32.227,33.691,15.625,19.043,0
214283.077,33.203,29.785,41.016,25.391,23.438,0
214283.081,40.039,31.250,40.527,36.133,22.949,0
214283.085,27.344,33.203,33.203,30.273,31.250,0
214283.089,17.090,30.273,31.250,18.555,35.156,0
214283.093,26.367,27.832,30.762,18.555,21.484,0
214283.095,38.574,31.738,35.156,31.738,20.996,0
214283.099,23.926,31.250,36.621,26.367,12.207,0
214283.103,9.277,29.297,37.598,10.254,6.348,0
214283.107,22.949,31.738,37.598,16.602,12.207,0
214283.111,39.551,32.227,36.133,31.738,11.230,0
214283.114,36.621,33.691,34.180,32.715,15.625,0
214283.118,20.020,34.180,27.832,21.973,19.043,0
214283.122,21.484,32.715,29.297,20.996,26.855,0
214283.126,40.039,31.250,41.016,38.086,33.203,0
214283.130,40.039,33.203,47.852,42.969,27.344,0
214283.134,21.973,35.645,44.922,32.227,24.414,0
214283.138,19.531,35.156,39.062,28.809,31.250,0
214283.155,35.156,30.762,37.598,36.133,31.738,0
214283.159,36.133,25.879,32.715,38.574,17.090,0
214283.163,18.066,27.344,29.785,24.902,5.371,0
214283.167,15.137,32.227,29.297,19.043,15.137,0
214283.170,34.180,36.133,31.250,31.738,36.621,0
214283.174,44.434,34.180,40.527,43.457,31.250,0
214283.178,31.738,32.715,44.434,39.551,21.973,0
214283.182,20.020,31.250,41.992,30.762,28.320,0
214283.186,31.250,30.762,46.875,36.133,35.156,0
214283.190,50.781,37.598,48.340,46.387,56.152,0
214283.194,44.434,37.109,40.039,45.410,46.875,0
214283.198,27.832,34.180,39.062,32.715,20.508,0
214283.200,26.855,34.180,37.598,24.902,33.691,0
214283.204,41.504,32.227,34.180,34.668,45.898,0
214283.208,43.457,30.273,33.203,43.457,32.715,0
214283.212,30.762,34.668,37.598,41.992,29.785,0
214283.216,26.855,38.574,37.598,37.598,33.203,0
214283.219,33.691,33.203,32.227,33.691,26.367,0
214283.223,44.434,30.273,40.039,39.551,33.203,0
214283.227,33.203,34.180,48.340,37.109,40.527,0
214283.231,20.508,33.203,43.457,22.461,40.039,0
214283.235,32.227,28.320,33.203,24.414,50.293,0
214283.239,48.340,31.250,28.320,41.504,52.734,0
214283.243,45.410,38.086,33.691,45.898,38.086,0
214283.245,27.832,36.621,37.109,28.320,32.715,0
214283.249,26.855,29.297,35.645,21.484,22.949,0
214283.253,43.945,28.320,40.039,38.574,21.973,0
214283.257,41.016,31.250,44.922,42.969,28.809,0
214283.261,27.832,35.156,45.410,28.320,25.879,0
214283.264,30.273,30.273,45.410,21.973,32.715,0
214283.268,46.875,30.273,46.387,35.156,40.527,0
214283.272,53.223,35.156,41.992,39.551,39.551,0
214283.276,34.180,32.715,35.156,26.855,40.527,0
214283.280,23.438,29.297,36.133,19.043,40.527,0
214283.284,35.156,28.320,34.668,27.832,47.363,0
214283.288,45.410,29.297,32.715,39.062,51.758,0
214283.291,31.738,27.832,34.180,29.785,41.504,0
214283.295,18.555,30.762,36.621,16.113,41.992,0
214283.299,31.250,36.133,37.598,24.414,55.176,0
214283.303,52.734,41.992,34.668,38.086,38.086,0
214283.307,35.645,39.062,28.320,25.879,-1.953,0
214283.311,11.230,34.668,33.203,7.812,-0.977,0
214283.315,16.602,32.715,39.551,11.719,20.996,0
214283.318,33.203,30.273,42.969,32.227,34.180,0
214283.322,33.691,32.715,45.898,39.551,29.785,0
214283.326,25.391,35.645,47.852,30.762,29.297,0
214283.330,28.320,38.086,48.828,29.785,44.434,0
214283.334,43.457,37.598,47.363,41.016,54.688,0
214283.336,49.316,34.180,37.598,47.363,42.969,0
214283.340,30.762,31.738,30.273,33.691,31.250,0
214283.344,18.066,31.250,32.227,20.996,31.250,0
214283.348,31.738,31.250,36.133,31.250,29.785,0
214283.352,43.945,30.762,41.016,41.504,24.414,0
214283.356,33.203,33.691,44.434,35.156,12.207,0
214283.360,20.996,36.621,42.480,25.391,19.043,0
214283.364,29.785,37.109,36.133,26.855,38.086,0
214283.368,45.898,34.180,37.109,38.086,41.504,0
214283.372,36.133,29.785,38.574,35.156,29.297,0
214283.375,16.602,29.785,37.109,21.973,29.785,0
214283.379,22.461,32.715,36.133,20.508,45.898,0
214283.380,44.922,32.227,37.109,36.133,58.594,0
214283.384,46.875,33.203,37.598,39.551,53.711,0
214283.388,29.297,36.621,40.527,27.832,37.598,0
214283.392,20.020,34.180,42.969,24.414,43.457,0
214283.396,25.879,27.344,37.598,30.273,43.945,0
214283.399,31.250,27.344,33.203,37.109,15.137,0
214283.403,15.625,32.715,25.879,26.367,-11.719,0
