timestamps,TP9,AF7,AF8,TP10,Right AUX,Marker0,Marker1,Marker2
149140.899,12.695,22.949,14.160,19.043,20.020,0.000,0.000,0.000
149140.902,8.789,22.461,14.648,15.625,21.484,0.000,0.000,0.000
149140.906,7.812,24.902,17.090,14.160,26.855,0.000,0.000,0.000
149140.910,9.277,28.320,20.508,14.160,31.738,0.000,0.000,0.000
149140.914,13.672,27.832,22.461,13.672,37.109,0.000,0.000,0.000
149140.918,22.949,28.320,21.484,15.137,45.410,0.000,0.000,0.000
149140.922,23.438,31.738,25.391,10.254,36.621,0.000,0.000,0.000
149140.926,25.391,33.691,26.367,10.254,34.180,0.000,0.000,0.000
149140.930,34.668,35.645,21.973,16.602,35.156,0.000,0.000,0.000
149140.934,37.598,38.086,22.461,19.043,37.109,0.000,0.000,0.000
149140.938,33.203,38.086,22.461,18.555,37.109,0.000,0.000,0.000
149140.942,29.785,33.691,17.090,18.555,23.438,0.000,0.000,0.000
149140.943,25.879,29.785,21.484,26.855,44.922,0.000,0.000,0.000
149140.947,16.602,24.902,25.391,27.832,70.801,0.000,0.000,0.000
149140.951,12.695,22.949,21.973,20.020,41.016,0.000,0.000,0.000
149140.955,13.184,20.996,21.484,20.020,19.043,0.000,0.000,0.000
149140.959,10.254,18.066,25.391,21.484,21.973,0.000,0.000,0.000
149140.963,3.418,18.555,27.344,20.996,19.043,0.000,0.000,0.000
149140.967,3.418,20.508,23.926,19.531,23.926,0.000,0.000,0.000
149140.970,11.230,23.438,25.879,9.766,20.996,0.000,0.000,0.000
149140.974,11.719,24.902,24.902,4.883,11.230,0.000,0.000,0.000
149140.978,11.719,27.832,20.020,9.766,16.602,0.000,0.000,0.000
149140.982,16.602,31.250,20.996,7.324,16.602,0.000,0.000,0.000
149140.986,20.996,30.273,18.066,4.883,12.695,0.000,0.000,0.000
149140.988,23.438,28.809,18.555,8.301,15.137,0.000,0.000,0.000
149140.992,20.020,33.203,22.949,20.020,15.625,0.000,0.000,0.000
149140.996,19.043,35.645,18.555,25.391,15.625,0.000,0.000,0.000
149141.000,20.508,35.156,14.648,5.859,16.602,0.000,0.000,0.000
149141.004,21.484,34.180,22.461,0.977,23.926,0.000,0.000,0.000
149141.008,28.320,34.668,25.391,15.625,37.109,0.000,0.000,0.000
149141.011,24.414,35.645,21.973,12.207,36.133,0.000,0.000,0.000
149141.015,17.578,33.203,24.902,9.766,35.645,0.000,0.000,0.000
149141.019,20.020,28.809,22.949,14.160,38.574,0.000,0.000,0.000
149141.023,19.043,28.320,17.090,16.113,31.250,0.000,0.000,0.000
149141.027,12.695,26.367,16.113,14.648,17.578,0.000,0.000,0.000
149141.031,12.207,27.344,17.090,7.324,15.137,0.000,0.000,0.000
149141.038,19.531,30.273,22.461,4.395,36.621,0.000,0.000,0.000
149141.042,16.113,29.297,27.832,11.230,40.039,0.000,0.000,0.000
149141.045,6.836,27.832,29.785,15.137,27.344,0.000,0.000,0.000
149141.049,6.348,22.461,24.902,13.184,26.855,0.000,0.000,0.000
149141.053,10.254,21.973,22.461,7.324,24.414,0.000,0.000,0.000
149141.057,9.277,25.391,24.902,1.953,20.996,0.000,0.000,0.000
149141.061,7.324,27.832,24.414,5.371,19.043,0.000,0.000,0.000
149141.065,9.277,31.738,24.414,3.418,20.508,0.000,0.000,0.000
149141.069,12.695,28.320,24.902,0.000,23.926,0.000,0.000,0.000
149141.073,13.672,22.949,21.484,-0.977,27.344,0.000,0.000,0.000
149141.077,10.254,24.414,18.066,2.441,27.344,0.000,0.000,0.000
149141.081,6.836,25.391,19.043,3.906,32.227,0.000,0.000,0.000
149141.079,3.906,21.973,19.531,-3.418,31.738,0.000,0.000,0.000
149141.082,7.324,22.949,18.066,-3.906,18.066,0.000,0.000,0.000
149141.086,7.812,26.367,14.160,2.930,16.113,0.000,0.000,0.000
149141.090,3.418,26.855,15.137,6.836,21.973,0.000,0.000,0.000
149141.094,7.324,25.879,18.555,-0.488,18.066,0.000,0.000,0.000
149141.098,10.254,27.832,19.043,-1.953,19.531,0.000,0.000,0.000
149141.102,9.766,29.297,18.555,7.324,27.832,0.000,0.000,0.000
149141.106,5.859,24.902,19.531,12.207,27.344,0.000,0.000,0.000
149141.110,6.348,20.996,21.484,10.254,27.832,0.000,0.000,0.000
149141.114,12.207,23.438,24.414,6.348,34.180,0.000,0.000,0.000
149141.118,15.137,26.855,23.926,9.277,35.156,0.000,0.000,0.000
149141.121,15.625,27.832,19.531,12.207,27.832,0.000,0.000,0.000
149141.123,16.602,28.320,20.020,5.859,25.879,0.000,0.000,0.000
149141.127,20.996,30.273,20.020,4.395,28.809,0.000,0.000,0.000
149141.130,25.879,33.203,19.531,5.859,30.273,0.000,0.000,0.000
149141.134,19.531,33.691,22.949,8.789,28.320,0.000,0.000,0.000
149141.138,12.207,32.715,22.949,6.836,27.832,0.000,0.000,0.000
149141.142,17.578,32.715,19.531,2.441,35.156,0.000,0.000,0.000
149141.146,23.438,27.832,21.484,5.859,42.480,0.000,0.000,0.000
149141.150,20.996,25.391,24.902,13.184,38.086,0.000,0.000,0.000
149141.154,16.113,31.738,27.832,16.602,35.645,0.000,0.000,0.000
149141.158,18.066,28.320,32.227,19.531,38.086,0.000,0.000,0.000
149141.162,18.555,26.367,29.785,17.090,32.227,0.000,0.000,0.000
149141.166,16.602,32.227,21.973,17.578,26.367,0.000,0.000,0.000
149141.167,14.648,30.273,19.531,19.043,24.414,0.000,0.000,0.000
149141.171,15.137,27.344,24.414,17.578,25.879,0.000,0.000,0.000
149141.175,15.625,27.344,24.902,13.184,25.879,0.000,0.000,0.000
149141.179,15.625,25.391,23.438,12.695,23.438,0.000,0.000,0.000
149141.183,11.230,24.902,23.438,13.184,21.484,0.000,0.000,0.000
149141.187,14.160,25.391,28.809,12.695,25.391,0.000,0.000,0.000
149141.191,16.113,24.414,31.738,12.695,28.809,0.000,0.000,0.000
149141.195,12.207,27.344,27.832,12.207,26.367,0.000,0.000,0.000
149141.199,11.719,27.344,23.926,12.207,24.902,0.000,0.000,0.000
149141.203,9.766,23.926,23.438,11.719,21.973,0.000,0.000,0.000
149141.207,13.672,28.320,24.414,13.672,27.344,0.000,0.000,0.000
149141.210,21.484,31.738,22.461,11.719,33.203,0.000,0.000,0.000
149141.212,19.043,27.832,21.484,13.672,26.855,0.000,0.000,0.000
149141.216,19.043,28.320,27.344,22.949,28.320,0.000,0.000,0.000
149141.220,24.902,31.738,29.297,22.949,34.668,0.000,0.000,0.000
149141.224,25.391,30.762,20.996,19.043,27.344,0.000,0.000,0.000
149141.228,21.484,25.391,10.254,24.902,25.879,0.000,0.000,0.000
149141.232,19.043,24.902,12.207,32.715,35.156,0.000,0.000,0.000
149141.236,18.555,30.273,23.926,25.879,28.809,0.000,0.000,0.000
149141.240,16.113,27.832,32.715,19.531,22.461,0.000,0.000,0.000
149141.244,14.160,24.902,31.738,21.973,31.250,0.000,0.000,0.000
149141.248,11.719,27.832,24.902,22.949,37.598,0.000,0.000,0.000
149141.252,13.184,26.367,25.879,21.484,28.809,0.000,0.000,0.000
149141.255,13.672,21.973,32.227,15.137,26.367,0.000,0.000,0.000
149141.259,13.672,22.461,31.250,11.719,26.367,0.000,0.000,0.000
149141.263,18.555,23.926,27.344,19.043,27.344,0.000,0.000,0.000
149141.267,17.090,24.902,27.344,21.484,20.020,0.000,0.000,0.000
149141.271,18.066,25.879,26.855,20.508,23.438,0.000,0.000,0.000
149141.274,22.949,27.344,27.832,20.020,36.621,0.000,0.000,0.000
149141.278,23.926,27.344,31.738,22.461,28.809,0.000,0.000,0.000
149141.282,21.973,28.320,28.320,21.973,21.484,0.000,0.000,0.000
149141.286,22.949,31.250,28.320,21.484,25.391,0.000,0.000,0.000
149141.290,29.785,30.273,30.762,21.973,33.691,0.000,0.000,0.000
149141.294,26.367,27.344,26.855,25.879,30.762,0.000,0.000,0.000
149141.298,16.113,21.484,23.438,26.367,18.066,0.000,0.000,0.000
149141.302,13.672,16.113,20.020,15.137,13.672,0.000,0.000,0.000
149141.318,13.672,18.066,20.020,12.207,11.230,0.000,0.000,0.000
149141.322,17.578,24.902,22.461,15.137,11.230,0.000,0.000,0.000
149141.326,16.602,26.367,25.879,17.578,17.090,0.000,0.000,0.000
149141.329,14.160,27.832,24.414,16.602,16.113,0.000,0.000,0.000
149141.333,11.719,27.832,20.020,10.742,11.719,0.000,0.000,0.000
149141.337,16.602,25.879,20.996,9.277,8.301,0.000,0.000,0.000
149141.341,17.090,25.391,28.320,11.719,10.254,2.000,1.000,45.000
149141.345,11.230,23.926,32.227,15.625,19.043,0.000,0.000,0.000
149141.349,9.277,21.484,34.180,16.113,26.855,0.000,0.000,0.000
149141.353,10.254,23.438,28.320,9.277,20.996,0.000,0.000,0.000
149141.357,11.230,28.320,23.926,10.254,10.254,0.000,0.000,0.000
149141.361,12.207,29.297,24.902,19.531,19.531,0.000,0.000,0.000
149141.363,10.742,25.879,23.438,18.066,23.926,0.000,0.000,0.000
149141.367,15.137,24.902,26.855,12.695,16.602,0.000,0.000,0.000
149141.371,18.066,23.438,30.273,14.160,15.625,0.000,0.000,0.000
149141.375,16.602,24.902,30.762,13.184,25.391,0.000,0.000,0.000
149141.379,19.531,27.344,32.227,13.672,33.691,0.000,0.000,0.000
149141.382,22.949,23.926,31.738,14.648,37.598,0.000,0.000,0.000
149141.386,20.996,19.043,22.461,11.230,29.297,0.000,0.000,0.000
149141.390,19.531,20.996,18.066,14.648,20.996,0.000,0.000,0.000
149141.394,22.461,31.250,26.855,23.438,32.227,0.000,0.000,0.000
149141.398,24.414,35.645,31.738,19.531,41.504,0.000,0.000,0.000
149141.402,28.809,32.227,28.809,13.184,40.039,0.000,0.000,0.000
149141.406,25.879,33.691,24.902,18.555,37.109,0.000,0.000,0.000
149141.408,23.926,34.668,20.996,24.414,38.086,0.000,0.000,0.000
149141.412,28.809,32.227,24.902,22.461,39.551,0.000,0.000,0.000
149141.416,30.762,33.691,34.180,23.438,47.852,0.000,0.000,0.000
149141.420,25.391,32.227,35.645,27.344,55.664,0.000,0.000,0.000
149141.424,22.461,28.809,27.832,29.785,51.270,0.000,0.000,0.000
149141.428,24.902,31.738,23.438,25.391,45.410,0.000,0.000,0.000
149141.432,26.855,30.273,22.461,17.578,41.504,0.000,0.000,0.000
149141.436,28.320,26.855,20.996,18.066,39.062,0.000,0.000,0.000
149141.439,21.973,26.855,17.090,20.996,40.039,0.000,0.000,0.000
149141.443,21.484,28.809,13.672,21.484,46.387,0.000,0.000,0.000
149141.447,25.879,32.715,21.484,18.555,43.457,0.000,0.000,0.000
149141.451,26.367,34.180,24.902,17.090,25.391,0.000,0.000,0.000
149141.454,27.344,32.715,26.855,20.020,14.160,0.000,0.000,0.000
149141.458,20.020,30.762,35.645,23.438,11.719,0.000,0.000,0.000
149141.461,18.555,30.273,32.227,23.438,20.996,0.000,0.000,0.000
149141.465,25.391,29.297,22.461,21.484,36.133,0.000,0.000,0.000
149141.469,23.926,32.715,17.090,20.508,46.387,0.000,0.000,0.000
149141.473,20.508,32.227,17.578,17.578,50.781,0.000,0.000,0.000
149141.477,19.043,29.785,16.113,17.090,60.059,0.000,0.000,0.000
149141.481,18.555,29.297,13.672,16.113,66.406,0.000,0.000,0.000
149141.485,15.625,29.785,16.602,15.137,66.895,0.000,0.000,0.000
149141.489,8.301,27.832,19.043,20.020,56.152,0.000,0.000,0.000
149141.493,7.812,26.367,20.020,18.555,44.922,0.000,0.000,0.000
149141.497,12.207,29.785,21.973,7.812,41.504,0.000,0.000,0.000
149141.500,10.254,27.832,24.902,4.395,36.133,0.000,0.000,0.000
149141.504,11.230,26.367,21.973,6.836,35.645,0.000,0.000,0.000
149141.508,11.230,27.344,19.531,6.348,28.320,0.000,0.000,0.000
149141.512,11.230,25.879,20.020,1.953,26.367,0.000,0.000,0.000
149141.516,14.160,24.414,20.020,0.000,22.949,0.000,0.000,0.000
149141.520,5.859,21.973,21.973,2.441,21.484,0.000,0.000,0.000
149141.523,0.488,20.996,18.555,7.324,31.250,0.000,0.000,0.000
149141.527,5.859,22.949,18.555,10.254,29.297,0.000,0.000,0.000
149141.531,10.254,20.020,20.996,7.324,25.391,0.000,0.000,0.000
149141.535,11.719,20.020,22.461,15.625,29.785,0.000,0.000,0.000
149141.539,11.719,23.438,23.438,24.902,31.738,0.000,0.000,0.000
149141.543,11.230,21.973,25.391,22.461,29.297,0.000,0.000,0.000
149141.543,12.207,20.996,25.879,20.508,19.043,0.000,0.000,0.000
149141.547,11.719,20.020,29.297,25.879,11.719,0.000,0.000,0.000
149141.551,13.184,16.602,33.203,31.738,19.531,0.000,0.000,0.000
149141.555,16.602,23.438,30.762,19.043,17.578,0.000,0.000,0.000
149141.559,6.348,28.320,28.320,1.953,-1.953,0.000,0.000,0.000
149141.563,0.000,26.367,26.367,2.930,-9.766,0.000,0.000,0.000
149141.567,6.836,27.832,23.438,13.672,7.324,0.000,0.000,0.000
149141.571,12.695,28.320,20.508,16.113,11.230,0.000,0.000,0.000
149141.575,16.113,24.902,20.996,9.277,25.391,0.000,0.000,0.000
149141.579,22.461,25.391,21.973,14.648,44.922,0.000,0.000,0.000
149141.583,25.879,27.832,24.414,28.320,33.203,0.000,0.000,0.000
149141.586,26.367,27.832,24.414,35.645,39.062,0.000,0.000,0.000
149141.589,32.715,28.320,26.855,34.668,50.293,0.000,0.000,0.000
149141.593,36.133,27.832,30.762,34.668,50.781,0.000,0.000,0.000
149141.596,30.273,27.344,29.785,38.574,47.852,0.000,0.000,0.000
149141.600,25.879,29.297,31.250,43.945,44.434,0.000,0.000,0.000
149141.604,26.367,32.227,35.156,43.945,45.410,0.000,0.000,0.000
149141.608,26.855,31.250,38.574,39.551,50.293,0.000,0.000,0.000
149141.612,27.832,28.320,39.551,34.180,50.781,0.000,0.000,0.000
149141.616,25.391,27.832,34.180,32.227,35.645,0.000,0.000,0.000
149141.620,17.578,29.785,25.879,29.297,28.809,0.000,0.000,0.000
149141.624,15.137,33.203,21.973,24.902,29.785,0.000,0.000,0.000
149141.628,17.578,35.156,16.113,24.414,27.344,0.000,0.000,0.000
149141.632,14.160,34.668,12.207,20.508,23.926,0.000,0.000,0.000
149141.648,13.672,35.645,19.531,18.066,23.438,0.000,0.000,0.000
149141.652,21.484,36.133,28.809,18.555,27.832,0.000,0.000,0.000
149141.656,27.344,29.785,30.273,15.625,21.484,0.000,0.000,0.000
149141.660,26.855,26.855,28.809,20.020,21.484,0.000,0.000,0.000
149141.664,22.461,29.785,29.785,25.391,22.949,0.000,0.000,0.000
149141.668,21.484,29.297,28.809,22.461,28.320,0.000,0.000,0.000
149141.672,22.461,29.297,25.879,17.578,37.598,0.000,0.000,0.000
149141.676,20.508,33.203,20.996,15.625,37.598,0.000,0.000,0.000
149141.680,16.113,32.715,18.066,14.160,29.785,0.000,0.000,0.000
149141.683,17.578,32.227,14.648,12.207,20.508,0.000,0.000,0.000
149141.687,20.508,34.668,3.906,8.789,21.484,0.000,0.000,0.000
149141.691,11.719,33.203,11.719,2.441,19.531,0.000,0.000,0.000
149141.694,5.859,28.320,25.391,1.953,17.578,0.000,0.000,0.000
149141.698,7.324,27.344,26.855,5.371,19.531,0.000,0.000,0.000
149141.701,11.230,27.832,31.250,3.418,23.438,0.000,0.000,0.000
149141.705,13.672,28.809,31.250,2.930,20.020,0.000,0.000,0.000
149141.709,12.207,31.738,25.391,8.301,17.090,0.000,0.000,0.000
149141.713,10.742,30.762,19.531,8.789,20.996,0.000,0.000,0.000
149141.717,8.301,30.273,18.066,1.465,21.484,0.000,0.000,0.000
149141.721,8.789,28.809,22.461,0.488,22.949,0.000,0.000,0.000
149141.725,9.766,26.855,20.996,4.395,15.137,0.000,0.000,0.000
149141.729,11.230,27.832,16.602,7.812,12.207,0.000,0.000,0.000
149141.733,8.301,26.855,17.090,5.371,7.324,0.000,0.000,0.000
149141.737,10.742,26.367,24.414,2.930,6.836,0.000,0.000,0.000
149141.740,14.160,29.297,28.809,7.324,12.695,0.000,0.000,0.000
149141.744,13.672,30.273,25.391,12.695,23.926,0.000,0.000,0.000
149141.748,18.555,29.297,21.484,13.184,27.832,0.000,0.000,0.000
149141.752,21.973,32.715,18.066,7.324,18.555,0.000,0.000,0.000
149141.756,17.578,34.180,16.602,5.859,27.832,0.000,0.000,0.000
149141.759,12.695,32.715,17.090,8.301,22.949,0.000,0.000,0.000
149141.763,12.207,28.320,18.066,8.789,11.719,0.000,0.000,0.000
149141.767,19.043,24.414,20.996,8.301,18.555,0.000,0.000,0.000
149141.771,21.973,27.832,21.973,11.230,26.855,0.000,0.000,0.000
149141.775,24.414,32.227,21.973,19.043,38.086,0.000,0.000,0.000
149141.779,20.020,27.832,20.996,17.578,36.621,0.000,0.000,0.000
149141.783,18.066,27.344,19.043,17.578,34.668,0.000,0.000,0.000
149141.784,24.902,28.320,21.973,18.066,34.180,0.000,0.000,0.000
149141.787,20.020,25.879,23.926,13.184,28.809,0.000,0.000,0.000
149141.791,14.648,25.879,22.949,12.207,28.320,0.000,0.000,0.000
149141.795,9.277,27.832,24.414,8.789,33.203,0.000,0.000,0.000
149141.799,9.766,28.320,25.879,8.789,33.691,0.000,0.000,0.000
149141.803,14.648,30.762,20.508,10.254,31.250,0.000,0.000,0.000
149141.807,12.695,31.738,15.137,10.254,29.297,0.000,0.000,0.000
149141.811,8.301,27.344,13.672,11.230,23.438,0.000,0.000,0.000
149141.815,11.719,25.879,15.625,8.301,23.438,0.000,0.000,0.000
149141.819,16.602,25.879,20.020,10.254,30.762,0.000,0.000,0.000
149141.823,17.578,25.879,22.461,20.996,36.621,0.000,0.000,0.000
149141.827,17.090,28.320,19.531,25.391,31.250,0.000,0.000,0.000
149141.828,21.484,31.738,19.043,20.996,30.762,0.000,0.000,0.000
149141.832,22.949,27.832,23.438,17.090,28.320,0.000,0.000,0.000
149141.836,18.555,27.344,24.414,17.578,21.484,0.000,0.000,0.000
149141.840,20.508,34.180,23.926,23.926,31.738,0.000,0.000,0.000
149141.844,21.484,34.668,22.949,23.438,32.715,0.000,0.000,0.000
149141.848,20.020,35.645,24.414,19.043,25.879,0.000,0.000,0.000
149141.852,17.090,34.668,21.484,18.555,23.926,0.000,0.000,0.000
149141.855,14.648,32.715,20.020,22.949,27.344,0.000,0.000,0.000
149141.859,15.625,32.227,23.926,20.996,36.621,0.000,0.000,0.000
149141.863,15.137,27.832,23.926,13.672,33.203,0.000,0.000,0.000
149141.867,19.531,26.855,22.949,18.555,29.785,0.000,0.000,0.000
149141.871,16.602,28.320,25.879,21.484,36.133,0.000,0.000,0.000
149141.873,13.672,27.344,24.414,17.578,35.156,0.000,0.000,0.000
149141.877,21.484,26.367,28.320,18.555,32.715,0.000,0.000,0.000
149141.881,20.508,28.320,29.297,16.113,28.809,0.000,0.000,0.000
149141.885,15.625,26.855,20.996,12.207,28.809,0.000,0.000,0.000
149141.889,15.625,26.855,22.461,13.184,38.574,0.000,0.000,0.000
149141.893,15.137,28.809,26.855,9.277,39.062,0.000,0.000,0.000
149141.897,17.578,28.809,27.344,8.301,38.574,0.000,0.000,0.000
149141.901,16.602,25.879,25.879,13.672,41.504,0.000,0.000,0.000
149141.905,13.672,22.949,24.902,14.648,32.227,0.000,0.000,0.000
149141.909,12.207,25.391,29.785,9.766,35.156,0.000,0.000,0.000
149141.913,9.277,26.855,31.738,12.207,36.621,0.000,0.000,0.000
149141.916,12.695,26.367,21.484,19.043,25.391,0.000,0.000,0.000
149141.918,14.648,25.391,12.207,20.996,23.926,0.000,0.000,0.000
149141.922,8.789,22.461,19.043,16.113,17.578,0.000,0.000,0.000
149141.926,0.488,20.020,26.855,9.277,4.883,0.000,0.000,0.000
149141.930,2.441,20.996,27.344,7.812,8.789,0.000,0.000,0.000
149141.934,4.395,23.438,28.320,11.230,11.230,0.000,0.000,0.000
149141.938,0.488,21.973,29.785,10.742,3.906,0.000,0.000,0.000
149141.942,5.371,21.484,31.738,10.742,12.695,0.000,0.000,0.000
149141.946,15.137,22.461,33.691,15.137,22.461,0.000,0.000,0.000
149141.950,11.719,22.461,29.785,16.113,21.973,0.000,0.000,0.000
149141.954,11.230,24.414,22.461,14.648,29.297,0.000,0.000,0.000
149141.957,10.742,22.461,22.461,12.695,33.203,0.000,0.000,0.000
149141.961,8.789,19.043,26.367,13.672,32.227,0.000,0.000,0.000
149141.964,13.184,20.020,30.762,18.066,34.668,0.000,0.000,0.000
149141.968,11.230,24.414,31.250,20.508,25.391,0.000,0.000,0.000
149141.972,14.160,28.809,22.949,15.137,14.648,0.000,0.000,0.000
149141.976,20.508,32.227,20.508,10.254,13.672,0.000,0.000,0.000
149141.980,16.602,30.762,23.926,9.766,18.066,0.000,0.000,0.000
149141.984,11.719,27.832,25.391,12.695,19.043,0.000,0.000,0.000
149141.988,10.742,30.273,21.973,14.648,11.230,0.000,0.000,0.000
149141.992,12.695,33.203,19.531,10.254,13.672,0.000,0.000,0.000
149141.996,14.160,32.715,16.113,5.371,17.090,0.000,0.000,0.000
149142.000,10.254,33.691,16.113,6.836,6.836,0.000,0.000,0.000
149142.004,9.766,30.762,26.855,9.766,20.020,0.000,0.000,0.000
149142.007,12.207,22.461,31.738,4.395,67.383,0.000,0.000,0.000
149142.024,11.230,24.414,28.320,0.488,70.312,0.000,0.000,0.000
149142.027,10.742,26.367,26.855,5.859,26.367,0.000,0.000,0.000
149142.031,6.836,24.902,26.855,12.207,6.348,0.000,0.000,0.000
149142.035,3.418,23.926,30.273,6.348,-9.277,0.000,0.000,0.000
149142.039,5.371,22.949,34.180,-0.488,-3.906,0.000,0.000,0.000
149142.043,13.184,25.879,30.762,5.859,19.043,0.000,0.000,0.000
149142.047,20.020,28.809,23.926,9.277,12.695,0.000,0.000,0.000
149142.051,20.996,27.832,20.996,10.742,4.883,0.000,0.000,0.000
149142.055,21.973,28.809,26.367,16.602,16.113,0.000,0.000,0.000
149142.059,20.996,29.785,31.250,18.066,17.578,0.000,0.000,0.000
149142.063,20.020,25.391,28.320,20.020,15.137,0.000,0.000,0.000
149142.067,17.578,24.414,26.367,20.020,16.602,0.000,0.000,0.000
149142.068,13.184,27.344,30.762,16.113,19.043,0.000,0.000,0.000
149142.072,16.113,32.715,36.621,18.066,24.414,0.000,0.000,0.000
149142.076,19.531,32.227,41.016,27.344,32.715,0.000,0.000,0.000
149142.080,20.508,29.297,40.039,28.809,40.527,0.000,0.000,0.000
149142.084,24.414,31.738,35.156,23.926,37.598,0.000,0.000,0.000
149142.088,24.902,31.250,33.203,23.926,32.227,0.000,0.000,0.000
149142.092,19.531,31.738,34.180,28.809,31.250,0.000,0.000,0.000
149142.096,21.973,32.227,33.203,30.273,34.668,0.000,0.000,0.000
149142.100,22.949,29.785,32.227,28.809,34.668,0.000,0.000,0.000
149142.103,23.438,29.785,28.320,16.113,27.832,0.000,0.000,0.000
149142.107,19.531,30.762,30.273,9.277,30.273,0.000,0.000,0.000
149142.111,14.160,30.273,36.621,16.113,33.203,0.000,0.000,0.000
149142.114,13.184,31.250,36.621,15.625,25.391,0.000,0.000,0.000
149142.117,12.695,32.227,35.645,16.602,27.344,0.000,0.000,0.000
149142.121,13.184,29.297,33.203,20.996,34.180,0.000,0.000,0.000
149142.125,15.625,24.902,32.227,26.367,32.227,0.000,0.000,0.000
149142.129,19.531,26.855,32.227,26.855,28.320,0.000,0.000,0.000
149142.133,20.996,29.785,25.879,21.973,23.926,0.000,0.000,0.000
149142.137,26.855,29.297,24.902,23.926,25.879,0.000,0.000,0.000
149142.141,24.902,29.297,31.738,28.809,28.320,0.000,0.000,0.000
149142.145,16.113,30.762,33.203,23.438,29.785,0.000,0.000,0.000
149142.149,19.043,34.180,27.344,15.137,32.227,0.000,0.000,0.000
149142.153,21.484,36.621,24.414,13.184,31.738,0.000,0.000,0.000
149142.156,24.902,37.109,28.809,19.043,40.039,0.000,0.000,0.000
149142.159,26.367,33.203,30.762,23.926,50.293,0.000,0.000,0.000
149142.162,23.926,30.762,25.391,20.020,53.711,0.000,0.000,0.000
149142.166,23.926,30.273,20.996,14.160,45.410,0.000,0.000,0.000
149142.170,20.020,28.809,20.996,17.578,33.203,0.000,0.000,0.000
149142.174,11.719,26.367,21.973,19.531,26.367,0.000,0.000,0.000
149142.178,12.695,25.391,19.531,15.137,21.973,0.000,0.000,0.000
149142.182,15.625,23.926,19.531,11.719,21.484,0.000,0.000,0.000
149142.186,14.648,22.461,26.855,10.254,21.973,0.000,0.000,0.000
149142.190,15.625,25.879,29.785,12.695,30.273,0.000,0.000,0.000
149142.194,18.555,26.855,25.879,8.789,35.156,0.000,0.000,0.000
149142.198,21.973,26.367,21.484,4.883,32.715,0.000,0.000,0.000
149142.201,22.461,27.832,21.484,11.230,34.668,0.000,0.000,0.000
149142.205,20.996,26.855,27.344,17.578,32.227,0.000,0.000,0.000
149142.209,20.996,28.320,27.832,17.090,30.762,0.000,0.000,0.000
149142.213,21.973,31.738,24.414,18.555,32.227,0.000,0.000,0.000
149142.217,18.555,27.832,23.438,17.090,32.227,0.000,0.000,0.000
149142.221,11.230,23.926,25.391,13.672,24.414,0.000,0.000,0.000
149142.224,8.301,22.461,27.344,16.602,20.020,0.000,0.000,0.000
149142.228,13.184,23.438,25.391,11.719,18.066,0.000,0.000,0.000
149142.232,14.160,25.879,25.391,8.789,15.137,0.000,0.000,0.000
149142.236,14.648,28.809,29.297,13.184,20.020,0.000,0.000,0.000
149142.240,16.602,28.320,30.762,15.137,28.320,0.000,0.000,0.000
149142.244,15.625,25.391,29.297,14.648,36.133,0.000,0.000,0.000
149142.248,21.973,28.320,23.926,10.254,47.852,0.000,0.000,0.000
149142.248,20.996,30.273,22.949,12.207,38.574,0.000,0.000,0.000
149142.252,18.066,28.320,24.902,17.090,48.340,0.000,0.000,0.000
149142.256,20.508,28.320,25.391,19.531,90.332,0.000,0.000,0.000
149142.260,20.020,29.785,25.391,18.066,62.500,0.000,0.000,0.000
149142.264,20.996,35.156,24.414,15.137,30.273,0.000,0.000,0.000
149142.268,19.043,34.180,22.949,17.090,32.715,0.000,0.000,0.000
149142.272,17.578,27.832,29.785,19.043,30.273,0.000,0.000,0.000
149142.275,16.602,27.832,34.180,10.742,30.762,0.000,0.000,0.000
149142.279,16.113,28.320,27.344,3.906,32.715,0.000,0.000,0.000
149142.283,18.555,24.902,20.508,5.859,23.926,0.000,0.000,0.000
149142.287,22.949,28.320,21.484,10.254,24.902,0.000,0.000,0.000
149142.291,21.973,34.180,26.367,8.789,25.879,0.000,0.000,0.000
149142.293,23.926,35.645,23.438,8.301,28.809,0.000,0.000,0.000
149142.297,22.949,31.250,22.461,11.230,31.738,0.000,0.000,0.000
149142.301,13.184,29.785,28.809,12.207,33.203,0.000,0.000,0.000
149142.305,11.719,34.180,29.785,12.695,30.762,0.000,0.000,0.000
149142.309,13.672,31.738,27.832,8.301,15.137,0.000,0.000,0.000
149142.313,15.137,29.297,26.855,9.277,15.625,0.000,0.000,0.000
149142.317,15.137,35.156,26.855,16.602,22.949,0.000,0.000,0.000
149142.321,13.184,35.156,25.879,15.137,16.602,0.000,0.000,0.000
149142.324,16.602,33.691,24.902,9.766,14.160,0.000,0.000,0.000
149142.328,19.043,35.156,27.344,11.230,20.508,0.000,0.000,0.000
149142.332,20.996,35.645,28.809,19.531,29.297,0.000,0.000,0.000
149142.336,21.484,34.180,29.297,27.832,31.250,0.000,0.000,0.000
149142.339,19.043,32.715,25.879,24.902,26.855,0.000,0.000,0.000
149142.342,21.973,36.621,20.020,15.625,27.344,0.000,0.000,0.000
149142.346,21.973,36.133,19.531,18.555,28.320,0.000,0.000,0.000
149142.350,17.578,32.715,24.902,26.367,25.879,0.000,0.000,0.000
149142.354,15.137,29.785,26.367,23.438,22.461,0.000,0.000,0.000
149142.358,20.020,28.809,24.414,18.555,22.949,0.000,0.000,0.000
149142.362,25.879,29.785,23.926,24.414,26.367,0.000,0.000,0.000
149142.366,24.902,34.180,25.391,28.809,28.809,0.000,0.000,0.000
149142.370,23.926,34.180,27.832,26.367,32.715,0.000,0.000,0.000
149142.374,27.832,31.738,24.414,23.926,35.156,0.000,0.000,0.000
149142.378,24.902,31.738,24.414,25.879,26.855,0.000,0.000,0.000
149142.381,17.090,30.273,24.414,23.438,22.949,0.000,0.000,0.000
149142.385,20.508,30.762,22.461,21.973,20.508,0.000,0.000,0.000
149142.389,23.438,31.738,29.297,22.949,12.695,0.000,0.000,0.000
149142.393,17.578,32.227,30.273,16.113,10.742,0.000,0.000,0.000
149142.397,9.766,27.344,22.461,13.184,3.418,0.000,0.000,0.000
149142.401,5.859,28.320,21.973,14.648,-7.324,0.000,0.000,0.000
149142.404,8.301,30.762,26.855,11.230,-4.883,0.000,0.000,0.000
149142.408,12.695,26.367,31.738,11.719,5.859,0.000,0.000,0.000
149142.412,13.672,25.879,29.785,15.137,9.766,0.000,0.000,0.000
149142.416,14.160,25.879,25.391,20.508,12.207,0.000,0.000,0.000
149142.420,15.625,22.461,25.879,22.461,15.625,0.000,0.000,0.000
149142.424,19.043,23.438,26.367,17.578,20.996,0.000,0.000,0.000
149142.428,19.043,26.367,26.367,13.184,25.391,0.000,0.000,0.000
149142.444,15.625,28.809,25.391,14.160,24.902,0.000,0.000,0.000
149142.447,14.160,29.297,26.855,17.090,23.438,0.000,0.000,0.000
149142.451,15.625,24.902,30.273,15.625,26.367,0.000,0.000,0.000
149142.455,21.973,24.902,29.785,18.066,35.645,0.000,0.000,0.000
149142.459,18.555,28.809,24.902,15.625,41.992,0.000,0.000,0.000
149142.463,13.672,27.344,20.508,16.113,35.156,0.000,0.000,0.000
149142.467,15.137,24.414,21.484,18.555,31.250,0.000,0.000,0.000
149142.471,12.695,24.414,26.367,14.160,38.086,0.000,0.000,0.000
149142.475,14.160,23.438,29.297,13.672,37.109,0.000,0.000,0.000
149142.479,8.789,23.926,27.832,13.672,24.414,0.000,0.000,0.000
149142.483,4.883,26.367,24.902,11.719,18.555,0.000,0.000,0.000
149142.486,11.230,28.809,21.973,10.254,22.461,0.000,0.000,0.000
149142.489,18.555,30.762,15.625,14.160,28.320,0.000,0.000,0.000
149142.492,16.602,29.785,10.742,17.090,22.949,0.000,0.000,0.000
149142.496,13.184,27.344,12.207,11.230,23.438,0.000,0.000,0.000
149142.500,17.578,24.902,16.602,10.254,26.367,0.000,0.000,0.000
149142.504,16.113,25.879,23.438,12.695,28.809,0.000,0.000,0.000
149142.508,11.719,23.926,25.391,17.578,33.691,0.000,0.000,0.000
149142.512,13.184,20.996,26.367,22.461,31.250,0.000,0.000,0.000
149142.516,17.578,25.879,26.855,20.996,37.598,0.000,0.000,0.000
149142.520,24.902,28.320,27.832,21.973,34.180,0.000,0.000,0.000
149142.524,26.367,28.320,29.297,25.391,31.738,0.000,0.000,0.000
149142.528,15.137,29.297,19.043,20.020,32.715,0.000,0.000,0.000
149142.531,16.602,26.367,14.648,13.184,42.480,0.000,0.000,0.000
149142.534,22.461,25.391,19.043,15.137,43.457,0.000,0.000,0.000
149142.538,21.484,27.832,19.043,21.484,35.156,0.000,0.000,0.000
149142.541,20.996,26.855,18.555,23.438,37.109,0.000,0.000,0.000
149142.545,19.531,26.855,20.996,17.090,40.527,0.000,0.000,0.000
149142.549,19.043,24.902,29.297,13.184,41.504,0.000,0.000,0.000
149142.553,21.484,23.438,33.203,18.555,33.691,0.000,0.000,0.000
149142.557,19.043,25.391,28.320,21.973,33.203,0.000,0.000,0.000
149142.561,17.090,26.367,24.414,23.438,46.875,0.000,0.000,0.000
149142.565,23.438,25.879,19.043,18.066,45.898,0.000,0.000,0.000
149142.569,18.555,25.879,15.625,9.766,33.203,0.000,0.000,0.000
149142.573,9.766,25.391,18.066,10.742,30.273,0.000,0.000,0.000
149142.577,7.812,26.855,20.996,7.324,29.297,0.000,0.000,0.000
149142.578,9.277,26.367,27.832,0.977,26.367,0.000,0.000,0.000
149142.582,13.184,25.391,30.273,2.930,29.297,0.000,0.000,0.000
149142.586,8.789,23.926,24.902,4.883,23.438,0.000,0.000,0.000
149142.590,4.883,25.391,22.461,4.883,16.602,0.000,0.000,0.000
149142.594,8.301,26.855,24.902,4.395,18.555,0.000,0.000,0.000
149142.598,11.230,30.273,25.391,2.930,20.508,0.000,0.000,0.000
149142.602,11.719,33.691,21.973,6.348,28.809,0.000,0.000,0.000
149142.606,15.625,36.133,26.855,15.625,33.691,0.000,0.000,0.000
149142.610,18.066,36.621,33.203,19.531,33.203,0.000,0.000,0.000
149142.614,19.043,34.180,29.785,15.137,32.227,0.000,0.000,0.000
149142.617,20.996,32.227,31.250,14.648,38.086,0.000,0.000,0.000
149142.621,23.926,33.203,32.715,22.949,40.039,0.000,0.000,0.000
149142.623,20.508,32.715,30.273,23.438,27.832,0.000,0.000,0.000
149142.627,19.531,26.855,29.785,17.090,23.926,0.000,0.000,0.000
149142.631,23.438,28.809,27.832,17.090,28.320,0.000,0.000,0.000
149142.634,18.555,34.668,27.344,20.508,30.762,0.000,0.000,0.000
149142.638,14.160,30.762,30.762,18.066,24.414,0.000,0.000,0.000
149142.642,16.113,29.297,32.227,13.184,17.090,0.000,0.000,0.000
149142.646,16.602,31.250,29.297,11.719,15.625,0.000,0.000,0.000
149142.650,13.672,31.738,28.320,11.719,15.137,0.000,0.000,0.000
149142.654,10.254,29.785,29.785,9.766,20.508,0.000,0.000,0.000
149142.658,11.230,27.344,27.344,7.812,58.105,0.000,0.000,0.000
149142.662,17.090,26.367,22.461,6.348,50.293,0.000,0.000,0.000
149142.666,21.973,23.926,19.531,2.930,24.902,0.000,0.000,0.000
149142.669,20.996,24.414,21.484,8.789,33.203,0.000,0.000,0.000
149142.673,20.020,25.879,27.832,12.695,40.039,0.000,0.000,0.000
149142.677,25.879,26.855,33.203,16.113,45.898,0.000,0.000,0.000
149142.681,26.855,25.391,33.203,16.113,46.387,0.000,0.000,0.000
149142.684,21.484,25.879,25.391,18.555,41.504,0.000,0.000,0.000
149142.688,17.578,27.344,29.297,25.391,32.715,0.000,0.000,0.000
149142.692,15.625,24.902,36.621,20.996,24.902,0.000,0.000,0.000
149142.696,13.184,25.879,29.297,14.648,20.996,0.000,0.000,0.000
149142.700,10.254,26.855,24.902,20.020,14.648,0.000,0.000,0.000
149142.704,8.789,28.320,28.809,26.367,11.230,0.000,0.000,0.000
149142.708,2.441,28.320,25.879,13.672,8.789,0.000,0.000,0.000
149142.712,4.883,25.391,21.973,1.953,6.836,0.000,0.000,0.000
149142.712,11.719,23.438,25.879,6.348,8.301,0.000,0.000,0.000
149142.716,8.789,26.855,25.879,9.766,9.766,0.000,0.000,0.000
149142.720,8.301,25.391,25.879,7.324,13.672,0.000,0.000,0.000
149142.724,14.160,25.879,22.949,6.348,18.555,0.000,0.000,0.000
149142.728,14.648,27.832,12.695,10.254,21.973,0.000,0.000,0.000
149142.732,9.277,28.320,14.160,16.113,16.602,0.000,0.000,0.000
149142.736,7.812,28.809,22.949,15.137,9.766,0.000,0.000,0.000
149142.740,8.301,27.832,19.531,8.789,15.625,0.000,0.000,0.000
149142.744,5.859,26.855,18.555,5.859,18.555,0.000,0.000,0.000
149142.748,3.906,25.391,24.902,9.277,8.789,0.000,0.000,0.000
149142.752,6.836,25.391,24.902,17.578,8.301,0.000,0.000,0.000
149142.755,10.742,28.809,23.438,14.648,13.184,0.000,0.000,0.000
149142.772,4.395,25.879,23.438,5.859,9.766,0.000,0.000,0.000
149142.776,1.953,22.461,23.438,10.742,17.090,0.000,0.000,0.000
149142.780,4.395,23.926,26.855,16.113,28.809,0.000,0.000,0.000
149142.784,5.371,26.855,28.809,12.695,28.809,0.000,0.000,0.000
149142.788,8.789,28.809,27.832,10.742,28.809,0.000,0.000,0.000
149142.792,9.766,25.391,25.391,11.230,30.273,0.000,0.000,0.000
149142.796,13.184,28.809,26.367,19.043,34.668,0.000,0.000,0.000
149142.800,15.625,30.273,28.320,20.508,36.621,0.000,0.000,0.000
149142.804,15.137,24.414,24.902,15.625,31.738,0.000,0.000,0.000
149142.808,15.137,24.902,20.996,14.160,32.715,0.000,0.000,0.000
149142.812,15.137,25.879,21.484,16.113,37.109,0.000,0.000,0.000
149142.815,18.066,25.391,25.391,19.043,28.809,0.000,0.000,0.000
149142.818,19.531,28.320,27.344,16.602,23.438,0.000,0.000,0.000
149142.822,23.438,27.344,25.391,15.137,29.297,0.000,0.000,0.000
149142.826,20.508,25.879,24.902,22.461,25.879,0.000,0.000,0.000
149142.830,15.625,30.762,25.391,25.879,24.902,0.000,0.000,0.000
149142.834,22.461,29.785,21.484,19.531,28.320,0.000,0.000,0.000
149142.837,22.461,25.391,23.926,21.484,29.297,0.000,0.000,0.000
149142.841,16.602,28.320,24.902,26.855,25.879,0.000,0.000,0.000
149142.845,16.113,31.250,25.391,26.855,31.738,4.000,1.000,45.000
149142.849,19.531,31.738,32.227,28.809,36.621,0.000,0.000,0.000
149142.853,19.043,26.367,29.297,21.973,25.391,0.000,0.000,0.000
149142.857,15.137,23.438,20.020,14.160,17.578,0.000,0.000,0.000
149142.861,12.695,24.902,16.113,18.066,17.090,0.000,0.000,0.000
149142.863,15.137,21.973,13.184,21.973,19.043,0.000,0.000,0.000
149142.867,17.090,20.508,12.207,15.625,18.555,0.000,0.000,0.000
149142.871,16.602,20.996,20.508,14.648,21.484,0.000,0.000,0.000
149142.875,15.137,22.461,28.809,25.391,29.297,0.000,0.000,0.000
149142.879,12.207,23.926,31.250,25.879,26.367,0.000,0.000,0.000
149142.883,14.648,25.879,33.691,20.508,25.879,0.000,0.000,0.000
149142.886,17.090,25.879,33.691,19.043,30.273,0.000,0.000,0.000
149142.890,18.066,26.367,33.203,23.438,33.203,0.000,0.000,0.000
149142.894,16.113,28.809,30.273,24.414,36.133,0.000,0.000,0.000
149142.898,15.625,28.809,25.879,21.973,35.645,0.000,0.000,0.000
149142.902,19.531,29.297,29.297,22.461,35.645,0.000,0.000,0.000
149142.906,19.531,25.879,28.320,21.973,35.645,0.000,0.000,0.000
149142.910,13.184,25.879,19.531,24.414,25.391,0.000,0.000,0.000
149142.914,11.230,24.902,17.578,18.555,19.531,0.000,0.000,0.000
149142.918,16.113,20.020,22.461,10.254,19.043,0.000,0.000,0.000
149142.922,13.184,20.020,30.273,15.625,19.043,0.000,0.000,0.000
149142.926,8.301,21.484,33.691,23.438,25.391,0.000,0.000,0.000
149142.930,12.695,26.367,33.691,24.414,31.738,0.000,0.000,0.000
149142.934,18.066,28.809,28.809,21.973,41.504,0.000,0.000,0.000
149142.938,18.555,25.391,25.391,21.973,47.363,0.000,0.000,0.000
149142.942,19.531,26.367,28.809,25.391,48.828,0.000,0.000,0.000
149142.945,21.973,31.738,28.809,24.902,47.852,0.000,0.000,0.000
149142.949,24.902,35.645,22.461,19.531,52.734,0.000,0.000,0.000
149142.953,28.320,35.645,21.484,21.484,51.758,0.000,0.000,0.000
149142.954,25.391,35.645,26.855,24.902,46.387,0.000,0.000,0.000
149142.958,23.926,33.691,30.273,20.996,40.527,0.000,0.000,0.000
149142.961,27.344,28.320,30.273,12.695,34.668,0.000,0.000,0.000
149142.965,27.344,31.250,27.832,11.719,37.109,0.000,0.000,0.000
149142.969,22.461,31.738,25.391,15.137,40.527,0.000,0.000,0.000
149142.973,22.461,23.438,28.809,17.578,40.527,0.000,0.000,0.000
149142.977,26.367,26.367,28.809,19.043,39.551,0.000,0.000,0.000
149142.981,27.344,33.203,24.414,12.695,31.250,0.000,0.000,0.000
149142.985,24.902,31.738,20.508,10.742,21.484,0.000,0.000,0.000
149142.989,22.461,31.738,21.973,20.996,21.973,0.000,0.000,0.000
149142.993,19.531,30.762,26.367,15.625,31.738,0.000,0.000,0.000
149142.997,18.555,29.785,29.785,7.324,35.645,0.000,0.000,0.000
149142.998,22.461,32.227,34.180,17.578,38.086,0.000,0.000,0.000
149143.002,24.414,32.227,32.715,25.391,43.457,0.000,0.000,0.000
149143.006,25.879,31.738,28.809,24.414,47.363,0.000,0.000,0.000
149143.010,28.320,31.738,29.297,24.902,56.152,0.000,0.000,0.000
149143.014,31.250,31.250,32.227,29.785,58.105,0.000,0.000,0.000
149143.017,27.344,30.762,32.227,33.691,50.781,0.000,0.000,0.000
149143.021,18.555,26.855,26.855,28.320,47.363,0.000,0.000,0.000
149143.025,22.949,26.855,23.438,21.484,50.293,0.000,0.000,0.000
149143.029,26.367,27.832,26.367,19.043,45.410,0.000,0.000,0.000
149143.033,22.461,28.320,27.344,16.602,38.574,0.000,0.000,0.000
149143.037,20.020,30.273,26.367,19.531,37.598,0.000,0.000,0.000
149143.041,18.555,27.832,22.461,17.090,32.227,0.000,0.000,0.000
149143.043,23.438,29.297,20.508,12.207,29.785,0.000,0.000,0.000
149143.047,24.902,29.297,26.855,17.578,31.738,0.000,0.000,0.000
149143.051,22.461,23.926,32.227,24.902,23.926,0.000,0.000,0.000
149143.055,21.484,26.855,33.203,24.902,22.461,0.000,0.000,0.000
149143.059,22.461,30.273,30.762,19.043,31.250,0.000,0.000,0.000
149143.063,24.414,33.203,28.320,22.461,28.809,0.000,0.000,0.000
149143.067,23.926,31.250,27.832,25.879,32.715,0.000,0.000,0.000
149143.070,19.531,26.855,28.320,19.043,57.617,0.000,0.000,0.000
149143.074,19.531,28.809,30.273,12.695,45.898,0.000,0.000,0.000
149143.078,23.926,26.367,31.738,14.160,23.438,0.000,0.000,0.000
149143.082,17.578,21.973,28.320,17.578,25.879,0.000,0.000,0.000
149143.086,11.230,23.926,20.996,20.020,20.996,0.000,0.000,0.000
149143.088,16.602,25.879,18.555,16.602,17.578,0.000,0.000,0.000
149143.092,21.484,26.367,24.414,15.137,22.461,0.000,0.000,0.000
149143.096,20.020,32.227,29.297,20.996,28.320,0.000,0.000,0.000
149143.100,14.160,33.691,27.832,22.949,27.832,0.000,0.000,0.000
149143.104,9.766,28.320,24.902,14.648,18.555,0.000,0.000,0.000
149143.108,17.578,29.297,25.391,13.184,20.020,0.000,0.000,0.000
149143.112,18.555,32.715,27.832,15.137,29.297,0.000,0.000,0.000
149143.116,7.812,27.832,29.297,15.137,26.855,0.000,0.000,0.000
149143.119,8.789,27.832,27.832,18.066,19.043,0.000,0.000,0.000
149143.123,18.555,32.227,22.461,19.043,20.020,0.000,0.000,0.000
149143.127,17.090,31.738,17.578,16.113,22.949,0.000,0.000,0.000
149143.131,13.672,30.762,23.926,14.160,25.391,0.000,0.000,0.000
149143.135,13.672,26.367,30.273,17.090,19.531,0.000,0.000,0.000
149143.139,15.625,26.367,24.902,18.066,20.020,0.000,0.000,0.000
149143.143,17.090,26.855,21.484,14.160,24.902,0.000,0.000,0.000
149143.147,7.812,24.902,21.484,8.301,22.949,0.000,0.000,0.000
149143.151,2.930,25.879,24.902,8.789,20.020,0.000,0.000,0.000
149143.155,6.836,27.344,26.367,10.254,16.602,0.000,0.000,0.000
149143.159,9.277,26.367,16.602,6.348,17.090,0.000,0.000,0.000
149143.162,7.812,25.391,9.766,6.348,17.090,0.000,0.000,0.000
149143.166,7.324,26.855,13.672,9.766,24.902,0.000,0.000,0.000
149143.170,7.812,25.391,17.090,9.277,31.250,0.000,0.000,0.000
149143.174,9.766,22.949,20.508,8.789,24.414,0.000,0.000,0.000
149143.178,17.090,25.879,26.855,11.719,20.996,0.000,0.000,0.000
149143.194,16.113,29.297,31.250,13.184,22.461,0.000,0.000,0.000
149143.198,14.160,27.832,30.762,11.230,26.855,0.000,0.000,0.000
149143.201,18.555,27.832,26.855,9.766,32.715,0.000,0.000,0.000
149143.205,17.090,29.785,24.902,9.766,29.297,0.000,0.000,0.000
149143.209,12.207,27.344,21.484,13.184,24.414,0.000,0.000,0.000
149143.213,15.625,27.832,18.555,17.090,31.250,0.000,0.000,0.000
149143.217,16.113,27.832,23.438,15.137,26.855,0.000,0.000,0.000
149143.221,9.766,28.320,30.273,13.672,19.531,0.000,0.000,0.000
149143.225,8.789,31.738,28.809,9.766,17.090,0.000,0.000,0.000
149143.229,7.324,32.715,28.809,7.812,23.438,0.000,0.000,0.000
149143.233,6.836,31.250,28.320,11.230,28.809,0.000,0.000,0.000
149143.237,10.254,29.785,26.367,6.836,19.531,0.000,0.000,0.000
149143.239,12.207,34.180,24.414,4.395,11.230,0.000,0.000,0.000
149143.243,13.672,34.180,22.949,10.742,15.137,0.000,0.000,0.000
149143.247,14.160,31.250,23.926,10.742,20.996,0.000,0.000,0.000
149143.250,13.672,29.785,22.949,10.254,24.414,0.000,0.000,0.000
149143.254,19.043,29.785,22.949,14.160,32.227,0.000,0.000,0.000
149143.258,19.531,30.762,22.461,14.648,29.785,0.000,0.000,0.000
149143.262,16.602,30.762,17.578,9.277,23.926,0.000,0.000,0.000
149143.266,13.184,29.297,20.020,4.395,25.391,0.000,0.000,0.000
149143.270,9.766,30.762,25.391,2.441,23.926,0.000,0.000,0.000
149143.274,7.324,27.832,21.973,0.000,19.531,0.000,0.000,0.000
149143.278,3.418,25.879,19.531,3.906,16.113,0.000,0.000,0.000
149143.282,3.418,31.250,19.043,-1.953,14.648,0.000,0.000,0.000
149143.283,7.324,32.715,18.555,-7.324,15.137,0.000,0.000,0.000
149143.287,13.184,31.250,20.508,1.953,18.066,0.000,0.000,0.000
149143.291,14.648,29.785,20.996,6.348,10.742,0.000,0.000,0.000
149143.295,14.648,28.320,18.555,6.836,15.137,0.000,0.000,0.000
149143.299,19.531,26.855,17.578,3.906,23.926,0.000,0.000,0.000
149143.303,20.996,26.367,22.949,6.836,27.832,0.000,0.000,0.000
149143.306,17.578,28.320,26.855,14.160,31.738,0.000,0.000,0.000
149143.310,14.648,29.297,22.949,15.137,24.414,0.000,0.000,0.000
149143.314,19.043,30.273,19.531,12.207,19.043,0.000,0.000,0.000
149143.318,20.020,31.738,20.020,7.812,19.531,0.000,0.000,0.000
149143.322,20.508,32.715,23.438,15.137,24.902,0.000,0.000,0.000
149143.326,27.344,33.203,25.391,21.484,32.715,0.000,0.000,0.000
149143.328,25.879,32.227,26.855,15.137,34.180,0.000,0.000,0.000
149143.332,20.508,31.738,26.367,12.207,31.250,0.000,0.000,0.000
149143.336,24.414,33.203,26.367,18.066,30.762,0.000,0.000,0.000
149143.340,25.879,33.203,31.738,26.367,34.180,0.000,0.000,0.000
149143.344,23.438,32.227,32.715,20.996,40.527,0.000,0.000,0.000
149143.347,22.949,35.156,26.855,11.719,39.062,0.000,0.000,0.000
149143.351,20.020,31.250,24.414,13.672,30.273,0.000,0.000,0.000
149143.355,15.625,29.297,25.879,20.508,28.809,0.000,0.000,0.000
149143.359,10.254,34.180,18.555,14.648,18.066,0.000,0.000,0.000
149143.363,12.207,34.180,19.531,10.742,13.184,0.000,0.000,0.000
149143.367,16.602,30.273,31.738,14.160,20.508,0.000,0.000,0.000
149143.371,17.090,30.762,33.691,22.461,31.250,0.000,0.000,0.000
149143.375,19.531,32.227,34.180,27.344,37.598,0.000,0.000,0.000
149143.379,20.996,33.691,38.574,22.949,34.668,0.000,0.000,0.000
149143.383,22.461,33.691,37.598,19.531,27.344,0.000,0.000,0.000
149143.387,22.461,27.832,29.785,21.484,18.555,0.000,0.000,0.000
149143.391,14.160,26.367,26.367,19.043,24.414,0.000,0.000,0.000
149143.395,11.719,25.879,27.832,15.625,28.809,0.000,0.000,0.000
149143.399,17.578,23.926,26.855,19.043,22.949,0.000,0.000,0.000
149143.403,23.926,27.344,27.344,24.902,28.809,0.000,0.000,0.000
149143.407,23.926,30.762,24.902,26.855,31.738,0.000,0.000,0.000
149143.411,19.531,30.273,19.043,22.949,24.414,0.000,0.000,0.000
149143.415,21.973,28.320,18.555,20.020,24.414,0.000,0.000,0.000
149143.418,22.949,29.785,26.367,20.020,24.414,0.000,0.000,0.000
149143.419,18.066,30.762,30.273,20.996,27.832,0.000,0.000,0.000
149143.423,15.625,28.320,28.320,21.973,37.598,0.000,0.000,0.000
149143.427,18.555,29.785,27.344,18.555,36.621,0.000,0.000,0.000
149143.431,20.020,27.832,23.926,12.695,32.227,0.000,0.000,0.000
149143.435,16.113,23.438,21.484,10.742,37.109,0.000,0.000,0.000
149143.439,20.508,26.367,21.484,14.160,42.480,0.000,0.000,0.000
149143.443,20.508,27.832,20.508,11.719,43.457,0.000,0.000,0.000
149143.447,15.625,28.809,22.461,9.277,37.109,0.000,0.000,0.000
149143.450,16.602,30.762,27.832,10.742,33.691,0.000,0.000,0.000
149143.454,16.602,28.809,35.645,13.184,36.621,0.000,0.000,0.000
149143.458,24.414,30.273,36.133,17.578,40.039,0.000,0.000,0.000
149143.462,29.297,34.668,29.297,18.555,48.340,0.000,0.000,0.000
149143.463,17.578,31.738,28.809,20.508,46.387,0.000,0.000,0.000
149143.467,10.254,27.344,31.250,23.438,41.016,0.000,0.000,0.000
149143.471,11.230,23.438,27.344,20.996,42.480,0.000,0.000,0.000
149143.475,9.766,24.414,20.508,11.230,37.598,0.000,0.000,0.000
149143.479,11.719,29.297,19.531,11.719,26.367,0.000,0.000,0.000
149143.483,10.742,30.762,24.414,21.973,20.508,0.000,0.000,0.000
149143.487,10.254,31.738,32.227,21.973,20.996,0.000,0.000,0.000
149143.491,13.184,34.180,31.738,16.602,25.879,0.000,0.000,0.000
149143.495,17.578,35.156,24.414,18.555,30.762,0.000,0.000,0.000
149143.499,19.043,33.203,24.414,23.438,27.344,0.000,0.000,0.000
149143.503,18.555,28.320,23.438,20.996,27.344,0.000,0.000,0.000
149143.506,21.973,25.391,18.555,16.602,29.297,0.000,0.000,0.000
149143.524,21.973,25.391,20.996,16.602,34.180,0.000,0.000,0.000
149143.527,19.531,29.297,22.461,21.973,39.551,0.000,0.000,0.000
149143.531,19.531,29.297,23.438,25.391,41.992,0.000,0.000,0.000
149143.535,25.391,23.926,30.762,23.926,43.457,0.000,0.000,0.000
149143.539,27.344,25.879,33.691,16.113,43.457,0.000,0.000,0.000
149143.543,20.508,30.273,32.227,13.672,38.574,0.000,0.000,0.000
149143.547,15.625,31.250,31.738,20.020,26.855,0.000,0.000,0.000
149143.551,15.625,29.297,30.273,17.578,29.297,0.000,0.000,0.000
149143.555,15.625,26.367,25.879,11.719,33.691,0.000,0.000,0.000
149143.559,15.137,26.855,26.367,12.695,29.785,0.000,0.000,0.000
149143.563,12.695,29.297,27.344,16.113,33.691,0.000,0.000,0.000
149143.567,11.719,28.320,25.391,17.578,36.621,0.000,0.000,0.000
149143.568,15.625,22.461,26.367,14.648,41.016,0.000,0.000,0.000
149143.572,20.020,21.973,23.438,9.277,43.945,0.000,0.000,0.000
149143.576,13.184,26.855,22.461,12.207,29.785,0.000,0.000,0.000
149143.580,11.719,28.809,27.832,17.090,30.273,0.000,0.000,0.000
149143.584,20.020,29.297,27.832,14.160,35.645,0.000,0.000,0.000
149143.588,25.391,30.762,25.391,14.160,35.645,0.000,0.000,0.000
149143.592,24.414,30.762,25.879,17.578,36.133,0.000,0.000,0.000
149143.596,18.555,28.320,23.926,21.973,38.086,0.000,0.000,0.000
149143.600,20.020,30.762,20.996,18.066,40.527,0.000,0.000,0.000
149143.604,24.902,34.180,22.461,11.230,40.527,0.000,0.000,0.000
149143.608,22.949,31.250,23.926,15.625,39.551,0.000,0.000,0.000
149143.611,18.555,28.320,20.020,20.020,38.574,0.000,0.000,0.000
149143.615,22.461,29.297,13.672,13.184,40.039,0.000,0.000,0.000
149143.619,26.367,28.320,19.043,9.277,45.410,0.000,0.000,0.000
149143.623,25.391,22.949,28.320,12.207,44.434,0.000,0.000,0.000
149143.626,20.508,26.855,28.320,18.066,45.898,0.000,0.000,0.000
149143.630,16.602,31.738,22.949,21.973,47.852,0.000,0.000,0.000
149143.634,16.602,27.832,14.648,13.184,43.945,0.000,0.000,0.000
149143.638,14.648,26.367,15.137,10.742,47.363,0.000,0.000,0.000
149143.642,12.207,25.391,19.043,17.578,50.293,0.000,0.000,0.000
149143.646,14.160,23.438,21.973,19.531,43.945,0.000,0.000,0.000
149143.650,19.043,22.949,21.973,14.160,35.645,0.000,0.000,0.000
149143.654,19.043,24.902,16.113,10.254,25.391,0.000,0.000,0.000
149143.658,20.020,26.855,18.555,16.113,55.664,0.000,0.000,0.000
149143.658,17.578,25.879,21.973,19.043,67.383,0.000,0.000,0.000
149143.662,13.672,27.344,20.020,18.066,25.391,0.000,0.000,0.000
149143.666,17.090,26.367,13.672,12.207,14.648,0.000,0.000,0.000
149143.670,20.508,23.926,18.066,14.648,14.648,0.000,0.000,0.000
149143.674,15.625,24.902,25.879,20.508,12.695,0.000,0.000,0.000
149143.678,9.766,26.367,23.926,20.508,21.484,0.000,0.000,0.000
149143.682,11.719,22.949,24.414,20.020,27.344,0.000,0.000,0.000
149143.686,14.648,20.020,25.879,17.090,21.484,0.000,0.000,0.000
149143.690,12.207,21.973,23.438,18.066,22.461,0.000,0.000,0.000
149143.694,9.766,22.949,21.484,14.160,21.484,0.000,0.000,0.000
149143.697,14.160,22.949,20.996,8.789,27.832,0.000,0.000,0.000
149143.701,17.090,26.855,17.578,12.695,33.691,0.000,0.000,0.000
149143.704,11.719,31.738,18.066,13.184,25.879,0.000,0.000,0.000
149143.707,13.672,27.832,26.855,13.184,27.344,0.000,0.000,0.000
149143.711,20.996,29.297,31.738,15.625,36.621,0.000,0.000,0.000
149143.715,21.973,34.180,28.809,15.625,43.457,0.000,0.000,0.000
149143.719,25.391,30.762,21.973,18.555,46.875,0.000,0.000,0.000
149143.723,30.762,27.832,18.555,20.020,45.410,0.000,0.000,0.000
149143.727,19.531,27.832,22.461,19.043,45.898,0.000,0.000,0.000
149143.731,12.695,30.273,25.391,14.160,42.969,0.000,0.000,0.000
149143.735,17.090,30.273,20.996,14.160,32.227,0.000,0.000,0.000
149143.739,13.184,25.879,17.578,18.066,31.250,0.000,0.000,0.000
149143.743,12.695,25.879,22.949,16.113,36.621,0.000,0.000,0.000
149143.746,18.555,30.762,27.832,10.742,41.016,0.000,0.000,0.000
149143.748,21.484,29.785,30.762,9.766,44.434,0.000,0.000,0.000
149143.752,19.043,24.902,36.621,15.625,43.945,0.000,0.000,0.000
149143.756,20.508,27.832,33.691,19.043,45.898,0.000,0.000,0.000
149143.760,18.066,27.832,26.855,15.625,49.805,0.000,0.000,0.000
149143.764,16.602,24.902,24.414,13.672,52.246,0.000,0.000,0.000
149143.768,15.137,25.879,25.879,17.578,52.734,0.000,0.000,0.000
149143.772,11.719,26.367,26.855,22.461,43.945,0.000,0.000,0.000
149143.776,17.578,28.320,24.414,20.996,37.598,0.000,0.000,0.000
149143.780,19.531,30.762,23.438,17.578,47.852,0.000,0.000,0.000
149143.784,17.578,32.715,25.879,20.996,52.246,0.000,0.000,0.000
149143.787,21.973,32.715,32.715,25.391,52.734,0.000,0.000,0.000
149143.791,24.414,32.715,35.156,20.996,52.734,0.000,0.000,0.000
149143.793,21.484,33.691,34.668,19.043,51.270,0.000,0.000,0.000
149143.797,23.926,32.715,34.180,22.461,56.641,0.000,0.000,0.000
149143.801,26.855,33.203,29.785,22.949,55.176,0.000,0.000,0.000
149143.805,22.949,32.227,28.320,24.414,44.922,0.000,0.000,0.000
149143.809,23.926,29.297,24.414,23.926,47.363,0.000,0.000,0.000
149143.813,26.855,28.809,19.043,28.320,48.828,0.000,0.000,0.000
149143.817,22.949,29.297,23.926,31.738,42.969,0.000,0.000,0.000
149143.821,14.160,30.273,31.250,22.949,36.621,0.000,0.000,0.000
149143.824,17.090,29.785,32.227,17.090,39.062,0.000,0.000,0.000
149143.828,20.020,30.273,30.762,19.531,41.504,0.000,0.000,0.000
149143.832,13.672,30.273,26.855,18.066,30.273,0.000,0.000,0.000
149143.836,10.254,26.367,27.344,14.648,24.902,0.000,0.000,0.000
149143.841,11.719,22.949,30.273,13.672,32.715,0.000,0.000,0.000
149143.845,13.184,23.438,25.391,12.207,35.645,0.000,0.000,0.000
149143.849,12.207,26.367,20.508,10.254,26.855,0.000,0.000,0.000
149143.853,12.695,27.832,19.531,14.648,27.344,0.000,0.000,0.000
149143.856,10.742,26.855,17.578,16.602,29.785,0.000,0.000,0.000
149143.860,15.137,32.227,19.043,13.672,35.156,0.000,0.000,0.000
149143.864,21.484,34.180,25.391,16.113,42.969,0.000,0.000,0.000
149143.868,19.531,30.762,29.297,18.555,41.504,0.000,0.000,0.000
149143.872,22.949,36.621,28.320,17.090,40.039,0.000,0.000,0.000
149143.876,27.832,38.086,26.367,8.789,36.133,0.000,0.000,0.000
149143.880,26.855,31.738,25.391,3.906,38.574,0.000,0.000,0.000
149143.884,24.414,28.809,24.414,8.301,40.527,0.000,0.000,0.000
149143.899,20.508,32.227,23.926,7.324,36.621,0.000,0.000,0.000
149143.902,18.066,37.598,21.484,3.906,39.062,0.000,0.000,0.000
149143.906,16.602,38.574,18.066,5.371,39.551,0.000,0.000,0.000
149143.910,9.766,33.691,23.438,4.883,32.715,0.000,0.000,0.000
149143.914,6.836,28.809,26.367,8.301,30.273,0.000,0.000,0.000
149143.918,14.160,29.297,27.344,10.742,39.062,0.000,0.000,0.000
149143.922,15.625,30.273,34.180,4.395,37.109,0.000,0.000,0.000
149143.926,15.137,31.738,35.645,10.742,28.320,0.000,0.000,0.000
149143.930,17.578,32.227,30.273,20.996,29.785,0.000,0.000,0.000
149143.934,15.625,30.762,27.344,15.625,28.320,0.000,0.000,0.000
149143.938,10.742,32.227,23.438,9.277,27.344,0.000,0.000,0.000
149143.941,11.719,32.715,21.973,8.301,22.949,0.000,0.000,0.000
149143.943,11.230,31.250,24.414,12.695,18.555,0.000,0.000,0.000
149143.947,15.137,30.762,26.855,17.578,21.973,0.000,0.000,0.000
149143.951,21.484,30.762,28.809,15.137,25.391,0.000,0.000,0.000
149143.955,15.137,29.297,27.344,9.766,25.391,0.000,0.000,0.000
149143.959,16.602,29.785,24.902,12.695,32.715,0.000,0.000,0.000
149143.963,18.066,27.344,25.391,18.555,29.297,0.000,0.000,0.000
149143.967,16.113,26.855,22.949,19.043,19.531,0.000,0.000,0.000
149143.971,21.973,30.762,18.555,20.020,20.996,0.000,0.000,0.000
149143.975,17.090,23.438,22.949,15.137,17.090,0.000,0.000,0.000
149143.979,9.277,19.043,27.832,15.625,17.578,0.000,0.000,0.000
149143.982,10.742,25.879,26.855,14.648,20.508,0.000,0.000,0.000
149143.986,13.672,26.855,22.461,8.301,23.438,0.000,0.000,0.000
149143.988,16.113,24.902,20.020,11.719,25.879,0.000,0.000,0.000
149143.991,15.625,26.367,20.996,13.672,27.344,0.000,0.000,0.000
149143.995,12.207,27.344,22.461,10.254,26.367,0.000,0.000,0.000
149143.999,17.090,27.832,22.461,12.695,20.996,0.000,0.000,0.000
149144.003,23.438,26.367,20.020,15.137,19.043,0.000,0.000,0.000
149144.007,20.508,25.391,22.461,17.090,21.484,0.000,0.000,0.000
149144.011,13.672,24.414,25.391,17.090,17.578,0.000,0.000,0.000
149144.015,13.672,23.438,29.297,11.719,11.719,0.000,0.000,0.000
149144.019,18.555,23.926,29.785,12.207,19.531,0.000,0.000,0.000
149144.023,17.090,26.367,21.973,18.555,28.320,0.000,0.000,0.000
149144.027,15.625,29.785,18.555,19.043,28.320,0.000,0.000,0.000
149144.031,17.578,30.762,19.531,19.531,26.855,0.000,0.000,0.000
149144.032,18.066,28.320,23.438,18.066,24.414,0.000,0.000,0.000
149144.036,13.184,23.438,20.996,18.066,22.949,0.000,0.000,0.000
149144.040,10.254,23.926,18.066,22.949,27.344,0.000,0.000,0.000
149144.044,10.742,24.902,24.414,23.438,31.250,0.000,0.000,0.000
149144.048,15.137,20.020,24.414,20.508,34.668,0.000,0.000,0.000
149144.052,16.602,19.531,21.973,21.973,32.715,0.000,0.000,0.000
149144.056,14.160,22.949,24.414,24.414,27.832,0.000,0.000,0.000
149144.060,17.578,24.902,25.879,21.484,22.461,0.000,0.000,0.000
149144.064,15.625,28.809,24.902,16.113,21.973,0.000,0.000,0.000
149144.068,11.230,29.785,20.508,17.090,19.531,0.000,0.000,0.000
149144.071,11.230,27.832,13.672,19.531,17.090,0.000,0.000,0.000
149144.075,11.230,28.320,15.625,19.531,23.926,0.000,0.000,0.000
149144.079,16.113,29.297,24.902,17.578,25.391,0.000,0.000,0.000
149144.083,18.555,30.762,28.809,13.184,29.785,0.000,0.000,0.000
149144.087,18.066,31.250,28.809,14.160,35.156,0.000,0.000,0.000
149144.091,17.090,28.809,28.809,17.578,31.738,0.000,0.000,0.000
149144.094,19.043,27.344,28.809,18.555,35.156,0.000,0.000,0.000
149144.098,25.879,26.855,31.738,20.996,44.434,0.000,0.000,0.000
149144.102,29.785,27.344,31.250,26.367,40.527,0.000,0.000,0.000
149144.106,25.391,31.738,23.926,23.438,38.574,0.000,0.000,0.000
149144.110,23.926,35.645,24.902,14.648,47.363,0.000,0.000,0.000
149144.114,27.344,35.645,33.203,13.184,41.504,0.000,0.000,0.000
149144.118,23.438,36.621,31.250,16.602,33.691,0.000,0.000,0.000
149144.122,20.996,37.109,23.438,19.043,34.668,0.000,0.000,0.000
149144.123,19.531,37.109,22.461,18.555,37.109,0.000,0.000,0.000
149144.126,20.996,36.133,24.414,11.719,37.109,0.000,0.000,0.000
149144.130,24.902,35.645,22.461,4.883,30.273,0.000,0.000,0.000
149144.134,25.391,35.156,24.414,9.766,31.250,0.000,0.000,0.000
149144.138,30.762,36.133,27.832,19.531,50.781,0.000,0.000,0.000
149144.142,33.203,37.109,20.996,15.625,50.781,0.000,0.000,0.000
149144.146,29.785,28.809,18.555,11.719,36.133,0.000,0.000,0.000
149144.150,27.344,24.902,24.902,17.578,41.992,0.000,0.000,0.000
149144.154,24.902,28.320,26.855,16.602,42.969,0.000,0.000,0.000
149144.158,23.926,28.320,25.879,14.160,41.992,0.000,0.000,0.000
149144.162,23.438,30.762,25.879,13.184,46.387,0.000,0.000,0.000
149144.165,21.973,30.273,20.020,12.695,39.551,0.000,0.000,0.000
149144.168,18.066,27.832,22.949,17.578,35.645,0.000,0.000,0.000
149144.172,15.137,32.715,32.715,18.066,33.691,0.000,0.000,0.000
149144.176,20.996,35.645,28.320,17.090,36.621,0.000,0.000,0.000
149144.180,19.043,31.738,20.508,13.672,38.574,0.000,0.000,0.000
149144.184,10.254,28.320,20.996,12.695,30.273,0.000,0.000,0.000
149144.188,9.766,25.879,26.855,18.066,31.738,2.000,1.000,0.000
149144.192,15.625,24.902,25.879,15.625,33.691,0.000,0.000,0.000
149144.195,14.648,27.832,21.973,12.207,37.109,0.000,0.000,0.000
149144.199,10.254,28.320,23.438,13.184,38.086,0.000,0.000,0.000
149144.203,13.672,26.855,24.902,15.625,40.527,0.000,0.000,0.000
149144.207,15.137,28.809,26.855,10.742,38.574,0.000,0.000,0.000
149144.211,13.184,27.832,29.297,7.324,39.062,0.000,0.000,0.000
149144.213,18.066,23.926,22.461,14.648,41.504,0.000,0.000,0.000
149144.217,16.602,25.879,17.090,16.602,42.480,0.000,0.000,0.000
149144.221,16.113,27.344,19.531,12.207,42.480,0.000,0.000,0.000
149144.225,20.508,24.902,26.367,13.184,37.109,0.000,0.000,0.000
149144.229,21.484,24.902,29.297,15.625,65.430,0.000,0.000,0.000
149144.233,20.508,28.320,28.809,19.043,94.727,0.000,0.000,0.000
149144.237,17.578,29.297,27.832,20.020,83.496,0.000,0.000,0.000
149144.240,22.949,29.297,28.809,17.578,53.711,0.000,0.000,0.000
149144.244,24.902,29.297,30.762,16.602,36.133,0.000,0.000,0.000
149144.248,19.043,29.297,28.809,20.508,40.039,0.000,0.000,0.000
149144.252,15.625,29.785,23.926,20.508,45.410,0.000,0.000,0.000
149144.256,14.648,30.762,27.344,19.531,44.922,0.000,0.000,0.000
149144.260,15.137,30.762,32.715,22.949,37.109,0.000,0.000,0.000
149144.264,15.625,30.762,26.367,25.391,36.133,0.000,0.000,0.000
149144.268,13.184,28.320,25.391,25.391,29.785,0.000,0.000,0.000
149144.272,13.184,25.391,32.227,20.020,19.531,0.000,0.000,0.000
149144.276,17.578,26.367,34.180,19.531,29.297,0.000,0.000,0.000
149144.280,14.648,27.832,35.156,23.438,27.832,0.000,0.000,0.000
149144.283,10.254,28.809,35.156,25.391,25.879,0.000,0.000,0.000
149144.287,14.648,27.832,27.344,20.020,34.180,0.000,0.000,0.000
149144.291,16.113,28.809,22.949,18.066,15.625,0.000,0.000,0.000
149144.295,14.160,31.738,29.297,21.973,-5.859,0.000,0.000,0.000
149144.299,15.137,31.738,34.180,23.438,0.000,0.000,0.000,0.000
149144.303,15.625,28.809,31.738,23.438,12.695,0.000,0.000,0.000
149144.318,18.066,28.320,29.297,22.461,32.227,0.000,0.000,0.000
149144.322,14.648,26.855,28.809,18.555,49.805,0.000,0.000,0.000
149144.326,10.742,26.367,29.785,20.996,57.129,0.000,0.000,0.000
149144.330,13.184,28.320,26.855,24.414,55.176,0.000,0.000,0.000
149144.334,13.672,27.344,26.855,17.578,51.270,0.000,0.000,0.000
149144.338,15.137,29.785,25.879,17.578,54.199,0.000,0.000,0.000
149144.342,15.625,30.273,21.973,18.066,56.152,0.000,0.000,0.000
149144.346,14.160,27.832,27.344,16.602,55.176,0.000,0.000,0.000
149144.350,15.625,28.320,33.203,14.648,58.105,0.000,0.000,0.000
149144.354,20.508,32.227,30.762,8.789,62.988,0.000,0.000,0.000
149144.357,20.020,29.785,24.902,8.789,59.082,0.000,0.000,0.000
149144.361,16.113,29.297,22.949,12.207,50.293,0.000,0.000,0.000
149144.364,15.137,31.738,26.367,11.230,49.316,0.000,0.000,0.000
149144.368,13.672,25.391,29.297,8.789,43.945,0.000,0.000,0.000
149144.371,10.254,21.973,30.273,4.883,34.668,0.000,0.000,0.000
149144.375,8.301,22.949,24.902,5.859,31.250,0.000,0.000,0.000
149144.379,13.184,25.879,19.043,11.719,30.762,0.000,0.000,0.000
149144.383,14.160,28.809,21.973,10.742,28.809,0.000,0.000,0.000
149144.387,15.137,28.809,26.855,10.742,24.414,0.000,0.000,0.000
149144.391,17.090,31.250,25.879,15.625,20.996,0.000,0.000,0.000
149144.395,16.113,33.203,27.344,14.160,28.320,0.000,0.000,0.000
149144.399,17.578,31.738,31.250,11.719,33.203,0.000,0.000,0.000
149144.403,14.160,30.273,33.691,12.207,26.855,0.000,0.000,0.000
149144.407,14.648,29.785,33.691,20.508,32.227,0.000,0.000,0.000
149144.408,13.184,30.273,29.785,21.484,34.180,0.000,0.000,0.000
149144.412,10.254,29.785,26.855,13.672,31.250,0.000,0.000,0.000
149144.416,12.207,27.832,25.879,11.719,27.344,0.000,0.000,0.000
149144.420,9.277,25.879,28.809,12.695,20.508,0.000,0.000,0.000
149144.424,5.859,22.461,29.297,14.160,17.090,0.000,0.000,0.000
149144.428,10.742,27.344,22.949,17.578,22.949,0.000,0.000,0.000
149144.432,17.090,33.203,20.020,16.113,32.227,0.000,0.000,0.000
149144.436,18.555,31.250,20.996,12.207,32.715,0.000,0.000,0.000
149144.440,14.648,30.762,22.949,17.578,35.645,0.000,0.000,0.000
149144.444,16.113,32.227,26.855,21.973,40.527,0.000,0.000,0.000
149144.448,18.555,29.785,27.344,19.531,41.016,0.000,0.000,0.000
149144.451,23.926,28.320,27.344,20.996,42.969,0.000,0.000,0.000
149144.454,28.809,30.273,28.809,26.367,46.875,0.000,0.000,0.000
149144.458,24.902,28.320,31.738,28.320,41.992,0.000,0.000,0.000
149144.461,23.926,30.273,34.668,25.879,38.574,0.000,0.000,0.000
149144.465,26.367,32.715,25.879,23.926,38.086,0.000,0.000,0.000
149144.469,25.391,24.902,18.066,22.949,40.039,0.000,0.000,0.000
149144.473,24.902,21.973,28.809,23.926,41.992,0.000,0.000,0.000
149144.477,23.438,27.344,34.668,22.461,38.574,0.000,0.000,0.000
149144.481,22.949,28.809,27.344,17.090,37.598,0.000,0.000,0.000
149144.485,24.902,31.250,28.809,17.090,40.039,0.000,0.000,0.000
149144.489,21.484,32.227,28.320,20.508,33.203,0.000,0.000,0.000
149144.493,19.531,32.227,25.879,20.996,31.738,0.000,0.000,0.000
149144.497,21.484,31.738,32.227,20.508,33.691,0.000,0.000,0.000
149144.498,22.461,33.203,34.180,20.020,33.203,0.000,0.000,0.000
149144.502,20.020,34.180,29.785,23.438,32.227,0.000,0.000,0.000
149144.506,19.043,33.691,23.438,21.973,35.156,0.000,0.000,0.000
149144.510,22.949,33.691,19.531,17.090,43.945,0.000,0.000,0.000
149144.514,22.949,33.691,24.414,15.625,39.062,0.000,0.000,0.000
149144.518,25.391,32.715,26.367,19.043,31.738,0.000,0.000,0.000
149144.522,25.391,34.180,22.949,23.438,32.715,0.000,0.000,0.000
149144.526,22.949,34.668,22.461,16.602,33.203,0.000,0.000,0.000
149144.530,24.414,37.598,24.414,12.695,34.668,0.000,0.000,0.000
149144.533,23.926,37.598,26.855,15.137,39.062,0.000,0.000,0.000
149144.537,21.484,33.203,28.320,20.020,39.062,0.000,0.000,0.000
149144.541,22.461,36.621,27.832,25.391,29.785,0.000,0.000,0.000
149144.545,23.926,35.156,28.809,17.090,24.902,0.000,0.000,0.000
149144.549,20.508,30.762,29.297,14.160,22.949,0.000,0.000,0.000
149144.553,17.090,30.273,25.879,18.555,27.344,0.000,0.000,0.000
149144.557,18.066,27.344,23.926,15.625,31.250,0.000,0.000,0.000
149144.561,19.531,23.926,23.438,12.695,29.297,0.000,0.000,0.000
149144.565,19.531,24.902,21.484,9.277,33.203,0.000,0.000,0.000
149144.569,19.531,25.391,19.531,11.230,38.086,0.000,0.000,0.000
149144.573,18.555,29.297,20.020,14.648,32.227,0.000,0.000,0.000
149144.577,21.973,32.227,21.484,9.766,29.785,0.000,0.000,0.000
149144.581,22.949,29.785,21.973,10.742,32.715,0.000,0.000,0.000
149144.584,13.184,28.320,21.484,13.672,35.645,0.000,0.000,0.000
149144.588,2.930,24.902,23.926,8.301,27.344,0.000,0.000,0.000
149144.588,0.977,24.902,26.367,7.324,21.484,0.000,0.000,0.000
149144.592,6.348,27.832,29.297,13.184,29.785,0.000,0.000,0.000
149144.596,11.230,29.297,32.715,19.531,35.156,0.000,0.000,0.000
149144.600,11.230,28.809,32.715,22.949,31.738,0.000,0.000,0.000
149144.604,4.883,26.855,28.320,16.113,22.949,0.000,0.000,0.000
149144.608,4.883,22.949,23.438,11.719,27.344,0.000,0.000,0.000
149144.612,9.766,21.484,17.578,16.113,30.762,0.000,0.000,0.000
149144.616,7.812,22.949,20.020,18.555,28.809,0.000,0.000,0.000
149144.620,9.277,22.949,30.273,19.531,31.250,0.000,0.000,0.000
149144.624,16.113,25.391,35.156,21.484,34.668,0.000,0.000,0.000
149144.627,19.043,25.391,33.203,20.996,40.039,0.000,0.000,0.000
149144.631,18.066,23.438,28.320,20.508,47.363,0.000,0.000,0.000
149144.648,20.996,28.809,27.832,20.508,77.148,0.000,0.000,0.000
149144.652,19.043,33.691,26.855,18.066,99.609,0.000,0.000,0.000
149144.656,20.020,33.691,25.391,18.555,100.098,0.000,0.000,0.000
149144.660,19.531,31.738,24.902,17.090,92.773,0.000,0.000,0.000
149144.664,18.066,30.273,24.414,21.973,59.570,0.000,0.000,0.000
149144.668,19.043,31.738,26.855,21.484,26.367,0.000,0.000,0.000
149144.672,20.020,31.738,28.809,13.672,19.043,0.000,0.000,0.000
149144.676,18.555,28.320,29.297,14.160,16.113,0.000,0.000,0.000
149144.680,11.719,26.855,27.344,18.066,14.648,0.000,0.000,0.000
149144.684,9.766,28.320,23.438,16.113,14.160,0.000,0.000,0.000
149144.688,13.672,31.250,20.508,8.301,17.090,0.000,0.000,0.000
149144.691,17.090,31.250,21.973,9.277,26.367,0.000,0.000,0.000
149144.694,13.672,26.367,25.391,15.625,29.785,0.000,0.000,0.000
149144.698,10.742,24.902,22.949,15.625,10.742,0.000,0.000,0.000
149144.701,17.090,26.855,18.555,13.672,6.348,0.000,0.000,0.000
149144.705,22.461,27.344,21.973,14.160,8.789,0.000,0.000,0.000
149144.709,20.020,27.344,28.809,19.043,9.766,0.000,0.000,0.000
149144.713,16.113,28.320,31.250,24.902,16.113,0.000,0.000,0.000
149144.717,14.648,25.879,29.785,18.066,14.648,0.000,0.000,0.000
149144.721,13.672,27.344,26.367,12.207,18.066,0.000,0.000,0.000
149144.725,11.719,32.227,23.438,16.113,15.625,0.000,0.000,0.000
149144.729,14.160,30.762,22.461,19.043,13.672,0.000,0.000,0.000
149144.733,13.672,27.832,24.902,12.207,19.531,0.000,0.000,0.000
149144.737,13.184,27.344,24.902,6.348,18.066,0.000,0.000,0.000
149144.738,18.555,28.809,26.855,13.184,19.043,0.000,0.000,0.000
149144.742,20.996,29.785,30.762,25.879,26.855,0.000,0.000,0.000
149144.746,21.484,28.809,29.297,23.438,23.926,0.000,0.000,0.000
149144.750,21.973,28.809,25.879,16.602,16.113,0.000,0.000,0.000
149144.754,23.926,30.273,26.367,19.531,18.555,0.000,0.000,0.000
149144.758,21.484,30.273,25.391,21.484,22.949,0.000,0.000,0.000
149144.762,20.996,28.809,22.949,22.949,21.484,0.000,0.000,0.000
149144.766,26.855,32.227,20.996,22.461,24.414,0.000,0.000,0.000
149144.770,28.320,35.156,20.996,16.602,24.902,0.000,0.000,0.000
149144.774,23.438,32.227,22.949,16.602,22.949,0.000,0.000,0.000
149144.777,18.555,32.227,18.555,18.066,26.855,0.000,0.000,0.000
149144.781,20.996,32.227,14.160,15.137,29.297,0.000,0.000,0.000
149144.785,17.090,27.344,17.578,5.371,26.367,0.000,0.000,0.000
149144.789,10.742,25.879,24.414,3.418,22.949,0.000,0.000,0.000
149144.793,6.836,25.879,28.320,13.672,24.902,0.000,0.000,0.000
149144.796,6.348,27.832,25.879,11.230,20.020,0.000,0.000,0.000
149144.800,11.230,29.297,25.879,7.812,18.066,0.000,0.000,0.000
149144.804,15.625,27.344,27.344,13.184,22.949,0.000,0.000,0.000
149144.808,15.625,25.879,25.879,18.555,20.996,0.000,0.000,0.000
149144.812,17.090,27.344,25.391,16.602,18.066,0.000,0.000,0.000
149144.816,17.578,27.832,27.832,11.719,19.043,0.000,0.000,0.000
149144.820,20.508,29.297,25.879,9.766,18.555,0.000,0.000,0.000
149144.824,22.461,32.715,17.578,8.789,17.578,0.000,0.000,0.000
149144.828,20.508,32.227,18.066,8.789,13.184,0.000,0.000,0.000
149144.828,22.949,33.203,29.297,6.836,10.742,0.000,0.000,0.000
149144.832,22.949,34.668,35.156,2.930,12.695,0.000,0.000,0.000
149144.836,16.113,29.785,30.762,5.371,8.301,0.000,0.000,0.000
149144.840,13.672,25.879,24.414,7.812,3.906,0.000,0.000,0.000
149144.844,16.113,28.809,18.066,6.836,10.742,0.000,0.000,0.000
149144.848,13.672,25.879,17.578,4.395,17.090,0.000,0.000,0.000
149144.852,7.812,22.949,23.438,5.371,6.836,0.000,0.000,0.000
149144.856,6.348,25.391,27.832,8.789,8.789,0.000,0.000,0.000
149144.860,2.930,26.367,26.855,7.324,16.602,0.000,0.000,0.000
149144.863,-1.953,24.414,18.555,4.883,10.742,0.000,0.000,0.000
149144.867,-0.488,21.484,13.672,5.859,9.766,0.000,0.000,0.000
149144.871,-0.488,19.531,19.531,8.301,7.324,0.000,0.000,0.000
149144.874,-1.465,21.973,24.414,11.719,10.254,0.000,0.000,0.000
149144.878,4.395,25.391,24.902,9.277,23.926,0.000,0.000,0.000
149144.882,9.766,23.926,26.855,9.277,30.762,0.000,0.000,0.000
149144.885,11.719,25.879,25.879,13.184,27.832,0.000,0.000,0.000
149144.889,13.184,29.297,24.902,12.695,24.414,0.000,0.000,0.000
149144.893,14.648,29.297,25.879,10.254,23.438,0.000,0.000,0.000
149144.897,14.160,26.855,21.484,8.789,27.832,0.000,0.000,0.000
149144.901,9.766,26.855,17.578,12.207,26.855,0.000,0.000,0.000
149144.905,9.277,28.320,19.531,13.672,19.531,0.000,0.000,0.000
149144.909,11.230,27.344,23.438,8.789,18.555,0.000,0.000,0.000
149144.913,12.207,26.855,27.344,7.324,23.438,0.000,0.000,0.000
149144.917,12.207,29.785,27.832,5.859,27.832,0.000,0.000,0.000
149144.918,12.695,31.250,29.785,6.348,26.855,0.000,0.000,0.000
149144.922,14.648,29.297,31.738,12.695,32.227,0.000,0.000,0.000
149144.926,13.184,29.785,29.297,11.230,40.527,0.000,0.000,0.000
149144.930,9.766,30.762,29.785,12.695,38.574,0.000,0.000,0.000
149144.934,10.742,28.809,30.273,16.602,36.621,0.000,0.000,0.000
149144.938,10.742,27.832,27.344,19.531,37.109,0.000,0.000,0.000
149144.942,8.301,26.855,22.461,17.578,32.715,0.000,0.000,0.000
149144.946,13.672,27.344,20.996,11.719,37.109,0.000,0.000,0.000
149144.950,18.066,26.855,23.438,11.719,35.156,0.000,0.000,0.000
149144.953,20.508,22.461,31.738,15.137,33.203,0.000,0.000,0.000
149144.957,23.926,25.391,36.133,14.160,42.969,0.000,0.000,0.000
149144.961,26.367,33.691,31.738,12.695,46.875,0.000,0.000,0.000
149144.963,24.902,32.715,28.320,14.648,38.086,0.000,0.000,0.000
149144.967,21.973,30.762,27.832,16.602,37.598,0.000,0.000,0.000
149144.971,17.578,32.715,33.203,13.184,39.551,0.000,0.000,0.000
149144.975,18.555,32.715,32.227,10.254,34.180,0.000,0.000,0.000
149144.979,21.484,30.762,30.762,13.184,28.809,0.000,0.000,0.000
149144.983,18.555,30.273,31.250,14.160,25.391,0.000,0.000,0.000
149144.987,19.043,31.738,27.832,12.207,30.762,0.000,0.000,0.000
149144.991,21.973,30.762,22.461,7.812,31.738,0.000,0.000,0.000
149144.995,21.484,28.809,23.438,8.789,29.297,0.000,0.000,0.000
149144.999,19.043,28.320,29.785,17.090,33.691,0.000,0.000,0.000
149145.003,18.066,33.203,31.250,19.531,32.715,0.000,0.000,0.000
149145.006,15.625,37.598,30.273,16.602,24.414,0.000,0.000,0.000
149145.009,14.160,35.645,32.227,12.207,24.902,0.000,0.000,0.000
149145.013,16.113,35.156,29.785,10.742,25.879,0.000,0.000,0.000
149145.017,19.043,39.551,24.414,12.695,29.297,0.000,0.000,0.000
149145.021,19.043,39.062,20.996,7.324,34.180,0.000,0.000,0.000
149145.025,22.949,38.086,22.461,5.371,38.574,0.000,0.000,0.000
149145.029,32.715,38.574,21.484,12.695,40.527,0.000,0.000,0.000
149145.033,29.785,37.109,17.578,17.578,40.527,0.000,0.000,0.000
149145.037,24.414,34.668,19.531,14.648,44.922,0.000,0.000,0.000
149145.041,28.809,32.227,21.973,8.789,45.410,0.000,0.000,0.000
149145.044,28.809,30.762,24.414,14.160,42.969,0.000,0.000,0.000
149145.048,23.926,33.203,26.367,14.648,40.527,0.000,0.000,0.000
149145.052,23.438,36.133,24.902,10.254,30.762,0.000,0.000,0.000
149145.068,28.320,34.180,20.020,7.812,29.297,0.000,0.000,0.000
149145.072,24.414,32.227,18.066,9.277,28.809,0.000,0.000,0.000
149145.076,17.090,30.762,18.066,17.090,27.832,0.000,0.000,0.000
149145.080,11.230,26.367,19.531,18.066,33.691,0.000,0.000,0.000
149145.084,9.277,24.902,21.973,16.602,37.598,0.000,0.000,0.000
149145.088,12.207,24.902,20.508,14.648,32.715,0.000,0.000,0.000
149145.092,12.207,24.902,20.996,18.066,31.250,0.000,0.000,0.000
149145.096,10.254,21.973,26.367,21.484,31.738,0.000,0.000,0.000
149145.099,10.254,19.531,30.273,19.531,27.344,0.000,0.000,0.000
149145.103,14.160,22.949,31.738,18.555,25.879,0.000,0.000,0.000
149145.107,11.719,22.949,28.809,15.137,21.484,0.000,0.000,0.000
149145.111,12.207,20.996,24.414,21.484,20.508,0.000,0.000,0.000
149145.114,13.672,23.438,20.508,21.484,20.996,0.000,0.000,0.000
149145.118,18.555,24.902,20.508,8.789,18.066,0.000,0.000,0.000
149145.121,26.367,29.297,21.484,2.930,20.996,0.000,0.000,0.000
149145.125,17.578,30.762,21.484,7.324,22.461,0.000,0.000,0.000
149145.129,12.207,28.809,20.020,13.184,20.996,0.000,0.000,0.000
149145.133,18.555,31.738,20.508,14.160,23.438,0.000,0.000,0.000
149145.137,25.879,33.203,21.973,13.672,25.879,0.000,0.000,0.000
149145.141,25.879,30.762,21.484,18.066,23.926,0.000,0.000,0.000
149145.145,15.625,31.738,23.926,21.484,30.273,0.000,0.000,0.000
149145.149,13.672,32.715,23.926,17.578,29.785,0.000,0.000,0.000
149145.153,22.461,30.273,26.367,16.602,11.719,0.000,0.000,0.000
149145.157,23.438,31.250,28.320,19.043,12.695,0.000,0.000,0.000
149145.158,15.137,32.715,27.344,18.555,16.113,0.000,0.000,0.000
149145.162,12.695,27.344,24.414,9.277,15.137,0.000,0.000,0.000
149145.166,11.230,24.902,19.043,2.930,12.207,0.000,0.000,0.000
149145.170,12.695,25.879,16.602,6.348,8.301,0.000,0.000,0.000
149145.174,12.207,27.832,17.090,8.789,13.184,0.000,0.000,0.000
149145.178,5.371,28.809,20.508,7.324,13.672,0.000,0.000,0.000
149145.182,7.812,27.832,23.438,6.348,20.020,0.000,0.000,0.000
149145.186,14.648,29.785,22.461,7.812,23.926,0.000,0.000,0.000
149145.190,16.113,30.762,25.391,11.719,24.414,0.000,0.000,0.000
149145.194,12.695,29.297,25.879,13.184,29.297,0.000,0.000,0.000
149145.197,15.625,28.809,20.996,12.695,35.645,0.000,0.000,0.000
149145.201,17.090,27.832,21.973,14.648,34.180,0.000,0.000,0.000
149145.203,11.230,27.344,21.973,18.066,34.668,0.000,0.000,0.000
149145.207,10.254,28.320,19.531,18.555,33.691,0.000,0.000,0.000
149145.211,13.184,29.297,17.578,11.230,27.832,0.000,0.000,0.000
149145.215,15.625,32.227,17.578,7.324,20.508,0.000,0.000,0.000
149145.219,17.090,29.297,22.461,13.672,20.020,0.000,0.000,0.000
149145.223,19.531,21.484,27.344,21.484,28.809,0.000,0.000,0.000
149145.227,16.602,22.949,24.902,16.602,28.320,0.000,0.000,0.000
149145.231,12.695,25.879,21.484,12.695,31.250,0.000,0.000,0.000
149145.235,15.137,26.367,21.973,15.137,38.086,0.000,0.000,0.000
149145.239,12.695,27.832,25.879,18.555,41.992,0.000,0.000,0.000
149145.242,12.207,29.297,28.320,23.438,39.062,0.000,0.000,0.000
149145.246,15.625,26.367,26.367,17.578,23.438,0.000,0.000,0.000
149145.250,16.113,25.879,24.414,15.137,23.438,0.000,0.000,0.000
149145.254,18.555,30.273,25.879,16.602,37.598,0.000,0.000,0.000
149145.258,20.508,29.297,24.902,14.648,32.715,0.000,0.000,0.000
149145.262,18.066,26.367,20.508,12.207,31.250,0.000,0.000,0.000
149145.266,12.695,25.391,21.973,9.766,33.203,0.000,0.000,0.000
149145.269,13.672,26.367,29.297,16.113,34.180,0.000,0.000,0.000
149145.273,14.648,24.414,29.297,20.508,41.016,0.000,0.000,0.000
149145.277,10.742,22.949,23.438,14.648,41.016,0.000,0.000,0.000
149145.281,16.602,25.391,23.926,8.301,40.039,0.000,0.000,0.000
149145.285,17.578,24.414,29.785,10.254,36.621,0.000,0.000,0.000
149145.289,5.859,25.879,33.691,16.602,30.762,0.000,0.000,0.000
149145.293,5.859,30.762,31.738,15.625,28.320,0.000,0.000,0.000
149145.293,11.230,30.273,27.832,13.672,32.227,0.000,0.000,0.000
149145.297,12.695,29.297,28.809,13.184,38.574,0.000,0.000,0.000
149145.301,14.648,30.273,31.250,14.160,34.180,0.000,0.000,0.000
149145.305,13.672,28.809,30.762,14.160,32.227,0.000,0.000,0.000
149145.309,11.719,26.855,29.785,9.766,33.203,0.000,0.000,0.000
149145.313,12.695,27.832,25.879,8.789,37.598,0.000,0.000,0.000
149145.317,15.137,33.203,25.879,15.625,39.062,0.000,0.000,0.000
149145.321,14.648,35.156,29.785,16.113,31.738,0.000,0.000,0.000
149145.324,10.742,32.227,29.785,8.301,24.414,0.000,0.000,0.000
149145.328,12.695,28.320,23.926,8.789,30.762,0.000,0.000,0.000
149145.332,15.625,28.320,17.578,12.207,41.016,0.000,0.000,0.000
149145.336,14.160,28.809,16.602,16.602,38.086,0.000,0.000,0.000
149145.339,18.066,29.785,23.926,15.137,41.992,0.000,0.000,0.000
149145.342,22.949,31.738,30.273,12.207,45.898,0.000,0.000,0.000
149145.346,21.484,34.180,25.879,12.207,43.945,0.000,0.000,0.000
149145.350,16.602,34.180,19.531,14.648,41.016,0.000,0.000,0.000
149145.354,16.602,29.785,20.996,15.625,39.062,0.000,0.000,0.000
149145.358,20.508,30.762,25.391,10.742,41.016,0.000,0.000,0.000
149145.362,18.066,33.203,24.414,13.672,38.086,0.000,0.000,0.000
149145.366,13.184,31.250,19.531,14.648,30.273,0.000,0.000,0.000
149145.370,10.742,31.250,18.555,10.254,30.273,0.000,0.000,0.000
149145.374,17.090,34.180,20.020,13.672,36.621,0.000,0.000,0.000
149145.378,19.043,32.715,22.461,18.555,38.086,0.000,0.000,0.000
149145.382,19.043,31.250,26.367,22.461,34.668,0.000,0.000,0.000
149145.383,23.438,31.250,27.832,29.785,37.109,0.000,0.000,0.000
149145.387,22.461,31.738,24.414,26.367,40.039,0.000,0.000,0.000
149145.391,23.438,30.762,25.391,26.367,40.039,0.000,0.000,0.000
149145.395,22.949,28.320,28.809,25.879,35.645,0.000,0.000,0.000
149145.399,12.695,26.855,29.785,18.555,28.809,0.000,0.000,0.000
149145.403,10.742,26.367,27.344,17.090,32.715,0.000,0.000,0.000
149145.407,8.301,23.926,24.414,14.160,36.133,0.000,0.000,0.000
149145.411,5.859,22.949,25.879,11.719,21.973,0.000,0.000,0.000
149145.415,8.301,24.902,27.832,18.555,14.648,0.000,0.000,0.000
149145.418,10.742,26.367,26.367,18.066,21.973,0.000,0.000,0.000
149145.422,16.113,26.855,27.832,10.742,26.855,0.000,0.000,0.000
149145.426,18.066,26.367,28.809,10.254,20.996,0.000,0.000,0.000
149145.443,17.578,28.320,24.902,15.625,20.508,0.000,0.000,0.000
149145.447,20.508,27.344,18.555,18.066,25.391,0.000,0.000,0.000
149145.451,21.484,28.320,8.789,12.695,21.973,0.000,0.000,0.000
149145.455,22.949,27.344,12.207,14.648,19.043,0.000,0.000,0.000
149145.459,20.508,23.438,21.973,21.973,17.090,0.000,0.000,0.000
149145.463,15.625,25.879,21.484,24.414,20.996,0.000,0.000,0.000
149145.467,13.184,28.320,22.461,17.578,21.973,0.000,0.000,0.000
149145.471,21.484,30.762,24.414,15.137,25.391,0.000,0.000,0.000
149145.475,27.832,34.668,24.902,23.926,33.203,0.000,0.000,0.000
149145.479,19.043,33.203,26.855,29.785,27.832,0.000,0.000,0.000
149145.483,18.555,31.250,27.832,25.879,29.785,0.000,0.000,0.000
149145.486,23.438,29.785,27.344,20.020,33.203,0.000,0.000,0.000
149145.489,23.438,26.855,22.461,20.508,27.832,0.000,0.000,0.000
149145.493,21.973,24.902,18.066,20.996,22.461,0.000,0.000,0.000
149145.497,18.555,26.367,13.672,19.531,18.555,0.000,0.000,0.000
149145.501,19.531,29.785,17.578,17.090,21.484,0.000,0.000,0.000
149145.505,17.578,29.297,27.832,15.137,25.879,0.000,0.000,0.000
149145.508,12.207,26.367,30.762,17.578,26.367,0.000,0.000,0.000
149145.512,9.277,23.438,32.227,16.113,28.320,0.000,0.000,0.000
149145.516,10.254,22.949,31.738,10.742,28.809,0.000,0.000,0.000
149145.520,11.230,24.902,25.879,9.277,30.762,0.000,0.000,0.000
149145.524,9.766,20.508,23.926,10.742,34.668,0.000,0.000,0.000
149145.528,12.207,18.555,25.391,12.207,33.691,0.000,0.000,0.000
149145.532,12.695,20.996,24.414,10.254,34.180,0.000,0.000,0.000
149145.533,16.602,22.461,22.949,12.207,36.621,0.000,0.000,0.000
149145.536,19.043,25.391,20.996,19.043,44.922,0.000,0.000,0.000
149145.540,14.648,26.367,22.949,21.973,44.434,0.000,0.000,0.000
149145.544,16.113,26.855,30.273,18.555,40.039,0.000,0.000,0.000
149145.548,13.672,27.344,35.156,12.207,45.410,0.000,0.000,0.000
149145.552,15.625,27.832,32.715,13.184,51.758,0.000,0.000,0.000
149145.556,16.113,28.809,25.879,14.648,52.246,0.000,0.000,0.000
149145.560,11.719,26.855,21.973,15.625,44.922,0.000,0.000,0.000
149145.564,16.602,28.320,25.879,17.578,41.992,0.000,0.000,0.000
149145.568,22.461,29.297,27.344,15.625,42.480,0.000,0.000,0.000
149145.572,20.508,26.855,23.438,18.555,45.898,0.000,0.000,0.000
149145.575,20.020,30.273,20.020,20.508,50.293,0.000,0.000,0.000
149145.577,20.508,26.367,22.461,13.184,55.664,0.000,0.000,0.000
149145.581,21.484,23.926,27.344,10.742,83.496,0.000,0.000,0.000
149145.585,25.879,33.203,30.273,17.578,111.816,0.000,0.000,0.000
149145.589,25.391,35.156,31.250,22.949,123.535,0.000,0.000,0.000
149145.593,23.438,32.715,31.250,20.508,106.445,0.000,0.000,0.000
149145.597,26.855,32.715,32.227,18.066,57.617,0.000,0.000,0.000
149145.601,26.855,30.762,30.273,20.020,40.039,0.000,0.000,0.000
149145.605,25.391,29.785,31.250,23.926,41.016,0.000,0.000,0.000
149145.609,25.879,31.250,37.598,24.414,33.203,0.000,0.000,0.000
149145.613,21.973,32.715,34.668,15.625,27.832,0.000,0.000,0.000
149145.617,23.926,35.645,27.832,14.648,32.227,0.000,0.000,0.000
149145.620,24.414,32.227,22.949,18.555,36.133,0.000,0.000,0.000
149145.622,20.996,32.227,23.438,17.578,32.715,0.000,0.000,0.000
149145.626,21.484,32.227,26.855,14.160,28.320,0.000,0.000,0.000
149145.630,20.996,29.297,27.344,12.695,23.926,0.000,0.000,0.000
149145.634,18.555,31.738,29.785,20.996,26.855,0.000,0.000,0.000
149145.638,14.648,34.180,33.691,21.973,27.832,0.000,0.000,0.000
149145.642,11.719,33.203,32.227,14.648,24.414,0.000,0.000,0.000
149145.646,14.160,32.715,29.785,16.602,24.414,0.000,0.000,0.000
149145.650,17.090,33.203,28.809,19.043,32.227,0.000,0.000,0.000
149145.654,19.531,31.738,26.855,20.508,36.621,0.000,0.000,0.000
149145.658,21.484,30.273,26.367,19.531,30.762,0.000,0.000,0.000
149145.662,19.043,28.809,26.855,15.137,29.297,0.000,0.000,0.000
149145.665,20.996,26.367,27.344,18.066,38.574,0.000,0.000,0.000
149145.668,20.020,26.367,27.344,22.949,36.133,0.000,0.000,0.000
149145.672,15.625,28.320,29.297,27.344,32.227,0.000,0.000,0.000
149145.676,17.090,25.391,32.715,23.926,34.180,0.000,0.000,0.000
149145.680,14.648,25.879,31.738,16.113,29.297,0.000,0.000,0.000
149145.684,14.160,28.320,29.297,21.484,20.020,0.000,0.000,0.000
149145.688,16.113,30.762,29.785,24.414,18.066,0.000,0.000,0.000
149145.691,18.555,33.691,33.691,14.648,25.879,4.000,1.000,0.000
149145.695,20.996,30.273,34.668,12.207,31.738,0.000,0.000,0.000
149145.699,20.020,30.762,32.227,14.648,35.645,0.000,0.000,0.000
149145.703,19.531,30.762,32.715,15.625,37.109,0.000,0.000,0.000
149145.707,23.926,30.762,36.133,20.020,31.738,0.000,0.000,0.000
149145.711,24.414,32.715,37.109,21.484,25.879,0.000,0.000,0.000
149145.714,20.996,29.297,34.180,20.996,23.926,0.000,0.000,0.000
149145.718,15.625,30.762,28.809,20.508,26.367,0.000,0.000,0.000
149145.722,10.742,34.668,22.949,10.254,21.484,0.000,0.000,0.000
149145.726,11.230,30.273,22.949,2.441,15.625,0.000,0.000,0.000
149145.730,13.184,25.391,26.855,4.883,19.043,0.000,0.000,0.000
149145.734,11.719,26.367,27.344,10.742,26.855,0.000,0.000,0.000
149145.738,7.324,28.320,27.344,9.766,26.367,0.000,0.000,0.000
149145.741,8.301,26.367,28.809,5.371,18.555,0.000,0.000,0.000
149145.745,16.113,27.344,25.391,8.789,19.531,0.000,0.000,0.000
149145.749,19.043,30.273,23.438,17.090,28.320,0.000,0.000,0.000
149145.753,17.090,33.203,24.414,20.996,34.180,0.000,0.000,0.000
149145.757,20.508,36.133,24.414,17.578,41.992,0.000,0.000,0.000
149145.774,26.855,33.203,26.855,18.555,45.410,0.000,0.000,0.000
149145.777,24.414,28.809,28.320,20.020,36.133,0.000,0.000,0.000
149145.781,19.043,31.738,16.602,21.484,41.504,0.000,0.000,0.000
149145.785,20.508,34.668,11.230,20.996,44.434,0.000,0.000,0.000
149145.789,23.926,32.715,22.461,17.578,40.039,0.000,0.000,0.000
149145.793,24.902,31.738,30.273,18.066,39.062,0.000,0.000,0.000
149145.797,26.367,33.691,31.738,22.461,33.691,0.000,0.000,0.000
149145.801,23.438,31.738,31.738,19.531,31.738,0.000,0.000,0.000
149145.805,20.020,28.320,29.297,14.648,31.250,0.000,0.000,0.000
149145.809,20.508,29.297,26.367,13.184,25.391,0.000,0.000,0.000
149145.813,16.602,29.785,25.879,18.555,25.879,0.000,0.000,0.000
149145.816,10.742,25.391,25.879,17.090,24.414,0.000,0.000,0.000
149145.819,10.742,21.973,22.461,11.230,10.742,0.000,0.000,0.000
149145.822,17.090,28.809,20.508,14.648,2.930,0.000,0.000,0.000
149145.826,14.648,30.762,21.973,20.020,18.066,0.000,0.000,0.000
149145.830,13.672,29.297,22.949,26.855,37.109,0.000,0.000,0.000
149145.834,17.578,30.762,22.461,23.438,45.410,0.000,0.000,0.000
149145.838,18.555,31.250,24.902,17.090,48.828,0.000,0.000,0.000
149145.842,20.020,30.762,28.320,21.484,55.664,0.000,0.000,0.000
149145.846,19.043,30.273,27.832,23.926,57.129,0.000,0.000,0.000
149145.850,19.043,35.156,27.832,20.020,55.176,0.000,0.000,0.000
149145.854,20.020,34.668,26.855,14.648,51.270,0.000,0.000,0.000
149145.858,15.625,29.297,26.367,11.230,41.992,0.000,0.000,0.000
149145.862,8.301,30.273,23.926,8.789,31.738,0.000,0.000,0.000
149145.864,6.836,28.809,22.461,4.883,27.344,0.000,0.000,0.000
149145.867,9.277,24.414,25.879,0.000,28.320,0.000,0.000,0.000
149145.871,9.766,27.344,25.879,-2.930,24.902,0.000,0.000,0.000
149145.875,14.160,34.668,23.438,4.395,31.738,0.000,0.000,0.000
149145.879,13.184,35.156,25.879,6.836,33.691,0.000,0.000,0.000
149145.883,19.043,37.109,27.832,6.836,32.715,0.000,0.000,0.000
149145.887,29.297,39.062,25.879,11.719,43.457,0.000,0.000,0.000
149145.891,23.926,33.691,24.414,13.672,48.828,0.000,0.000,0.000
149145.895,17.090,31.738,22.949,11.719,36.133,0.000,0.000,0.000
149145.899,17.090,32.715,24.414,9.766,33.691,0.000,0.000,0.000
149145.903,17.578,30.762,26.367,11.719,42.480,0.000,0.000,0.000
149145.906,10.254,28.809,28.320,15.625,34.180,0.000,0.000,0.000
149145.909,8.301,27.832,30.273,20.020,24.902,0.000,0.000,0.000
149145.912,13.672,33.203,25.879,17.578,22.949,0.000,0.000,0.000
149145.916,13.184,35.156,24.902,9.766,22.461,0.000,0.000,0.000
149145.920,10.254,32.227,28.320,9.766,27.344,0.000,0.000,0.000
149145.924,12.207,32.715,28.809,16.602,30.762,0.000,0.000,0.000
149145.928,12.207,32.715,23.926,15.137,32.715,0.000,0.000,0.000
149145.932,12.207,30.762,22.949,8.789,32.227,0.000,0.000,0.000
149145.936,20.020,31.738,29.297,12.695,34.668,0.000,0.000,0.000
149145.940,22.461,33.691,30.762,24.414,41.016,0.000,0.000,0.000
149145.944,20.996,27.344,34.180,34.180,45.898,0.000,0.000,0.000
149145.948,25.879,26.367,36.621,32.715,45.898,0.000,0.000,0.000
149145.952,23.438,36.621,29.785,10.254,22.461,0.000,0.000,0.000
149145.957,14.160,40.039,20.508,-4.883,11.230,0.000,0.000,0.000
149145.961,9.766,37.598,18.555,0.488,12.695,0.000,0.000,0.000
149145.965,4.395,35.156,20.508,-3.906,1.953,0.000,0.000,0.000
149145.969,7.812,34.180,19.043,-7.324,7.812,0.000,0.000,0.000
149145.973,12.695,36.621,13.184,1.465,14.160,0.000,0.000,0.000
149145.977,10.742,37.109,12.207,10.254,17.578,0.000,0.000,0.000
149145.981,13.184,35.156,17.090,10.742,20.996,0.000,0.000,0.000
149145.984,14.160,34.668,20.996,8.789,18.066,0.000,0.000,0.000
149145.988,12.695,31.250,22.461,10.254,23.438,0.000,0.000,0.000
149145.992,12.695,26.855,23.926,16.602,28.809,0.000,0.000,0.000
149145.996,18.066,28.809,24.902,21.484,25.391,0.000,0.000,0.000
149146.000,20.508,29.297,27.344,17.090,23.438,0.000,0.000,0.000
149145.998,19.531,29.297,28.809,15.625,26.367,0.000,0.000,0.000
149146.002,20.996,29.297,26.855,22.461,32.227,0.000,0.000,0.000
149146.006,21.484,29.297,23.926,26.855,37.598,0.000,0.000,0.000
149146.010,21.484,31.250,22.461,22.461,38.574,0.000,0.000,0.000
149146.014,25.391,33.691,22.461,18.066,31.250,0.000,0.000,0.000
149146.018,24.902,31.738,22.949,22.461,26.855,0.000,0.000,0.000
149146.022,21.973,30.762,23.438,25.391,28.320,0.000,0.000,0.000
149146.026,24.902,30.273,24.414,23.926,36.621,0.000,0.000,0.000
149146.030,20.996,29.297,27.344,19.043,37.598,0.000,0.000,0.000
149146.033,16.113,28.809,23.926,22.461,33.203,0.000,0.000,0.000
149146.037,15.137,26.855,17.578,28.809,38.574,0.000,0.000,0.000
149146.041,15.137,24.414,17.578,21.484,37.109,0.000,0.000,0.000
149146.043,18.555,25.879,20.508,15.625,27.832,0.000,0.000,0.000
149146.047,20.508,31.738,20.996,20.508,30.762,0.000,0.000,0.000
149146.051,18.555,31.738,24.902,23.438,35.645,0.000,0.000,0.000
149146.055,21.484,28.809,27.344,25.879,39.551,0.000,0.000,0.000
149146.059,23.926,30.273,25.879,24.414,41.504,0.000,0.000,0.000
149146.063,18.555,31.250,28.320,20.020,33.691,0.000,0.000,0.000
149146.067,18.555,32.227,31.250,21.484,29.297,0.000,0.000,0.000
149146.071,21.484,33.203,29.297,22.461,31.250,0.000,0.000,0.000
149146.075,20.020,28.809,22.949,15.137,33.691,0.000,0.000,0.000
149146.079,21.484,30.762,18.555,11.719,37.109,0.000,0.000,0.000
149146.082,20.508,31.738,20.508,16.602,29.297,0.000,0.000,0.000
149146.086,19.043,31.250,22.461,20.020,26.367,0.000,0.000,0.000
149146.088,18.066,33.203,23.438,18.066,23.926,0.000,0.000,0.000
149146.092,17.090,34.180,23.926,16.113,24.414,0.000,0.000,0.000
149146.096,16.602,38.086,23.438,17.578,29.297,0.000,0.000,0.000
149146.100,13.184,33.203,27.344,17.578,29.785,0.000,0.000,0.000
149146.104,12.695,30.273,31.738,16.602,31.250,0.000,0.000,0.000
149146.108,15.137,33.691,29.297,15.137,32.227,0.000,0.000,0.000
149146.112,18.555,32.715,23.438,15.137,33.203,0.000,0.000,0.000
149146.116,15.137,32.715,23.926,20.996,34.180,0.000,0.000,0.000
149146.120,16.113,33.203,27.344,23.438,39.551,0.000,0.000,0.000
149146.124,20.508,33.203,26.367,20.508,38.574,0.000,0.000,0.000
149146.127,18.066,31.738,26.367,18.066,33.203,0.000,0.000,0.000
149146.131,18.066,26.855,29.297,19.043,34.668,0.000,0.000,0.000
149146.135,18.555,26.367,29.297,22.949,37.109,0.000,0.000,0.000
149146.139,20.996,28.809,27.344,20.508,42.969,0.000,0.000,0.000
149146.143,22.949,29.785,27.832,14.648,43.945,0.000,0.000,0.000
149146.147,20.996,33.203,25.879,13.672,41.016,0.000,0.000,0.000
149146.151,18.555,37.598,20.508,15.137,39.062,0.000,0.000,0.000
149146.155,15.137,33.691,20.020,12.207,36.621,0.000,0.000,0.000
149146.159,13.184,27.832,25.391,5.859,33.203,0.000,0.000,0.000
149146.163,11.230,26.855,27.832,6.836,24.414,0.000,0.000,0.000
149146.167,11.230,24.902,24.902,12.695,20.996,0.000,0.000,0.000
149146.170,10.254,23.438,22.461,12.695,15.625,0.000,0.000,0.000
149146.174,6.836,26.367,24.902,8.789,14.160,0.000,0.000,0.000
149146.178,7.324,27.832,32.715,12.207,24.414,0.000,0.000,0.000
149146.194,10.742,26.855,36.133,16.602,30.273,0.000,0.000,0.000
149146.197,14.648,27.832,31.738,15.137,26.367,0.000,0.000,0.000
149146.201,12.695,26.367,27.344,10.742,31.738,0.000,0.000,0.000
149146.205,11.230,23.926,26.855,10.742,37.109,0.000,0.000,0.000
149146.209,12.207,25.879,27.832,18.066,31.250,0.000,0.000,0.000
149146.213,16.602,27.344,28.809,21.484,39.062,0.000,0.000,0.000
149146.217,21.973,27.832,28.320,15.625,42.969,0.000,0.000,0.000
149146.221,21.973,29.785,21.484,12.695,36.621,0.000,0.000,0.000
149146.225,25.391,30.273,21.484,18.555,37.598,0.000,0.000,0.000
149146.229,23.926,29.297,27.832,20.508,40.039,0.000,0.000,0.000
149146.233,23.438,30.273,29.297,20.020,39.062,0.000,0.000,0.000
149146.236,27.832,32.715,27.344,16.113,40.527,0.000,0.000,0.000
149146.238,24.414,30.762,21.484,9.277,38.574,0.000,0.000,0.000
149146.242,17.090,29.785,23.926,11.230,30.762,0.000,0.000,0.000
149146.246,16.113,34.180,27.344,16.113,32.715,0.000,0.000,0.000
149146.250,17.578,32.715,26.855,11.719,26.855,0.000,0.000,0.000
149146.254,20.508,33.203,26.855,9.766,21.973,0.000,0.000,0.000
149146.258,16.602,35.645,28.320,13.184,29.297,0.000,0.000,0.000
149146.262,13.184,33.203,28.809,17.090,27.832,0.000,0.000,0.000
149146.266,16.602,31.250,25.391,14.648,26.855,0.000,0.000,0.000
149146.270,21.973,32.227,20.508,11.230,33.691,0.000,0.000,0.000
149146.273,24.414,31.738,21.484,18.555,31.738,0.000,0.000,0.000
149146.277,20.020,30.273,25.391,22.949,27.832,0.000,0.000,0.000
149146.281,23.926,32.227,27.832,19.043,32.227,0.000,0.000,0.000
149146.283,33.203,29.297,29.785,18.555,40.039,0.000,0.000,0.000
149146.287,31.738,28.320,27.832,25.879,41.016,0.000,0.000,0.000
149146.291,24.902,30.273,26.855,26.855,34.668,0.000,0.000,0.000
149146.295,26.855,30.762,28.809,22.949,36.621,0.000,0.000,0.000
149146.299,26.367,29.297,29.297,20.996,41.504,0.000,0.000,0.000
149146.303,18.066,25.879,27.832,17.578,34.180,0.000,0.000,0.000
149146.307,13.672,24.902,27.344,19.531,41.504,0.000,0.000,0.000
149146.311,11.719,25.879,28.809,20.996,44.434,0.000,0.000,0.000
149146.315,9.766,26.367,26.855,13.672,26.367,0.000,0.000,0.000
149146.319,11.230,24.902,27.832,11.230,21.973,0.000,0.000,0.000
149146.322,6.348,24.414,31.250,17.090,26.855,0.000,0.000,0.000
149146.326,7.812,24.414,32.715,20.020,25.879,0.000,0.000,0.000
149146.328,10.742,24.414,32.227,17.578,22.949,0.000,0.000,0.000
149146.332,14.160,27.344,27.832,16.602,19.531,0.000,0.000,0.000
149146.336,19.043,28.320,24.902,20.020,12.695,0.000,0.000,0.000
149146.340,19.531,26.855,25.391,26.367,13.672,0.000,0.000,0.000
149146.344,21.973,28.809,25.879,24.902,17.090,0.000,0.000,0.000
149146.348,22.949,28.809,28.320,15.137,20.996,0.000,0.000,0.000
149146.351,21.484,25.879,28.320,12.695,25.879,0.000,0.000,0.000
149146.355,15.625,24.414,24.902,16.113,25.391,0.000,0.000,0.000
149146.359,10.742,27.344,23.926,10.742,22.461,0.000,0.000,0.000
149146.363,8.789,24.902,23.438,3.418,24.902,0.000,0.000,0.000
149146.367,11.230,21.484,23.926,8.301,32.227,0.000,0.000,0.000
149146.371,4.395,25.391,26.367,11.230,30.762,0.000,0.000,0.000
149146.373,2.441,28.320,28.320,13.184,30.273,0.000,0.000,0.000
149146.377,8.301,27.344,28.809,14.648,32.715,0.000,0.000,0.000
149146.381,6.836,26.855,32.715,15.137,31.250,0.000,0.000,0.000
149146.385,4.395,27.344,29.297,20.020,31.250,0.000,0.000,0.000
149146.389,7.324,27.832,20.996,18.066,34.180,0.000,0.000,0.000
149146.392,8.301,25.879,22.949,14.160,29.297,0.000,0.000,0.000
149146.396,7.812,24.414,27.832,19.043,23.926,0.000,0.000,0.000
149146.400,8.301,24.902,28.320,21.484,21.973,0.000,0.000,0.000
149146.404,13.184,27.344,30.273,24.902,19.531,0.000,0.000,0.000
149146.408,17.578,26.855,32.715,20.508,15.625,0.000,0.000,0.000
149146.412,19.531,27.832,32.227,9.766,10.254,0.000,0.000,0.000
149146.416,24.902,35.156,29.785,13.184,16.602,0.000,0.000,0.000
149146.420,20.020,33.691,29.297,19.531,20.996,0.000,0.000,0.000
149146.424,16.602,28.809,26.855,17.578,21.484,0.000,0.000,0.000
149146.428,21.484,29.785,23.438,13.672,24.902,0.000,0.000,0.000
149146.432,21.484,28.809,22.461,14.648,24.902,0.000,0.000,0.000
149146.436,14.160,23.926,22.949,15.625,27.832,0.000,0.000,0.000
149146.440,6.836,23.926,23.926,13.184,30.762,0.000,0.000,0.000
149146.444,7.812,23.438,25.879,10.742,25.879,0.000,0.000,0.000
149146.448,10.742,20.996,22.949,5.859,19.043,0.000,0.000,0.000
149146.452,7.324,20.508,22.949,11.230,18.066,0.000,0.000,0.000
149146.455,3.418,23.438,27.344,20.996,24.902,0.000,0.000,0.000
149146.459,8.301,24.902,27.344,19.531,31.250,0.000,0.000,0.000
149146.463,13.672,23.926,22.949,14.160,35.645,0.000,0.000,0.000
149146.463,13.184,26.367,18.066,9.766,32.227,0.000,0.000,0.000
149146.467,11.230,27.344,19.531,12.695,28.320,0.000,0.000,0.000
149146.471,15.625,28.809,23.926,15.625,28.809,0.000,0.000,0.000
149146.475,18.555,32.227,24.902,12.695,24.902,0.000,0.000,0.000
149146.479,19.043,32.715,28.320,13.184,26.855,0.000,0.000,0.000
149146.483,20.508,31.738,30.762,16.602,33.691,0.000,0.000,0.000
149146.487,18.555,33.203,26.855,17.578,38.574,0.000,0.000,0.000
149146.491,20.020,33.203,20.996,15.137,36.621,0.000,0.000,0.000
149146.495,20.508,31.250,18.555,13.672,37.109,0.000,0.000,0.000
149146.499,12.695,29.297,19.531,16.113,28.809,0.000,0.000,0.000
149146.502,11.719,28.320,20.508,16.602,21.973,0.000,0.000,0.000
149146.506,14.160,27.344,18.066,13.672,22.461,0.000,0.000,0.000
149146.524,16.602,26.855,18.066,12.207,17.578,0.000,0.000,0.000
149146.527,14.648,28.320,20.020,13.184,22.461,0.000,0.000,0.000
149146.531,10.254,27.832,20.020,16.602,24.414,0.000,0.000,0.000
149146.535,11.719,23.926,20.996,15.137,22.461,0.000,0.000,0.000
149146.539,18.066,24.414,20.996,12.207,24.414,0.000,0.000,0.000
149146.543,24.902,29.785,22.461,20.020,24.414,0.000,0.000,0.000
149146.547,25.391,30.273,26.367,20.996,29.785,0.000,0.000,0.000
149146.551,27.832,33.203,27.344,16.113,39.551,0.000,0.000,0.000
149146.555,28.320,34.668,26.855,16.113,45.898,0.000,0.000,0.000
149146.559,24.414,29.785,27.344,16.113,42.969,0.000,0.000,0.000
149146.563,20.020,26.855,26.367,13.184,37.109,0.000,0.000,0.000
149146.567,17.578,25.391,23.438,11.719,39.062,0.000,0.000,0.000
149146.569,20.020,20.996,22.949,11.719,43.457,0.000,0.000,0.000
149146.572,22.461,23.438,21.973,11.719,41.992,0.000,0.000,0.000
149146.576,16.602,29.785,21.973,16.602,49.805,0.000,0.000,0.000
149146.580,12.207,31.738,24.414,18.555,77.637,0.000,0.000,0.000
149146.584,14.648,32.227,24.902,11.719,92.773,0.000,0.000,0.000
149146.588,16.113,31.738,24.902,8.301,60.059,0.000,0.000,0.000
149146.592,12.207,29.297,27.344,15.625,21.484,0.000,0.000,0.000
149146.596,11.230,28.320,27.344,25.391,18.555,0.000,0.000,0.000
149146.600,13.184,31.250,21.484,18.555,23.438,0.000,0.000,0.000
149146.604,20.020,32.715,19.043,10.254,25.391,0.000,0.000,0.000
149146.608,21.484,31.250,23.438,16.113,19.531,0.000,0.000,0.000
149146.612,13.184,30.762,25.879,23.926,15.625,0.000,0.000,0.000
149146.613,16.602,31.250,25.391,21.484,19.043,0.000,0.000,0.000
149146.617,25.391,33.203,26.855,14.160,25.879,0.000,0.000,0.000
149146.621,25.391,36.621,29.785,13.184,27.832,0.000,0.000,0.000
149146.625,19.531,36.621,32.715,15.625,25.879,0.000,0.000,0.000
149146.629,17.578,34.668,31.738,15.137,27.832,0.000,0.000,0.000
149146.633,18.066,32.227,26.367,12.207,30.273,0.000,0.000,0.000
149146.637,23.438,31.738,24.902,13.184,35.645,0.000,0.000,0.000
149146.640,20.508,31.738,25.879,20.508,38.086,0.000,0.000,0.000
149146.644,16.113,27.344,28.320,20.996,43.945,0.000,0.000,0.000
149146.648,21.484,23.926,24.902,17.090,53.711,0.000,0.000,0.000
149146.652,22.461,24.414,20.508,11.719,46.387,0.000,0.000,0.000
149146.656,22.461,24.902,23.926,12.207,43.457,0.000,0.000,0.000
149146.660,20.020,24.414,27.832,18.066,47.852,0.000,0.000,0.000
149146.664,17.090,25.879,32.227,15.137,47.852,0.000,0.000,0.000
149146.668,20.020,26.367,33.691,11.719,40.039,0.000,0.000,0.000
149146.672,21.484,28.320,31.250,16.602,39.062,0.000,0.000,0.000
149146.676,17.578,31.250,28.809,16.113,41.992,0.000,0.000,0.000
149146.680,14.160,28.809,27.832,12.207,32.227,0.000,0.000,0.000
149146.684,19.531,32.715,29.785,14.160,36.133,0.000,0.000,0.000
149146.688,24.902,34.180,31.738,19.531,36.133,0.000,0.000,0.000
149146.691,16.113,32.715,31.250,23.926,28.809,0.000,0.000,0.000
149146.695,5.859,31.738,33.203,23.438,34.668,0.000,0.000,0.000
149146.699,9.766,31.250,35.645,20.996,36.133,0.000,0.000,0.000
149146.703,13.184,30.762,30.762,17.578,30.273,0.000,0.000,0.000
149146.703,13.184,30.762,23.926,20.020,21.484,0.000,0.000,0.000
149146.707,13.672,29.785,20.996,23.926,18.555,0.000,0.000,0.000
149146.711,14.160,26.855,24.414,22.461,21.973,0.000,0.000,0.000
149146.715,16.602,27.344,26.855,16.113,22.949,0.000,0.000,0.000
149146.719,17.578,27.344,27.344,16.113,24.414,0.000,0.000,0.000
149146.723,16.113,28.320,30.273,20.020,25.879,0.000,0.000,0.000
149146.727,16.113,30.273,32.715,15.625,22.461,0.000,0.000,0.000
149146.731,21.484,33.203,32.715,10.742,27.832,0.000,0.000,0.000
149146.735,27.832,35.156,26.367,9.277,39.551,0.000,0.000,0.000
149146.739,33.691,35.156,22.461,20.996,53.711,0.000,0.000,0.000
149146.743,18.555,25.391,34.180,19.531,41.992,0.000,0.000,0.000
149146.746,1.953,19.531,41.504,1.465,22.461,0.000,0.000,0.000
149146.749,9.766,21.484,37.109,7.324,35.645,0.000,0.000,0.000
149146.753,9.277,16.113,36.133,16.602,45.410,0.000,0.000,0.000
149146.757,7.812,13.184,40.039,18.555,36.133,0.000,0.000,0.000
149146.761,10.254,15.625,41.504,13.672,30.273,0.000,0.000,0.000
149146.764,9.277,16.113,41.992,11.230,27.344,0.000,0.000,0.000
149146.768,11.230,17.090,41.016,18.555,26.367,0.000,0.000,0.000
149146.772,11.230,19.043,36.133,21.973,31.738,0.000,0.000,0.000
149146.776,14.160,17.578,36.133,22.949,37.598,0.000,0.000,0.000
149146.780,18.555,14.160,36.621,27.344,41.016,0.000,0.000,0.000
149146.784,25.391,16.113,34.180,34.668,51.758,0.000,0.000,0.000
149146.788,23.438,28.809,32.227,27.832,41.992,0.000,0.000,0.000
149146.792,13.184,36.621,30.762,10.254,17.578,0.000,0.000,0.000
149146.793,14.648,32.715,30.762,10.742,21.973,0.000,0.000,0.000
149146.797,20.996,31.250,24.902,18.555,31.738,0.000,0.000,0.000
149146.801,19.531,35.645,20.996,19.531,34.180,0.000,0.000,0.000
149146.805,13.672,36.133,20.508,20.020,40.527,0.000,0.000,0.000
149146.809,19.043,33.691,20.996,22.949,45.410,0.000,0.000,0.000
149146.813,26.367,34.668,21.484,20.996,41.016,0.000,0.000,0.000
149146.817,27.344,36.621,20.508,23.926,32.227,0.000,0.000,0.000
149146.820,28.809,34.668,21.484,25.391,31.738,0.000,0.000,0.000
149146.824,27.344,33.691,20.020,23.438,36.133,0.000,0.000,0.000
149146.828,24.902,34.180,19.043,20.996,38.574,0.000,0.000,0.000
149146.832,26.855,33.203,20.508,20.508,41.016,0.000,0.000,0.000
149146.836,26.855,32.715,22.461,26.367,50.781,0.000,0.000,0.000
149146.837,24.902,28.809,24.902,25.879,53.711,0.000,0.000,0.000
149146.841,26.367,25.391,24.902,20.508,39.551,0.000,0.000,0.000
149146.845,25.391,27.344,21.973,14.160,34.180,0.000,0.000,0.000
149146.849,19.043,26.855,23.438,13.184,34.180,0.000,0.000,0.000
149146.853,19.043,28.320,21.973,15.625,34.180,0.000,0.000,0.000
149146.857,19.043,29.297,18.066,12.695,40.039,0.000,0.000,0.000
149146.861,13.672,24.902,20.020,16.113,36.621,0.000,0.000,0.000
149146.865,10.254,25.879,20.996,23.926,25.879,0.000,0.000,0.000
149146.869,11.230,29.785,21.973,23.438,27.832,0.000,0.000,0.000
149146.873,17.090,29.297,24.902,21.973,36.133,0.000,0.000,0.000
149146.877,17.090,26.367,25.391,22.461,40.527,0.000,0.000,0.000
149146.880,17.578,26.367,26.367,22.461,41.504,0.000,0.000,0.000
149146.885,18.066,29.297,20.996,18.066,45.898,0.000,0.000,0.000
149146.888,13.184,31.738,14.160,9.277,30.762,0.000,0.000,0.000
149146.892,15.625,30.762,15.625,4.883,19.043,0.000,0.000,0.000
149146.896,17.090,28.809,15.137,5.859,21.484,0.000,0.000,0.000
149146.900,12.695,31.738,16.113,6.836,20.020,0.000,0.000,0.000
149146.904,16.113,31.250,23.438,8.789,27.832,0.000,0.000,0.000
149146.908,20.020,27.832,27.344,7.324,31.250,0.000,0.000,0.000
149146.912,18.066,28.809,28.320,8.789,23.438,0.000,0.000,0.000
149146.916,16.602,29.785,30.762,11.719,25.391,0.000,0.000,0.000
149146.920,16.602,28.809,32.227,15.137,30.762,0.000,0.000,0.000
149146.924,20.020,30.762,27.832,19.043,32.227,0.000,0.000,0.000
149146.927,21.973,31.738,25.879,8.789,34.180,0.000,0.000,0.000
149146.943,21.973,33.203,27.832,6.836,41.504,0.000,0.000,0.000
149146.946,21.973,32.715,25.391,15.625,44.922,0.000,0.000,0.000
149146.950,21.484,32.227,21.973,12.695,43.945,0.000,0.000,0.000
149146.954,23.438,33.203,23.438,9.766,48.828,0.000,0.000,0.000
149146.958,20.508,31.250,26.855,14.160,46.875,0.000,0.000,0.000
149146.962,14.648,30.762,27.344,13.184,35.645,0.000,0.000,0.000
149146.966,10.742,33.691,31.250,6.836,25.879,0.000,0.000,0.000
149146.970,9.277,34.668,34.180,5.371,21.973,0.000,0.000,0.000
149146.974,11.230,34.180,30.762,11.719,22.461,0.000,0.000,0.000
149146.978,8.789,34.180,22.461,17.090,25.879,0.000,0.000,0.000
149146.982,7.324,32.715,19.043,18.555,24.902,0.000,0.000,0.000
149146.985,10.742,29.785,20.996,11.719,29.297,0.000,0.000,0.000
149146.988,15.625,31.738,18.555,1.953,26.367,0.000,0.000,0.000
149146.992,16.602,34.180,20.996,5.859,19.531,0.000,0.000,0.000
149146.995,16.602,34.668,28.809,7.812,27.344,0.000,0.000,0.000
149146.999,20.508,38.086,31.738,6.348,31.250,0.000,0.000,0.000
149147.003,17.090,34.668,30.762,10.742,28.320,0.000,0.000,0.000
149147.007,11.719,30.762,26.855,15.625,22.461,0.000,0.000,0.000
149147.011,10.254,29.297,22.461,17.090,21.973,0.000,0.000,0.000
149147.015,11.719,26.367,21.973,10.254,21.484,0.000,0.000,0.000
149147.019,10.254,26.855,24.902,3.418,23.926,0.000,0.000,0.000
149147.023,5.859,26.367,22.949,8.301,27.832,0.000,0.000,0.000
149147.027,7.324,25.879,26.367,14.160,22.461,0.000,0.000,0.000
149147.031,9.277,27.344,32.715,17.578,28.809,0.000,0.000,0.000
149147.033,10.742,26.855,31.738,14.160,33.203,0.000,0.000,0.000
149147.037,9.766,26.367,30.273,16.602,29.785,0.000,0.000,0.000
149147.041,9.277,25.879,27.832,20.020,33.203,0.000,0.000,0.000
149147.045,9.766,22.949,26.855,16.602,35.156,0.000,0.000,0.000
149147.048,11.719,23.438,26.367,15.137,31.738,0.000,0.000,0.000
149147.052,12.695,25.391,24.902,14.160,28.809,0.000,0.000,0.000
149147.056,9.766,23.926,26.367,18.066,19.531,2.000,1.000,90.000
149147.060,8.789,21.973,27.832,19.043,16.113,0.000,0.000,0.000
149147.064,13.672,21.484,29.297,15.137,19.531,0.000,0.000,0.000
149147.068,19.043,22.949,26.367,14.160,21.973,0.000,0.000,0.000
149147.072,18.555,23.926,26.367,19.043,29.297,0.000,0.000,0.000
149147.076,17.578,22.461,29.297,21.973,32.715,0.000,0.000,0.000
149147.078,19.531,21.484,28.320,21.484,28.320,0.000,0.000,0.000
149147.082,13.184,22.461,24.414,17.090,25.391,0.000,0.000,0.000
149147.086,14.160,22.461,24.414,12.695,28.320,0.000,0.000,0.000
149147.090,17.090,22.461,25.391,19.531,26.855,0.000,0.000,0.000
149147.093,17.578,24.414,28.320,20.996,25.391,0.000,0.000,0.000
149147.097,21.484,26.855,29.297,16.602,29.297,0.000,0.000,0.000
149147.101,20.996,27.344,26.855,17.090,27.832,0.000,0.000,0.000
149147.105,21.973,25.879,24.902,19.043,27.832,0.000,0.000,0.000
149147.109,18.066,27.832,22.949,13.184,26.367,0.000,0.000,0.000
149147.113,12.207,31.738,20.996,4.395,20.508,0.000,0.000,0.000
149147.117,17.090,30.762,19.043,6.348,21.973,0.000,0.000,0.000
149147.121,16.602,26.367,20.508,13.672,25.879,0.000,0.000,0.000
149147.125,11.719,25.879,20.996,14.648,26.367,0.000,0.000,0.000
149147.129,14.648,27.344,20.020,9.766,27.832,0.000,0.000,0.000
149147.133,18.066,26.367,18.066,7.812,23.926,0.000,0.000,0.000
149147.137,18.066,24.902,17.578,8.301,21.973,0.000,0.000,0.000
149147.141,12.695,28.320,16.602,4.395,18.066,0.000,0.000,0.000
149147.145,11.230,26.367,16.113,2.441,15.625,0.000,0.000,0.000
149147.149,13.184,21.484,15.137,-1.953,16.113,0.000,0.000,0.000
149147.153,11.230,23.926,19.043,-0.488,8.789,0.000,0.000,0.000
149147.157,7.812,24.414,23.438,6.348,0.977,0.000,0.000,0.000
149147.161,11.230,24.414,23.438,7.812,2.441,0.000,0.000,0.000
149147.164,17.090,24.902,22.949,5.859,-3.418,0.000,0.000,0.000
149147.168,14.648,25.879,21.973,5.859,-12.207,0.000,0.000,0.000
149147.168,15.625,24.902,19.043,11.719,-0.977,0.000,0.000,0.000
149147.172,18.555,23.926,21.484,14.160,14.648,0.000,0.000,0.000
149147.176,18.555,24.414,22.949,10.742,28.809,0.000,0.000,0.000
149147.180,23.438,26.855,18.066,13.184,48.828,0.000,0.000,0.000
149147.184,22.461,25.879,20.020,17.578,53.711,0.000,0.000,0.000
149147.188,19.043,24.902,24.902,18.555,50.781,0.000,0.000,0.000
149147.192,20.020,27.832,25.391,15.625,50.293,0.000,0.000,0.000
149147.196,21.484,30.273,20.020,12.695,46.875,0.000,0.000,0.000
149147.200,20.020,28.809,17.090,12.695,44.922,0.000,0.000,0.000
149147.204,16.113,24.902,21.484,18.066,47.363,0.000,0.000,0.000
149147.207,12.695,25.391,26.855,18.555,47.363,0.000,0.000,0.000
149147.211,12.207,27.832,25.879,11.719,46.875,0.000,0.000,0.000
149147.214,13.184,27.344,27.832,14.648,50.293,0.000,0.000,0.000
149147.217,10.254,25.391,31.738,15.137,41.016,0.000,0.000,0.000
149147.221,13.672,26.367,29.297,14.160,39.551,0.000,0.000,0.000
149147.225,17.090,26.367,26.367,11.230,43.945,0.000,0.000,0.000
149147.229,17.090,30.762,24.902,10.254,38.574,0.000,0.000,0.000
149147.233,14.160,35.156,21.973,9.277,35.645,0.000,0.000,0.000
149147.237,11.230,35.156,20.508,7.324,35.156,0.000,0.000,0.000
149147.241,15.137,35.645,22.461,8.301,30.762,0.000,0.000,0.000
149147.245,16.602,33.691,23.438,8.301,25.879,0.000,0.000,0.000
149147.249,9.277,30.762,25.391,6.836,24.902,0.000,0.000,0.000
149147.253,8.789,30.273,28.809,9.277,28.809,0.000,0.000,0.000
149147.257,16.113,32.715,25.391,10.742,35.645,0.000,0.000,0.000
149147.274,14.160,33.203,19.531,7.324,41.016,0.000,0.000,0.000
149147.278,10.254,32.227,17.090,8.789,37.109,0.000,0.000,0.000
149147.281,11.230,29.785,14.648,13.672,28.320,0.000,0.000,0.000
149147.285,11.719,28.320,15.137,10.742,31.250,0.000,0.000,0.000
149147.289,10.254,27.344,21.484,7.812,33.203,0.000,0.000,0.000
149147.293,16.602,27.832,24.902,15.137,34.180,0.000,0.000,0.000
149147.297,26.367,33.691,23.438,26.367,48.828,0.000,0.000,0.000
149147.301,25.391,36.621,24.902,24.902,49.316,0.000,0.000,0.000
149147.305,15.625,32.227,32.227,14.160,37.598,0.000,0.000,0.000
149147.309,11.230,27.832,33.691,11.230,34.180,0.000,0.000,0.000
149147.313,14.648,29.785,29.297,19.531,37.598,0.000,0.000,0.000
149147.317,18.066,29.297,26.855,22.949,44.434,0.000,0.000,0.000
149147.305,18.555,26.367,28.809,20.996,43.457,0.000,0.000,0.000
149147.309,16.602,25.391,30.273,15.625,56.152,0.000,0.000,0.000
149147.313,13.672,24.414,25.391,12.207,80.566,0.000,0.000,0.000
149147.317,8.789,23.926,20.020,14.648,83.984,0.000,0.000,0.000
149147.321,8.789,24.902,20.996,19.531,83.984,0.000,0.000,0.000
149147.325,14.160,27.344,24.414,16.602,86.914,0.000,0.000,0.000
149147.329,13.184,26.855,26.367,13.672,77.637,0.000,0.000,0.000
149147.333,13.184,24.414,27.344,18.066,69.824,0.000,0.000,0.000
149147.337,14.160,24.902,30.273,20.996,72.266,0.000,0.000,0.000
149147.340,15.137,25.879,31.738,21.484,77.148,0.000,0.000,0.000
149147.344,14.648,26.855,28.809,19.043,80.078,0.000,0.000,0.000
149147.348,13.184,26.855,30.273,21.484,63.477,0.000,0.000,0.000
149147.365,14.648,25.879,30.762,21.973,54.199,0.000,0.000,0.000
149147.369,13.184,26.855,26.855,17.090,39.551,0.000,0.000,0.000
149147.373,13.184,30.762,23.926,13.184,0.000,0.000,0.000,0.000
149147.377,10.742,30.762,24.414,13.672,-19.043,0.000,0.000,0.000
149147.381,12.207,29.785,28.320,16.602,-20.508,0.000,0.000,0.000
149147.385,13.184,34.180,25.879,13.672,-15.625,0.000,0.000,0.000
149147.389,15.625,32.715,19.531,11.719,-7.324,0.000,0.000,0.000
149147.392,24.902,26.855,24.414,16.602,1.465,0.000,0.000,0.000
149147.396,25.879,27.832,30.273,22.949,13.184,0.000,0.000,0.000
149147.400,23.438,28.809,28.809,20.508,16.602,0.000,0.000,0.000
149147.404,25.391,27.344,24.414,19.531,14.648,0.000,0.000,0.000
149147.408,24.414,28.320,23.438,22.949,16.602,0.000,0.000,0.000
149147.408,19.531,28.320,25.879,22.461,12.207,0.000,0.000,0.000
149147.412,20.508,26.367,28.809,17.090,4.883,0.000,0.000,0.000
149147.416,20.020,28.320,29.297,9.766,0.000,0.000,0.000,0.000
149147.420,15.625,27.832,27.344,10.254,2.930,0.000,0.000,0.000
149147.424,16.602,27.344,29.297,19.531,12.695,0.000,0.000,0.000
149147.428,20.996,31.250,27.344,20.996,11.230,0.000,0.000,0.000
149147.432,21.973,30.762,22.461,17.578,6.836,0.000,0.000,0.000
149147.436,23.438,26.855,22.949,20.508,14.160,0.000,0.000,0.000
149147.440,21.973,27.344,22.949,21.973,20.996,0.000,0.000,0.000
149147.444,22.949,22.949,24.414,30.273,35.156,0.000,0.000,0.000
149147.448,31.738,22.949,25.391,30.762,42.969,0.000,0.000,0.000
149147.451,27.344,34.180,22.461,10.742,25.391,0.000,0.000,0.000
149147.453,21.973,41.504,19.531,6.836,17.578,0.000,0.000,0.000
149147.457,22.949,38.574,19.043,15.137,14.160,0.000,0.000,0.000
149147.461,20.508,34.180,19.043,15.625,16.602,0.000,0.000,0.000
149147.465,23.926,31.250,20.020,10.742,25.879,0.000,0.000,0.000
149147.468,19.043,30.273,20.996,10.254,23.438,0.000,0.000,0.000
149147.472,16.113,29.785,20.508,17.090,24.414,0.000,0.000,0.000
149147.476,21.973,29.297,20.508,20.508,29.297,0.000,0.000,0.000
149147.480,26.367,28.320,22.461,21.973,29.785,0.000,0.000,0.000
149147.484,25.391,32.227,25.879,16.602,30.273,0.000,0.000,0.000
149147.488,20.996,31.738,25.391,15.137,26.855,0.000,0.000,0.000
149147.492,23.438,26.367,23.438,17.090,26.367,0.000,0.000,0.000
149147.496,27.344,25.879,23.926,13.672,34.180,0.000,0.000,0.000
149147.499,28.809,29.785,23.926,12.695,37.598,0.000,0.000,0.000
149147.502,28.320,32.227,21.973,17.578,40.527,0.000,0.000,0.000
149147.506,24.414,30.273,21.484,20.020,35.156,0.000,0.000,0.000
149147.510,27.832,31.250,23.926,16.113,30.273,0.000,0.000,0.000
149147.514,27.832,34.668,28.320,16.602,38.574,0.000,0.000,0.000
149147.518,22.949,28.320,33.691,25.391,41.992,0.000,0.000,0.000
149147.522,20.996,24.414,34.180,28.809,36.133,0.000,0.000,0.000
149147.526,21.484,29.785,30.273,23.926,31.738,0.000,0.000,0.000
149147.530,20.020,28.809,26.855,19.531,25.391,0.000,0.000,0.000
149147.534,15.625,28.320,24.414,19.531,24.902,0.000,0.000,0.000
149147.538,16.602,29.297,24.902,21.484,23.438,0.000,0.000,0.000
149147.541,17.578,31.250,27.344,19.531,24.902,0.000,0.000,0.000
149147.543,15.137,31.738,27.832,12.695,21.973,0.000,0.000,0.000
149147.547,12.207,29.297,27.344,3.418,12.207,0.000,0.000,0.000
149147.551,11.230,29.297,24.902,0.000,9.277,0.000,0.000,0.000
149147.555,9.766,31.250,22.461,0.977,11.230,0.000,0.000,0.000
149147.559,9.766,30.762,22.949,0.488,13.672,0.000,0.000,0.000
149147.563,15.137,30.762,22.949,2.930,19.043,0.000,0.000,0.000
149147.567,12.207,31.250,23.438,9.277,22.949,0.000,0.000,0.000
149147.571,8.301,30.762,24.414,11.230,22.949,0.000,0.000,0.000
149147.575,10.742,32.715,22.949,8.301,22.949,0.000,0.000,0.000
149147.578,12.207,33.203,23.438,7.812,20.996,0.000,0.000,0.000
149147.582,8.789,34.180,23.926,7.812,17.090,0.000,0.000,0.000
149147.586,5.859,34.180,23.438,8.301,15.137,0.000,0.000,0.000
149147.590,11.230,32.715,26.855,7.324,16.113,0.000,0.000,0.000
149147.594,13.672,30.762,26.367,4.883,20.020,0.000,0.000,0.000
149147.598,8.301,30.762,21.973,3.906,30.273,0.000,0.000,0.000
149147.602,9.277,32.227,20.020,9.766,31.738,0.000,0.000,0.000
149147.606,7.812,31.738,18.555,7.324,20.020,0.000,0.000,0.000
149147.610,8.301,32.227,17.578,3.418,19.531,0.000,0.000,0.000
149147.614,14.160,35.645,18.555,4.395,26.367,0.000,0.000,0.000
149147.618,9.277,34.668,19.043,5.371,24.414,0.000,0.000,0.000
149147.622,9.277,33.203,19.043,5.371,23.438,0.000,0.000,0.000
149147.626,17.578,32.227,20.996,6.348,24.902,0.000,0.000,0.000
149147.630,19.043,29.785,21.973,10.742,28.809,0.000,0.000,0.000
149147.633,17.090,27.344,25.879,14.160,37.598,0.000,0.000,0.000
149147.634,20.508,26.855,26.367,18.555,43.457,0.000,0.000,0.000
149147.637,21.484,29.785,23.438,16.602,39.551,0.000,0.000,0.000
149147.641,16.602,33.203,24.414,12.695,41.016,0.000,0.000,0.000
149147.645,17.090,31.250,23.438,16.602,45.898,0.000,0.000,0.000
149147.649,13.184,27.832,20.996,19.531,38.086,0.000,0.000,0.000
149147.653,12.207,27.344,25.391,19.043,37.598,0.000,0.000,0.000
149147.657,17.578,27.832,32.227,18.555,44.922,0.000,0.000,0.000
149147.661,16.602,27.344,26.367,18.066,41.992,0.000,0.000,0.000
149147.665,13.672,28.809,19.531,21.973,46.387,0.000,0.000,0.000
149147.669,19.043,30.762,21.484,23.438,50.781,0.000,0.000,0.000
149147.673,20.996,30.762,23.926,18.066,45.898,0.000,0.000,0.000
149147.676,18.555,28.320,23.926,13.672,41.992,0.000,0.000,0.000
149147.694,18.555,26.367,25.391,16.602,44.434,0.000,0.000,0.000
149147.698,19.531,25.879,28.320,21.484,45.410,0.000,0.000,0.000
149147.701,18.555,24.902,27.832,19.043,40.039,0.000,0.000,0.000
149147.705,20.996,26.855,28.320,18.066,42.480,0.000,0.000,0.000
149147.709,27.344,25.879,36.133,23.926,44.922,0.000,0.000,0.000
149147.713,24.902,25.879,36.133,27.832,39.551,0.000,0.000,0.000
149147.717,20.996,26.855,27.832,24.902,38.086,0.000,0.000,0.000
149147.721,21.484,23.926,21.484,18.066,40.527,0.000,0.000,0.000
149147.725,19.531,23.926,19.531,14.648,33.691,0.000,0.000,0.000
149147.729,17.578,26.855,20.508,17.090,33.203,0.000,0.000,0.000
149147.733,16.602,29.785,21.484,14.160,40.527,0.000,0.000,0.000
149147.737,18.555,29.297,23.926,8.789,36.133,0.000,0.000,0.000
149147.738,22.949,27.832,26.367,13.672,33.691,0.000,0.000,0.000
149147.742,24.902,27.832,32.715,20.996,40.039,0.000,0.000,0.000
149147.746,24.902,29.297,36.133,20.996,43.457,0.000,0.000,0.000
149147.750,26.855,31.738,33.203,18.555,39.062,0.000,0.000,0.000
149147.754,29.785,31.250,28.320,20.996,41.504,0.000,0.000,0.000
149147.758,28.320,28.809,25.879,21.484,41.016,0.000,0.000,0.000
149147.762,22.949,29.297,23.438,18.555,32.715,0.000,0.000,0.000
149147.766,23.926,29.785,19.043,16.113,38.574,0.000,0.000,0.000
149147.770,24.902,25.879,23.438,15.137,39.062,0.000,0.000,0.000
149147.774,24.414,22.949,28.809,19.043,39.551,0.000,0.000,0.000
149147.778,22.461,26.855,29.785,23.926,39.062,0.000,0.000,0.000
149147.781,17.578,30.273,34.668,20.020,36.133,0.000,0.000,0.000
149147.784,18.555,30.762,32.227,13.672,40.527,0.000,0.000,0.000
149147.787,20.996,31.738,26.855,12.695,47.363,0.000,0.000,0.000
149147.791,22.949,31.250,28.320,20.996,49.805,0.000,0.000,0.000
149147.795,23.926,34.180,27.344,25.391,40.039,0.000,0.000,0.000
149147.799,25.391,33.203,25.391,19.043,34.668,0.000,0.000,0.000
149147.803,24.902,29.297,25.391,15.625,34.180,0.000,0.000,0.000
149147.807,21.973,30.762,26.367,19.531,31.738,0.000,0.000,0.000
149147.811,20.508,31.738,29.785,20.508,30.273,0.000,0.000,0.000
149147.815,21.973,31.250,30.273,17.578,37.598,0.000,0.000,0.000
149147.819,22.461,30.762,26.855,13.672,38.086,0.000,0.000,0.000
149147.823,20.508,29.785,32.227,18.066,30.273,0.000,0.000,0.000
149147.827,20.020,32.227,36.621,20.996,32.227,0.000,0.000,0.000
149147.830,21.484,32.715,31.250,14.160,31.250,0.000,0.000,0.000
149147.834,20.996,30.762,29.785,9.277,28.320,0.000,0.000,0.000
149147.838,15.137,30.762,30.273,15.625,28.809,0.000,0.000,0.000
149147.842,14.160,34.180,28.809,20.508,31.250,0.000,0.000,0.000
149147.846,14.160,36.621,27.344,19.043,30.273,0.000,0.000,0.000
149147.850,19.043,35.645,26.367,19.531,27.344,0.000,0.000,0.000
149147.854,19.531,32.715,26.367,14.648,25.879,0.000,0.000,0.000
149147.858,8.789,29.785,27.344,14.648,29.297,0.000,0.000,0.000
149147.862,8.789,28.809,25.879,20.020,29.297,0.000,0.000,0.000
149147.865,14.648,28.320,22.949,13.672,28.320,0.000,0.000,0.000
149147.869,18.066,30.762,23.438,11.230,37.598,0.000,0.000,0.000
149147.873,13.184,31.738,24.902,16.602,30.273,0.000,0.000,0.000
149147.873,6.348,32.715,25.391,16.602,8.789,0.000,0.000,0.000
149147.877,9.766,28.320,24.902,11.719,9.277,0.000,0.000,0.000
149147.881,14.648,24.902,25.391,10.254,19.531,0.000,0.000,0.000
149147.885,13.672,27.344,26.367,12.695,17.090,0.000,0.000,0.000
149147.889,10.254,28.809,27.832,10.254,15.625,0.000,0.000,0.000
149147.893,13.184,28.809,27.832,9.766,19.043,0.000,0.000,0.000
149147.897,18.066,28.320,27.832,11.230,16.602,0.000,0.000,0.000
149147.901,19.531,27.344,28.320,12.695,24.902,0.000,0.000,0.000
149147.905,14.648,25.391,28.809,18.555,21.973,0.000,0.000,0.000
149147.909,11.230,23.438,28.320,21.484,11.719,0.000,0.000,0.000
149147.912,15.137,21.973,25.879,19.043,22.461,0.000,0.000,0.000
149147.916,11.719,20.020,28.809,15.137,23.926,0.000,0.000,0.000
149147.918,10.254,21.484,33.691,14.648,20.020,0.000,0.000,0.000
149147.922,11.719,24.414,32.715,17.090,23.438,0.000,0.000,0.000
149147.926,15.625,24.902,30.273,17.578,25.391,0.000,0.000,0.000
149147.930,17.578,24.414,29.785,18.066,28.320,0.000,0.000,0.000
149147.934,11.230,26.367,29.785,18.066,33.203,0.000,0.000,0.000
149147.938,5.859,27.344,26.367,16.113,27.832,0.000,0.000,0.000
149147.942,8.789,24.902,24.902,13.672,18.555,0.000,0.000,0.000
149147.946,11.719,26.367,25.879,11.230,16.113,0.000,0.000,0.000
149147.950,12.207,25.879,25.391,11.719,16.113,0.000,0.000,0.000
149147.954,11.230,25.879,28.320,14.160,17.090,0.000,0.000,0.000
149147.957,10.742,28.809,28.809,12.695,12.207,0.000,0.000,0.000
149147.961,13.672,29.297,26.367,10.742,5.371,0.000,0.000,0.000
149147.963,13.672,29.785,26.855,8.301,10.254,0.000,0.000,0.000
149147.967,10.254,24.414,28.320,13.672,18.555,0.000,0.000,0.000
149147.971,9.277,22.461,28.320,16.602,29.297,0.000,0.000,0.000
149147.975,15.625,26.367,25.879,15.625,34.668,0.000,0.000,0.000
149147.979,18.066,29.785,23.926,14.648,31.250,0.000,0.000,0.000
149147.983,14.648,33.691,24.902,17.578,36.621,0.000,0.000,0.000
149147.987,14.160,34.668,26.367,20.996,38.574,0.000,0.000,0.000
149147.991,17.090,32.715,26.367,18.066,34.180,0.000,0.000,0.000
149147.995,20.508,32.715,25.391,16.602,34.668,0.000,0.000,0.000
149147.999,19.531,33.203,21.973,20.020,23.438,0.000,0.000,0.000
149148.003,16.113,30.762,26.367,20.508,24.414,0.000,0.000,0.000
149148.006,18.555,28.809,32.715,19.043,29.785,0.000,0.000,0.000
149148.011,20.508,27.344,30.273,13.184,13.184,0.000,0.000,0.000
149148.014,15.625,28.320,29.297,11.719,4.883,0.000,0.000,0.000
149148.018,15.625,30.273,27.832,18.066,14.648,0.000,0.000,0.000
149148.022,16.113,30.273,22.949,13.672,15.137,0.000,0.000,0.000
149148.026,12.695,28.809,18.555,10.742,18.555,0.000,0.000,0.000
149148.030,14.160,28.320,19.043,13.184,25.391,0.000,0.000,0.000
149148.034,14.160,30.762,20.020,17.090,33.203,0.000,0.000,0.000
149148.038,14.648,33.203,17.090,19.531,34.668,0.000,0.000,0.000
149148.042,17.578,28.809,18.555,15.625,27.832,0.000,0.000,0.000
149148.046,17.090,26.367,18.066,17.090,28.320,0.000,0.000,0.000
149148.050,17.578,29.297,15.137,19.531,30.762,0.000,0.000,0.000
149148.053,13.672,29.297,14.648,15.625,33.691,0.000,0.000,0.000
149148.070,12.695,23.438,17.090,11.230,34.668,0.000,0.000,0.000
149148.074,18.555,24.902,20.508,15.625,31.250,0.000,0.000,0.000
149148.078,18.555,32.715,19.531,18.066,37.598,0.000,0.000,0.000
149148.082,14.648,33.203,19.043,9.766,31.738,0.000,0.000,0.000
149148.086,16.602,31.250,18.066,8.789,20.996,0.000,0.000,0.000
149148.089,20.508,30.273,19.043,11.719,25.391,0.000,0.000,0.000
149148.093,14.648,27.832,22.461,11.230,24.414,0.000,0.000,0.000
149148.097,9.277,28.809,23.926,11.719,25.391,0.000,0.000,0.000
149148.101,14.160,28.809,26.367,14.160,31.738,0.000,0.000,0.000
149148.105,16.602,26.855,24.414,9.766,28.320,0.000,0.000,0.000
149148.109,14.648,29.297,20.996,8.789,28.809,0.000,0.000,0.000
149148.113,14.648,30.273,21.484,14.160,33.203,0.000,0.000,0.000
149148.114,12.695,26.855,22.949,13.672,32.227,0.000,0.000,0.000
149148.118,8.789,25.879,25.391,7.324,23.438,0.000,0.000,0.000
149148.121,10.742,25.879,30.762,4.883,14.160,0.000,0.000,0.000
149148.125,12.207,26.367,31.738,9.766,15.137,0.000,0.000,0.000
149148.129,9.277,27.832,26.855,11.719,16.602,0.000,0.000,0.000
149148.133,10.742,26.367,23.926,9.277,22.949,0.000,0.000,0.000
149148.137,16.113,25.391,22.949,11.230,25.879,0.000,0.000,0.000
149148.141,15.625,22.949,22.949,16.113,22.461,0.000,0.000,0.000
149148.145,11.719,22.461,22.949,17.090,20.996,0.000,0.000,0.000
149148.149,14.648,23.926,26.367,14.160,19.043,0.000,0.000,0.000
149148.153,16.113,25.391,30.762,10.254,25.879,0.000,0.000,0.000
149148.157,12.695,22.949,31.738,14.160,26.367,0.000,0.000,0.000
149148.159,13.184,17.578,27.344,21.484,21.973,0.000,0.000,0.000
149148.163,15.625,21.484,27.344,20.508,25.391,0.000,0.000,0.000
149148.166,17.090,25.879,29.297,12.695,30.762,0.000,0.000,0.000
149148.170,18.066,23.438,28.809,12.207,33.691,0.000,0.000,0.000
149148.174,15.137,22.461,29.297,16.113,31.250,0.000,0.000,0.000
149148.178,15.137,23.926,28.320,15.137,26.855,0.000,0.000,0.000
149148.182,18.066,22.949,28.809,9.766,26.855,0.000,0.000,0.000
149148.186,18.555,22.949,26.855,7.812,24.902,0.000,0.000,0.000
149148.190,12.695,24.414,25.879,9.766,28.320,0.000,0.000,0.000
149148.194,9.766,24.414,28.809,14.648,31.738,0.000,0.000,0.000
149148.198,11.719,24.902,27.832,17.090,35.156,0.000,0.000,0.000
149148.202,15.625,27.344,21.973,16.113,41.504,0.000,0.000,0.000
149148.204,18.555,27.832,21.484,20.996,43.457,0.000,0.000,0.000
149148.208,13.672,26.855,26.367,24.902,38.574,0.000,0.000,0.000
149148.212,12.207,24.902,24.902,20.508,34.668,0.000,0.000,0.000
149148.216,12.695,27.832,24.414,14.160,29.785,0.000,0.000,0.000
149148.220,8.301,29.785,24.414,13.184,26.367,0.000,0.000,0.000
149148.224,12.207,29.297,26.367,17.090,30.762,0.000,0.000,0.000
149148.228,14.648,29.785,31.738,16.602,28.809,0.000,0.000,0.000
149148.232,17.578,30.762,28.320,13.184,25.879,0.000,0.000,0.000
149148.236,21.973,30.273,23.438,13.184,31.250,0.000,0.000,0.000
149148.239,25.391,27.832,24.902,19.531,36.133,0.000,0.000,0.000
149148.243,25.879,28.809,28.320,23.438,33.691,0.000,0.000,0.000
