timestamps,TP9,AF7,AF8,TP10,Right AUX,Marker0,Marker1,Marker2
149946.701,31.250,28.809,23.438,22.461,42.969,0.000,0.000,0.000
149946.705,26.855,27.344,18.066,20.996,44.434,0.000,0.000,0.000
149946.709,29.785,27.832,14.160,23.438,42.969,0.000,0.000,0.000
149946.713,34.180,32.715,4.395,22.461,43.945,0.000,0.000,0.000
149946.717,38.086,35.645,15.625,23.926,42.480,0.000,0.000,0.000
149946.721,36.133,36.133,31.250,27.832,43.945,0.000,0.000,0.000
149946.725,31.250,32.715,34.180,28.320,47.363,0.000,0.000,0.000
149946.729,31.738,31.738,35.156,29.297,42.969,0.000,0.000,0.000
149946.732,34.668,34.180,29.297,27.832,34.668,0.000,0.000,0.000
149946.736,25.879,32.227,18.066,21.973,30.273,0.000,0.000,0.000
149946.740,17.090,32.227,21.973,18.555,28.320,0.000,0.000,0.000
149946.744,15.137,30.762,31.738,19.043,26.855,0.000,0.000,0.000
149946.746,16.602,31.738,30.762,20.508,26.855,0.000,0.000,0.000
149946.750,17.090,30.273,23.438,19.043,20.020,0.000,0.000,0.000
149946.754,19.043,22.949,23.438,19.043,11.230,0.000,0.000,0.000
149946.758,20.020,27.344,30.762,20.996,6.836,0.000,0.000,0.000
149946.762,22.949,33.203,28.809,20.508,7.812,0.000,0.000,0.000
149946.765,29.297,29.785,26.367,20.508,10.742,0.000,0.000,0.000
149946.769,23.438,26.367,20.996,19.531,4.395,0.000,0.000,0.000
149946.773,21.484,24.902,14.160,18.555,7.324,0.000,0.000,0.000
149946.777,25.879,25.391,20.996,18.555,15.137,0.000,0.000,0.000
149946.781,22.461,23.438,29.785,17.578,10.254,0.000,0.000,0.000
149946.785,21.973,24.902,32.227,21.973,13.184,0.000,0.000,0.000
149946.789,19.043,24.902,20.996,24.902,24.902,0.000,0.000,0.000
149946.791,15.625,22.461,20.508,22.461,26.855,0.000,0.000,0.000
149946.795,17.578,23.926,32.227,20.020,31.738,0.000,0.000,0.000
149946.799,13.184,25.391,29.785,16.602,34.180,0.000,0.000,0.000
149946.803,5.859,26.855,26.367,15.625,36.621,0.000,0.000,0.000
149946.807,2.441,25.391,21.484,13.672,39.551,0.000,0.000,0.000
149946.811,7.324,24.902,19.043,17.090,42.480,0.000,0.000,0.000
149946.814,11.719,23.438,17.090,17.578,34.180,0.000,0.000,0.000
149946.818,12.695,26.855,20.020,20.508,22.949,0.000,0.000,0.000
149946.822,16.113,29.297,20.996,24.414,21.973,0.000,0.000,0.000
149946.826,20.508,27.344,19.531,22.461,29.297,0.000,0.000,0.000
149946.830,23.438,24.902,24.414,24.902,31.250,0.000,0.000,0.000
149946.834,25.879,26.855,23.926,30.273,31.738,0.000,0.000,0.000
149946.836,26.855,34.180,26.855,35.645,35.156,0.000,0.000,0.000
149946.840,23.438,32.227,29.785,33.203,26.855,0.000,0.000,0.000
149946.844,24.902,31.738,28.320,33.203,24.414,0.000,0.000,0.000
149946.848,27.344,36.133,21.484,35.645,36.621,0.000,0.000,0.000
149946.852,21.973,34.668,18.066,33.691,36.133,0.000,0.000,0.000
149946.856,20.508,33.691,23.438,31.250,23.438,0.000,0.000,0.000
149946.860,24.414,30.762,28.320,25.879,19.531,0.000,0.000,0.000
149946.864,22.461,26.367,28.809,23.438,14.160,0.000,0.000,0.000
149946.867,19.531,31.250,26.367,23.438,16.113,0.000,0.000,0.000
149946.871,18.555,32.227,23.438,20.508,21.973,0.000,0.000,0.000
149946.875,24.902,31.250,21.973,22.461,24.902,0.000,0.000,0.000
149946.879,30.762,31.738,12.207,27.344,30.762,0.000,0.000,0.000
149946.881,24.902,30.762,9.766,25.879,33.691,0.000,0.000,0.000
149946.885,24.902,30.273,31.250,25.391,34.668,0.000,0.000,0.000
149946.889,29.297,27.832,41.016,23.438,28.320,0.000,0.000,0.000
149946.893,27.832,27.344,40.527,20.020,22.949,0.000,0.000,0.000
149946.897,22.949,21.484,37.109,21.973,19.531,0.000,0.000,0.000
149946.901,22.949,20.996,33.691,27.344,24.414,0.000,0.000,0.000
149946.905,26.367,26.367,28.809,30.762,30.762,0.000,0.000,0.000
149946.909,27.344,25.879,22.461,28.809,28.320,0.000,0.000,0.000
149946.913,27.344,24.902,21.973,28.320,27.344,0.000,0.000,0.000
149946.917,23.438,22.949,24.902,29.297,32.715,0.000,0.000,0.000
149946.920,20.996,23.438,20.508,28.320,25.879,0.000,0.000,0.000
149946.924,21.973,23.926,22.949,28.320,17.090,0.000,0.000,0.000
149946.926,22.949,23.926,31.738,27.344,24.414,0.000,0.000,0.000
149946.930,23.438,29.297,28.809,27.832,29.297,0.000,0.000,0.000
149946.934,21.973,30.273,29.297,27.344,28.320,0.000,0.000,0.000
149946.938,20.020,28.320,28.809,25.879,22.949,0.000,0.000,0.000
149946.941,21.973,31.738,25.879,25.391,22.949,0.000,0.000,0.000
149946.945,24.414,34.180,25.391,29.785,30.273,0.000,0.000,0.000
149946.949,24.902,31.738,24.414,33.203,36.133,0.000,0.000,0.000
149946.953,28.320,33.691,27.832,30.762,40.039,0.000,0.000,0.000
149946.957,33.203,33.203,28.809,31.738,41.992,0.000,0.000,0.000
149946.961,34.180,27.344,27.344,34.668,44.922,0.000,0.000,0.000
149946.965,29.297,29.785,24.902,34.180,48.828,0.000,0.000,0.000
149946.969,28.809,33.203,28.320,35.645,47.852,0.000,0.000,0.000
149946.972,30.762,32.227,33.203,31.250,41.016,0.000,0.000,0.000
149946.976,27.344,32.715,23.438,25.879,35.645,0.000,0.000,0.000
149946.980,28.320,30.762,17.578,31.738,38.086,0.000,0.000,0.000
149946.983,26.367,29.297,21.484,31.250,36.621,0.000,0.000,0.000
149946.987,22.949,27.832,32.227,25.879,34.668,0.000,0.000,0.000
149946.991,23.438,24.414,29.785,26.855,36.133,0.000,0.000,0.000
149946.995,26.367,28.320,18.555,29.785,36.133,0.000,0.000,0.000
149946.999,27.832,31.738,28.809,33.203,41.504,0.000,0.000,0.000
149947.003,27.344,23.926,30.273,26.855,33.203,0.000,0.000,0.000
149947.007,25.879,21.484,23.438,21.973,22.949,0.000,0.000,0.000
149947.011,20.508,21.973,25.879,20.996,22.949,0.000,0.000,0.000
149947.015,18.555,23.926,28.320,23.926,24.902,0.000,0.000,0.000
149947.015,22.461,30.762,24.902,24.902,28.320,0.000,0.000,0.000
149947.019,24.902,26.855,22.461,22.461,31.250,0.000,0.000,0.000
149947.023,20.508,22.461,22.949,20.996,37.109,0.000,0.000,0.000
149947.027,18.555,26.367,23.438,20.508,42.480,0.000,0.000,0.000
149947.031,24.414,30.273,29.785,21.973,39.551,0.000,0.000,0.000
149947.035,27.832,31.738,32.227,19.531,35.156,0.000,0.000,0.000
149947.039,26.855,30.762,25.879,18.555,32.715,0.000,0.000,0.000
149947.043,21.484,28.809,22.949,18.555,37.109,0.000,0.000,0.000
149947.047,23.438,31.250,30.762,20.020,39.062,0.000,0.000,0.000
149947.050,32.227,33.691,36.133,22.461,34.180,0.000,0.000,0.000
149947.054,33.691,29.785,36.621,22.949,31.250,0.000,0.000,0.000
149947.058,35.156,30.762,27.832,28.320,31.738,0.000,0.000,0.000
149947.075,34.668,35.645,27.344,28.320,28.809,0.000,0.000,0.000
149947.079,27.344,29.785,32.227,16.602,17.578,0.000,0.000,0.000
149947.083,27.832,28.320,32.715,18.066,22.461,0.000,0.000,0.000
149947.087,27.344,30.762,28.809,26.367,31.738,0.000,0.000,0.000
149947.091,21.484,24.414,24.902,27.344,32.715,0.000,0.000,0.000
149947.095,23.438,20.020,35.156,25.879,35.645,0.000,0.000,0.000
149947.099,24.902,24.902,38.574,24.414,41.016,0.000,0.000,0.000
149947.103,21.484,24.902,29.297,26.367,30.762,0.000,0.000,0.000
149947.107,19.043,25.391,23.438,27.344,24.414,0.000,0.000,0.000
149947.110,20.996,32.715,26.855,23.926,28.809,0.000,0.000,0.000
149947.114,26.855,34.668,32.227,23.438,24.902,0.000,0.000,0.000
149947.118,23.926,29.297,28.809,20.996,22.461,0.000,0.000,0.000
149947.120,24.414,30.273,32.227,28.320,29.297,0.000,0.000,0.000
149947.124,30.273,34.668,33.203,34.180,30.762,0.000,0.000,0.000
149947.128,36.621,32.715,33.203,30.762,31.738,0.000,0.000,0.000
149947.132,37.109,30.762,36.133,27.832,33.691,0.000,0.000,0.000
149947.136,30.762,31.250,29.785,26.855,26.855,0.000,0.000,0.000
149947.140,32.715,31.738,23.438,28.320,33.691,0.000,0.000,0.000
149947.144,34.180,27.832,20.508,28.809,35.645,0.000,0.000,0.000
149947.148,30.762,27.344,27.344,28.809,29.785,0.000,0.000,0.000
149947.151,35.645,35.645,39.062,39.062,42.480,0.000,0.000,0.000
149947.155,30.273,30.762,33.691,39.062,39.062,0.000,0.000,0.000
149947.159,20.020,24.902,31.738,26.367,26.855,0.000,0.000,0.000
149947.163,19.531,25.391,36.133,23.926,21.973,0.000,0.000,0.000
149947.166,21.484,26.855,33.691,26.367,26.855,0.000,0.000,0.000
149947.170,17.090,26.367,30.273,25.391,25.879,2.000,1.000,45.000
149947.173,15.625,23.926,33.203,22.461,19.531,0.000,0.000,0.000
149947.177,19.043,24.902,39.551,21.973,21.484,0.000,0.000,0.000
149947.181,16.602,25.879,28.809,20.020,16.602,0.000,0.000,0.000
149947.185,15.137,28.320,16.113,23.438,19.043,0.000,0.000,0.000
149947.189,12.207,28.320,14.648,21.973,16.602,0.000,0.000,0.000
149947.193,15.625,27.344,26.855,18.066,17.090,0.000,0.000,0.000
149947.197,21.484,31.250,36.621,20.996,31.250,0.000,0.000,0.000
149947.201,18.555,32.715,34.668,23.438,32.227,0.000,0.000,0.000
149947.205,17.578,28.320,24.414,23.438,28.320,0.000,0.000,0.000
149947.209,22.461,29.785,8.301,25.391,32.715,0.000,0.000,0.000
149947.211,21.484,31.250,14.160,23.438,25.879,0.000,0.000,0.000
149947.215,13.184,25.879,31.250,20.508,24.902,0.000,0.000,0.000
149947.219,12.207,25.879,39.551,27.832,40.039,0.000,0.000,0.000
149947.223,16.602,32.227,44.922,29.785,44.434,0.000,0.000,0.000
149947.227,18.555,33.691,38.086,27.344,36.133,0.000,0.000,0.000
149947.231,20.508,28.809,28.809,30.273,35.645,0.000,0.000,0.000
149947.235,19.531,24.414,28.320,27.832,28.320,0.000,0.000,0.000
149947.239,17.578,27.832,21.484,21.484,22.949,0.000,0.000,0.000
149947.242,20.508,29.785,19.043,18.555,24.414,0.000,0.000,0.000
149947.246,23.438,30.273,23.438,21.484,19.531,0.000,0.000,0.000
149947.250,22.949,32.715,25.391,23.926,20.020,0.000,0.000,0.000
149947.254,23.438,31.738,31.738,26.367,25.391,0.000,0.000,0.000
149947.256,27.832,33.691,32.715,23.926,24.902,0.000,0.000,0.000
149947.260,25.391,32.715,23.438,21.484,24.902,0.000,0.000,0.000
149947.264,19.531,31.250,22.461,26.367,24.902,0.000,0.000,0.000
149947.268,23.438,31.250,27.344,32.227,28.320,0.000,0.000,0.000
149947.272,26.855,27.344,26.855,31.250,27.832,0.000,0.000,0.000
149947.276,23.438,27.344,27.832,27.832,18.555,0.000,0.000,0.000
149947.280,20.996,30.762,24.902,27.344,6.836,0.000,0.000,0.000
149947.284,18.555,29.785,22.949,25.879,-3.418,0.000,0.000,0.000
149947.288,21.973,24.414,32.715,26.855,-6.348,0.000,0.000,0.000
149947.291,28.320,24.414,38.086,30.762,7.812,0.000,0.000,0.000
149947.295,29.297,25.391,35.156,32.227,27.832,0.000,0.000,0.000
149947.299,27.832,23.438,34.668,33.203,41.016,0.000,0.000,0.000
149947.301,27.832,22.949,33.203,31.738,45.898,0.000,0.000,0.000
149947.305,31.738,28.809,34.180,30.273,46.387,0.000,0.000,0.000
149947.309,33.691,29.785,30.762,30.762,51.270,0.000,0.000,0.000
149947.313,25.391,29.297,20.508,29.297,42.969,0.000,0.000,0.000
149947.317,20.508,28.320,14.160,24.414,35.645,0.000,0.000,0.000
149947.321,21.484,24.902,20.996,19.531,38.574,0.000,0.000,0.000
149947.325,20.996,25.879,33.691,19.531,37.598,0.000,0.000,0.000
149947.329,20.996,28.809,34.180,23.926,38.086,0.000,0.000,0.000
149947.333,17.578,27.344,30.273,23.438,32.715,0.000,0.000,0.000
149947.337,16.113,23.438,26.855,20.508,31.738,0.000,0.000,0.000
149947.340,23.926,26.855,26.367,24.414,42.480,0.000,0.000,0.000
149947.344,23.438,29.297,22.949,25.391,39.062,0.000,0.000,0.000
149947.346,17.090,25.879,23.926,20.508,34.180,0.000,0.000,0.000
149947.350,22.949,26.367,27.344,21.484,42.969,0.000,0.000,0.000
149947.354,25.391,25.391,29.297,20.508,42.480,0.000,0.000,0.000
149947.358,20.508,25.879,26.367,17.090,35.156,0.000,0.000,0.000
149947.362,21.484,30.273,23.926,18.555,32.715,0.000,0.000,0.000
149947.366,25.391,32.715,29.785,20.508,34.668,0.000,0.000,0.000
149947.370,24.414,28.320,34.180,19.043,32.227,0.000,0.000,0.000
149947.374,23.926,29.785,31.250,17.578,33.203,0.000,0.000,0.000
149947.377,19.531,33.691,25.879,19.043,34.668,0.000,0.000,0.000
149947.381,22.461,32.227,25.391,23.438,34.668,0.000,0.000,0.000
149947.385,33.691,34.668,25.391,23.438,40.527,0.000,0.000,0.000
149947.389,35.156,32.715,25.391,22.461,37.598,0.000,0.000,0.000
149947.391,24.902,30.273,30.762,20.996,30.762,0.000,0.000,0.000
149947.395,18.555,29.297,29.785,21.484,30.762,0.000,0.000,0.000
149947.399,23.926,33.203,28.320,22.461,37.598,0.000,0.000,0.000
149947.403,26.855,35.156,32.227,22.461,40.039,0.000,0.000,0.000
149947.407,23.926,33.203,30.273,23.438,41.016,0.000,0.000,0.000
149947.411,23.926,29.297,22.949,26.367,39.551,0.000,0.000,0.000
149947.415,29.785,28.320,22.949,31.250,42.969,0.000,0.000,0.000
149947.419,31.738,33.691,30.273,32.715,41.992,0.000,0.000,0.000
149947.423,27.832,31.738,33.691,30.762,35.156,0.000,0.000,0.000
149947.426,29.297,26.855,36.133,36.621,40.527,0.000,0.000,0.000
149947.430,32.227,28.320,24.414,41.016,43.457,0.000,0.000,0.000
149947.434,32.227,29.785,14.648,35.645,41.016,0.000,0.000,0.000
149947.438,32.227,27.344,24.414,32.715,39.062,0.000,0.000,0.000
149947.442,31.250,24.902,34.668,34.180,45.410,0.000,0.000,0.000
149947.446,29.785,26.855,39.551,35.645,47.363,0.000,0.000,0.000
149947.450,31.250,27.832,38.574,34.668,37.109,0.000,0.000,0.000
149947.454,33.691,26.855,29.785,34.180,33.203,0.000,0.000,0.000
149947.458,30.273,30.273,29.297,35.156,32.715,0.000,0.000,0.000
149947.462,19.531,30.762,30.762,32.227,21.973,0.000,0.000,0.000
149947.465,15.137,29.785,25.879,28.809,13.184,0.000,0.000,0.000
149947.469,19.531,31.250,27.344,29.297,8.789,0.000,0.000,0.000
149947.473,18.066,28.320,28.809,30.273,3.906,0.000,0.000,0.000
149947.477,10.742,25.879,33.203,29.297,7.324,0.000,0.000,0.000
149947.481,12.695,25.879,36.133,24.414,13.184,0.000,0.000,0.000
149947.496,20.508,25.879,30.762,21.484,21.484,0.000,0.000,0.000
149947.500,23.926,27.832,27.832,23.926,30.273,0.000,0.000,0.000
149947.504,22.461,30.762,27.832,27.832,29.785,0.000,0.000,0.000
149947.508,24.902,30.273,22.461,28.320,29.785,0.000,0.000,0.000
149947.512,27.344,27.344,20.996,25.879,34.180,0.000,0.000,0.000
149947.516,25.879,23.926,25.879,24.414,33.203,0.000,0.000,0.000
149947.520,22.461,24.414,28.320,23.438,28.320,0.000,0.000,0.000
149947.524,23.438,27.832,28.320,26.367,28.809,0.000,0.000,0.000
149947.527,26.855,29.297,27.832,27.344,26.855,0.000,0.000,0.000
149947.531,26.367,26.367,25.879,21.484,19.043,0.000,0.000,0.000
149947.535,23.438,26.855,22.461,19.043,16.113,0.000,0.000,0.000
149947.539,18.555,25.879,22.461,20.996,13.184,0.000,0.000,0.000
149947.541,20.996,25.391,24.414,22.461,16.113,0.000,0.000,0.000
149947.545,27.832,27.344,28.320,22.461,22.461,0.000,0.000,0.000
149947.549,28.320,25.879,31.250,24.902,25.391,0.000,0.000,0.000
149947.553,28.320,30.762,30.273,30.762,28.320,0.000,0.000,0.000
149947.557,31.738,35.156,26.855,28.809,25.391,0.000,0.000,0.000
149947.561,33.691,33.203,27.832,29.785,32.715,0.000,0.000,0.000
149947.565,32.715,34.668,26.367,28.320,37.598,0.000,0.000,0.000
149947.569,30.762,40.527,20.020,18.555,24.414,0.000,0.000,0.000
149947.573,20.508,35.156,23.926,12.695,13.672,0.000,0.000,0.000
149947.577,13.672,28.320,29.785,11.719,15.625,0.000,0.000,0.000
149947.580,18.555,27.344,29.785,17.578,23.926,0.000,0.000,0.000
149947.584,18.066,26.367,28.320,22.949,23.926,0.000,0.000,0.000
149947.586,17.090,31.250,28.809,24.902,26.855,0.000,0.000,0.000
149947.590,20.996,36.133,34.180,26.367,37.109,0.000,0.000,0.000
149947.594,19.531,31.738,31.738,22.461,33.203,0.000,0.000,0.000
149947.598,14.160,25.879,24.902,19.043,25.879,0.000,0.000,0.000
149947.602,17.090,29.297,20.996,21.484,27.344,0.000,0.000,0.000
149947.606,20.508,29.785,22.461,20.508,26.855,0.000,0.000,0.000
149947.610,21.484,27.832,26.367,16.602,24.902,0.000,0.000,0.000
149947.614,23.438,30.762,26.367,21.973,30.273,0.000,0.000,0.000
149947.617,21.973,30.273,26.855,24.414,37.109,0.000,0.000,0.000
149947.621,22.461,26.855,22.461,20.996,37.109,0.000,0.000,0.000
149947.625,21.973,28.320,23.438,19.043,36.133,0.000,0.000,0.000
149947.629,22.949,27.832,31.250,21.484,30.762,0.000,0.000,0.000
149947.631,22.461,26.367,28.320,26.367,21.484,0.000,0.000,0.000
149947.635,18.066,27.344,21.973,25.391,11.719,0.000,0.000,0.000
149947.639,18.555,25.879,26.367,24.902,10.742,0.000,0.000,0.000
149947.643,20.020,22.461,27.344,20.020,5.859,0.000,0.000,0.000
149947.647,18.066,30.273,25.391,16.113,3.906,0.000,0.000,0.000
149947.651,16.113,32.715,27.344,23.926,15.625,0.000,0.000,0.000
149947.655,18.066,24.414,25.391,25.879,22.461,0.000,0.000,0.000
149947.659,18.555,25.879,26.855,20.020,23.438,0.000,0.000,0.000
149947.662,18.066,30.273,28.809,22.949,24.414,0.000,0.000,0.000
149947.666,18.066,28.320,27.832,27.344,29.297,0.000,0.000,0.000
149947.670,19.531,32.227,26.367,25.879,35.156,0.000,0.000,0.000
149947.674,22.949,37.109,24.902,25.391,37.109,0.000,0.000,0.000
149947.676,24.414,36.621,32.227,27.344,35.645,0.000,0.000,0.000
149947.680,25.879,38.086,38.086,31.738,35.645,0.000,0.000,0.000
149947.684,25.879,38.574,35.156,28.320,38.574,0.000,0.000,0.000
149947.688,27.344,31.738,29.297,23.438,42.969,0.000,0.000,0.000
149947.692,30.762,30.273,28.320,24.902,35.645,0.000,0.000,0.000
149947.696,29.785,32.715,31.250,26.367,28.320,0.000,0.000,0.000
149947.700,30.273,33.691,31.250,27.344,31.738,0.000,0.000,0.000
149947.704,37.598,34.668,24.902,29.785,37.109,0.000,0.000,0.000
149947.707,40.527,32.715,23.926,31.738,35.156,0.000,0.000,0.000
149947.711,38.574,32.227,29.785,32.715,31.738,0.000,0.000,0.000
149947.715,33.203,29.785,30.273,34.668,39.062,0.000,0.000,0.000
149947.719,30.762,25.879,37.109,35.645,33.691,0.000,0.000,0.000
149947.721,29.785,24.902,40.039,34.668,23.438,0.000,0.000,0.000
149947.725,22.949,27.832,30.762,34.668,21.484,0.000,0.000,0.000
149947.729,12.695,27.832,29.297,33.203,14.160,0.000,0.000,0.000
149947.733,12.207,26.367,33.691,26.855,6.836,0.000,0.000,0.000
149947.737,17.090,31.250,33.691,24.902,15.137,0.000,0.000,0.000
149947.741,15.137,30.762,30.762,21.484,20.996,0.000,0.000,0.000
149947.745,6.836,25.391,29.785,18.555,14.160,0.000,0.000,0.000
149947.748,5.371,25.391,28.320,17.578,14.160,0.000,0.000,0.000
149947.752,11.719,27.344,28.320,18.555,19.043,0.000,0.000,0.000
149947.756,16.113,28.320,26.367,21.973,23.926,0.000,0.000,0.000
149947.760,16.113,25.391,21.973,21.484,30.273,0.000,0.000,0.000
149947.764,18.066,29.297,24.414,26.367,30.273,0.000,0.000,0.000
149947.766,20.020,33.691,21.484,26.367,23.926,0.000,0.000,0.000
149947.770,19.043,30.762,28.320,21.484,21.484,0.000,0.000,0.000
149947.774,20.996,28.809,34.180,24.902,26.855,0.000,0.000,0.000
149947.778,20.508,31.738,31.250,24.902,23.926,0.000,0.000,0.000
149947.782,18.555,32.715,30.273,20.996,26.367,0.000,0.000,0.000
149947.786,19.531,31.738,25.391,20.508,24.902,0.000,0.000,0.000
149947.790,19.043,30.762,24.902,18.555,17.578,0.000,0.000,0.000
149947.794,15.625,27.832,24.414,14.648,11.719,0.000,0.000,0.000
149947.797,20.020,30.762,24.902,16.113,10.254,0.000,0.000,0.000
149947.801,24.414,34.180,31.250,17.090,20.020,0.000,0.000,0.000
149947.805,21.973,31.250,34.180,17.090,23.438,0.000,0.000,0.000
149947.809,20.996,29.785,32.227,22.461,24.414,0.000,0.000,0.000
149947.826,18.066,29.297,31.738,22.461,26.367,0.000,0.000,0.000
149947.830,23.926,33.203,37.109,24.414,23.926,0.000,0.000,0.000
149947.834,32.227,36.133,38.574,28.320,23.438,0.000,0.000,0.000
149947.838,29.785,34.180,28.320,24.902,21.484,0.000,0.000,0.000
149947.842,25.391,32.715,22.949,21.484,20.508,0.000,0.000,0.000
149947.845,24.414,32.715,27.832,20.020,22.461,0.000,0.000,0.000
149947.849,26.367,30.762,24.414,20.996,24.414,0.000,0.000,0.000
149947.853,21.973,29.785,20.020,21.973,27.344,0.000,0.000,0.000
149947.857,20.020,32.715,19.043,23.438,23.926,0.000,0.000,0.000
149947.861,22.461,30.762,17.578,20.996,16.602,0.000,0.000,0.000
149947.865,23.926,30.762,26.367,18.066,16.602,0.000,0.000,0.000
149947.869,28.320,32.715,36.133,23.926,27.344,0.000,0.000,0.000
149947.871,29.297,33.691,37.109,28.320,38.086,0.000,0.000,0.000
149947.875,27.832,33.203,32.715,25.391,37.109,0.000,0.000,0.000
149947.879,31.738,31.250,26.855,25.391,37.109,0.000,0.000,0.000
149947.883,30.273,30.273,26.367,23.438,34.180,0.000,0.000,0.000
149947.887,26.855,32.227,33.203,23.438,31.250,0.000,0.000,0.000
149947.891,28.320,35.645,33.691,29.785,34.668,0.000,0.000,0.000
149947.895,27.344,35.645,32.227,26.367,26.855,0.000,0.000,0.000
149947.898,26.855,35.156,18.066,23.438,29.297,0.000,0.000,0.000
149947.902,24.902,31.738,7.324,27.832,36.621,0.000,0.000,0.000
149947.906,20.996,25.879,20.996,27.832,30.762,0.000,0.000,0.000
149947.910,23.926,29.297,22.949,23.926,32.715,0.000,0.000,0.000
149947.914,28.320,35.645,14.160,21.484,38.574,0.000,0.000,0.000
149947.916,26.855,35.156,21.484,23.438,34.668,0.000,0.000,0.000
149947.920,21.973,32.227,28.320,23.438,28.320,0.000,0.000,0.000
149947.924,20.996,31.738,26.855,20.020,25.879,0.000,0.000,0.000
149947.928,25.879,30.762,22.949,17.578,28.320,0.000,0.000,0.000
149947.932,26.855,29.785,17.578,17.090,27.832,0.000,0.000,0.000
149947.936,24.414,30.762,19.531,21.484,30.762,0.000,0.000,0.000
149947.940,24.414,32.227,24.414,21.973,36.133,0.000,0.000,0.000
149947.944,26.367,32.227,26.855,22.461,38.574,0.000,0.000,0.000
149947.947,29.297,34.180,25.391,25.391,36.621,0.000,0.000,0.000
149947.951,22.949,34.668,23.438,24.414,31.250,0.000,0.000,0.000
149947.955,15.137,32.715,19.043,19.531,21.484,0.000,0.000,0.000
149947.959,17.090,32.227,15.625,20.020,19.043,0.000,0.000,0.000
149947.961,20.996,23.438,20.996,21.973,31.738,0.000,0.000,0.000
149947.965,22.949,24.902,28.809,24.414,30.273,0.000,0.000,0.000
149947.969,24.414,35.156,28.809,30.273,27.344,0.000,0.000,0.000
149947.973,26.367,35.156,29.297,28.809,32.715,0.000,0.000,0.000
149947.977,23.926,31.738,30.762,25.879,34.668,0.000,0.000,0.000
149947.981,20.508,35.156,27.344,25.391,34.180,0.000,0.000,0.000
149947.985,15.137,35.156,20.020,20.996,21.973,0.000,0.000,0.000
149947.989,17.578,31.250,20.020,20.996,21.484,0.000,0.000,0.000
149947.993,25.391,31.738,25.391,21.973,25.879,0.000,0.000,0.000
149947.997,23.438,27.832,25.391,18.066,21.484,0.000,0.000,0.000
149948.000,21.484,27.344,25.879,21.973,20.508,0.000,0.000,0.000
149948.004,23.438,31.738,28.320,24.414,20.996,0.000,0.000,0.000
149948.006,22.949,26.367,30.762,17.578,20.508,0.000,0.000,0.000
149948.010,23.926,20.020,31.738,20.508,24.414,0.000,0.000,0.000
149948.014,24.902,23.926,29.297,28.809,30.273,0.000,0.000,0.000
149948.018,21.484,30.762,24.414,28.809,29.785,0.000,0.000,0.000
149948.022,20.508,32.715,20.996,24.414,29.297,0.000,0.000,0.000
149948.026,21.973,33.691,19.531,19.531,27.344,0.000,0.000,0.000
149948.030,19.531,34.668,22.949,19.531,22.949,0.000,0.000,0.000
149948.034,15.625,32.227,23.926,18.066,18.555,0.000,0.000,0.000
149948.037,18.066,30.273,26.367,13.184,16.113,0.000,0.000,0.000
149948.041,19.531,27.344,27.832,12.695,16.113,0.000,0.000,0.000
149948.045,17.578,26.367,20.996,13.184,9.766,0.000,0.000,0.000
149948.049,15.625,27.832,15.625,15.625,7.812,0.000,0.000,0.000
149948.051,15.137,23.438,22.949,18.555,5.859,0.000,0.000,0.000
149948.055,16.113,20.020,27.832,19.043,11.230,0.000,0.000,0.000
149948.059,14.648,22.461,21.973,21.484,16.113,0.000,0.000,0.000
149948.063,9.766,24.414,17.578,25.391,13.184,0.000,0.000,0.000
149948.067,11.230,25.879,28.809,27.832,18.555,0.000,0.000,0.000
149948.071,16.602,25.879,38.086,28.809,15.625,0.000,0.000,0.000
149948.075,18.555,22.461,34.668,29.785,17.090,0.000,0.000,0.000
149948.079,21.973,26.367,34.180,26.367,23.438,0.000,0.000,0.000
149948.083,22.949,28.809,37.109,24.902,26.855,0.000,0.000,0.000
149948.086,27.344,23.926,32.715,23.926,37.109,0.000,0.000,0.000
149948.090,33.691,26.855,23.926,21.973,37.598,0.000,0.000,0.000
149948.094,32.227,29.785,19.531,20.020,26.367,0.000,0.000,0.000
149948.096,34.180,32.227,19.043,21.973,22.461,0.000,0.000,0.000
149948.100,37.598,34.668,17.090,25.879,20.508,0.000,0.000,0.000
149948.104,35.645,33.691,18.066,23.438,19.531,0.000,0.000,0.000
149948.108,35.156,34.668,25.879,20.996,23.438,0.000,0.000,0.000
149948.112,24.902,33.691,32.227,20.020,16.602,0.000,0.000,0.000
149948.116,15.625,28.320,24.902,20.508,17.090,0.000,0.000,0.000
149948.120,14.648,26.855,21.973,20.508,25.879,0.000,0.000,0.000
149948.124,9.277,28.809,27.832,22.461,25.391,0.000,0.000,0.000
149948.127,3.906,25.879,25.879,27.344,25.879,0.000,0.000,0.000
149948.131,-1.953,24.414,30.273,26.855,26.855,0.000,0.000,0.000
149948.135,-3.418,25.391,34.668,20.020,20.020,0.000,0.000,0.000
149948.139,11.230,26.367,34.668,24.414,21.973,0.000,0.000,0.000
149948.143,20.996,29.785,32.715,33.691,28.809,0.000,0.000,0.000
149948.147,19.043,26.367,29.785,30.273,22.949,0.000,0.000,0.000
149948.151,24.902,19.531,33.691,26.855,24.902,0.000,0.000,0.000
149948.155,30.762,22.949,31.738,23.438,30.762,0.000,0.000,0.000
149948.159,31.738,26.855,27.344,21.484,32.715,0.000,0.000,0.000
149948.163,31.250,29.297,23.926,27.344,34.180,0.000,0.000,0.000
149948.167,31.250,32.227,20.508,26.367,32.715,0.000,0.000,0.000
149948.171,30.762,33.203,22.461,21.973,30.762,0.000,0.000,0.000
149948.175,30.762,32.715,27.344,22.461,32.715,0.000,0.000,0.000
149948.179,25.391,28.320,27.344,23.438,29.785,0.000,0.000,0.000
149948.182,20.020,30.273,25.879,22.461,23.438,0.000,0.000,0.000
149948.186,23.438,36.621,30.273,20.996,21.973,0.000,0.000,0.000
149948.201,23.438,35.645,35.156,22.461,24.902,0.000,0.000,0.000
149948.205,20.508,34.668,38.574,27.344,34.180,0.000,0.000,0.000
149948.209,16.602,33.203,42.969,28.320,38.086,0.000,0.000,0.000
149948.213,14.160,32.715,38.574,25.391,30.762,0.000,0.000,0.000
149948.217,13.184,27.344,33.203,25.391,28.809,0.000,0.000,0.000
149948.221,13.672,25.391,30.273,29.297,25.391,0.000,0.000,0.000
149948.225,11.230,23.926,25.879,31.250,22.949,0.000,0.000,0.000
149948.229,12.207,25.391,25.391,29.297,29.297,0.000,0.000,0.000
149948.233,20.020,30.762,30.273,30.273,35.645,0.000,0.000,0.000
149948.236,18.555,27.344,35.156,26.367,22.949,0.000,0.000,0.000
149948.240,18.555,28.320,30.762,25.879,13.184,0.000,0.000,0.000
149948.244,25.879,29.297,27.832,28.809,19.531,0.000,0.000,0.000
149948.246,31.250,26.855,32.715,26.855,23.926,0.000,0.000,0.000
149948.250,31.738,28.809,37.109,26.855,21.973,0.000,0.000,0.000
149948.254,33.203,31.250,33.691,30.762,25.391,0.000,0.000,0.000
149948.258,34.668,28.320,30.762,32.715,31.250,0.000,0.000,0.000
149948.262,32.715,27.832,31.250,28.320,32.715,0.000,0.000,0.000
149948.266,33.691,32.715,24.414,28.320,38.086,0.000,0.000,0.000
149948.270,33.203,33.203,21.484,33.203,40.527,0.000,0.000,0.000
149948.274,25.879,34.180,28.809,31.250,34.180,0.000,0.000,0.000
149948.278,25.391,37.109,33.691,28.809,30.762,0.000,0.000,0.000
149948.281,23.438,33.691,32.227,27.832,26.367,0.000,0.000,0.000
149948.285,15.625,29.297,27.832,26.367,20.020,0.000,0.000,0.000
149948.289,15.625,28.320,30.273,32.715,28.320,0.000,0.000,0.000
149948.291,15.625,32.227,35.645,33.203,31.738,0.000,0.000,0.000
149948.295,16.602,35.156,34.668,28.809,29.297,0.000,0.000,0.000
149948.299,17.090,31.738,33.203,29.297,32.715,0.000,0.000,0.000
149948.303,14.160,31.250,25.879,27.832,37.109,0.000,0.000,0.000
149948.307,16.113,30.762,19.043,25.391,38.574,0.000,0.000,0.000
149948.311,22.949,32.227,21.973,25.879,38.574,0.000,0.000,0.000
149948.315,29.785,35.156,24.902,27.344,42.480,0.000,0.000,0.000
149948.319,29.297,33.691,28.320,26.367,41.504,0.000,0.000,0.000
149948.323,26.855,35.156,31.738,24.414,34.668,0.000,0.000,0.000
149948.326,29.297,36.621,28.320,20.508,31.738,0.000,0.000,0.000
149948.330,28.809,31.250,26.367,17.578,31.250,0.000,0.000,0.000
149948.334,30.762,29.297,28.809,24.902,37.109,0.000,0.000,0.000
149948.336,35.156,31.738,31.250,31.738,44.434,0.000,0.000,0.000
149948.340,35.156,34.668,28.320,35.156,48.828,0.000,0.000,0.000
149948.344,36.621,34.668,32.715,37.598,51.270,0.000,0.000,0.000
149948.348,34.180,33.203,34.668,37.109,42.969,0.000,0.000,0.000
149948.352,30.762,31.738,27.832,37.598,31.250,0.000,0.000,0.000
149948.356,30.273,32.715,27.832,34.180,26.855,0.000,0.000,0.000
149948.360,25.879,34.180,28.320,25.879,27.344,0.000,0.000,0.000
149948.364,23.926,33.203,23.926,26.367,24.902,0.000,0.000,0.000
149948.367,20.508,32.227,25.391,29.785,21.484,0.000,0.000,0.000
149948.371,13.672,29.785,30.762,24.414,22.949,0.000,0.000,0.000
149948.375,13.672,26.855,29.785,22.949,24.902,0.000,0.000,0.000
149948.379,20.020,28.809,20.508,26.855,26.855,0.000,0.000,0.000
149948.381,22.949,32.715,20.996,31.250,29.785,0.000,0.000,0.000
149948.385,21.484,32.227,27.344,30.762,29.297,0.000,0.000,0.000
149948.389,22.949,31.250,27.344,25.391,24.414,0.000,0.000,0.000
149948.393,30.273,31.738,21.484,25.879,29.785,0.000,0.000,0.000
149948.397,32.227,34.180,16.602,28.809,38.086,0.000,0.000,0.000
149948.401,27.344,36.133,20.020,24.902,32.227,0.000,0.000,0.000
149948.405,25.879,31.250,19.043,20.508,29.297,0.000,0.000,0.000
149948.409,32.227,33.691,22.461,20.996,32.715,0.000,0.000,0.000
149948.413,26.855,35.645,31.250,19.043,19.043,0.000,0.000,0.000
149948.417,19.043,32.715,22.461,20.508,14.160,0.000,0.000,0.000
149948.420,22.949,33.203,18.066,23.438,19.531,0.000,0.000,0.000
149948.424,22.461,34.180,27.344,20.996,18.066,0.000,0.000,0.000
149948.426,14.648,29.785,30.762,18.066,17.578,0.000,0.000,0.000
149948.430,7.324,27.832,31.250,14.648,11.719,0.000,0.000,0.000
149948.434,9.766,26.855,29.785,15.625,17.090,0.000,0.000,0.000
149948.438,14.648,24.414,25.879,16.602,23.438,0.000,0.000,0.000
149948.442,10.742,24.902,20.020,9.766,20.508,0.000,0.000,0.000
149948.446,11.719,28.809,21.484,14.160,27.832,0.000,0.000,0.000
149948.450,14.160,31.250,26.367,16.602,31.250,0.000,0.000,0.000
149948.454,13.184,27.832,23.926,10.254,26.855,0.000,0.000,0.000
149948.458,17.578,27.344,22.949,15.625,24.902,0.000,0.000,0.000
149948.462,19.531,31.738,26.367,22.461,30.762,0.000,0.000,0.000
149948.465,20.020,29.297,28.320,25.391,35.156,0.000,0.000,0.000
149948.469,18.555,22.461,28.809,21.973,30.762,0.000,0.000,0.000
149948.470,21.484,24.414,27.832,18.555,23.926,0.000,0.000,0.000
149948.474,23.438,26.367,22.461,20.508,21.484,0.000,0.000,0.000
149948.478,17.578,28.320,22.461,20.508,19.531,0.000,0.000,0.000
149948.482,17.090,27.832,23.438,18.066,23.926,0.000,0.000,0.000
149948.486,20.996,28.809,18.555,18.066,31.250,0.000,0.000,0.000
149948.490,24.902,33.203,14.648,22.949,29.297,0.000,0.000,0.000
149948.494,24.414,31.738,16.113,27.344,24.414,0.000,0.000,0.000
149948.498,24.414,33.691,24.414,29.785,28.809,0.000,0.000,0.000
149948.502,27.832,34.668,28.320,30.273,30.762,0.000,0.000,0.000
149948.505,24.414,25.391,29.297,26.855,21.973,0.000,0.000,0.000
149948.509,13.672,20.020,26.367,23.926,13.672,0.000,0.000,0.000
149948.513,15.137,25.879,27.832,26.855,17.090,0.000,0.000,0.000
149948.515,23.926,29.785,34.668,25.391,26.855,0.000,0.000,0.000
149948.519,29.785,28.320,33.691,20.020,32.715,0.000,0.000,0.000
149948.523,31.738,30.273,24.414,22.949,31.738,0.000,0.000,0.000
149948.527,30.762,32.715,17.090,26.367,29.297,0.000,0.000,0.000
149948.531,32.715,32.227,21.484,24.902,26.855,0.000,0.000,0.000
149948.535,38.574,33.203,28.809,26.367,31.738,0.000,0.000,0.000
149948.539,40.039,36.621,28.809,26.855,33.691,0.000,0.000,0.000
149948.543,32.227,36.133,24.902,24.414,30.762,0.000,0.000,0.000
149948.546,33.203,35.156,24.414,24.414,30.762,0.000,0.000,0.000
149948.550,41.504,35.645,23.926,27.832,36.133,0.000,0.000,0.000
149948.554,39.551,33.691,21.973,28.320,36.133,0.000,0.000,0.000
149948.558,28.320,29.297,20.996,24.902,24.902,0.000,0.000,0.000
149948.575,25.391,30.762,18.555,23.926,26.855,0.000,0.000,0.000
149948.579,31.250,32.715,23.438,26.367,30.762,0.000,0.000,0.000
149948.583,31.738,31.738,26.855,23.926,20.996,0.000,0.000,0.000
149948.587,26.855,34.180,26.855,20.020,16.113,0.000,0.000,0.000
149948.591,22.949,33.203,25.879,20.996,13.184,0.000,0.000,0.000
149948.595,24.414,34.668,26.855,18.555,13.184,0.000,0.000,0.000
149948.599,26.367,34.180,27.344,14.160,21.973,0.000,0.000,0.000
149948.603,22.949,28.809,21.973,15.137,23.438,0.000,0.000,0.000
149948.606,21.973,29.785,18.066,15.625,18.555,0.000,0.000,0.000
149948.610,24.414,31.250,20.996,13.184,17.578,0.000,0.000,0.000
149948.614,30.762,32.715,27.832,18.555,27.344,0.000,0.000,0.000
149948.618,31.250,31.250,30.273,22.949,34.180,0.000,0.000,0.000
149948.620,27.832,27.832,29.785,23.926,28.809,0.000,0.000,0.000
149948.624,23.926,34.668,32.715,24.902,23.438,0.000,0.000,0.000
149948.628,25.391,37.598,35.645,24.414,13.672,0.000,0.000,0.000
149948.632,28.320,36.133,34.180,28.320,13.672,0.000,0.000,0.000
149948.636,26.367,37.598,25.879,31.738,23.926,0.000,0.000,0.000
149948.640,22.461,34.668,23.438,29.297,22.461,0.000,0.000,0.000
149948.644,23.926,33.203,22.949,22.949,19.043,0.000,0.000,0.000
149948.648,29.297,35.156,26.855,24.902,27.832,0.000,0.000,0.000
149948.651,26.367,33.691,32.227,29.297,33.691,0.000,0.000,0.000
149948.655,25.879,39.062,30.762,28.320,37.109,0.000,0.000,0.000
149948.659,28.320,41.016,34.180,28.809,40.039,0.000,0.000,0.000
149948.663,27.832,36.133,37.598,27.832,33.691,0.000,0.000,0.000
149948.666,24.902,33.203,36.621,24.902,29.297,0.000,0.000,0.000
149948.670,20.508,32.715,34.668,28.320,31.250,0.000,0.000,0.000
149948.674,20.020,34.668,35.156,29.785,35.645,4.000,1.000,45.000
149948.677,22.461,35.156,36.133,26.367,33.691,0.000,0.000,0.000
149948.681,22.461,33.691,33.203,25.391,30.762,0.000,0.000,0.000
149948.685,21.484,37.598,31.250,25.879,30.273,0.000,0.000,0.000
149948.689,18.066,33.691,33.203,23.926,21.484,0.000,0.000,0.000
149948.693,20.996,24.414,35.645,24.414,30.762,0.000,0.000,0.000
149948.697,25.879,26.367,33.203,25.391,41.992,0.000,0.000,0.000
149948.701,23.926,34.668,30.762,25.879,36.621,0.000,0.000,0.000
149948.705,25.391,35.645,34.668,28.320,37.109,0.000,0.000,0.000
149948.709,29.785,33.691,39.551,29.785,44.434,0.000,0.000,0.000
149948.711,28.809,32.227,40.527,28.320,46.387,0.000,0.000,0.000
149948.715,24.902,32.227,37.109,29.297,41.992,0.000,0.000,0.000
149948.719,20.508,33.203,35.156,32.715,36.133,0.000,0.000,0.000
149948.723,19.043,28.320,35.645,34.668,36.621,0.000,0.000,0.000
149948.727,20.508,25.879,33.203,32.715,33.691,0.000,0.000,0.000
149948.731,17.578,30.762,30.273,29.297,26.855,0.000,0.000,0.000
149948.735,12.207,31.250,39.062,30.762,29.785,0.000,0.000,0.000
149948.739,15.625,30.273,39.062,32.227,35.645,0.000,0.000,0.000
149948.742,24.414,30.762,35.156,30.273,37.598,0.000,0.000,0.000
149948.746,22.949,33.691,32.227,25.879,35.645,0.000,0.000,0.000
149948.750,19.531,33.203,24.414,22.949,26.367,0.000,0.000,0.000
149948.754,21.973,33.203,20.508,20.508,26.855,0.000,0.000,0.000
149948.756,22.949,29.297,22.949,17.090,29.785,0.000,0.000,0.000
149948.760,20.020,28.320,35.645,16.113,23.926,0.000,0.000,0.000
149948.764,15.137,33.691,41.992,15.137,20.996,0.000,0.000,0.000
149948.768,17.578,32.715,36.621,17.090,20.996,0.000,0.000,0.000
149948.772,21.973,30.273,30.273,20.508,23.926,0.000,0.000,0.000
149948.775,22.461,33.691,25.391,20.020,20.508,0.000,0.000,0.000
149948.779,23.438,33.203,21.973,21.973,16.602,0.000,0.000,0.000
149948.783,20.020,30.273,24.902,25.391,19.531,0.000,0.000,0.000
149948.787,19.531,29.785,28.320,20.996,24.902,0.000,0.000,0.000
149948.791,24.902,30.273,24.902,18.555,27.832,0.000,0.000,0.000
149948.795,26.855,32.227,23.926,20.508,29.785,0.000,0.000,0.000
149948.799,25.879,32.227,22.949,21.973,29.297,0.000,0.000,0.000
149948.801,26.367,30.762,22.949,23.926,29.297,0.000,0.000,0.000
149948.805,29.297,33.691,23.926,26.367,31.738,0.000,0.000,0.000
149948.809,29.297,33.691,24.902,24.902,21.973,0.000,0.000,0.000
149948.812,24.414,28.809,23.926,21.484,11.230,0.000,0.000,0.000
149948.816,21.973,28.809,23.438,24.414,13.672,0.000,0.000,0.000
149948.820,25.391,30.273,25.391,25.879,20.508,0.000,0.000,0.000
149948.824,28.320,28.809,30.273,24.902,27.832,0.000,0.000,0.000
149948.828,26.855,27.832,31.250,25.879,37.598,0.000,0.000,0.000
149948.832,20.996,30.273,24.414,23.438,41.504,0.000,0.000,0.000
149948.836,22.461,32.227,18.555,20.996,44.434,0.000,0.000,0.000
149948.840,26.367,27.832,19.043,19.531,45.410,0.000,0.000,0.000
149948.844,23.926,26.855,20.508,21.973,43.945,0.000,0.000,0.000
149948.848,16.602,30.273,21.484,24.902,44.922,0.000,0.000,0.000
149948.852,18.066,28.809,21.973,22.949,39.062,0.000,0.000,0.000
149948.856,19.043,25.879,20.508,17.578,34.180,0.000,0.000,0.000
149948.860,17.578,26.855,19.531,15.137,31.250,0.000,0.000,0.000
149948.864,13.672,26.855,21.973,14.160,25.391,0.000,0.000,0.000
149948.867,8.301,22.461,19.043,12.207,20.996,0.000,0.000,0.000
149948.871,15.137,25.391,17.090,14.160,24.902,0.000,0.000,0.000
149948.875,19.043,30.273,21.973,14.160,27.832,0.000,0.000,0.000
149948.879,12.695,27.344,24.902,16.113,24.902,0.000,0.000,0.000
149948.883,12.207,26.367,26.367,19.043,29.785,0.000,0.000,0.000
149948.887,14.648,25.391,26.855,18.066,37.598,0.000,0.000,0.000
149948.891,17.090,24.902,29.785,19.531,31.738,0.000,0.000,0.000
149948.891,17.578,27.344,24.902,23.926,27.344,0.000,0.000,0.000
149948.895,16.113,26.367,18.555,25.391,27.832,0.000,0.000,0.000
149948.899,17.578,26.367,21.484,25.391,24.902,0.000,0.000,0.000
149948.903,20.508,29.785,21.973,25.391,23.926,0.000,0.000,0.000
149948.907,15.137,27.344,23.438,21.484,21.484,0.000,0.000,0.000
149948.911,10.742,23.926,23.438,19.531,19.043,0.000,0.000,0.000
149948.915,16.113,25.391,25.879,17.090,16.113,0.000,0.000,0.000
149948.918,16.113,23.926,26.855,11.230,11.719,0.000,0.000,0.000
149948.922,11.230,26.367,22.949,9.766,11.230,0.000,0.000,0.000
149948.926,12.207,30.762,24.902,13.672,16.113,0.000,0.000,0.000
149948.930,12.695,30.273,28.320,14.648,20.020,0.000,0.000,0.000
149948.934,16.602,35.645,28.320,15.625,27.344,0.000,0.000,0.000
149948.951,19.043,35.156,20.508,17.090,26.367,0.000,0.000,0.000
149948.955,9.277,26.367,16.113,12.207,14.160,0.000,0.000,0.000
149948.959,9.766,26.367,21.973,13.184,17.578,0.000,0.000,0.000
149948.962,19.531,28.320,25.391,18.066,31.250,0.000,0.000,0.000
149948.966,23.438,27.344,25.879,19.531,37.109,0.000,0.000,0.000
149948.970,19.531,28.809,27.344,20.508,37.598,0.000,0.000,0.000
149948.974,20.020,32.227,23.926,22.949,31.738,0.000,0.000,0.000
149948.978,26.367,36.133,19.531,25.391,31.738,0.000,0.000,0.000
149948.982,30.273,34.180,20.020,26.855,38.086,0.000,0.000,0.000
149948.986,29.297,31.738,22.949,26.855,38.086,0.000,0.000,0.000
149948.990,26.855,34.180,25.391,27.832,35.156,0.000,0.000,0.000
149948.994,24.414,33.691,27.344,26.367,33.203,0.000,0.000,0.000
149948.996,23.438,30.762,29.297,23.438,35.156,0.000,0.000,0.000
149949.000,26.367,30.762,31.250,22.949,29.785,0.000,0.000,0.000
149949.004,24.902,31.738,32.715,26.855,29.297,0.000,0.000,0.000
149949.008,20.996,29.785,29.785,26.855,30.273,0.000,0.000,0.000
149949.012,24.414,27.344,27.832,25.879,32.227,0.000,0.000,0.000
149949.016,28.320,27.832,30.273,26.367,36.621,0.000,0.000,0.000
149949.020,22.461,29.297,27.344,28.809,32.227,0.000,0.000,0.000
149949.023,20.996,31.250,24.414,33.691,28.809,0.000,0.000,0.000
149949.027,25.391,32.715,31.250,31.250,16.113,0.000,0.000,0.000
149949.031,27.344,34.668,32.227,26.855,15.625,0.000,0.000,0.000
149949.035,25.879,33.691,21.484,28.320,22.461,0.000,0.000,0.000
149949.039,22.949,30.273,21.484,31.738,17.090,0.000,0.000,0.000
149949.041,20.996,28.809,28.809,26.855,17.578,0.000,0.000,0.000
149949.045,20.996,27.832,32.715,20.020,18.066,0.000,0.000,0.000
149949.049,22.949,27.344,35.645,23.438,22.949,0.000,0.000,0.000
149949.053,22.461,28.809,35.645,28.320,31.250,0.000,0.000,0.000
149949.056,20.508,29.785,30.762,25.879,32.227,0.000,0.000,0.000
149949.060,22.949,29.785,21.484,22.461,30.762,0.000,0.000,0.000
149949.064,24.902,32.227,21.484,23.926,29.785,0.000,0.000,0.000
149949.068,21.484,32.715,25.391,24.414,28.320,0.000,0.000,0.000
149949.072,22.461,33.691,24.902,23.926,27.344,0.000,0.000,0.000
149949.076,25.391,33.691,21.484,23.926,24.902,0.000,0.000,0.000
149949.080,25.391,33.203,18.555,23.926,24.902,0.000,0.000,0.000
149949.084,26.855,35.645,22.949,30.273,28.320,0.000,0.000,0.000
149949.086,25.391,34.668,28.809,32.715,32.715,0.000,0.000,0.000
149949.090,23.926,30.762,35.645,26.855,21.973,0.000,0.000,0.000
149949.094,27.344,26.367,32.715,26.855,16.602,0.000,0.000,0.000
149949.098,28.320,29.297,23.926,29.297,22.949,0.000,0.000,0.000
149949.102,25.391,32.227,21.484,25.391,20.020,0.000,0.000,0.000
149949.106,25.879,32.715,21.973,23.438,21.973,0.000,0.000,0.000
149949.110,26.855,32.715,19.531,20.996,22.949,0.000,0.000,0.000
149949.114,27.344,32.715,19.531,19.043,18.066,0.000,0.000,0.000
149949.117,23.926,34.180,23.926,19.043,16.602,0.000,0.000,0.000
149949.121,20.020,33.691,29.297,17.090,18.066,0.000,0.000,0.000
149949.125,23.926,32.227,31.250,18.555,20.996,0.000,0.000,0.000
149949.129,24.414,28.320,24.902,17.578,22.461,0.000,0.000,0.000
149949.131,19.531,25.879,11.719,15.137,20.020,0.000,0.000,0.000
149949.135,21.484,28.320,12.207,18.555,23.926,0.000,0.000,0.000
149949.139,28.320,32.227,21.973,20.996,35.156,0.000,0.000,0.000
149949.143,29.297,32.715,22.949,19.043,33.203,0.000,0.000,0.000
149949.147,30.762,35.645,27.832,20.996,32.715,0.000,0.000,0.000
149949.151,30.273,35.156,30.762,23.926,35.156,0.000,0.000,0.000
149949.155,27.832,29.785,34.180,23.926,34.180,0.000,0.000,0.000
149949.159,25.879,24.902,31.250,23.438,33.691,0.000,0.000,0.000
149949.162,25.391,27.344,22.949,23.438,37.598,0.000,0.000,0.000
149949.166,25.879,29.297,25.879,24.414,35.645,0.000,0.000,0.000
149949.170,27.344,27.344,18.066,24.902,34.180,0.000,0.000,0.000
149949.174,31.738,30.762,17.578,23.438,38.086,0.000,0.000,0.000
149949.177,30.273,34.668,29.785,23.438,32.227,0.000,0.000,0.000
149949.181,25.391,34.668,37.109,23.438,27.832,0.000,0.000,0.000
149949.185,20.508,27.832,37.109,19.531,19.043,0.000,0.000,0.000
149949.189,20.996,26.367,32.715,17.090,18.555,0.000,0.000,0.000
149949.192,26.855,26.367,29.297,21.484,29.785,0.000,0.000,0.000
149949.196,27.344,23.926,27.832,26.855,27.832,0.000,0.000,0.000
149949.200,24.414,25.391,23.926,27.344,31.738,0.000,0.000,0.000
149949.204,29.785,29.785,25.391,27.832,35.156,0.000,0.000,0.000
149949.208,34.668,30.273,28.320,29.785,33.691,0.000,0.000,0.000
149949.212,31.250,29.297,27.832,31.250,34.668,0.000,0.000,0.000
149949.216,27.344,31.250,32.227,30.762,35.156,0.000,0.000,0.000
149949.220,27.344,30.273,31.250,24.902,36.133,0.000,0.000,0.000
149949.221,26.855,29.297,32.227,20.020,30.762,0.000,0.000,0.000
149949.225,24.902,30.273,28.320,21.973,24.902,0.000,0.000,0.000
149949.229,20.996,30.273,19.531,26.367,25.391,0.000,0.000,0.000
149949.233,19.043,29.785,19.043,23.438,26.367,0.000,0.000,0.000
149949.237,23.438,26.855,25.879,20.508,25.879,0.000,0.000,0.000
149949.241,23.438,27.344,32.715,22.461,28.809,0.000,0.000,0.000
149949.244,16.113,29.785,32.715,20.508,28.320,0.000,0.000,0.000
149949.248,16.113,32.715,26.367,18.066,25.391,0.000,0.000,0.000
149949.252,19.043,35.156,25.391,14.160,18.066,0.000,0.000,0.000
149949.256,20.020,36.621,27.344,12.695,15.625,0.000,0.000,0.000
149949.260,17.090,34.668,23.438,15.137,19.043,0.000,0.000,0.000
149949.264,18.066,36.133,24.902,17.090,26.855,0.000,0.000,0.000
149949.266,18.555,33.691,27.832,15.625,25.879,0.000,0.000,0.000
149949.270,19.043,28.809,22.949,14.648,20.996,0.000,0.000,0.000
149949.274,24.902,30.762,19.043,20.020,20.996,0.000,0.000,0.000
149949.278,24.902,34.668,22.949,25.879,20.508,0.000,0.000,0.000
149949.282,24.902,35.156,24.902,23.926,23.926,0.000,0.000,0.000
149949.286,27.832,34.180,23.926,20.020,26.855,0.000,0.000,0.000
149949.290,28.320,34.180,27.832,21.484,22.461,0.000,0.000,0.000
149949.294,21.484,33.691,30.273,21.973,19.043,0.000,0.000,0.000
149949.297,18.555,31.250,29.297,21.484,22.461,0.000,0.000,0.000
149949.301,24.902,30.762,25.391,24.414,26.367,0.000,0.000,0.000
149949.305,27.832,31.250,23.926,29.297,29.785,0.000,0.000,0.000
149949.309,23.438,31.738,22.461,31.738,29.297,0.000,0.000,0.000
149949.312,23.438,33.691,27.832,34.180,30.273,0.000,0.000,0.000
149949.316,26.367,32.227,32.715,33.203,34.180,0.000,0.000,0.000
149949.320,26.855,32.227,33.691,32.227,31.250,0.000,0.000,0.000
149949.324,25.879,36.133,32.227,31.738,32.715,0.000,0.000,0.000
149949.328,25.879,35.645,24.414,33.203,41.016,0.000,0.000,0.000
149949.332,25.391,32.227,26.855,30.762,35.645,0.000,0.000,0.000
149949.336,29.297,32.227,33.203,28.320,33.691,0.000,0.000,0.000
149949.340,31.738,34.668,27.832,28.320,31.738,0.000,0.000,0.000
149949.344,29.785,34.668,20.996,30.762,28.320,0.000,0.000,0.000
149949.348,33.691,34.668,20.508,32.227,35.156,0.000,0.000,0.000
149949.351,36.621,36.133,25.879,31.738,40.527,0.000,0.000,0.000
149949.355,33.691,35.645,30.273,32.715,38.574,0.000,0.000,0.000
149949.371,25.879,35.645,28.809,30.273,31.738,0.000,0.000,0.000
149949.375,22.461,38.086,25.391,24.414,21.973,0.000,0.000,0.000
149949.379,26.367,35.156,25.391,20.020,17.578,0.000,0.000,0.000
149949.383,24.414,32.227,28.809,17.090,18.555,0.000,0.000,0.000
149949.387,18.555,31.738,28.809,16.602,15.625,0.000,0.000,0.000
149949.391,18.066,30.762,27.832,19.531,20.020,0.000,0.000,0.000
149949.395,24.414,31.738,30.273,22.949,22.949,0.000,0.000,0.000
149949.399,23.438,30.273,23.926,18.555,19.043,0.000,0.000,0.000
149949.402,14.160,27.344,22.949,15.625,20.020,0.000,0.000,0.000
149949.406,17.090,27.344,22.949,20.020,17.578,0.000,0.000,0.000
149949.410,25.879,29.297,23.926,23.438,17.578,0.000,0.000,0.000
149949.414,26.855,29.785,33.203,25.391,23.926,0.000,0.000,0.000
149949.416,25.879,33.691,34.668,25.879,30.273,0.000,0.000,0.000
149949.420,24.414,37.598,38.086,28.809,33.203,0.000,0.000,0.000
149949.424,20.508,35.156,40.039,25.391,30.762,0.000,0.000,0.000
149949.428,17.090,32.715,29.785,18.555,29.297,0.000,0.000,0.000
149949.432,13.184,28.320,25.879,17.578,30.273,0.000,0.000,0.000
149949.436,9.766,28.320,32.227,20.508,26.367,0.000,0.000,0.000
149949.440,8.301,30.762,28.320,20.996,16.113,0.000,0.000,0.000
149949.444,9.277,31.250,27.344,18.555,12.207,0.000,0.000,0.000
149949.448,9.766,29.785,30.273,14.648,10.254,0.000,0.000,0.000
149949.452,9.766,31.250,31.250,16.602,7.324,0.000,0.000,0.000
149949.455,10.254,32.715,29.785,18.066,0.488,0.000,0.000,0.000
149949.459,14.648,33.691,29.785,19.531,1.953,0.000,0.000,0.000
149949.461,20.020,35.645,26.367,21.484,9.766,0.000,0.000,0.000
149949.465,23.438,35.645,20.996,22.949,16.113,0.000,0.000,0.000
149949.469,22.949,32.227,26.855,24.414,18.066,0.000,0.000,0.000
149949.473,26.367,28.809,27.344,24.414,21.973,0.000,0.000,0.000
149949.477,27.832,27.832,20.020,20.996,24.414,0.000,0.000,0.000
149949.481,25.879,24.902,25.879,18.066,18.555,0.000,0.000,0.000
149949.485,25.391,23.926,36.133,22.949,17.090,0.000,0.000,0.000
149949.489,18.555,23.438,38.574,24.414,12.207,0.000,0.000,0.000
149949.492,12.695,24.414,36.133,22.461,12.207,0.000,0.000,0.000
149949.496,10.254,27.344,33.691,25.391,15.625,0.000,0.000,0.000
149949.500,6.348,28.809,30.762,31.738,18.555,0.000,0.000,0.000
149949.504,3.906,25.391,29.297,32.227,22.461,0.000,0.000,0.000
149949.506,2.930,23.438,34.668,26.367,23.926,0.000,0.000,0.000
149949.510,8.789,27.832,33.691,29.785,32.715,0.000,0.000,0.000
149949.514,11.230,26.855,29.297,33.691,35.156,0.000,0.000,0.000
149949.518,6.348,23.926,29.785,27.344,31.250,0.000,0.000,0.000
149949.522,12.695,28.320,32.227,21.484,32.715,0.000,0.000,0.000
149949.526,24.414,33.203,31.250,23.438,38.086,0.000,0.000,0.000
149949.530,30.762,34.668,23.926,26.367,41.504,0.000,0.000,0.000
149949.534,35.645,35.156,18.555,28.809,44.922,0.000,0.000,0.000
149949.538,34.180,27.832,12.207,21.973,39.551,0.000,0.000,0.000
149949.541,35.156,27.344,16.113,20.020,36.133,0.000,0.000,0.000
149949.545,36.621,33.691,23.438,24.902,40.527,0.000,0.000,0.000
149949.549,30.273,34.180,22.461,24.414,33.691,0.000,0.000,0.000
149949.552,26.855,28.320,27.344,22.461,15.625,0.000,0.000,0.000
149949.556,25.879,24.902,33.203,21.484,11.719,0.000,0.000,0.000
149949.560,22.461,27.344,22.461,22.949,17.578,0.000,0.000,0.000
149949.564,16.113,29.297,13.672,25.391,18.066,0.000,0.000,0.000
149949.568,9.277,30.273,19.531,26.367,13.184,0.000,0.000,0.000
149949.572,7.812,27.832,29.297,25.879,11.230,0.000,0.000,0.000
149949.576,4.883,20.996,31.738,24.902,14.160,0.000,0.000,0.000
149949.580,1.465,19.531,26.855,28.809,18.555,0.000,0.000,0.000
149949.584,0.000,24.902,26.855,33.203,14.648,0.000,0.000,0.000
149949.587,0.000,26.367,32.227,32.227,14.648,0.000,0.000,0.000
149949.591,8.301,25.879,36.621,34.668,21.484,0.000,0.000,0.000
149949.595,13.672,29.297,30.273,36.133,26.855,0.000,0.000,0.000
149949.596,11.719,32.227,20.020,32.227,29.297,0.000,0.000,0.000
149949.600,17.578,32.227,19.531,29.785,34.180,0.000,0.000,0.000
149949.604,26.367,33.203,21.484,23.926,37.598,0.000,0.000,0.000
149949.608,29.297,34.668,18.555,20.996,36.621,0.000,0.000,0.000
149949.612,33.691,34.180,18.555,23.926,36.621,0.000,0.000,0.000
149949.616,37.598,34.180,28.809,25.879,38.574,0.000,0.000,0.000
149949.620,41.504,35.156,36.621,26.367,40.527,0.000,0.000,0.000
149949.624,39.551,34.180,28.320,24.414,36.621,0.000,0.000,0.000
149949.627,36.133,32.227,22.461,25.879,37.598,0.000,0.000,0.000
149949.631,39.062,28.809,21.973,28.320,37.598,0.000,0.000,0.000
149949.635,43.457,26.855,19.531,28.809,37.598,0.000,0.000,0.000
149949.639,45.898,31.738,16.602,30.762,44.922,0.000,0.000,0.000
149949.641,45.410,35.156,24.902,37.109,48.340,0.000,0.000,0.000
149949.645,41.016,31.738,31.738,39.551,44.434,0.000,0.000,0.000
149949.649,37.598,29.297,29.297,35.645,39.551,0.000,0.000,0.000
149949.653,41.016,34.180,24.902,38.086,42.480,0.000,0.000,0.000
149949.656,42.969,35.156,22.461,40.527,39.551,0.000,0.000,0.000
149949.660,34.180,35.156,23.926,37.598,36.621,0.000,0.000,0.000
149949.664,28.320,34.180,28.809,35.156,39.062,0.000,0.000,0.000
149949.668,23.926,28.320,34.180,30.273,38.574,0.000,0.000,0.000
149949.672,17.578,33.691,30.762,27.832,29.297,0.000,0.000,0.000
149949.676,13.184,40.039,34.180,26.855,23.926,0.000,0.000,0.000
149949.680,10.254,33.203,38.086,21.484,19.531,0.000,0.000,0.000
149949.684,13.672,31.250,34.180,18.066,13.672,0.000,0.000,0.000
149949.701,17.578,35.645,28.809,17.578,18.066,0.000,0.000,0.000
149949.705,13.184,31.738,31.738,15.625,20.996,0.000,0.000,0.000
149949.709,14.160,29.785,37.109,18.066,10.254,0.000,0.000,0.000
149949.713,21.973,28.809,37.109,21.973,4.395,0.000,0.000,0.000
149949.716,26.855,28.320,39.551,24.414,14.160,0.000,0.000,0.000
149949.720,25.391,32.227,34.668,28.809,20.020,0.000,0.000,0.000
149949.724,25.879,33.691,27.344,31.738,29.785,0.000,0.000,0.000
149949.728,33.691,34.180,28.320,32.715,38.574,0.000,0.000,0.000
149949.732,35.645,29.297,31.250,31.250,37.598,0.000,0.000,0.000
149949.736,34.668,27.832,29.785,27.832,39.551,0.000,0.000,0.000
149949.740,39.062,31.250,26.367,31.250,39.551,0.000,0.000,0.000
149949.744,42.480,34.180,22.461,34.668,43.945,0.000,0.000,0.000
149949.746,44.922,35.645,21.484,30.762,48.340,0.000,0.000,0.000
149949.750,46.875,30.762,27.832,26.367,49.316,0.000,0.000,0.000
149949.753,45.898,30.273,29.785,27.344,50.293,0.000,0.000,0.000
149949.757,44.434,34.180,24.902,27.344,52.246,0.000,0.000,0.000
149949.761,44.922,38.086,25.879,25.391,55.664,0.000,0.000,0.000
149949.765,43.945,40.039,15.625,28.320,62.012,0.000,0.000,0.000
149949.769,35.645,37.109,16.602,32.227,56.641,0.000,0.000,0.000
149949.773,23.926,32.715,30.762,31.738,41.504,0.000,0.000,0.000
149949.777,20.996,30.762,36.621,29.785,34.668,0.000,0.000,0.000
149949.781,18.555,29.785,38.574,30.762,24.414,0.000,0.000,0.000
149949.785,11.230,27.832,36.133,31.250,18.555,0.000,0.000,0.000
149949.789,9.766,27.344,31.738,31.738,15.625,0.000,0.000,0.000
149949.791,14.160,28.320,27.344,28.320,5.859,0.000,0.000,0.000
149949.795,22.949,34.180,22.949,27.832,6.836,0.000,0.000,0.000
149949.799,23.926,35.156,17.090,30.273,8.301,0.000,0.000,0.000
149949.803,20.508,29.785,24.414,30.762,6.348,0.000,0.000,0.000
149949.806,22.949,30.273,32.715,32.715,14.160,0.000,0.000,0.000
149949.810,25.391,33.691,30.762,32.227,17.578,0.000,0.000,0.000
149949.814,25.879,33.203,23.926,31.250,23.926,0.000,0.000,0.000
149949.818,25.391,34.180,21.973,34.668,36.133,0.000,0.000,0.000
149949.822,31.250,39.551,24.902,40.039,45.410,0.000,0.000,0.000
149949.826,37.109,38.574,24.902,37.109,50.781,0.000,0.000,0.000
149949.830,31.738,35.156,20.020,30.762,48.828,0.000,0.000,0.000
149949.834,27.832,35.156,21.973,29.297,45.898,0.000,0.000,0.000
149949.835,26.855,34.668,32.227,35.645,50.293,0.000,0.000,0.000
149949.839,21.484,34.668,28.809,33.691,55.176,0.000,0.000,0.000
149949.843,22.461,35.645,27.344,26.855,52.734,0.000,0.000,0.000
149949.847,22.461,35.645,29.785,26.855,48.340,0.000,0.000,0.000
149949.851,15.625,35.645,28.320,26.855,41.016,0.000,0.000,0.000
149949.855,11.230,34.180,32.227,21.973,34.668,0.000,0.000,0.000
149949.859,14.648,33.691,37.109,20.508,28.320,0.000,0.000,0.000
149949.863,17.578,31.738,38.086,23.926,28.320,0.000,0.000,0.000
149949.867,14.648,28.320,34.180,27.344,25.879,0.000,0.000,0.000
149949.870,10.742,25.879,32.715,21.973,16.602,0.000,0.000,0.000
149949.874,17.578,26.367,40.527,20.020,18.066,0.000,0.000,0.000
149949.878,21.973,30.762,28.320,22.461,14.648,0.000,0.000,0.000
149949.880,17.090,29.297,11.230,20.996,9.277,0.000,0.000,0.000
149949.884,15.625,25.879,24.902,19.043,6.836,0.000,0.000,0.000
149949.888,17.578,25.879,34.180,14.160,0.977,0.000,0.000,0.000
149949.892,22.461,29.297,35.156,16.113,0.488,0.000,0.000,0.000
149949.896,25.879,32.715,39.551,26.367,3.906,0.000,0.000,0.000
149949.900,26.855,30.273,41.504,32.227,9.766,0.000,0.000,0.000
149949.904,28.809,31.250,35.645,30.762,13.672,0.000,0.000,0.000
149949.908,31.738,34.180,27.832,30.273,24.414,0.000,0.000,0.000
149949.911,29.785,34.180,24.902,33.203,34.180,0.000,0.000,0.000
149949.915,26.367,36.133,19.043,32.715,35.156,0.000,0.000,0.000
149949.919,27.832,34.180,20.020,29.297,42.480,0.000,0.000,0.000
149949.923,32.227,32.715,26.855,30.273,54.688,0.000,0.000,0.000
149949.925,29.785,35.156,27.344,25.879,52.246,0.000,0.000,0.000
149949.929,23.438,35.645,26.855,20.996,49.805,0.000,0.000,0.000
149949.933,24.902,31.250,26.367,24.414,56.641,0.000,0.000,0.000
149949.937,29.785,32.715,21.484,23.926,48.340,0.000,0.000,0.000
149949.941,32.227,36.133,15.137,20.996,37.109,0.000,0.000,0.000
149949.945,28.809,32.227,9.766,20.996,35.156,0.000,0.000,0.000
149949.949,24.414,29.297,15.137,20.996,34.180,0.000,0.000,0.000
149949.953,26.367,29.297,21.484,18.066,31.738,0.000,0.000,0.000
149949.956,25.879,24.902,29.785,17.578,29.785,0.000,0.000,0.000
149949.960,19.043,24.414,39.062,18.555,23.926,0.000,0.000,0.000
149949.964,12.207,26.855,39.551,18.066,17.578,0.000,0.000,0.000
149949.968,13.184,26.367,35.156,16.113,20.020,0.000,0.000,0.000
149949.970,16.113,27.344,32.715,15.137,20.020,0.000,0.000,0.000
149949.974,12.207,22.461,30.762,17.090,12.695,0.000,0.000,0.000
149949.978,12.207,21.484,32.227,21.973,6.836,0.000,0.000,0.000
149949.982,14.648,24.414,33.203,22.461,-0.977,0.000,0.000,0.000
149949.986,11.230,23.926,29.297,16.602,-4.883,0.000,0.000,0.000
149949.990,8.301,24.414,32.227,13.184,-2.930,0.000,0.000,0.000
149949.994,6.836,23.438,33.203,12.695,4.395,0.000,0.000,0.000
149949.998,8.789,22.949,22.949,12.207,20.508,0.000,0.000,0.000
149950.002,16.113,26.367,14.160,12.207,35.156,0.000,0.000,0.000
149950.005,22.461,29.297,20.508,15.137,36.133,0.000,0.000,0.000
149950.009,18.555,24.414,27.344,15.625,31.738,0.000,0.000,0.000
149950.013,15.137,18.555,28.809,17.090,34.180,0.000,0.000,0.000
149950.017,21.484,20.020,27.344,19.531,37.109,2.000,1.000,0.000
149950.021,24.414,21.484,28.320,19.043,38.574,0.000,0.000,0.000
149950.025,20.508,21.973,34.668,18.066,35.645,0.000,0.000,0.000
149950.029,15.625,25.391,32.715,19.531,28.320,0.000,0.000,0.000
149950.033,19.531,29.785,29.785,18.066,30.273,0.000,0.000,0.000
149950.037,22.949,29.785,31.250,16.602,25.879,0.000,0.000,0.000
149950.040,16.113,28.809,31.250,14.160,15.625,0.000,0.000,0.000
149950.044,10.254,27.832,28.320,12.207,18.555,0.000,0.000,0.000
149950.048,12.207,27.832,30.273,15.625,23.438,0.000,0.000,0.000
149950.052,19.531,32.715,29.785,16.602,25.879,0.000,0.000,0.000
149950.056,20.996,33.691,24.902,15.625,25.391,0.000,0.000,0.000
149950.060,17.578,33.203,24.902,17.090,17.578,0.000,0.000,0.000
149950.076,16.113,35.156,22.461,13.672,17.578,0.000,0.000,0.000
149950.080,18.066,32.715,13.184,9.277,15.625,0.000,0.000,0.000
149950.084,20.508,32.227,17.090,12.695,10.254,0.000,0.000,0.000
149950.088,17.578,34.180,27.832,16.113,10.742,0.000,0.000,0.000
149950.092,13.184,35.156,28.320,14.160,11.230,0.000,0.000,0.000
149950.096,18.066,36.133,28.809,12.695,13.184,0.000,0.000,0.000
149950.099,20.996,34.180,31.250,12.207,12.695,0.000,0.000,0.000
149950.103,18.555,33.203,32.227,13.672,8.301,0.000,0.000,0.000
149950.107,16.602,33.691,21.973,15.137,10.254,0.000,0.000,0.000
149950.111,16.113,32.715,6.836,13.184,14.160,0.000,0.000,0.000
149950.115,19.043,30.762,16.602,14.160,16.113,0.000,0.000,0.000
149950.119,19.043,28.320,32.227,18.555,25.879,0.000,0.000,0.000
149950.121,12.207,27.344,37.598,21.973,31.738,0.000,0.000,0.000
149950.125,9.766,27.344,41.016,20.020,24.902,0.000,0.000,0.000
149950.129,14.160,25.879,40.039,18.555,15.625,0.000,0.000,0.000
149950.133,18.066,25.879,31.250,21.484,6.348,0.000,0.000,0.000
149950.137,17.578,28.320,24.414,27.832,4.395,0.000,0.000,0.000
149950.141,17.578,26.367,26.367,32.227,17.090,0.000,0.000,0.000
149950.145,20.020,27.832,23.926,30.762,26.855,0.000,0.000,0.000
149950.149,21.484,33.203,20.020,30.273,34.668,0.000,0.000,0.000
149950.153,23.438,32.715,20.020,34.180,46.387,0.000,0.000,0.000
149950.157,23.438,33.203,20.996,35.645,46.387,0.000,0.000,0.000
149950.161,24.902,33.691,25.879,32.227,44.922,0.000,0.000,0.000
149950.164,26.855,31.250,27.344,30.273,43.945,0.000,0.000,0.000
149950.166,22.949,30.273,20.996,28.809,41.504,0.000,0.000,0.000
149950.170,19.043,30.762,18.555,29.785,45.898,0.000,0.000,0.000
149950.174,19.043,30.762,27.832,30.273,49.805,0.000,0.000,0.000
149950.178,20.996,29.297,34.180,26.855,49.805,0.000,0.000,0.000
149950.181,17.578,27.344,30.762,23.438,44.434,0.000,0.000,0.000
149950.185,12.207,25.391,25.391,23.438,42.480,0.000,0.000,0.000
149950.189,9.766,24.902,26.367,21.484,40.527,0.000,0.000,0.000
149950.193,9.766,25.879,28.320,15.137,39.062,0.000,0.000,0.000
149950.197,13.672,25.879,27.344,14.160,39.062,0.000,0.000,0.000
149950.201,11.230,26.367,26.367,14.160,35.645,0.000,0.000,0.000
149950.205,5.859,25.879,26.367,12.207,33.203,0.000,0.000,0.000
149950.209,11.230,29.297,28.320,17.090,38.574,0.000,0.000,0.000
149950.211,16.602,33.691,22.949,19.531,40.039,0.000,0.000,0.000
149950.215,14.648,34.180,15.137,15.625,34.668,0.000,0.000,0.000
149950.219,15.625,34.180,18.066,19.043,38.086,0.000,0.000,0.000
149950.223,19.531,32.227,23.438,20.020,38.574,0.000,0.000,0.000
149950.227,22.949,29.785,22.949,18.555,35.645,0.000,0.000,0.000
149950.231,23.438,28.320,27.344,24.414,39.062,0.000,0.000,0.000
149950.235,22.461,30.762,33.203,27.832,36.621,0.000,0.000,0.000
149950.239,24.902,32.227,34.668,28.320,27.832,0.000,0.000,0.000
149950.243,27.832,32.227,33.691,30.273,25.391,0.000,0.000,0.000
149950.246,22.949,32.715,22.461,26.367,21.973,0.000,0.000,0.000
149950.250,18.066,31.250,15.625,24.414,19.531,0.000,0.000,0.000
149950.254,18.555,29.785,24.902,25.391,23.438,0.000,0.000,0.000
149950.256,23.438,28.320,27.832,24.902,27.832,0.000,0.000,0.000
149950.260,21.484,28.320,26.855,20.020,26.367,0.000,0.000,0.000
149950.264,18.066,27.832,28.809,17.578,22.461,0.000,0.000,0.000
149950.268,19.043,27.344,28.320,21.484,16.113,0.000,0.000,0.000
149950.272,20.508,27.832,27.832,20.996,14.160,0.000,0.000,0.000
149950.276,20.508,28.320,22.949,16.113,19.531,0.000,0.000,0.000
149950.280,16.113,24.902,19.043,16.113,20.996,0.000,0.000,0.000
149950.284,17.090,27.344,22.461,19.531,28.320,0.000,0.000,0.000
149950.288,20.996,33.691,24.414,21.484,33.203,0.000,0.000,0.000
149950.291,21.973,36.621,24.414,22.461,31.738,0.000,0.000,0.000
149950.295,24.414,38.574,24.902,23.926,30.273,0.000,0.000,0.000
149950.299,23.926,38.086,25.879,25.391,29.785,0.000,0.000,0.000
149950.301,25.879,37.598,25.391,29.297,22.461,0.000,0.000,0.000
149950.305,30.273,39.551,26.855,26.855,18.066,0.000,0.000,0.000
149950.309,29.785,40.527,26.367,22.949,19.043,0.000,0.000,0.000
149950.313,29.297,40.527,29.785,28.320,20.020,0.000,0.000,0.000
149950.317,29.785,35.645,28.320,28.320,16.602,0.000,0.000,0.000
149950.321,32.715,34.668,24.414,25.879,20.020,0.000,0.000,0.000
149950.325,34.668,39.062,27.344,25.391,25.391,0.000,0.000,0.000
149950.329,30.273,36.133,25.391,21.973,23.926,0.000,0.000,0.000
149950.333,20.996,32.227,20.020,20.020,20.996,0.000,0.000,0.000
149950.337,19.043,32.227,19.531,18.555,17.090,0.000,0.000,0.000
149950.340,23.438,32.227,18.066,20.020,12.695,0.000,0.000,0.000
149950.344,22.949,32.227,18.555,20.508,12.207,0.000,0.000,0.000
149950.346,21.484,34.668,24.902,21.973,15.137,0.000,0.000,0.000
149950.350,23.438,34.668,22.949,22.461,22.461,0.000,0.000,0.000
149950.354,25.391,33.203,25.391,22.461,31.250,0.000,0.000,0.000
149950.358,24.414,29.297,31.250,24.414,32.227,0.000,0.000,0.000
149950.362,26.367,30.762,30.273,30.762,35.645,0.000,0.000,0.000
149950.366,26.367,34.668,24.414,32.227,40.039,0.000,0.000,0.000
149950.370,22.949,31.250,23.438,23.926,30.762,0.000,0.000,0.000
149950.374,24.414,27.832,25.879,23.926,31.738,0.000,0.000,0.000
149950.378,23.438,30.762,22.949,25.391,32.227,0.000,0.000,0.000
149950.381,21.484,34.668,24.902,22.461,28.320,0.000,0.000,0.000
149950.385,27.344,34.668,29.785,24.902,43.457,0.000,0.000,0.000
149950.389,29.297,30.762,26.855,22.461,48.828,0.000,0.000,0.000
149950.391,26.855,32.227,24.902,19.531,40.039,0.000,0.000,0.000
149950.395,23.438,35.156,26.367,23.438,40.527,0.000,0.000,0.000
149950.399,27.344,37.109,30.273,25.879,41.504,0.000,0.000,0.000
149950.403,34.180,35.156,24.902,25.879,35.156,0.000,0.000,0.000
149950.407,30.762,32.227,18.066,26.855,24.414,0.000,0.000,0.000
149950.411,21.973,31.738,26.367,26.367,13.672,0.000,0.000,0.000
149950.415,19.043,32.227,36.621,23.926,12.695,0.000,0.000,0.000
149950.418,19.531,32.715,41.504,22.949,17.090,0.000,0.000,0.000
149950.422,18.066,31.250,38.574,22.949,20.996,0.000,0.000,0.000
149950.426,19.043,31.250,37.109,28.809,26.367,0.000,0.000,0.000
149950.430,23.438,33.691,40.039,34.180,29.297,0.000,0.000,0.000
149950.434,26.367,37.109,39.551,28.809,25.879,0.000,0.000,0.000
149950.451,28.320,39.551,29.297,27.832,20.996,0.000,0.000,0.000
149950.455,23.926,38.086,21.484,26.367,16.113,0.000,0.000,0.000
149950.459,20.020,35.645,24.902,22.949,17.090,0.000,0.000,0.000
149950.463,24.414,36.621,27.344,24.414,23.438,0.000,0.000,0.000
149950.467,24.902,39.551,20.020,20.020,23.438,0.000,0.000,0.000
149950.471,24.414,40.039,21.973,19.043,22.949,0.000,0.000,0.000
149950.475,22.949,36.621,28.809,22.461,24.414,0.000,0.000,0.000
149950.479,24.414,37.109,29.297,20.020,28.320,0.000,0.000,0.000
149950.483,27.344,34.668,26.855,17.578,30.762,0.000,0.000,0.000
149950.487,26.367,35.645,23.926,20.508,22.949,0.000,0.000,0.000
149950.490,24.902,39.551,19.043,22.461,18.555,0.000,0.000,0.000
149950.494,22.949,37.598,16.602,21.484,18.555,0.000,0.000,0.000
149950.496,23.438,36.621,20.020,21.484,17.090,0.000,0.000,0.000
149950.500,21.973,36.133,22.461,24.414,22.461,0.000,0.000,0.000
149950.504,19.043,35.156,25.391,27.832,24.414,0.000,0.000,0.000
149950.508,20.996,39.062,33.691,28.320,28.320,0.000,0.000,0.000
149950.512,19.043,39.062,36.133,23.926,23.926,0.000,0.000,0.000
149950.516,18.066,31.738,29.297,20.508,11.719,0.000,0.000,0.000
149950.520,18.555,30.762,26.855,21.484,11.719,0.000,0.000,0.000
149950.524,15.137,31.738,33.203,20.508,10.254,0.000,0.000,0.000
149950.528,17.090,32.715,38.086,19.531,15.625,0.000,0.000,0.000
149950.531,22.461,33.203,27.344,19.043,19.043,0.000,0.000,0.000
149950.535,19.531,31.250,27.832,17.578,16.113,0.000,0.000,0.000
149950.539,14.648,31.738,31.738,13.184,15.137,0.000,0.000,0.000
149950.541,17.090,28.320,24.902,10.742,22.949,0.000,0.000,0.000
149950.545,16.602,23.926,28.809,13.672,24.414,0.000,0.000,0.000
149950.549,18.555,30.762,29.785,15.625,19.531,0.000,0.000,0.000
149950.553,23.438,34.668,26.367,20.996,26.367,0.000,0.000,0.000
149950.557,21.973,31.738,37.109,23.926,28.320,0.000,0.000,0.000
149950.561,20.020,31.738,39.551,20.996,27.344,0.000,0.000,0.000
149950.565,20.996,33.203,34.180,21.973,23.926,0.000,0.000,0.000
149950.569,20.508,33.691,26.367,21.973,18.555,0.000,0.000,0.000
149950.573,17.090,30.273,22.461,18.555,19.531,0.000,0.000,0.000
149950.576,16.113,25.879,21.973,19.043,27.832,0.000,0.000,0.000
149950.580,18.555,26.367,21.973,17.578,32.715,0.000,0.000,0.000
149950.584,14.648,24.902,31.738,16.113,21.973,0.000,0.000,0.000
149950.586,14.160,27.344,41.016,20.508,21.484,0.000,0.000,0.000
149950.590,20.020,34.668,33.691,20.020,25.391,0.000,0.000,0.000
149950.594,17.578,30.273,25.391,10.742,16.113,0.000,0.000,0.000
149950.598,17.578,26.367,24.902,13.184,19.043,0.000,0.000,0.000
149950.602,19.531,29.297,26.855,20.996,24.902,0.000,0.000,0.000
149950.606,18.066,31.738,25.391,18.555,23.438,0.000,0.000,0.000
149950.610,20.508,32.715,20.020,19.531,25.879,0.000,0.000,0.000
149950.614,24.414,33.203,23.926,24.902,32.227,0.000,0.000,0.000
149950.618,21.973,32.227,29.785,26.855,31.738,0.000,0.000,0.000
149950.621,20.020,30.273,28.809,25.879,24.902,0.000,0.000,0.000
149950.625,22.949,30.273,28.320,25.391,20.508,0.000,0.000,0.000
149950.629,27.344,30.273,30.762,28.809,30.273,0.000,0.000,0.000
149950.631,25.879,31.250,35.645,29.785,43.457,0.000,0.000,0.000
149950.635,22.949,32.227,30.273,29.297,33.203,0.000,0.000,0.000
149950.639,27.344,32.715,24.902,32.715,29.297,0.000,0.000,0.000
149950.643,29.297,32.715,28.809,30.273,30.273,0.000,0.000,0.000
149950.647,26.367,30.762,34.668,25.879,25.391,0.000,0.000,0.000
149950.651,26.367,30.762,39.062,29.297,32.227,0.000,0.000,0.000
149950.655,26.855,30.762,36.133,31.250,36.133,0.000,0.000,0.000
149950.659,29.785,30.273,36.621,30.273,32.227,0.000,0.000,0.000
149950.662,26.367,25.879,35.156,28.809,32.715,0.000,0.000,0.000
149950.666,20.996,24.414,30.273,30.762,34.180,0.000,0.000,0.000
149950.670,22.461,26.855,36.133,29.297,33.203,0.000,0.000,0.000
149950.674,27.832,24.414,36.133,25.879,34.668,0.000,0.000,0.000
149950.676,29.785,25.391,26.855,26.855,32.227,0.000,0.000,0.000
149950.680,25.391,29.297,24.902,25.879,28.809,0.000,0.000,0.000
149950.684,23.438,29.297,32.715,23.926,26.855,0.000,0.000,0.000
149950.688,29.297,30.762,33.203,25.879,27.344,0.000,0.000,0.000
149950.692,34.180,34.180,33.691,26.367,37.598,0.000,0.000,0.000
149950.696,32.715,35.156,36.621,30.762,39.062,0.000,0.000,0.000
149950.700,33.203,34.180,33.203,35.645,34.180,0.000,0.000,0.000
149950.704,34.180,30.762,32.715,32.227,38.086,0.000,0.000,0.000
149950.707,33.691,26.367,36.621,28.809,43.945,0.000,0.000,0.000
149950.711,29.297,24.414,36.133,27.344,43.457,0.000,0.000,0.000
149950.715,25.391,30.273,33.203,29.297,42.969,0.000,0.000,0.000
149950.719,28.809,31.738,25.879,30.762,42.969,0.000,0.000,0.000
149950.736,24.902,27.344,24.414,23.926,40.039,0.000,0.000,0.000
149950.740,17.578,26.367,31.738,20.996,28.320,0.000,0.000,0.000
149950.744,18.066,26.855,34.668,28.320,25.879,0.000,0.000,0.000
149950.748,20.020,26.855,41.016,31.738,30.273,0.000,0.000,0.000
149950.752,22.949,27.344,38.574,29.297,23.926,0.000,0.000,0.000
149950.756,26.855,29.785,30.762,30.273,28.320,0.000,0.000,0.000
149950.760,26.855,31.250,28.320,34.180,33.691,0.000,0.000,0.000
149950.764,25.391,27.832,28.320,32.715,31.738,0.000,0.000,0.000
149950.768,26.855,27.344,32.227,29.785,39.062,0.000,0.000,0.000
149950.771,25.879,26.855,32.715,29.297,45.410,0.000,0.000,0.000
149950.775,23.926,25.391,33.203,31.250,43.457,0.000,0.000,0.000
149950.779,21.973,27.832,31.738,31.738,34.668,0.000,0.000,0.000
149950.766,20.020,25.391,28.809,28.320,32.227,0.000,0.000,0.000
149950.770,24.414,25.879,30.762,29.785,39.062,0.000,0.000,0.000
149950.774,20.996,26.855,37.109,30.273,36.621,0.000,0.000,0.000
149950.778,16.602,23.926,37.109,29.297,32.715,0.000,0.000,0.000
149950.782,20.508,23.438,31.738,29.785,40.527,0.000,0.000,0.000
149950.786,23.926,25.391,35.645,28.809,40.527,0.000,0.000,0.000
149950.790,23.438,23.926,38.086,24.902,28.809,0.000,0.000,0.000
149950.794,21.484,25.879,36.621,21.973,28.809,0.000,0.000,0.000
149950.798,25.391,36.621,36.621,25.391,33.203,0.000,0.000,0.000
149950.801,30.762,41.016,36.621,24.902,28.809,0.000,0.000,0.000
149950.805,26.855,35.645,32.227,19.043,17.578,0.000,0.000,0.000
149950.809,20.020,32.715,23.926,17.090,12.207,0.000,0.000,0.000
149950.826,20.508,34.668,17.578,17.090,19.043,0.000,0.000,0.000
149950.830,24.414,34.668,16.113,16.113,30.273,0.000,0.000,0.000
149950.834,23.438,29.785,14.648,17.090,34.180,0.000,0.000,0.000
149950.838,20.508,29.297,15.625,22.949,39.551,0.000,0.000,0.000
149950.842,21.484,30.762,22.949,29.297,47.363,0.000,0.000,0.000
149950.846,21.484,32.227,30.762,27.344,50.293,0.000,0.000,0.000
149950.850,19.043,30.273,30.273,21.973,35.156,0.000,0.000,0.000
149950.854,16.602,26.367,30.273,24.414,20.996,0.000,0.000,0.000
149950.858,11.719,24.414,33.691,26.367,15.137,0.000,0.000,0.000
149950.861,7.812,25.879,32.227,20.508,7.324,0.000,0.000,0.000
149950.865,8.789,26.367,28.320,16.113,10.254,0.000,0.000,0.000
149950.869,8.789,24.414,18.066,18.066,11.230,0.000,0.000,0.000
149950.871,5.859,27.832,12.695,20.996,9.766,0.000,0.000,0.000
149950.875,7.812,31.250,23.926,20.020,17.090,0.000,0.000,0.000
149950.879,16.113,29.785,30.273,19.531,22.461,0.000,0.000,0.000
149950.883,24.902,36.621,29.785,22.949,25.391,0.000,0.000,0.000
149950.887,25.391,41.504,35.156,28.809,22.949,0.000,0.000,0.000
149950.891,19.043,35.645,32.715,26.367,14.648,0.000,0.000,0.000
149950.895,20.996,32.715,26.855,20.508,16.113,0.000,0.000,0.000
149950.899,24.902,34.180,22.949,21.973,14.648,0.000,0.000,0.000
149950.903,19.531,34.668,7.812,19.531,7.324,0.000,0.000,0.000
149950.906,16.602,30.762,6.348,18.066,12.695,0.000,0.000,0.000
149950.910,21.484,27.344,24.414,19.531,25.391,0.000,0.000,0.000
149950.914,28.320,29.297,38.086,21.973,33.691,0.000,0.000,0.000
149950.916,31.738,32.715,39.551,26.855,41.016,0.000,0.000,0.000
149950.920,26.855,33.691,36.621,28.320,33.691,0.000,0.000,0.000
149950.924,22.461,33.691,30.762,21.973,26.855,0.000,0.000,0.000
149950.928,22.461,33.203,23.438,19.043,27.344,0.000,0.000,0.000
149950.932,22.461,30.273,21.973,18.555,23.438,0.000,0.000,0.000
149950.936,20.508,31.250,24.414,18.066,21.973,0.000,0.000,0.000
149950.940,21.973,34.668,25.391,18.555,23.438,0.000,0.000,0.000
149950.944,24.902,34.180,25.391,18.066,28.809,0.000,0.000,0.000
149950.947,27.832,35.156,25.879,23.438,34.668,0.000,0.000,0.000
149950.951,25.879,33.203,25.879,26.367,38.574,0.000,0.000,0.000
149950.955,21.973,31.738,20.508,26.367,37.598,0.000,0.000,0.000
149950.959,26.367,35.645,21.973,29.297,39.062,0.000,0.000,0.000
149950.962,26.367,36.133,31.738,27.344,33.691,0.000,0.000,0.000
149950.966,21.484,34.668,29.785,26.855,25.879,0.000,0.000,0.000
149950.970,20.508,32.715,21.484,29.297,30.273,0.000,0.000,0.000
149950.973,23.926,31.250,24.902,25.879,31.738,0.000,0.000,0.000
149950.977,27.832,30.273,27.832,23.926,25.391,0.000,0.000,0.000
149950.981,24.902,28.809,28.320,22.461,25.879,0.000,0.000,0.000
149950.985,23.926,26.367,33.203,26.855,31.250,0.000,0.000,0.000
149950.989,25.879,26.367,32.715,31.738,32.715,0.000,0.000,0.000
149950.993,27.344,29.297,23.438,28.320,30.762,0.000,0.000,0.000
149950.997,23.926,32.227,21.973,21.484,25.391,0.000,0.000,0.000
149951.001,17.578,32.715,30.762,23.926,26.367,0.000,0.000,0.000
149951.005,17.090,27.344,32.227,26.367,25.879,0.000,0.000,0.000
149951.006,17.578,25.879,30.273,20.996,25.391,0.000,0.000,0.000
149951.009,17.578,27.832,30.273,17.578,22.949,0.000,0.000,0.000
149951.013,16.113,27.832,20.996,21.973,21.484,0.000,0.000,0.000
149951.017,19.043,28.320,11.230,26.855,27.344,0.000,0.000,0.000
149951.021,20.020,30.273,21.973,25.879,25.879,0.000,0.000,0.000
149951.025,18.066,28.809,34.668,24.902,23.438,0.000,0.000,0.000
149951.029,19.043,22.949,40.039,28.320,25.391,0.000,0.000,0.000
149951.033,19.043,25.391,38.574,31.738,27.344,0.000,0.000,0.000
149951.037,22.949,32.715,39.062,27.832,32.715,0.000,0.000,0.000
149951.041,26.367,35.156,37.598,22.949,29.785,0.000,0.000,0.000
149951.045,25.879,35.645,29.785,23.926,27.832,0.000,0.000,0.000
149951.049,21.973,31.250,29.297,25.391,28.320,0.000,0.000,0.000
149951.051,23.926,32.715,29.297,24.902,29.297,0.000,0.000,0.000
149951.055,30.273,36.621,20.996,25.391,34.180,0.000,0.000,0.000
149951.059,28.320,33.203,19.043,25.391,29.785,0.000,0.000,0.000
149951.063,23.926,30.273,28.809,28.320,24.414,0.000,0.000,0.000
149951.066,22.461,29.785,33.203,29.785,31.738,0.000,0.000,0.000
149951.070,23.926,31.738,27.832,23.926,30.273,0.000,0.000,0.000
149951.074,26.855,33.691,18.555,20.020,29.785,0.000,0.000,0.000
149951.078,24.902,33.203,12.207,21.973,35.156,0.000,0.000,0.000
149951.082,23.926,33.203,18.066,21.973,40.527,0.000,0.000,0.000
149951.086,26.367,31.250,26.855,20.020,43.457,0.000,0.000,0.000
149951.090,29.785,28.320,19.043,22.461,46.387,0.000,0.000,0.000
149951.094,30.273,30.762,12.207,27.832,50.781,0.000,0.000,0.000
149951.096,23.926,33.691,20.508,23.926,40.527,0.000,0.000,0.000
149951.100,21.973,32.227,23.438,19.531,30.273,0.000,0.000,0.000
149951.104,27.344,28.809,15.625,22.949,35.645,0.000,0.000,0.000
149951.108,28.809,28.809,15.625,22.949,30.273,0.000,0.000,0.000
149951.112,26.367,31.250,28.320,24.414,24.414,0.000,0.000,0.000
149951.116,29.297,33.203,33.691,26.855,30.762,0.000,0.000,0.000
149951.120,32.227,31.738,25.391,27.344,34.180,0.000,0.000,0.000
149951.123,34.180,29.785,19.043,29.297,31.738,0.000,0.000,0.000
149951.127,27.832,31.738,19.531,26.367,22.461,0.000,0.000,0.000
149951.131,20.996,32.715,23.438,24.902,21.973,0.000,0.000,0.000
149951.135,22.949,32.715,18.066,24.902,22.461,0.000,0.000,0.000
149951.139,27.344,35.156,15.137,24.414,20.508,0.000,0.000,0.000
149951.141,24.902,40.039,25.879,27.832,23.926,0.000,0.000,0.000
149951.145,21.973,37.109,27.344,29.297,30.273,0.000,0.000,0.000
149951.149,22.461,30.762,25.879,25.391,30.762,0.000,0.000,0.000
149951.153,26.367,30.273,29.297,23.926,30.762,0.000,0.000,0.000
149951.157,25.391,32.227,25.391,26.367,29.297,0.000,0.000,0.000
149951.161,23.438,32.227,20.508,27.832,27.832,0.000,0.000,0.000
149951.165,21.973,31.738,22.461,26.855,31.250,0.000,0.000,0.000
149951.169,21.973,31.250,23.926,24.414,30.273,0.000,0.000,0.000
149951.173,20.996,30.762,20.508,22.461,23.438,0.000,0.000,0.000
149951.176,16.113,28.320,22.461,25.391,13.672,0.000,0.000,0.000
149951.180,16.602,25.879,30.762,28.809,16.113,0.000,0.000,0.000
149951.184,20.508,27.344,30.273,25.879,17.090,0.000,0.000,0.000
149951.188,21.484,29.297,27.832,23.438,18.555,0.000,0.000,0.000
149951.192,17.578,28.320,28.320,25.391,22.461,0.000,0.000,0.000
149951.195,20.996,27.344,28.320,25.879,24.414,0.000,0.000,0.000
149951.199,20.996,30.273,24.414,20.508,20.508,0.000,0.000,0.000
149951.203,16.113,28.320,23.926,14.648,14.648,0.000,0.000,0.000
149951.207,18.555,27.832,23.926,18.555,18.555,0.000,0.000,0.000
149951.211,20.996,34.668,26.367,21.484,20.020,0.000,0.000,0.000
149951.215,22.461,34.668,24.414,19.043,19.531,0.000,0.000,0.000
149951.219,21.484,32.715,18.555,15.625,17.090,0.000,0.000,0.000
149951.223,20.508,28.809,19.531,16.602,11.719,0.000,0.000,0.000
149951.227,21.973,24.902,21.484,22.949,20.996,0.000,0.000,0.000
149951.231,20.996,27.832,23.926,22.949,22.461,0.000,0.000,0.000
149951.246,19.043,30.273,34.180,20.508,20.508,0.000,0.000,0.000
149951.250,21.973,29.297,37.109,21.973,30.762,0.000,0.000,0.000
149951.254,25.391,33.691,31.738,26.855,33.203,0.000,0.000,0.000
149951.258,20.996,36.133,25.879,23.438,26.855,0.000,0.000,0.000
149951.262,19.043,33.691,23.926,16.113,22.461,0.000,0.000,0.000
149951.266,24.414,33.691,26.367,19.531,27.344,0.000,0.000,0.000
149951.270,22.949,33.691,25.391,22.949,32.227,0.000,0.000,0.000
149951.274,20.996,32.715,24.902,23.438,35.645,0.000,0.000,0.000
149951.278,22.461,30.762,28.320,23.438,35.156,0.000,0.000,0.000
149951.281,23.438,33.203,27.832,20.020,33.203,0.000,0.000,0.000
149951.285,25.391,35.156,26.855,23.438,38.574,0.000,0.000,0.000
149951.289,22.949,35.645,36.621,27.344,41.992,0.000,0.000,0.000
149951.291,23.926,38.086,37.109,24.414,47.852,0.000,0.000,0.000
149951.295,30.762,38.574,31.738,28.320,52.246,0.000,0.000,0.000
149951.299,33.203,37.598,30.273,29.785,47.363,0.000,0.000,0.000
149951.303,30.762,35.645,27.832,30.273,43.457,0.000,0.000,0.000
149951.307,33.203,36.133,25.879,30.762,45.410,0.000,0.000,0.000
149951.311,35.156,37.598,22.949,24.414,42.480,0.000,0.000,0.000
149951.315,36.133,38.574,25.391,21.973,39.551,0.000,0.000,0.000
149951.318,34.668,36.621,24.414,26.367,41.016,0.000,0.000,0.000
149951.322,31.250,32.715,17.578,26.855,41.992,0.000,0.000,0.000
149951.326,28.809,31.738,18.555,23.438,37.598,0.000,0.000,0.000
149951.330,27.344,34.180,20.996,24.414,35.645,0.000,0.000,0.000
149951.334,22.949,32.715,24.902,25.391,30.762,0.000,0.000,0.000
149951.335,18.555,31.250,33.691,23.926,22.461,0.000,0.000,0.000
149951.339,20.020,33.691,34.668,26.367,23.438,0.000,0.000,0.000
149951.343,23.926,32.227,28.320,27.832,29.297,0.000,0.000,0.000
149951.347,22.461,29.785,28.809,26.367,29.297,0.000,0.000,0.000
149951.351,17.578,32.715,29.785,27.832,26.855,0.000,0.000,0.000
149951.355,18.066,34.180,25.391,24.902,23.926,0.000,0.000,0.000
149951.359,20.996,32.227,24.902,19.531,22.461,0.000,0.000,0.000
149951.363,23.438,31.738,27.344,20.996,25.391,0.000,0.000,0.000
149951.367,21.973,34.180,30.762,23.438,25.879,0.000,0.000,0.000
149951.370,18.066,34.668,33.203,22.461,22.461,0.000,0.000,0.000
149951.374,22.461,32.227,32.715,23.438,24.414,0.000,0.000,0.000
149951.378,22.949,32.715,32.227,21.973,19.043,0.000,0.000,0.000
149951.380,19.531,34.180,29.785,21.973,14.648,0.000,0.000,0.000
149951.384,19.531,32.715,27.832,28.320,22.949,0.000,0.000,0.000
149951.388,24.902,33.203,23.438,31.738,30.762,0.000,0.000,0.000
149951.392,26.855,36.621,16.113,28.809,20.996,0.000,0.000,0.000
149951.396,23.438,34.668,21.973,26.367,12.207,0.000,0.000,0.000
149951.400,25.879,32.227,35.645,28.809,21.484,0.000,0.000,0.000
149951.404,24.902,29.785,37.598,23.926,20.508,0.000,0.000,0.000
149951.408,23.438,27.832,33.203,20.020,20.508,0.000,0.000,0.000
149951.411,24.414,33.691,30.762,23.438,26.367,0.000,0.000,0.000
149951.415,24.414,37.109,32.715,23.438,31.250,0.000,0.000,0.000
149951.419,26.367,33.691,35.156,24.414,39.062,0.000,0.000,0.000
149951.423,28.320,34.668,31.738,28.320,43.457,0.000,0.000,0.000
149951.427,31.738,40.039,28.809,30.273,40.039,0.000,0.000,0.000
149951.430,28.809,36.621,19.531,30.273,31.738,0.000,0.000,0.000
149951.434,26.367,35.645,16.113,31.738,29.297,0.000,0.000,0.000
149951.438,30.273,43.457,28.809,32.227,34.180,0.000,0.000,0.000
149951.442,32.227,43.457,32.227,28.320,34.668,0.000,0.000,0.000
149951.446,24.902,35.156,25.879,26.367,17.578,0.000,0.000,0.000
149951.450,16.602,34.180,26.367,22.949,9.277,0.000,0.000,0.000
149951.454,18.066,35.156,27.344,20.020,11.230,0.000,0.000,0.000
149951.458,22.949,34.668,29.297,21.973,15.137,0.000,0.000,0.000
149951.462,25.391,36.133,29.785,25.391,20.996,0.000,0.000,0.000
149951.466,24.902,34.180,26.367,27.832,22.461,0.000,0.000,0.000
149951.469,25.879,31.738,25.391,29.297,26.367,0.000,0.000,0.000
149951.470,26.367,29.785,28.809,29.297,28.809,0.000,0.000,0.000
149951.474,23.926,27.832,33.203,28.809,26.367,0.000,0.000,0.000
149951.478,21.973,29.785,32.715,28.809,28.320,0.000,0.000,0.000
149951.482,23.438,30.273,28.320,24.902,26.367,0.000,0.000,0.000
149951.486,23.438,25.879,14.648,20.996,21.484,0.000,0.000,0.000
149951.490,19.043,23.438,9.766,20.020,19.043,0.000,0.000,0.000
149951.494,15.137,28.809,20.508,19.043,20.996,0.000,0.000,0.000
149951.498,15.625,31.250,26.367,16.113,19.531,0.000,0.000,0.000
149951.501,19.043,28.809,30.762,16.113,20.508,0.000,0.000,0.000
149951.505,20.508,30.762,28.320,19.043,23.926,0.000,0.000,0.000
149951.509,19.043,33.691,22.949,21.484,21.973,0.000,0.000,0.000
149951.513,16.602,30.762,26.367,24.902,17.090,0.000,0.000,0.000
149951.515,16.602,27.832,30.273,21.484,16.113,0.000,0.000,0.000
149951.519,19.043,30.762,31.250,20.996,24.414,4.000,1.000,0.000
149951.523,18.066,30.762,29.785,25.391,27.344,0.000,0.000,0.000
149951.527,18.066,28.320,28.809,29.785,23.926,0.000,0.000,0.000
149951.531,20.996,32.227,25.879,31.738,22.949,0.000,0.000,0.000
149951.535,19.043,33.691,24.414,26.367,14.160,0.000,0.000,0.000
149951.539,17.090,30.273,18.555,26.367,11.719,0.000,0.000,0.000
149951.543,17.578,31.738,16.602,32.227,11.230,0.000,0.000,0.000
149951.547,21.973,32.715,29.297,32.227,18.555,0.000,0.000,0.000
149951.551,21.973,28.809,32.715,27.344,21.484,0.000,0.000,0.000
149951.555,20.020,27.344,30.273,24.902,18.555,0.000,0.000,0.000
149951.558,25.879,32.715,30.273,31.250,32.227,0.000,0.000,0.000
149951.561,25.879,34.180,32.715,37.109,38.086,0.000,0.000,0.000
149951.565,29.785,33.203,35.645,33.691,42.480,0.000,0.000,0.000
149951.569,31.250,30.762,33.203,30.762,39.551,0.000,0.000,0.000
149951.573,26.855,29.785,22.461,34.180,30.273,0.000,0.000,0.000
149951.577,25.391,32.715,18.555,34.668,35.156,0.000,0.000,0.000
149951.581,24.902,34.180,20.508,32.227,32.715,0.000,0.000,0.000
149951.584,23.926,33.691,20.020,29.785,29.785,0.000,0.000,0.000
149951.588,24.902,32.715,32.227,30.762,35.645,0.000,0.000,0.000
149951.592,21.973,33.203,36.133,30.273,37.109,0.000,0.000,0.000
149951.596,20.020,32.227,36.133,25.391,34.180,0.000,0.000,0.000
149951.600,23.926,33.203,36.133,24.414,36.133,0.000,0.000,0.000
149951.604,26.855,36.621,32.227,24.414,34.668,0.000,0.000,0.000
149951.622,23.926,33.203,30.273,28.320,28.809,0.000,0.000,0.000
149951.626,23.438,31.250,26.367,31.250,26.855,0.000,0.000,0.000
149951.629,28.320,31.738,24.414,29.785,30.273,0.000,0.000,0.000
149951.633,33.203,33.691,29.785,30.762,35.645,0.000,0.000,0.000
149951.637,31.250,35.645,32.227,30.762,37.109,0.000,0.000,0.000
149951.641,25.391,30.273,27.344,28.809,38.574,0.000,0.000,0.000
149951.645,26.367,27.832,21.484,26.367,39.551,0.000,0.000,0.000
149951.649,28.320,30.273,21.973,23.438,28.809,0.000,0.000,0.000
149951.653,25.879,29.297,31.738,25.391,19.531,0.000,0.000,0.000
149951.657,21.973,28.809,36.621,30.762,20.508,0.000,0.000,0.000
149951.661,23.926,31.738,31.250,30.273,26.367,0.000,0.000,0.000
149951.665,29.297,30.762,30.273,25.391,40.039,0.000,0.000,0.000
149951.666,25.879,27.344,21.484,23.438,50.293,0.000,0.000,0.000
149951.670,22.949,27.344,13.672,25.391,41.504,0.000,0.000,0.000
149951.674,27.344,28.809,15.625,25.879,41.016,0.000,0.000,0.000
149951.678,29.297,30.273,22.461,23.438,46.875,0.000,0.000,0.000
149951.681,24.414,30.762,26.855,21.973,45.410,0.000,0.000,0.000
149951.685,22.949,30.762,28.320,23.926,34.180,0.000,0.000,0.000
149951.689,23.438,32.715,31.738,22.949,24.902,0.000,0.000,0.000
149951.693,25.391,31.250,30.273,21.973,28.320,0.000,0.000,0.000
149951.697,26.855,28.809,31.250,21.973,27.344,0.000,0.000,0.000
149951.701,24.902,30.762,26.367,19.531,25.879,0.000,0.000,0.000
149951.705,25.391,29.297,21.484,22.949,31.738,0.000,0.000,0.000
149951.709,25.879,27.344,22.949,22.461,26.855,0.000,0.000,0.000
149951.711,26.367,27.832,24.902,19.531,16.602,0.000,0.000,0.000
149951.715,25.391,26.855,26.855,25.391,20.508,0.000,0.000,0.000
149951.719,18.555,26.855,26.855,26.855,19.043,0.000,0.000,0.000
149951.723,18.555,30.762,28.320,28.809,17.090,0.000,0.000,0.000
149951.727,23.438,30.273,30.273,30.273,23.438,0.000,0.000,0.000
149951.731,16.113,26.855,28.320,26.855,17.578,0.000,0.000,0.000
149951.735,11.230,28.809,27.344,29.785,17.090,0.000,0.000,0.000
149951.739,17.578,28.809,29.785,29.785,26.367,0.000,0.000,0.000
149951.742,20.508,29.297,35.645,23.438,22.949,0.000,0.000,0.000
149951.746,20.996,29.297,23.438,20.508,18.066,0.000,0.000,0.000
149951.750,22.949,31.250,9.766,23.438,21.973,0.000,0.000,0.000
149951.754,23.438,30.762,21.484,26.367,22.461,0.000,0.000,0.000
149951.756,25.391,24.414,29.785,23.926,23.438,0.000,0.000,0.000
149951.760,24.414,24.414,25.879,23.438,24.902,0.000,0.000,0.000
149951.764,22.461,27.832,23.926,27.832,29.297,0.000,0.000,0.000
149951.768,19.531,28.320,27.344,27.344,28.809,0.000,0.000,0.000
149951.772,14.160,25.879,27.832,20.996,20.996,0.000,0.000,0.000
149951.776,17.578,25.879,27.832,22.461,28.809,0.000,0.000,0.000
149951.780,23.438,27.832,29.785,30.762,37.109,0.000,0.000,0.000
149951.783,20.020,28.320,29.785,28.809,30.762,0.000,0.000,0.000
149951.787,21.484,30.273,27.832,27.832,22.949,0.000,0.000,0.000
149951.791,26.855,30.762,23.926,30.273,22.949,0.000,0.000,0.000
149951.795,27.832,32.715,25.879,31.738,24.902,0.000,0.000,0.000
149951.799,25.391,34.668,26.855,35.156,24.902,0.000,0.000,0.000
149951.801,22.949,29.297,26.367,33.691,24.902,0.000,0.000,0.000
149951.805,24.902,30.762,26.855,29.785,21.484,0.000,0.000,0.000
149951.809,30.273,36.133,27.344,30.273,24.414,0.000,0.000,0.000
149951.813,29.297,34.668,30.273,31.738,31.250,0.000,0.000,0.000
149951.817,23.438,31.250,34.668,30.762,31.738,0.000,0.000,0.000
149951.821,26.367,36.133,36.621,31.738,34.180,0.000,0.000,0.000
149951.824,30.273,38.574,30.762,32.715,33.203,0.000,0.000,0.000
149951.828,26.367,31.738,27.344,29.297,33.691,0.000,0.000,0.000
149951.832,21.484,30.762,28.809,26.367,33.203,0.000,0.000,0.000
149951.836,21.484,32.227,28.320,27.832,31.738,0.000,0.000,0.000
149951.840,22.949,32.227,28.320,31.250,33.691,0.000,0.000,0.000
149951.844,18.066,29.297,27.344,27.832,26.855,0.000,0.000,0.000
149951.846,12.207,26.855,28.320,27.832,23.438,0.000,0.000,0.000
149951.850,14.160,30.762,26.855,31.738,30.762,0.000,0.000,0.000
149951.854,19.043,35.156,22.949,30.273,27.832,0.000,0.000,0.000
149951.858,21.973,38.086,27.832,31.738,28.320,0.000,0.000,0.000
149951.862,22.461,35.645,28.320,35.156,30.273,0.000,0.000,0.000
149951.866,21.973,32.227,27.344,32.715,29.297,0.000,0.000,0.000
149951.870,23.438,31.738,28.809,26.367,33.691,0.000,0.000,0.000
149951.874,23.926,29.785,29.297,23.438,25.391,0.000,0.000,0.000
149951.878,24.414,29.297,29.297,27.344,22.949,0.000,0.000,0.000
149951.881,25.391,32.715,33.203,32.715,30.273,0.000,0.000,0.000
149951.885,24.902,31.738,30.273,27.832,18.066,0.000,0.000,0.000
149951.889,27.344,26.855,25.391,25.879,16.113,0.000,0.000,0.000
149951.893,25.879,28.320,28.809,33.203,26.855,0.000,0.000,0.000
149951.897,17.090,28.320,30.273,30.273,22.461,0.000,0.000,0.000
149951.901,16.113,26.855,26.367,21.484,13.184,0.000,0.000,0.000
149951.905,23.438,29.297,19.531,19.531,14.160,0.000,0.000,0.000
149951.908,24.414,28.809,19.531,20.020,21.484,0.000,0.000,0.000
149951.912,17.578,27.344,24.414,17.578,21.973,0.000,0.000,0.000
149951.916,16.113,27.832,28.320,14.648,16.602,0.000,0.000,0.000
149951.920,17.090,29.297,17.578,10.254,14.648,0.000,0.000,0.000
149951.924,19.531,32.227,10.254,8.789,20.996,0.000,0.000,0.000
149951.928,16.602,30.273,25.879,12.695,21.484,0.000,0.000,0.000
149951.932,15.137,26.367,33.691,15.625,18.555,0.000,0.000,0.000
149951.936,17.578,31.250,32.227,12.695,20.996,0.000,0.000,0.000
149951.951,18.066,34.668,22.949,8.301,20.508,0.000,0.000,0.000
149951.955,19.043,32.715,20.020,13.184,22.949,0.000,0.000,0.000
149951.959,17.578,26.367,23.438,15.137,24.414,0.000,0.000,0.000
149951.963,19.043,25.391,21.973,10.254,22.949,0.000,0.000,0.000
149951.967,26.367,30.762,22.461,14.160,25.879,0.000,0.000,0.000
149951.971,26.855,29.785,24.414,18.555,26.367,0.000,0.000,0.000
149951.975,23.926,31.738,27.344,20.508,26.855,0.000,0.000,0.000
149951.978,24.902,35.645,28.809,20.508,24.902,0.000,0.000,0.000
149951.982,27.344,33.203,29.297,22.949,23.926,0.000,0.000,0.000
149951.986,29.297,32.227,20.996,27.344,27.344,0.000,0.000,0.000
149951.990,25.391,31.250,20.996,29.785,29.785,0.000,0.000,0.000
149951.994,24.414,29.297,28.809,34.668,34.668,0.000,0.000,0.000
149951.996,29.297,29.785,25.391,34.180,34.180,0.000,0.000,0.000
149952.000,28.809,26.367,23.926,29.785,28.320,0.000,0.000,0.000
149952.004,22.461,22.949,27.832,24.414,24.902,0.000,0.000,0.000
149952.008,23.438,26.855,29.297,25.879,28.809,0.000,0.000,0.000
149952.012,24.414,28.809,21.973,26.367,22.461,0.000,0.000,0.000
149952.016,20.508,24.414,20.996,17.090,18.066,0.000,0.000,0.000
149952.020,19.043,25.391,17.578,15.625,20.996,0.000,0.000,0.000
149952.024,20.996,28.320,15.625,21.484,28.320,0.000,0.000,0.000
149952.027,21.484,25.879,20.508,18.066,30.273,0.000,0.000,0.000
149952.031,24.902,31.738,23.926,14.648,26.367,0.000,0.000,0.000
149952.035,24.414,32.715,35.645,17.578,22.461,0.000,0.000,0.000
149952.039,14.648,28.320,40.527,15.625,19.531,0.000,0.000,0.000
149952.041,12.207,28.320,31.738,12.695,16.113,0.000,0.000,0.000
149952.045,13.184,24.902,19.043,8.301,16.113,0.000,0.000,0.000
149952.049,13.184,23.438,20.996,8.301,20.020,0.000,0.000,0.000
149952.053,13.184,24.902,26.855,12.207,19.531,0.000,0.000,0.000
149952.057,14.648,27.832,23.438,15.137,20.508,0.000,0.000,0.000
149952.061,17.578,29.297,23.438,15.625,22.461,0.000,0.000,0.000
149952.065,18.555,29.785,30.762,13.672,25.391,0.000,0.000,0.000
149952.069,19.043,28.320,35.645,19.043,28.809,0.000,0.000,0.000
149952.072,21.973,28.809,34.180,26.367,34.668,0.000,0.000,0.000
149952.076,24.414,31.738,25.879,24.902,34.180,0.000,0.000,0.000
149952.080,22.949,30.273,22.949,20.020,26.855,0.000,0.000,0.000
149952.084,21.973,30.762,26.855,20.996,32.715,0.000,0.000,0.000
149952.086,20.996,30.273,29.297,25.391,36.621,0.000,0.000,0.000
149952.090,28.809,27.344,35.645,36.133,44.922,0.000,0.000,0.000
149952.094,34.180,30.762,33.203,36.133,45.898,0.000,0.000,0.000
149952.098,28.320,39.551,28.320,21.484,34.180,0.000,0.000,0.000
149952.102,26.367,37.109,32.715,23.438,34.668,0.000,0.000,0.000
149952.106,22.461,30.273,31.250,26.367,32.227,0.000,0.000,0.000
149952.109,17.090,32.227,26.367,21.484,22.949,0.000,0.000,0.000
149952.113,18.555,31.738,29.297,26.855,20.996,0.000,0.000,0.000
149952.117,20.020,29.785,28.809,28.809,21.973,0.000,0.000,0.000
149952.121,19.531,35.156,28.809,23.438,19.531,0.000,0.000,0.000
149952.125,21.484,38.086,25.879,21.973,16.602,0.000,0.000,0.000
149952.129,21.973,36.133,26.367,20.996,16.113,0.000,0.000,0.000
149952.131,17.578,35.156,34.180,21.484,17.578,0.000,0.000,0.000
149952.135,17.578,34.180,34.668,22.949,18.066,0.000,0.000,0.000
149952.139,19.043,29.785,29.785,21.484,20.020,0.000,0.000,0.000
149952.143,19.043,28.320,24.414,18.066,19.043,0.000,0.000,0.000
149952.147,18.066,29.785,21.973,18.066,20.020,0.000,0.000,0.000
149952.151,16.113,29.297,20.508,20.996,25.391,0.000,0.000,0.000
149952.155,17.090,30.762,20.996,20.508,25.391,0.000,0.000,0.000
149952.159,18.555,34.180,23.438,19.043,21.484,0.000,0.000,0.000
149952.163,14.160,27.832,23.438,18.555,18.066,0.000,0.000,0.000
149952.166,9.277,23.926,23.438,20.020,19.043,0.000,0.000,0.000
149952.170,8.301,29.297,20.020,18.066,18.555,0.000,0.000,0.000
149952.174,12.695,30.762,18.066,15.625,20.020,0.000,0.000,0.000
149952.176,16.113,32.715,21.484,15.625,19.043,0.000,0.000,0.000
149952.180,12.695,32.227,20.020,19.043,18.555,0.000,0.000,0.000
149952.184,13.672,30.762,21.484,20.508,24.902,0.000,0.000,0.000
149952.188,17.578,31.250,22.461,18.555,34.668,0.000,0.000,0.000
149952.192,20.508,30.273,22.461,19.043,35.645,0.000,0.000,0.000
149952.196,17.578,29.785,25.391,20.508,28.320,0.000,0.000,0.000
149952.200,19.531,30.762,30.273,26.855,33.691,0.000,0.000,0.000
149952.204,27.344,33.691,28.320,28.809,41.016,0.000,0.000,0.000
149952.208,25.879,34.180,16.602,23.438,36.621,0.000,0.000,0.000
149952.211,21.973,30.762,20.020,27.344,33.691,0.000,0.000,0.000
149952.215,19.531,31.250,23.926,30.273,31.250,0.000,0.000,0.000
149952.219,18.555,31.250,21.973,23.926,21.973,0.000,0.000,0.000
149952.221,23.926,29.785,26.367,21.484,24.414,0.000,0.000,0.000
149952.225,22.461,30.273,22.949,21.484,27.832,0.000,0.000,0.000
149952.229,15.137,31.250,16.602,20.020,20.996,0.000,0.000,0.000
149952.233,14.648,30.273,22.461,16.113,16.113,0.000,0.000,0.000
149952.237,17.090,32.227,30.273,15.625,15.137,0.000,0.000,0.000
149952.241,16.113,31.738,30.762,17.578,14.160,0.000,0.000,0.000
149952.245,14.648,30.273,31.250,20.996,15.625,0.000,0.000,0.000
149952.248,12.695,28.809,33.203,21.484,12.207,0.000,0.000,0.000
149952.252,14.648,26.367,28.809,19.531,17.090,0.000,0.000,0.000
149952.256,18.555,27.344,22.461,20.020,22.949,0.000,0.000,0.000
149952.260,22.461,29.785,18.555,23.926,20.508,0.000,0.000,0.000
149952.264,22.949,34.180,21.484,21.484,19.531,0.000,0.000,0.000
149952.266,21.973,34.180,24.414,13.672,20.996,0.000,0.000,0.000
149952.270,23.926,31.250,21.973,8.789,25.391,0.000,0.000,0.000
149952.274,23.438,32.227,22.461,10.742,27.344,0.000,0.000,0.000
149952.278,18.066,37.109,21.973,14.648,30.762,0.000,0.000,0.000
149952.282,20.508,36.621,26.367,19.531,39.551,0.000,0.000,0.000
149952.286,22.949,33.203,32.715,20.996,43.945,0.000,0.000,0.000
149952.290,18.555,33.203,21.973,14.648,37.598,0.000,0.000,0.000
149952.294,12.207,30.273,14.160,12.207,33.203,0.000,0.000,0.000
149952.298,14.160,29.785,20.996,18.555,33.203,0.000,0.000,0.000
149952.301,19.531,28.809,22.461,19.531,31.250,0.000,0.000,0.000
149952.305,17.090,25.391,21.484,12.695,26.367,0.000,0.000,0.000
149952.309,14.648,29.785,24.414,14.648,22.461,0.000,0.000,0.000
149952.326,17.090,31.738,23.926,19.531,22.461,0.000,0.000,0.000
149952.330,22.949,30.273,18.555,18.066,22.949,0.000,0.000,0.000
149952.334,29.785,30.273,20.996,18.555,24.414,0.000,0.000,0.000
149952.338,24.902,31.738,26.855,20.508,24.414,0.000,0.000,0.000
149952.342,24.414,34.668,29.297,24.414,28.320,0.000,0.000,0.000
149952.346,29.785,35.645,31.250,25.879,37.598,0.000,0.000,0.000
149952.350,26.367,34.180,27.344,20.996,36.133,0.000,0.000,0.000
149952.354,27.832,32.715,20.508,23.926,31.250,0.000,0.000,0.000
149952.358,26.855,31.250,20.996,25.879,31.250,0.000,0.000,0.000
149952.362,23.438,31.738,27.832,22.949,33.203,0.000,0.000,0.000
149952.365,30.273,33.691,29.785,23.438,39.551,0.000,0.000,0.000
149952.369,27.344,33.691,26.367,23.926,40.039,0.000,0.000,0.000
149952.371,20.020,31.738,22.461,26.367,36.621,0.000,0.000,0.000
149952.375,23.438,32.227,28.809,29.297,40.527,0.000,0.000,0.000
149952.379,25.879,33.203,36.133,27.832,41.992,0.000,0.000,0.000
149952.383,22.461,31.738,37.109,22.461,38.086,0.000,0.000,0.000
149952.387,18.066,28.809,34.668,19.043,32.715,0.000,0.000,0.000
149952.391,15.625,26.367,31.250,19.531,25.879,0.000,0.000,0.000
149952.395,17.578,25.879,26.367,18.066,25.879,0.000,0.000,0.000
149952.399,24.414,27.344,23.438,16.113,28.320,0.000,0.000,0.000
149952.402,23.926,32.715,25.391,17.578,27.344,0.000,0.000,0.000
149952.406,18.555,30.273,28.320,15.625,24.902,0.000,0.000,0.000
149952.410,19.531,26.367,27.832,13.672,24.414,0.000,0.000,0.000
149952.414,23.926,29.785,26.367,18.555,24.902,0.000,0.000,0.000
149952.416,24.902,31.738,26.367,24.414,28.320,0.000,0.000,0.000
149952.420,22.461,33.691,27.832,24.414,26.855,0.000,0.000,0.000
149952.424,20.508,35.156,22.461,20.996,21.973,0.000,0.000,0.000
149952.428,22.949,33.203,20.996,21.484,17.578,0.000,0.000,0.000
149952.432,24.902,34.180,30.273,21.484,14.160,0.000,0.000,0.000
149952.436,22.461,35.156,35.645,22.949,16.113,0.000,0.000,0.000
149952.440,20.508,32.715,30.273,24.414,22.461,0.000,0.000,0.000
149952.444,22.461,32.227,23.926,22.949,26.855,0.000,0.000,0.000
149952.448,28.809,33.203,23.438,23.438,24.414,0.000,0.000,0.000
149952.451,30.273,34.180,20.996,23.438,28.320,0.000,0.000,0.000
149952.455,25.391,33.691,25.391,23.926,33.203,0.000,0.000,0.000
149952.459,28.320,30.762,33.203,27.832,37.598,0.000,0.000,0.000
149952.461,31.250,31.738,32.715,26.855,39.551,0.000,0.000,0.000
149952.465,27.344,32.715,34.668,27.832,41.016,0.000,0.000,0.000
149952.469,24.902,34.180,38.574,32.715,44.434,0.000,0.000,0.000
149952.473,24.414,35.645,38.574,30.273,41.992,0.000,0.000,0.000
149952.477,23.438,35.156,35.156,25.879,41.504,0.000,0.000,0.000
149952.481,20.508,35.645,28.809,21.484,35.156,0.000,0.000,0.000
149952.485,16.602,31.738,23.438,19.531,27.832,0.000,0.000,0.000
149952.489,17.090,30.762,24.902,20.996,20.996,0.000,0.000,0.000
149952.492,21.484,35.156,28.320,21.973,18.066,0.000,0.000,0.000
149952.496,22.461,32.227,27.832,22.461,22.949,0.000,0.000,0.000
149952.500,23.926,33.691,25.879,27.344,25.391,0.000,0.000,0.000
149952.504,26.855,36.621,27.832,30.273,25.879,0.000,0.000,0.000
149952.506,26.367,35.156,29.785,24.414,24.414,0.000,0.000,0.000
149952.510,25.879,31.250,30.762,21.484,25.879,0.000,0.000,0.000
149952.514,23.926,28.809,32.715,26.855,26.367,0.000,0.000,0.000
149952.518,19.531,31.250,31.738,28.320,20.020,0.000,0.000,0.000
149952.522,24.902,32.227,32.715,27.344,19.043,0.000,0.000,0.000
149952.526,30.273,35.156,33.691,29.297,21.484,0.000,0.000,0.000
149952.530,25.391,34.180,31.738,28.320,21.484,0.000,0.000,0.000
149952.534,22.461,33.203,29.297,26.855,25.879,0.000,0.000,0.000
149952.538,24.414,36.621,30.273,23.438,31.250,0.000,0.000,0.000
149952.541,21.973,35.156,30.762,19.043,21.973,0.000,0.000,0.000
149952.545,19.531,30.762,28.320,18.066,17.090,0.000,0.000,0.000
149952.549,18.066,29.785,29.785,18.066,20.996,0.000,0.000,0.000
149952.551,16.113,31.738,27.832,15.625,20.996,0.000,0.000,0.000
149952.555,20.020,35.156,22.949,15.137,24.902,0.000,0.000,0.000
149952.559,23.926,37.598,19.043,18.066,29.785,0.000,0.000,0.000
149952.563,22.461,36.133,25.879,19.531,32.227,0.000,0.000,0.000
149952.567,22.461,34.668,34.180,21.484,35.156,0.000,0.000,0.000
149952.571,25.391,33.691,29.297,20.508,34.180,0.000,0.000,0.000
149952.575,25.391,35.156,25.391,19.531,33.203,0.000,0.000,0.000
149952.579,20.996,37.109,28.809,20.996,36.133,0.000,0.000,0.000
149952.583,18.555,35.645,32.715,23.438,38.574,0.000,0.000,0.000
149952.586,13.184,30.273,30.273,19.531,28.320,0.000,0.000,0.000
149952.590,12.695,30.273,26.367,16.113,21.484,0.000,0.000,0.000
149952.594,16.113,29.785,29.297,19.043,25.391,0.000,0.000,0.000
149952.598,12.207,25.391,33.203,19.043,25.391,0.000,0.000,0.000
149952.602,9.766,27.832,31.738,16.602,17.090,0.000,0.000,0.000
149952.606,16.113,32.715,25.391,14.648,7.812,0.000,0.000,0.000
149952.610,17.578,32.715,24.414,10.254,6.836,0.000,0.000,0.000
149952.614,11.719,27.832,23.438,8.789,9.277,0.000,0.000,0.000
149952.618,12.695,28.320,19.043,11.230,6.836,0.000,0.000,0.000
149952.622,19.043,30.762,19.531,11.719,6.836,0.000,0.000,0.000
149952.625,19.531,28.320,23.926,10.254,11.230,0.000,0.000,0.000
149952.629,16.113,26.855,25.391,11.230,13.672,0.000,0.000,0.000
149952.633,17.090,28.320,31.250,17.090,21.973,0.000,0.000,0.000
149952.637,20.508,28.809,33.203,18.066,22.461,0.000,0.000,0.000
149952.641,20.508,27.832,28.320,14.648,16.113,0.000,0.000,0.000
149952.641,18.066,29.297,27.344,15.625,20.020,0.000,0.000,0.000
149952.645,14.648,30.762,22.461,18.555,18.555,0.000,0.000,0.000
149952.649,14.648,32.227,18.066,19.531,16.113,0.000,0.000,0.000
149952.653,14.160,32.715,20.508,14.648,20.020,0.000,0.000,0.000
149952.657,11.719,33.203,20.996,10.742,18.555,0.000,0.000,0.000
149952.661,10.742,35.645,23.926,14.648,24.414,0.000,0.000,0.000
149952.665,11.230,34.180,23.926,12.207,29.297,0.000,0.000,0.000
149952.669,15.625,33.691,23.926,7.812,29.785,0.000,0.000,0.000
149952.673,15.625,32.715,24.414,9.277,27.832,0.000,0.000,0.000
149952.676,15.625,30.273,27.344,14.648,30.273,0.000,0.000,0.000
149952.680,18.555,31.250,30.762,19.043,30.762,0.000,0.000,0.000
149952.684,23.438,32.715,31.250,21.484,19.043,0.000,0.000,0.000
149952.700,25.879,32.227,27.832,20.020,20.020,0.000,0.000,0.000
149952.704,20.996,30.762,22.461,19.043,13.184,0.000,0.000,0.000
149952.708,18.066,29.297,22.949,19.531,0.977,0.000,0.000,0.000
149952.712,24.414,35.645,22.949,20.020,5.371,0.000,0.000,0.000
149952.716,27.344,39.062,23.438,17.578,10.254,0.000,0.000,0.000
149952.720,21.484,34.180,26.855,15.625,8.301,0.000,0.000,0.000
149952.724,15.625,31.738,24.902,15.625,9.766,0.000,0.000,0.000
149952.728,14.648,27.344,21.484,12.207,14.648,0.000,0.000,0.000
149952.731,20.996,27.344,16.602,11.719,22.949,0.000,0.000,0.000
149952.735,25.879,31.738,9.277,17.090,27.832,0.000,0.000,0.000
149952.739,25.879,31.738,16.602,20.020,27.832,0.000,0.000,0.000
149952.743,22.949,25.391,25.391,18.555,31.250,0.000,0.000,0.000
149952.745,24.902,30.273,22.949,19.043,34.180,0.000,0.000,0.000
149952.749,26.367,39.062,20.020,20.996,35.156,0.000,0.000,0.000
149952.753,23.926,33.691,22.461,21.484,29.297,0.000,0.000,0.000
149952.757,23.438,30.762,24.902,21.973,27.832,0.000,0.000,0.000
149952.761,24.414,33.691,24.902,23.926,28.809,0.000,0.000,0.000
149952.765,23.438,32.715,21.484,23.438,26.367,0.000,0.000,0.000
149952.769,18.555,27.832,20.020,22.461,19.531,0.000,0.000,0.000
149952.773,14.160,31.250,24.414,23.926,24.414,0.000,0.000,0.000
149952.777,17.578,37.598,30.273,24.414,28.320,0.000,0.000,0.000
149952.780,17.578,35.156,29.785,21.973,24.902,0.000,0.000,0.000
149952.784,14.648,33.203,27.832,19.043,21.973,0.000,0.000,0.000
149952.788,12.207,31.250,25.879,19.043,17.090,0.000,0.000,0.000
149952.790,13.672,33.203,21.484,18.555,17.578,0.000,0.000,0.000
149952.794,15.137,33.203,20.508,16.602,20.508,0.000,0.000,0.000
149952.798,15.625,30.762,20.508,17.578,22.461,0.000,0.000,0.000
149952.802,14.648,31.250,22.461,20.508,22.461,0.000,0.000,0.000
149952.806,17.090,30.762,31.738,25.391,27.832,0.000,0.000,0.000
149952.810,23.438,27.344,39.062,26.855,25.391,0.000,0.000,0.000
149952.814,26.855,28.320,33.203,27.344,23.926,0.000,0.000,0.000
149952.818,25.879,29.785,28.809,31.738,34.180,0.000,0.000,0.000
149952.822,28.809,30.762,28.320,38.086,46.387,0.000,0.000,0.000
149952.825,33.203,32.715,24.414,36.133,48.340,0.000,0.000,0.000
149952.829,30.273,32.227,22.949,32.715,41.016,0.000,0.000,0.000
149952.833,29.785,31.250,22.949,34.180,45.898,0.000,0.000,0.000
149952.835,26.855,30.273,20.508,28.320,44.922,0.000,0.000,0.000
149952.839,25.879,29.297,22.949,20.996,37.598,0.000,0.000,0.000
149952.843,29.297,29.785,24.902,19.531,38.574,0.000,0.000,0.000
149952.847,26.367,30.273,26.855,19.043,41.504,0.000,0.000,0.000
149952.851,20.020,29.785,32.715,18.555,40.527,0.000,0.000,0.000
149952.855,21.484,27.832,30.273,19.531,36.133,0.000,0.000,0.000
149952.859,24.902,30.762,26.855,19.531,31.738,0.000,0.000,0.000
149952.863,20.996,31.250,22.949,18.066,27.344,0.000,0.000,0.000
149952.866,18.555,29.297,22.461,20.508,32.715,0.000,0.000,0.000
149952.870,18.555,26.855,22.949,21.973,35.156,0.000,0.000,0.000
149952.874,18.066,24.414,19.531,21.484,26.855,0.000,0.000,0.000
149952.878,20.996,25.879,23.438,24.414,26.367,0.000,0.000,0.000
149952.881,17.090,26.367,25.879,21.973,20.508,0.000,0.000,0.000
149952.885,15.137,26.367,29.297,22.461,19.043,0.000,0.000,0.000
149952.889,18.066,24.414,31.250,23.926,19.531,2.000,1.000,90.000
149952.892,20.508,27.344,28.320,21.973,15.137,0.000,0.000,0.000
149952.896,20.996,33.203,28.320,20.996,18.555,0.000,0.000,0.000
149952.900,20.996,31.250,29.785,20.508,20.996,0.000,0.000,0.000
149952.904,25.879,32.227,25.879,19.043,21.484,0.000,0.000,0.000
149952.908,28.320,32.227,20.996,17.578,20.996,0.000,0.000,0.000
149952.912,27.344,33.203,22.949,20.020,23.438,0.000,0.000,0.000
149952.916,26.367,35.645,25.879,22.949,30.273,0.000,0.000,0.000
149952.920,25.391,33.203,25.391,20.508,32.715,0.000,0.000,0.000
149952.924,27.344,32.715,26.367,17.578,34.668,0.000,0.000,0.000
149952.926,29.785,34.180,27.344,19.531,35.645,0.000,0.000,0.000
149952.930,26.367,31.250,27.344,22.461,37.598,0.000,0.000,0.000
149952.934,28.320,32.227,30.273,27.832,40.527,0.000,0.000,0.000
149952.938,34.180,36.133,32.227,28.809,40.039,0.000,0.000,0.000
149952.942,33.203,35.156,26.855,23.438,37.109,0.000,0.000,0.000
149952.946,26.855,32.715,21.484,19.043,31.250,0.000,0.000,0.000
149952.950,23.438,32.227,20.996,19.531,30.762,0.000,0.000,0.000
149952.954,28.320,32.227,24.414,18.066,31.250,0.000,0.000,0.000
149952.957,28.320,31.250,24.414,16.113,30.273,0.000,0.000,0.000
149952.961,21.973,29.785,23.438,18.066,28.320,0.000,0.000,0.000
149952.965,13.672,28.809,21.484,16.602,25.879,0.000,0.000,0.000
149952.969,12.207,26.855,18.555,12.207,24.902,0.000,0.000,0.000
149952.972,16.602,24.902,21.484,11.719,22.461,0.000,0.000,0.000
149952.976,16.602,26.367,23.438,14.648,22.949,0.000,0.000,0.000
149952.980,17.578,27.344,10.742,20.020,26.855,0.000,0.000,0.000
149952.983,20.508,30.273,7.324,21.484,26.367,0.000,0.000,0.000
149952.987,21.973,31.738,21.484,18.066,16.602,0.000,0.000,0.000
149952.991,22.461,28.320,30.762,20.508,16.113,0.000,0.000,0.000
149952.995,21.484,24.902,30.273,25.391,20.508,0.000,0.000,0.000
149952.999,20.508,26.855,28.809,25.879,14.160,0.000,0.000,0.000
149953.003,21.484,27.344,28.809,23.438,0.000,0.000,0.000,0.000
149953.007,20.996,24.414,28.809,20.508,-15.137,0.000,0.000,0.000
149953.011,19.043,22.949,23.438,21.973,-15.137,0.000,0.000,0.000
149953.015,20.020,25.391,22.461,25.391,0.977,0.000,0.000,0.000
149953.016,23.438,24.414,28.320,26.367,16.602,0.000,0.000,0.000
149953.020,26.855,23.438,28.809,24.902,32.227,0.000,0.000,0.000
149953.024,30.273,27.832,22.949,25.879,43.457,0.000,0.000,0.000
149953.028,29.297,28.320,20.508,29.297,49.805,0.000,0.000,0.000
149953.032,30.273,28.809,24.902,31.250,57.617,0.000,0.000,0.000
149953.036,35.645,28.320,27.344,29.785,60.547,0.000,0.000,0.000
149953.040,36.621,29.785,30.762,28.809,62.500,0.000,0.000,0.000
149953.044,28.320,27.832,26.367,24.414,57.617,0.000,0.000,0.000
149953.048,24.414,24.902,19.043,19.043,50.293,0.000,0.000,0.000
149953.051,31.250,27.344,20.996,19.531,49.805,0.000,0.000,0.000
149953.055,31.250,25.879,18.555,18.066,51.270,0.000,0.000,0.000
149953.059,24.902,24.902,20.020,17.578,51.270,0.000,0.000,0.000
149953.063,21.973,25.391,19.531,19.043,47.852,0.000,0.000,0.000
149953.067,25.391,28.320,19.531,21.973,48.340,0.000,0.000,0.000
149953.071,30.762,32.227,21.973,24.414,51.270,0.000,0.000,0.000
149953.075,31.250,35.645,23.438,26.367,53.711,0.000,0.000,0.000
149953.078,30.762,37.109,25.391,29.297,54.199,0.000,0.000,0.000
149953.082,30.762,32.227,26.367,25.879,53.223,0.000,0.000,0.000
149953.086,31.738,31.250,24.414,23.438,48.340,0.000,0.000,0.000
149953.090,33.203,30.273,20.508,26.367,46.875,0.000,0.000,0.000
149953.094,27.832,27.832,25.879,29.297,43.457,0.000,0.000,0.000
149953.098,23.438,29.785,29.785,26.367,31.250,0.000,0.000,0.000
149953.102,27.344,28.809,27.832,22.461,26.855,0.000,0.000,0.000
149953.106,28.320,27.832,27.344,22.949,24.902,0.000,0.000,0.000
149953.121,24.414,25.879,25.391,23.438,27.344,0.000,0.000,0.000
149953.125,26.367,27.344,24.414,23.926,24.902,0.000,0.000,0.000
149953.129,28.809,33.203,30.273,24.414,25.391,0.000,0.000,0.000
149953.133,30.273,33.691,30.273,24.902,27.832,0.000,0.000,0.000
149953.137,29.785,31.738,23.926,26.855,27.832,0.000,0.000,0.000
149953.141,25.879,28.809,23.438,27.344,31.250,0.000,0.000,0.000
149953.145,26.855,28.320,26.855,30.273,31.738,0.000,0.000,0.000
149953.149,30.762,31.250,27.344,30.762,30.762,0.000,0.000,0.000
149953.153,26.367,30.762,26.367,27.832,35.156,0.000,0.000,0.000
149953.156,26.367,29.297,30.762,31.738,37.109,0.000,0.000,0.000
149953.160,29.297,30.762,27.832,31.738,34.668,0.000,0.000,0.000
149953.164,31.738,30.762,23.926,27.344,33.203,0.000,0.000,0.000
149953.166,35.156,30.762,28.320,28.809,34.180,0.000,0.000,0.000
149953.170,36.621,35.645,32.227,35.156,36.621,0.000,0.000,0.000
149953.174,34.180,35.156,27.344,37.109,35.645,0.000,0.000,0.000
149953.178,33.203,32.227,22.949,36.133,40.527,0.000,0.000,0.000
149953.182,33.203,32.715,23.438,39.551,42.969,0.000,0.000,0.000
149953.186,29.297,32.227,25.391,37.598,36.133,0.000,0.000,0.000
149953.190,26.367,32.227,28.809,34.668,33.203,0.000,0.000,0.000
149953.194,25.879,31.250,33.691,34.668,28.809,0.000,0.000,0.000
149953.197,27.344,30.273,29.785,30.762,26.367,0.000,0.000,0.000
149953.201,25.391,31.738,22.461,28.809,30.762,0.000,0.000,0.000
149953.205,23.438,31.738,23.926,32.227,35.156,0.000,0.000,0.000
149953.209,25.879,30.762,26.855,31.738,34.180,0.000,0.000,0.000
149953.211,26.855,31.250,29.297,26.855,28.809,0.000,0.000,0.000
149953.215,26.367,32.715,32.715,26.367,26.367,0.000,0.000,0.000
149953.219,24.414,30.273,35.156,27.344,24.902,0.000,0.000,0.000
149953.223,22.461,28.320,38.086,21.484,22.949,0.000,0.000,0.000
149953.227,22.949,31.250,31.250,20.508,29.297,0.000,0.000,0.000
149953.231,20.020,29.785,26.855,25.879,31.250,0.000,0.000,0.000
149953.235,14.160,25.391,35.156,25.391,19.531,0.000,0.000,0.000
149953.239,18.066,27.344,34.668,22.949,23.438,0.000,0.000,0.000
149953.242,22.949,31.250,26.367,23.926,28.320,0.000,0.000,0.000
149953.246,19.531,33.203,20.996,20.508,20.508,0.000,0.000,0.000
149953.250,18.066,32.715,20.996,21.973,20.020,0.000,0.000,0.000
149953.254,22.949,34.668,28.320,25.391,25.391,0.000,0.000,0.000
149953.256,25.879,36.621,36.621,22.949,26.855,0.000,0.000,0.000
149953.260,28.320,35.156,34.668,20.508,31.250,0.000,0.000,0.000
149953.264,24.902,30.273,29.297,20.508,26.367,0.000,0.000,0.000
149953.268,20.996,30.762,26.367,23.926,16.602,0.000,0.000,0.000
149953.272,23.926,33.691,28.809,24.414,19.531,0.000,0.000,0.000
149953.276,24.414,30.762,32.227,25.391,24.414,0.000,0.000,0.000
149953.280,19.531,30.273,26.367,24.414,23.438,0.000,0.000,0.000
149953.283,17.090,27.832,21.484,22.461,23.438,0.000,0.000,0.000
149953.287,19.043,26.367,25.879,23.438,25.879,0.000,0.000,0.000
149953.291,19.043,28.809,26.367,20.508,22.461,0.000,0.000,0.000
149953.295,15.137,26.367,22.461,18.066,20.996,0.000,0.000,0.000
149953.299,13.184,24.414,28.809,20.996,20.996,0.000,0.000,0.000
149953.303,13.672,23.926,29.785,19.531,26.855,0.000,0.000,0.000
149953.307,20.020,23.926,26.367,19.531,32.715,0.000,0.000,0.000
149953.311,24.414,26.367,23.438,20.020,37.109,0.000,0.000,0.000
149953.315,20.996,30.273,20.020,20.020,38.574,0.000,0.000,0.000
149953.319,22.949,31.250,25.879,23.926,34.668,0.000,0.000,0.000
149953.323,28.809,29.785,27.344,23.438,28.809,0.000,0.000,0.000
149953.327,28.320,30.273,14.160,21.973,22.461,0.000,0.000,0.000
149953.331,25.391,30.762,13.184,23.926,21.973,0.000,0.000,0.000
149953.334,22.949,31.738,25.879,20.996,17.578,0.000,0.000,0.000
149953.338,20.996,30.762,30.762,16.113,13.672,0.000,0.000,0.000
149953.342,27.344,30.273,33.691,19.043,21.484,0.000,0.000,0.000
149953.346,28.320,33.203,36.133,22.461,26.855,0.000,0.000,0.000
149953.346,23.438,34.180,37.109,24.902,25.879,0.000,0.000,0.000
149953.350,25.879,32.227,36.133,26.367,32.715,0.000,0.000,0.000
149953.354,31.250,30.273,33.203,24.902,38.574,0.000,0.000,0.000
149953.358,30.273,30.762,31.250,21.973,31.738,0.000,0.000,0.000
149953.362,23.438,29.785,29.785,21.484,23.438,0.000,0.000,0.000
149953.366,24.414,26.855,25.879,23.438,25.879,0.000,0.000,0.000
149953.370,26.855,30.762,21.484,21.484,28.320,0.000,0.000,0.000
149953.374,27.344,32.715,26.367,16.602,27.344,0.000,0.000,0.000
149953.377,27.344,29.297,34.180,17.090,28.320,0.000,0.000,0.000
149953.381,27.344,28.809,33.691,19.043,33.203,0.000,0.000,0.000
149953.385,27.832,25.391,31.250,14.648,27.832,0.000,0.000,0.000
149953.389,26.367,24.414,27.832,11.719,23.926,0.000,0.000,0.000
149953.391,25.879,27.344,23.926,14.648,25.879,0.000,0.000,0.000
149953.395,23.926,27.832,19.043,19.043,23.438,0.000,0.000,0.000
149953.399,23.438,26.367,19.531,20.020,22.949,0.000,0.000,0.000
149953.403,28.809,28.320,19.043,20.020,23.438,0.000,0.000,0.000
149953.407,30.273,33.691,19.531,22.949,22.461,0.000,0.000,0.000
149953.411,26.367,33.691,22.461,23.438,24.414,0.000,0.000,0.000
149953.415,28.320,32.715,33.203,20.996,25.879,0.000,0.000,0.000
149953.418,32.227,31.738,46.875,19.531,26.855,0.000,0.000,0.000
149953.422,32.227,30.762,42.969,21.973,25.879,0.000,0.000,0.000
149953.426,28.809,29.785,36.133,24.414,26.367,0.000,0.000,0.000
149953.430,21.973,26.367,36.621,21.484,25.391,0.000,0.000,0.000
149953.434,20.508,29.297,34.668,17.090,23.438,0.000,0.000,0.000
149953.438,23.438,34.180,28.809,20.020,22.461,0.000,0.000,0.000
149953.441,18.066,33.203,22.949,21.484,19.531,0.000,0.000,0.000
149953.445,13.184,31.250,29.785,20.020,21.484,0.000,0.000,0.000
149953.449,18.066,33.203,36.621,19.531,25.879,0.000,0.000,0.000
149953.453,22.949,35.645,37.109,19.043,27.344,0.000,0.000,0.000
149953.457,19.043,33.691,35.156,15.625,24.414,0.000,0.000,0.000
149953.461,16.113,32.715,28.809,16.602,25.879,0.000,0.000,0.000
149953.465,16.602,34.668,24.902,19.043,27.344,0.000,0.000,0.000
149953.469,20.996,33.691,22.461,20.508,31.250,0.000,0.000,0.000
149953.473,22.949,30.273,20.996,21.484,23.438,0.000,0.000,0.000
149953.477,20.020,29.785,22.461,22.461,19.531,0.000,0.000,0.000
149953.481,24.902,34.668,23.926,25.391,26.855,0.000,0.000,0.000
149953.496,28.320,35.156,28.809,24.414,29.297,0.000,0.000,0.000
149953.500,30.273,34.668,31.738,24.902,33.691,0.000,0.000,0.000
149953.504,32.227,38.086,27.344,30.273,39.551,0.000,0.000,0.000
149953.508,35.645,41.016,30.273,34.668,44.434,0.000,0.000,0.000
149953.512,35.156,38.086,33.691,30.762,43.457,0.000,0.000,0.000
149953.516,32.715,34.668,26.855,28.320,43.457,0.000,0.000,0.000
149953.520,33.203,35.645,27.832,31.250,41.504,0.000,0.000,0.000
149953.524,31.250,38.574,33.203,30.273,35.645,0.000,0.000,0.000
149953.528,31.738,36.621,30.762,28.320,30.762,0.000,0.000,0.000
149953.532,30.273,34.180,28.320,25.391,27.344,0.000,0.000,0.000
149953.535,24.902,32.715,33.691,24.902,30.273,0.000,0.000,0.000
149953.539,21.484,31.738,34.668,24.902,30.762,0.000,0.000,0.000
149953.541,22.461,36.621,31.738,20.020,25.391,0.000,0.000,0.000
149953.545,22.461,38.574,26.855,15.137,24.414,0.000,0.000,0.000
149953.549,20.508,34.668,27.832,17.578,20.996,0.000,0.000,0.000
149953.553,20.996,31.738,22.461,21.484,15.137,0.000,0.000,0.000
149953.557,22.949,33.691,12.695,22.461,13.672,0.000,0.000,0.000
149953.561,20.996,32.227,20.020,19.043,11.719,0.000,0.000,0.000
149953.565,15.625,26.367,30.273,14.648,15.625,0.000,0.000,0.000
149953.569,9.766,26.367,34.668,15.137,10.742,0.000,0.000,0.000
149953.572,13.184,26.855,31.738,20.020,16.113,0.000,0.000,0.000
149953.576,20.020,30.762,27.832,18.555,22.949,0.000,0.000,0.000
149953.580,17.090,36.133,27.832,13.184,18.066,0.000,0.000,0.000
149953.584,15.137,36.133,29.785,16.602,17.578,0.000,0.000,0.000
149953.586,17.090,35.156,28.320,21.484,22.461,0.000,0.000,0.000
149953.590,22.461,37.598,26.367,22.461,27.832,0.000,0.000,0.000
149953.594,24.902,36.621,23.926,19.043,28.809,0.000,0.000,0.000
149953.598,24.902,35.645,21.484,22.461,27.344,0.000,0.000,0.000
149953.602,27.832,35.156,21.484,29.785,30.273,0.000,0.000,0.000
149953.606,30.273,34.180,17.578,29.785,35.156,0.000,0.000,0.000
149953.610,31.250,37.598,21.973,26.855,32.227,0.000,0.000,0.000
149953.614,29.785,39.062,28.809,25.879,28.809,0.000,0.000,0.000
149953.617,26.367,33.203,29.297,27.832,26.367,0.000,0.000,0.000
149953.621,22.949,29.785,25.879,22.949,18.555,0.000,0.000,0.000
149953.625,25.879,35.156,25.879,21.484,20.508,0.000,0.000,0.000
149953.629,30.273,38.086,32.715,28.320,25.391,0.000,0.000,0.000
149953.631,24.902,37.109,29.297,30.273,22.949,0.000,0.000,0.000
149953.635,23.438,36.621,25.391,31.250,25.391,0.000,0.000,0.000
149953.639,27.344,35.645,25.879,29.785,28.320,0.000,0.000,0.000
149953.643,28.809,36.621,27.832,28.320,26.367,0.000,0.000,0.000
149953.647,29.297,38.574,32.227,31.738,30.762,0.000,0.000,0.000
149953.651,25.879,34.668,29.785,32.227,32.227,0.000,0.000,0.000
149953.655,27.832,32.715,26.855,31.250,28.320,0.000,0.000,0.000
149953.659,30.762,36.621,28.809,28.809,28.320,0.000,0.000,0.000
149953.662,26.855,35.645,25.391,25.391,28.320,0.000,0.000,0.000
149953.666,23.438,33.203,23.926,28.320,28.809,0.000,0.000,0.000
149953.670,22.461,35.156,30.273,28.320,21.973,0.000,0.000,0.000
149953.674,23.438,35.156,28.320,23.438,22.949,0.000,0.000,0.000
149953.676,22.461,34.180,27.832,22.461,27.344,0.000,0.000,0.000
149953.680,18.066,33.691,31.250,24.902,22.461,0.000,0.000,0.000
149953.684,16.602,31.250,27.832,22.949,21.973,0.000,0.000,0.000
149953.688,21.484,30.273,29.297,22.949,28.809,0.000,0.000,0.000
149953.692,24.414,30.273,33.203,24.902,31.738,0.000,0.000,0.000
149953.696,20.020,29.297,31.250,26.367,29.785,0.000,0.000,0.000
149953.700,16.113,27.344,28.320,26.367,30.762,0.000,0.000,0.000
149953.704,17.578,27.832,29.785,24.414,34.180,0.000,0.000,0.000
149953.708,17.578,30.762,32.715,25.879,29.785,0.000,0.000,0.000
149953.711,15.137,31.738,29.297,28.320,24.414,0.000,0.000,0.000
149953.715,17.090,31.738,23.438,30.762,26.367,0.000,0.000,0.000
149953.719,20.020,29.297,20.020,28.320,28.320,0.000,0.000,0.000
149953.721,22.949,28.809,24.902,27.832,26.855,0.000,0.000,0.000
149953.725,26.855,31.738,29.785,28.809,29.785,0.000,0.000,0.000
149953.729,26.367,32.715,30.762,31.738,34.668,0.000,0.000,0.000
149953.733,21.973,31.250,27.344,28.809,27.832,0.000,0.000,0.000
149953.737,22.461,30.762,22.461,24.414,23.926,0.000,0.000,0.000
149953.741,25.391,28.320,22.949,28.320,31.250,0.000,0.000,0.000
149953.745,24.902,29.785,20.508,26.855,33.203,0.000,0.000,0.000
149953.749,25.391,33.691,14.648,24.414,28.809,0.000,0.000,0.000
149953.753,25.879,32.715,13.184,24.414,20.996,0.000,0.000,0.000
149953.756,26.367,30.273,16.602,21.973,18.555,0.000,0.000,0.000
149953.760,26.367,30.762,29.785,25.879,20.996,0.000,0.000,0.000
149953.764,23.438,33.203,36.133,27.832,23.438,0.000,0.000,0.000
149953.768,21.973,32.227,27.832,23.438,26.367,0.000,0.000,0.000
149953.771,25.879,33.203,24.414,24.414,28.809,0.000,0.000,0.000
149953.775,28.320,36.133,25.879,26.367,33.691,0.000,0.000,0.000
149953.779,23.926,35.156,25.879,26.367,35.645,0.000,0.000,0.000
149953.783,27.832,34.668,24.902,27.832,34.668,0.000,0.000,0.000
149953.787,35.156,31.738,23.926,30.273,35.156,0.000,0.000,0.000
149953.791,31.250,30.273,23.438,29.785,36.133,0.000,0.000,0.000
149953.795,23.926,33.691,21.973,26.367,27.344,0.000,0.000,0.000
149953.799,21.973,32.715,20.020,24.902,18.555,0.000,0.000,0.000
149953.803,25.391,32.715,17.090,24.414,23.926,0.000,0.000,0.000
149953.807,25.391,30.273,17.090,21.973,21.973,0.000,0.000,0.000
149953.811,21.973,30.762,21.484,24.414,19.043,0.000,0.000,0.000
149953.811,26.367,35.156,25.391,28.809,31.250,0.000,0.000,0.000
149953.815,34.180,38.086,31.250,31.738,40.527,0.000,0.000,0.000
149953.819,37.598,34.668,35.156,33.203,40.527,0.000,0.000,0.000
149953.822,33.203,33.203,32.715,32.227,32.227,0.000,0.000,0.000
149953.826,31.250,32.715,25.391,33.203,32.715,0.000,0.000,0.000
149953.830,31.738,28.809,20.508,33.203,37.109,0.000,0.000,0.000
149953.834,33.691,31.250,21.973,32.715,36.133,0.000,0.000,0.000
149953.838,32.227,32.715,26.855,33.203,32.227,0.000,0.000,0.000
149953.842,24.902,31.738,30.273,32.227,33.691,0.000,0.000,0.000
149953.846,28.320,33.691,31.738,36.621,42.480,0.000,0.000,0.000
149953.850,31.738,34.668,29.297,35.645,49.316,0.000,0.000,0.000
149953.854,24.414,32.715,30.762,28.320,43.457,0.000,0.000,0.000
149953.871,24.902,30.762,34.668,30.273,38.574,0.000,0.000,0.000
149953.875,29.785,29.785,33.203,29.297,40.527,0.000,0.000,0.000
149953.879,31.738,31.250,32.715,26.367,39.551,0.000,0.000,0.000
149953.883,29.297,28.320,30.762,25.391,34.668,0.000,0.000,0.000
149953.887,30.273,28.809,26.855,29.785,33.691,0.000,0.000,0.000
149953.891,38.574,31.250,28.320,34.668,40.527,0.000,0.000,0.000
149953.895,40.039,32.715,30.762,29.785,39.062,0.000,0.000,0.000
149953.898,38.574,34.668,30.273,27.344,37.598,0.000,0.000,0.000
149953.902,36.621,34.180,28.320,25.879,41.504,0.000,0.000,0.000
149953.906,33.203,35.645,29.297,25.879,43.945,0.000,0.000,0.000
149953.910,32.227,34.180,32.715,27.832,44.434,0.000,0.000,0.000
149953.914,27.832,32.715,32.227,25.879,39.551,0.000,0.000,0.000
149953.916,22.949,33.203,26.855,25.879,38.086,0.000,0.000,0.000
149953.920,15.137,34.180,23.926,28.809,34.180,0.000,0.000,0.000
149953.924,10.742,33.203,24.902,25.879,23.438,0.000,0.000,0.000
149953.928,11.230,30.273,20.020,23.438,15.137,0.000,0.000,0.000
149953.932,16.602,31.250,24.902,29.785,17.090,0.000,0.000,0.000
149953.936,19.043,32.715,36.621,34.668,23.438,0.000,0.000,0.000
149953.940,17.090,28.809,37.598,33.203,20.508,0.000,0.000,0.000
149953.944,24.902,29.785,38.574,33.203,25.391,0.000,0.000,0.000
149953.948,30.273,33.691,38.086,34.180,34.180,0.000,0.000,0.000
149953.951,25.391,33.203,35.156,31.250,32.227,0.000,0.000,0.000
149953.955,23.438,30.762,33.203,30.762,30.273,0.000,0.000,0.000
149953.959,22.461,28.809,34.180,29.297,28.320,0.000,0.000,0.000
149953.961,22.461,32.715,30.762,25.879,25.391,0.000,0.000,0.000
149953.965,18.066,34.180,26.855,25.879,25.879,0.000,0.000,0.000
149953.969,13.184,30.762,26.367,24.902,28.809,0.000,0.000,0.000
149953.973,14.648,28.320,30.273,21.973,25.391,0.000,0.000,0.000
149953.977,20.020,29.297,33.203,22.461,29.297,0.000,0.000,0.000
149953.981,22.461,31.250,32.715,26.367,37.109,0.000,0.000,0.000
149953.985,21.973,27.832,29.297,27.832,38.086,0.000,0.000,0.000
149953.988,25.879,31.250,29.297,27.344,37.598,0.000,0.000,0.000
149953.992,28.320,35.156,33.203,23.438,33.203,0.000,0.000,0.000
149953.996,32.227,32.227,34.668,23.926,30.273,0.000,0.000,0.000
149954.000,29.785,29.785,31.250,26.367,29.297,0.000,0.000,0.000
149954.004,27.832,29.785,31.250,28.809,30.273,0.000,0.000,0.000
149954.008,36.133,33.203,29.785,35.156,34.180,0.000,0.000,0.000
149954.012,38.086,33.691,32.715,37.109,32.715,0.000,0.000,0.000
149954.016,32.715,34.180,37.598,35.645,29.785,0.000,0.000,0.000
