timestamps,TP9,AF7,AF8,TP10,Right AUX,Marker0,Marker1,Marker2
149565.448,20.996,25.879,19.043,22.949,25.391,0.000,0.000,0.000
149565.452,25.391,25.879,15.625,28.809,20.996,0.000,0.000,0.000
149565.456,26.367,27.832,25.879,28.320,20.020,0.000,0.000,0.000
149565.460,27.832,32.227,30.273,23.438,23.438,0.000,0.000,0.000
149565.464,29.297,34.180,20.996,23.926,23.926,0.000,0.000,0.000
149565.468,27.832,34.180,24.902,24.902,30.273,0.000,0.000,0.000
149565.472,29.297,34.668,30.273,24.414,35.645,0.000,0.000,0.000
149565.475,32.227,31.738,27.344,24.902,39.062,0.000,0.000,0.000
149565.479,30.762,31.738,10.254,20.508,32.227,0.000,0.000,0.000
149565.483,22.949,34.180,1.953,20.020,15.137,0.000,0.000,0.000
149565.487,21.484,32.227,24.414,22.949,13.184,0.000,0.000,0.000
149565.491,25.391,30.762,34.180,20.996,16.602,0.000,0.000,0.000
149565.490,25.879,30.762,25.391,20.996,15.137,0.000,0.000,0.000
149565.494,22.461,28.809,26.367,24.902,17.578,0.000,0.000,0.000
149565.498,23.438,33.203,20.996,27.344,28.809,0.000,0.000,0.000
149565.502,25.391,36.133,10.254,21.973,34.180,0.000,0.000,0.000
149565.506,20.508,29.785,22.461,18.555,11.230,0.000,0.000,0.000
149565.510,17.090,27.344,32.227,21.973,2.441,0.000,0.000,0.000
149565.514,21.973,29.785,33.203,27.344,19.531,0.000,0.000,0.000
149565.518,27.832,30.762,31.250,24.414,26.367,0.000,0.000,0.000
149565.522,24.902,29.297,20.508,17.578,22.461,0.000,0.000,0.000
149565.525,20.996,29.785,23.926,17.578,19.531,0.000,0.000,0.000
149565.529,24.414,31.250,20.508,23.438,21.973,0.000,0.000,0.000
149565.533,27.832,33.691,9.766,22.949,28.809,0.000,0.000,0.000
149565.535,30.273,35.645,16.113,20.996,32.227,0.000,0.000,0.000
149565.539,30.762,37.109,25.879,24.414,30.762,0.000,0.000,0.000
149565.543,22.949,33.691,29.785,23.438,24.414,0.000,0.000,0.000
149565.547,19.531,29.297,30.273,22.461,24.414,0.000,0.000,0.000
149565.551,22.949,28.320,25.879,21.973,23.438,0.000,0.000,0.000
149565.555,22.461,27.832,22.461,21.973,16.602,0.000,0.000,0.000
149565.559,20.020,26.855,24.902,25.879,18.066,0.000,0.000,0.000
149565.563,20.020,26.367,27.832,27.344,20.996,0.000,0.000,0.000
149565.566,19.531,26.367,27.344,22.949,16.602,0.000,0.000,0.000
149565.570,20.996,29.785,23.438,20.508,14.160,0.000,0.000,0.000
149565.574,20.020,30.273,23.438,21.484,17.090,0.000,0.000,0.000
149565.578,21.484,25.391,17.090,25.879,27.832,0.000,0.000,0.000
149565.595,22.461,26.855,-5.371,27.832,37.109,0.000,0.000,0.000
149565.599,22.949,26.367,-7.812,26.367,40.527,0.000,0.000,0.000
149565.603,23.438,23.438,20.508,26.367,41.992,0.000,0.000,0.000
149565.607,18.555,27.832,44.922,28.320,40.527,0.000,0.000,0.000
149565.611,19.531,30.273,45.898,26.855,40.527,0.000,0.000,0.000
149565.615,26.855,32.715,39.062,27.832,50.293,0.000,0.000,0.000
149565.619,26.367,34.668,39.551,31.250,50.293,0.000,0.000,0.000
149565.623,20.020,31.738,37.109,28.809,37.109,0.000,0.000,0.000
149565.627,21.484,31.738,34.180,26.855,35.156,0.000,0.000,0.000
149565.631,26.367,31.738,29.297,22.461,36.621,0.000,0.000,0.000
149565.634,25.391,31.738,31.250,20.508,38.574,0.000,0.000,0.000
149565.638,20.508,30.762,35.156,24.414,38.574,0.000,0.000,0.000
149565.640,18.066,25.879,30.273,26.855,28.320,0.000,0.000,0.000
149565.644,20.020,27.832,26.855,25.391,22.461,0.000,0.000,0.000
149565.648,24.902,32.227,24.414,23.926,23.438,0.000,0.000,0.000
149565.652,25.391,37.598,22.461,24.902,20.508,0.000,0.000,0.000
149565.656,22.461,40.527,26.855,26.367,25.391,0.000,0.000,0.000
149565.660,26.855,34.180,32.715,26.855,30.273,0.000,0.000,0.000
149565.664,37.109,29.297,30.273,29.297,22.461,0.000,0.000,0.000
149565.668,37.598,29.785,26.855,32.227,19.531,0.000,0.000,0.000
149565.671,30.762,33.203,26.367,32.715,20.996,0.000,0.000,0.000
149565.675,31.250,36.133,27.832,31.250,19.043,0.000,0.000,0.000
149565.679,30.762,32.715,28.320,24.414,21.484,0.000,0.000,0.000
149565.683,25.879,32.227,31.250,23.926,23.926,0.000,0.000,0.000
149565.686,22.949,39.062,32.227,25.879,26.855,0.000,0.000,0.000
149565.690,24.414,37.598,26.855,26.367,30.273,0.000,0.000,0.000
149565.694,27.832,29.785,23.438,26.367,35.645,0.000,0.000,0.000
149565.698,26.367,27.832,20.020,27.832,41.504,0.000,0.000,0.000
149565.701,20.996,28.320,16.113,28.809,36.621,0.000,0.000,0.000
149565.705,18.066,25.391,16.113,28.320,35.156,0.000,0.000,0.000
149565.709,20.996,25.391,25.391,31.250,38.086,0.000,0.000,0.000
149565.713,25.391,31.738,37.598,27.832,38.574,0.000,0.000,0.000
149565.717,24.902,36.621,46.875,23.926,40.527,0.000,0.000,0.000
149565.721,22.461,32.227,47.363,24.414,33.691,0.000,0.000,0.000
149565.725,19.531,30.273,41.504,21.484,22.949,0.000,0.000,0.000
149565.729,23.438,30.762,37.109,21.484,24.414,0.000,0.000,0.000
149565.729,26.367,30.273,29.297,24.902,26.855,0.000,0.000,0.000
149565.733,22.461,31.250,27.832,24.902,28.809,0.000,0.000,0.000
149565.737,25.391,30.273,29.297,20.996,27.832,0.000,0.000,0.000
149565.741,31.250,32.715,25.391,20.020,23.926,0.000,0.000,0.000
149565.745,31.250,33.203,23.926,21.484,26.367,0.000,0.000,0.000
149565.749,28.809,39.551,30.762,26.855,28.320,0.000,0.000,0.000
149565.753,27.344,41.016,35.156,29.785,32.227,0.000,0.000,0.000
149565.757,30.273,32.715,34.668,31.250,28.809,0.000,0.000,0.000
149565.761,31.738,32.227,33.203,33.691,34.180,0.000,0.000,0.000
149565.765,26.855,31.738,27.832,36.133,33.691,0.000,0.000,0.000
149565.769,27.832,29.785,20.020,41.016,29.297,0.000,0.000,0.000
149565.772,32.227,34.180,16.602,39.062,37.109,0.000,0.000,0.000
149565.774,29.785,32.227,22.949,32.715,39.551,0.000,0.000,0.000
149565.778,26.855,29.297,33.203,30.273,43.945,0.000,0.000,0.000
149565.782,25.391,31.250,36.621,31.250,32.227,0.000,0.000,0.000
149565.786,24.902,29.785,31.738,28.809,24.414,0.000,0.000,0.000
149565.790,23.438,26.367,31.250,25.879,27.832,0.000,0.000,0.000
149565.794,20.508,24.414,37.598,29.297,30.273,0.000,0.000,0.000
149565.798,14.648,25.391,37.598,28.809,29.785,0.000,0.000,0.000
149565.802,9.766,24.902,32.715,21.484,18.066,0.000,0.000,0.000
149565.806,11.230,24.902,26.855,11.719,8.789,0.000,0.000,0.000
149565.810,13.672,28.320,22.461,7.812,11.719,0.000,0.000,0.000
149565.814,14.160,30.762,21.484,13.184,16.113,0.000,0.000,0.000
149565.817,16.113,34.668,20.996,17.090,20.508,0.000,0.000,0.000
149565.819,18.066,38.086,26.367,17.090,25.879,0.000,0.000,0.000
149565.823,19.531,32.715,32.715,20.996,31.738,0.000,0.000,0.000
149565.827,20.508,27.832,30.762,26.855,38.086,0.000,0.000,0.000
149565.831,20.996,30.273,29.297,31.250,41.016,0.000,0.000,0.000
149565.835,26.367,32.715,32.715,32.715,44.922,0.000,0.000,0.000
149565.839,32.227,31.738,38.574,33.691,41.992,0.000,0.000,0.000
149565.843,31.250,33.203,33.203,33.691,29.297,0.000,0.000,0.000
149565.847,26.367,33.203,19.043,32.715,36.621,0.000,0.000,0.000
149565.851,20.996,25.391,21.484,26.367,39.551,0.000,0.000,0.000
149565.855,19.043,23.438,26.367,19.531,27.832,0.000,0.000,0.000
149565.859,17.090,26.855,14.648,19.043,23.926,0.000,0.000,0.000
149565.862,12.207,27.344,4.395,22.949,27.832,0.000,0.000,0.000
149565.865,13.184,28.320,21.973,24.902,32.715,0.000,0.000,0.000
149565.869,17.090,30.762,40.039,20.996,31.250,0.000,0.000,0.000
149565.873,19.531,28.809,39.062,20.508,25.391,0.000,0.000,0.000
149565.876,16.113,29.785,38.086,24.414,22.461,0.000,0.000,0.000
149565.880,14.160,34.180,40.527,23.438,24.414,0.000,0.000,0.000
149565.884,16.602,31.250,35.156,24.902,22.949,0.000,0.000,0.000
149565.888,20.996,27.344,29.297,29.297,18.555,2.000,1.000,45.000
149565.892,20.020,28.809,27.832,29.785,26.855,0.000,0.000,0.000
149565.896,11.719,30.762,22.949,23.926,26.367,0.000,0.000,0.000
149565.900,11.719,32.227,23.438,17.090,19.043,0.000,0.000,0.000
149565.904,17.578,29.297,29.785,16.113,21.973,0.000,0.000,0.000
149565.908,19.531,28.809,31.250,17.578,24.902,0.000,0.000,0.000
149565.912,21.484,38.574,28.809,16.602,26.367,0.000,0.000,0.000
149565.916,24.414,41.504,26.367,15.137,32.715,0.000,0.000,0.000
149565.920,26.855,39.062,23.438,15.625,41.016,0.000,0.000,0.000
149565.924,25.879,36.621,19.043,10.254,22.461,0.000,0.000,0.000
149565.928,22.949,32.227,19.531,10.742,7.324,0.000,0.000,0.000
149565.931,23.438,33.691,25.391,15.137,10.742,0.000,0.000,0.000
149565.935,27.344,35.645,24.414,15.625,18.555,0.000,0.000,0.000
149565.939,32.715,36.621,18.555,19.531,29.785,0.000,0.000,0.000
149565.943,28.320,38.574,12.207,22.461,31.738,0.000,0.000,0.000
149565.947,21.973,39.062,14.648,23.438,34.180,0.000,0.000,0.000
149565.951,22.949,41.504,30.273,23.438,36.621,0.000,0.000,0.000
149565.955,22.949,41.992,28.320,23.926,38.086,0.000,0.000,0.000
149565.970,20.996,38.574,19.531,23.926,33.203,0.000,0.000,0.000
149565.974,15.137,34.180,30.762,25.391,27.344,0.000,0.000,0.000
149565.978,16.602,33.691,37.109,27.832,26.855,0.000,0.000,0.000
149565.982,19.043,35.156,32.715,27.832,27.832,0.000,0.000,0.000
149565.986,11.719,32.227,29.785,22.949,25.391,0.000,0.000,0.000
149565.990,12.207,33.691,24.414,25.391,27.344,0.000,0.000,0.000
149565.994,18.555,35.645,18.066,26.855,24.902,0.000,0.000,0.000
149565.997,21.484,40.039,17.090,19.531,21.973,0.000,0.000,0.000
149566.001,22.949,45.410,25.391,18.555,29.297,0.000,0.000,0.000
149566.005,21.484,36.133,31.250,18.555,27.832,0.000,0.000,0.000
149566.009,19.531,28.809,31.250,20.508,24.902,0.000,0.000,0.000
149566.013,23.926,30.762,30.273,24.414,24.902,0.000,0.000,0.000
149566.015,30.273,33.203,26.367,27.344,24.902,0.000,0.000,0.000
149566.019,30.273,35.645,26.367,28.320,21.973,0.000,0.000,0.000
149566.023,29.297,38.574,24.902,29.297,10.254,0.000,0.000,0.000
149566.027,30.273,36.621,19.531,28.320,5.859,0.000,0.000,0.000
149566.031,32.227,30.762,17.090,29.297,14.160,0.000,0.000,0.000
149566.035,31.738,27.344,25.391,35.645,30.273,0.000,0.000,0.000
149566.039,28.320,23.926,28.320,35.156,39.062,0.000,0.000,0.000
149566.043,28.320,18.555,25.879,28.320,45.410,0.000,0.000,0.000
149566.047,34.180,21.484,31.250,23.926,52.246,0.000,0.000,0.000
149566.051,35.156,28.320,33.203,21.973,44.434,0.000,0.000,0.000
149566.054,29.297,27.832,28.809,21.484,41.504,0.000,0.000,0.000
149566.058,26.855,28.809,22.949,19.043,38.086,0.000,0.000,0.000
149566.060,28.320,31.738,25.879,15.137,32.715,0.000,0.000,0.000
149566.064,27.344,28.809,28.809,16.113,37.109,0.000,0.000,0.000
149566.068,20.996,26.367,27.832,20.020,38.086,0.000,0.000,0.000
149566.072,15.137,27.344,24.414,19.043,32.715,0.000,0.000,0.000
149566.076,20.020,27.832,22.461,20.020,38.574,0.000,0.000,0.000
149566.080,25.879,28.809,23.926,21.973,47.363,0.000,0.000,0.000
149566.084,20.996,30.273,23.926,23.438,36.133,0.000,0.000,0.000
149566.088,18.066,34.180,23.438,26.855,31.250,0.000,0.000,0.000
149566.092,20.996,36.133,24.414,25.391,36.133,0.000,0.000,0.000
149566.096,24.414,30.762,24.902,22.949,35.645,0.000,0.000,0.000
149566.099,21.973,28.809,25.391,24.414,33.691,0.000,0.000,0.000
149566.103,18.066,33.203,29.785,29.297,37.109,0.000,0.000,0.000
149566.106,19.531,37.598,21.973,31.250,41.016,0.000,0.000,0.000
149566.110,20.020,34.668,12.695,26.855,41.504,0.000,0.000,0.000
149566.113,16.113,30.273,20.508,21.484,39.062,0.000,0.000,0.000
149566.117,20.996,33.203,24.902,25.391,53.223,0.000,0.000,0.000
149566.121,26.367,33.203,29.297,30.273,60.547,0.000,0.000,0.000
149566.125,16.113,25.391,31.250,17.090,37.598,0.000,0.000,0.000
149566.129,12.695,21.484,27.832,9.277,19.531,0.000,0.000,0.000
149566.133,19.043,22.461,23.926,14.160,28.320,0.000,0.000,0.000
149566.137,20.996,24.414,24.902,16.113,30.762,0.000,0.000,0.000
149566.141,25.879,21.973,30.762,18.066,35.645,0.000,0.000,0.000
149566.145,33.691,24.414,27.832,20.996,40.039,0.000,0.000,0.000
149566.149,30.762,29.785,22.461,16.602,32.715,0.000,0.000,0.000
149566.152,23.438,25.879,20.508,19.043,35.156,0.000,0.000,0.000
149566.156,26.367,23.438,18.555,26.855,44.434,0.000,0.000,0.000
149566.160,29.297,23.438,20.508,29.785,41.016,0.000,0.000,0.000
149566.164,25.879,27.344,26.855,30.762,37.109,0.000,0.000,0.000
149566.168,20.996,30.273,29.297,32.715,41.016,0.000,0.000,0.000
149566.172,19.531,23.926,29.785,36.133,41.504,0.000,0.000,0.000
149566.176,19.531,21.484,29.785,36.621,39.062,0.000,0.000,0.000
149566.180,17.578,26.855,30.273,36.133,44.434,0.000,0.000,0.000
149566.183,14.160,24.414,33.203,38.086,43.945,0.000,0.000,0.000
149566.187,12.695,18.555,30.762,39.062,36.621,0.000,0.000,0.000
149566.191,18.066,17.090,24.902,36.621,25.879,0.000,0.000,0.000
149566.195,20.996,20.996,26.367,32.715,16.602,0.000,0.000,0.000
149566.195,17.090,23.926,32.715,27.344,9.766,0.000,0.000,0.000
149566.199,16.113,23.926,36.133,24.902,6.836,0.000,0.000,0.000
149566.203,21.484,30.762,28.809,21.973,15.625,0.000,0.000,0.000
149566.207,28.320,31.250,26.367,21.973,29.785,0.000,0.000,0.000
149566.211,29.785,23.438,31.250,20.996,26.367,0.000,0.000,0.000
149566.215,23.926,22.461,28.809,19.043,20.020,0.000,0.000,0.000
149566.219,20.996,26.855,28.809,20.508,26.855,0.000,0.000,0.000
149566.223,21.973,30.273,24.414,18.066,23.926,0.000,0.000,0.000
149566.227,17.090,29.785,20.020,16.113,18.555,0.000,0.000,0.000
149566.231,8.789,28.320,27.832,18.066,16.113,0.000,0.000,0.000
149566.234,10.742,25.879,34.668,20.020,11.719,0.000,0.000,0.000
149566.238,12.695,22.461,33.691,15.625,7.812,0.000,0.000,0.000
149566.240,7.324,19.531,31.738,15.137,13.672,0.000,0.000,0.000
149566.244,2.441,19.043,29.785,21.484,20.020,0.000,0.000,0.000
149566.248,9.277,21.973,28.809,33.691,27.832,0.000,0.000,0.000
149566.252,18.066,29.297,27.344,28.809,32.227,0.000,0.000,0.000
149566.256,17.090,39.062,18.066,13.672,21.484,0.000,0.000,0.000
149566.260,18.066,40.527,19.531,15.625,21.973,0.000,0.000,0.000
149566.264,16.602,38.574,29.297,17.090,23.438,0.000,0.000,0.000
149566.268,19.531,33.691,31.738,16.113,19.531,0.000,0.000,0.000
149566.272,23.438,28.320,28.320,18.066,24.902,0.000,0.000,0.000
149566.276,19.531,26.855,22.461,20.020,22.949,0.000,0.000,0.000
149566.279,17.578,27.344,20.020,20.996,14.648,0.000,0.000,0.000
149566.283,19.531,28.809,15.137,18.555,16.113,0.000,0.000,0.000
149566.286,21.484,29.297,12.207,14.648,20.020,0.000,0.000,0.000
149566.290,25.391,27.832,21.484,18.555,24.902,0.000,0.000,0.000
149566.294,23.438,32.715,26.855,24.902,31.738,0.000,0.000,0.000
149566.297,22.949,40.527,28.809,24.902,21.973,0.000,0.000,0.000
149566.301,24.902,38.574,28.320,23.926,17.090,0.000,0.000,0.000
149566.305,26.367,32.227,30.273,21.973,24.902,0.000,0.000,0.000
149566.309,19.043,29.297,25.879,20.020,17.090,0.000,0.000,0.000
149566.313,12.207,28.320,21.973,19.043,18.555,0.000,0.000,0.000
149566.317,16.602,29.297,31.250,19.043,29.297,0.000,0.000,0.000
149566.321,19.531,35.645,33.691,19.043,31.738,0.000,0.000,0.000
149566.325,17.090,34.180,31.250,19.043,30.762,0.000,0.000,0.000
149566.329,12.207,30.762,27.344,20.020,28.320,0.000,0.000,0.000
149566.333,8.301,30.273,26.367,17.578,19.531,0.000,0.000,0.000
149566.337,14.648,27.344,24.902,15.625,16.113,0.000,0.000,0.000
149566.340,17.578,27.344,23.926,15.625,10.742,0.000,0.000,0.000
149566.344,12.695,30.762,29.297,21.973,14.160,0.000,0.000,0.000
149566.348,10.742,29.297,29.297,18.555,26.855,0.000,0.000,0.000
149566.352,16.602,31.738,25.879,13.184,27.344,0.000,0.000,0.000
149566.356,25.879,34.668,18.555,19.043,28.320,0.000,0.000,0.000
149566.360,22.949,28.809,11.230,20.020,32.227,0.000,0.000,0.000
149566.364,20.996,28.320,20.508,20.996,32.715,0.000,0.000,0.000
149566.368,24.414,34.180,30.273,22.949,36.621,0.000,0.000,0.000
149566.372,22.949,32.715,24.902,20.996,30.762,0.000,0.000,0.000
149566.376,19.531,28.809,25.391,20.020,26.367,0.000,0.000,0.000
149566.392,15.625,28.809,32.227,19.043,24.902,0.000,0.000,0.000
149566.396,14.160,33.203,29.785,14.160,15.137,0.000,0.000,0.000
149566.399,14.648,32.715,24.414,10.742,6.836,0.000,0.000,0.000
149566.403,10.742,28.809,19.043,11.719,8.301,0.000,0.000,0.000
149566.407,7.812,27.832,16.113,11.230,2.930,0.000,0.000,0.000
149566.411,9.277,28.809,20.020,7.812,-0.977,0.000,0.000,0.000
149566.415,13.184,34.180,23.438,5.859,3.418,0.000,0.000,0.000
149566.419,13.672,34.668,20.508,7.324,4.883,0.000,0.000,0.000
149566.423,14.648,30.273,20.020,15.625,9.766,0.000,0.000,0.000
149566.427,16.113,30.762,20.996,17.578,9.766,0.000,0.000,0.000
149566.431,15.625,34.668,22.461,13.184,11.719,0.000,0.000,0.000
149566.435,18.555,33.203,24.902,13.672,11.230,0.000,0.000,0.000
149566.435,20.508,32.715,27.832,17.578,10.742,0.000,0.000,0.000
149566.439,19.531,32.227,27.344,18.555,14.160,0.000,0.000,0.000
149566.443,17.578,32.227,21.484,15.625,14.160,0.000,0.000,0.000
149566.447,19.531,35.645,22.461,16.602,25.391,0.000,0.000,0.000
149566.451,19.531,35.645,26.367,20.508,31.738,0.000,0.000,0.000
149566.455,19.043,29.785,29.785,26.367,30.273,0.000,0.000,0.000
149566.459,20.020,30.273,32.715,26.367,33.203,0.000,0.000,0.000
149566.463,22.461,37.109,27.832,20.996,36.621,0.000,0.000,0.000
149566.467,21.973,36.133,23.438,20.020,42.969,0.000,0.000,0.000
149566.471,20.996,35.645,23.926,21.484,32.227,0.000,0.000,0.000
149566.474,23.438,36.133,19.531,20.508,30.762,0.000,0.000,0.000
149566.478,25.879,31.738,19.531,18.066,37.598,0.000,0.000,0.000
149566.481,25.391,29.785,27.344,20.020,35.645,0.000,0.000,0.000
149566.484,21.973,33.203,28.809,20.508,34.180,0.000,0.000,0.000
149566.488,21.484,38.086,26.855,18.555,40.527,0.000,0.000,0.000
149566.492,22.461,34.668,22.949,15.625,42.480,0.000,0.000,0.000
149566.496,17.090,26.367,19.043,7.812,34.668,0.000,0.000,0.000
149566.500,13.672,25.391,19.531,9.766,44.434,0.000,0.000,0.000
149566.504,18.066,29.785,24.414,16.113,38.574,0.000,0.000,0.000
149566.508,20.508,28.320,26.855,12.695,12.695,0.000,0.000,0.000
149566.512,18.555,29.297,27.832,5.859,6.348,0.000,0.000,0.000
149566.516,13.672,33.203,29.785,8.301,10.254,0.000,0.000,0.000
149566.520,11.719,30.273,22.461,12.695,12.207,0.000,0.000,0.000
149566.524,13.184,24.902,17.090,10.742,13.672,0.000,0.000,0.000
149566.526,14.160,22.949,22.949,12.207,17.578,0.000,0.000,0.000
149566.530,16.113,25.391,26.855,15.625,20.020,0.000,0.000,0.000
149566.533,16.602,29.297,20.996,18.555,20.508,0.000,0.000,0.000
149566.537,16.602,29.297,13.184,19.043,31.250,0.000,0.000,0.000
149566.541,20.996,27.832,20.020,17.090,34.180,0.000,0.000,0.000
149566.545,22.949,24.902,31.738,17.578,22.461,0.000,0.000,0.000
149566.549,20.020,28.809,35.156,21.484,21.973,0.000,0.000,0.000
149566.553,22.461,33.203,32.715,22.461,31.250,0.000,0.000,0.000
149566.557,25.391,26.855,32.227,21.973,31.250,0.000,0.000,0.000
149566.561,23.926,25.879,35.645,22.949,20.996,0.000,0.000,0.000
149566.565,21.484,30.273,34.668,23.438,21.484,0.000,0.000,0.000
149566.569,20.020,28.809,31.738,24.414,28.320,0.000,0.000,0.000
149566.570,15.137,28.320,30.273,19.531,28.320,0.000,0.000,0.000
149566.574,16.602,29.785,33.691,13.672,23.926,0.000,0.000,0.000
149566.578,21.973,30.273,38.086,21.973,15.137,0.000,0.000,0.000
149566.582,20.020,26.855,35.645,26.855,14.160,0.000,0.000,0.000
149566.586,20.020,30.762,21.484,23.926,19.043,0.000,0.000,0.000
149566.590,25.879,42.480,12.207,23.438,22.949,0.000,0.000,0.000
149566.594,22.949,39.551,21.484,26.855,18.555,0.000,0.000,0.000
149566.598,20.996,32.715,35.156,33.203,20.020,0.000,0.000,0.000
149566.602,20.996,30.273,41.016,30.273,25.879,0.000,0.000,0.000
149566.606,19.043,26.855,42.480,24.902,27.344,0.000,0.000,0.000
149566.610,22.461,29.785,38.574,28.809,29.785,0.000,0.000,0.000
149566.613,20.020,29.297,34.180,30.762,25.391,0.000,0.000,0.000
149566.617,15.625,28.809,29.785,28.809,20.508,0.000,0.000,0.000
149566.620,22.949,35.645,26.367,31.738,29.785,0.000,0.000,0.000
149566.624,27.832,32.715,24.414,31.738,40.039,0.000,0.000,0.000
149566.628,26.855,21.484,27.344,31.738,37.109,0.000,0.000,0.000
149566.632,22.949,19.531,32.715,32.227,26.855,0.000,0.000,0.000
149566.636,24.902,24.902,30.762,28.809,21.973,0.000,0.000,0.000
149566.640,29.785,28.320,31.250,29.297,32.715,0.000,0.000,0.000
149566.644,25.879,29.785,32.227,28.320,32.715,0.000,0.000,0.000
149566.648,23.926,32.227,21.484,28.809,43.945,0.000,0.000,0.000
149566.652,27.832,35.156,12.207,31.738,52.246,0.000,0.000,0.000
149566.656,30.273,40.039,21.973,31.250,29.785,0.000,0.000,0.000
149566.660,31.250,39.062,33.691,31.738,27.344,0.000,0.000,0.000
149566.660,29.297,30.273,39.062,34.180,28.320,0.000,0.000,0.000
149566.664,29.297,27.832,40.527,35.645,23.926,0.000,0.000,0.000
149566.668,28.320,30.762,42.480,28.809,25.879,0.000,0.000,0.000
149566.672,26.855,28.320,45.898,28.320,20.508,0.000,0.000,0.000
149566.676,23.438,26.367,35.645,30.273,27.344,0.000,0.000,0.000
149566.680,16.602,30.762,23.926,25.879,28.809,0.000,0.000,0.000
149566.684,13.672,30.273,24.414,19.531,20.020,0.000,0.000,0.000
149566.688,17.090,31.738,19.043,19.531,18.555,0.000,0.000,0.000
149566.692,18.066,34.668,24.902,21.484,23.926,0.000,0.000,0.000
149566.696,17.090,27.832,43.457,20.508,30.273,0.000,0.000,0.000
149566.699,22.461,28.809,52.246,22.949,34.668,0.000,0.000,0.000
149566.703,23.438,28.809,45.898,20.508,30.762,0.000,0.000,0.000
149566.721,23.438,26.855,40.527,19.531,30.273,0.000,0.000,0.000
149566.724,25.391,28.320,39.551,25.879,34.180,0.000,0.000,0.000
149566.728,24.414,32.715,36.621,22.949,29.297,0.000,0.000,0.000
149566.732,29.297,36.621,34.668,23.438,32.715,0.000,0.000,0.000
149566.736,27.832,39.062,31.250,23.926,34.180,0.000,0.000,0.000
149566.740,18.066,41.992,22.949,21.973,27.344,0.000,0.000,0.000
149566.744,15.625,33.691,19.531,20.996,24.414,0.000,0.000,0.000
149566.748,17.090,28.320,27.832,19.043,31.738,0.000,0.000,0.000
149566.752,19.043,30.762,35.156,18.555,29.785,0.000,0.000,0.000
149566.756,20.996,31.738,35.156,20.508,17.578,0.000,0.000,0.000
149566.760,21.973,31.250,35.156,24.902,20.508,0.000,0.000,0.000
149566.764,22.949,33.203,30.762,23.926,27.344,0.000,0.000,0.000
149566.766,30.762,36.621,23.926,26.855,35.645,0.000,0.000,0.000
149566.770,32.715,36.133,27.832,30.762,35.645,0.000,0.000,0.000
149566.773,24.902,34.180,30.762,30.762,31.250,0.000,0.000,0.000
149566.777,26.367,35.156,23.438,29.297,36.621,0.000,0.000,0.000
149566.781,27.344,33.203,20.996,28.320,33.203,0.000,0.000,0.000
149566.785,21.973,31.250,20.996,29.785,23.438,0.000,0.000,0.000
149566.789,18.555,33.691,29.785,29.297,24.414,0.000,0.000,0.000
149566.793,18.555,31.738,31.250,23.926,21.484,0.000,0.000,0.000
149566.797,18.066,30.273,26.855,18.066,8.789,0.000,0.000,0.000
149566.801,12.695,29.785,34.180,11.230,-1.953,0.000,0.000,0.000
149566.805,13.672,34.668,35.645,14.160,6.348,0.000,0.000,0.000
149566.809,17.578,35.645,35.645,20.508,9.766,0.000,0.000,0.000
149566.810,22.949,30.762,36.133,20.020,9.766,0.000,0.000,0.000
149566.814,24.902,29.785,33.691,22.461,24.902,0.000,0.000,0.000
149566.818,23.438,33.691,32.715,28.320,35.645,0.000,0.000,0.000
149566.822,28.320,39.551,30.273,29.297,34.180,0.000,0.000,0.000
149566.826,27.832,38.574,26.855,21.484,24.414,0.000,0.000,0.000
149566.830,24.902,38.574,28.320,13.672,18.066,0.000,0.000,0.000
149566.834,24.414,41.504,19.531,15.137,18.555,0.000,0.000,0.000
149566.837,21.484,37.598,6.836,15.625,20.020,0.000,0.000,0.000
149566.841,19.531,28.809,14.160,11.230,20.996,0.000,0.000,0.000
149566.845,24.414,27.832,27.344,9.277,20.020,0.000,0.000,0.000
149566.849,26.855,27.344,28.809,15.625,25.391,0.000,0.000,0.000
149566.853,26.367,28.320,29.785,21.484,29.297,0.000,0.000,0.000
149566.856,29.785,35.645,34.180,21.484,37.598,0.000,0.000,0.000
149566.860,35.156,33.691,36.133,25.391,51.270,0.000,0.000,0.000
149566.864,38.086,32.715,35.156,32.227,53.223,0.000,0.000,0.000
149566.868,33.203,38.086,33.691,36.133,42.969,0.000,0.000,0.000
149566.871,25.879,35.156,30.762,33.203,28.320,0.000,0.000,0.000
149566.875,23.926,30.762,28.320,28.809,22.461,0.000,0.000,0.000
149566.879,24.414,31.250,29.297,29.297,21.484,0.000,0.000,0.000
149566.883,20.020,27.832,23.438,30.273,26.367,0.000,0.000,0.000
149566.887,17.578,28.320,16.602,29.297,33.691,0.000,0.000,0.000
149566.891,18.555,27.832,27.344,24.414,34.180,0.000,0.000,0.000
149566.895,10.742,27.832,29.785,18.066,23.438,0.000,0.000,0.000
149566.899,6.836,28.320,16.113,19.531,14.648,0.000,0.000,0.000
149566.900,13.672,23.926,14.160,23.926,16.602,0.000,0.000,0.000
149566.904,17.578,25.879,23.926,20.996,23.438,0.000,0.000,0.000
149566.908,20.996,28.809,27.832,19.043,31.250,0.000,0.000,0.000
149566.912,23.926,28.809,26.367,22.949,29.785,0.000,0.000,0.000
149566.916,25.391,30.762,24.414,23.926,27.344,0.000,0.000,0.000
149566.920,27.344,33.203,27.832,20.020,29.297,0.000,0.000,0.000
149566.924,32.227,34.180,28.320,20.996,31.250,0.000,0.000,0.000
149566.928,35.156,31.738,25.391,22.461,29.785,0.000,0.000,0.000
149566.932,25.391,35.645,22.949,19.043,26.367,0.000,0.000,0.000
149566.935,20.508,37.598,14.160,18.066,27.344,0.000,0.000,0.000
149566.939,19.531,29.785,13.672,17.090,30.762,0.000,0.000,0.000
149566.943,18.066,28.320,20.508,16.113,27.344,0.000,0.000,0.000
149566.945,17.090,29.785,23.438,17.578,24.414,0.000,0.000,0.000
149566.949,19.531,29.785,29.297,20.996,25.879,0.000,0.000,0.000
149566.953,21.973,25.879,33.691,19.531,22.461,0.000,0.000,0.000
149566.957,23.438,25.879,30.762,19.531,25.879,0.000,0.000,0.000
149566.961,25.879,35.156,24.902,21.484,31.738,0.000,0.000,0.000
149566.964,21.973,34.180,24.902,22.949,26.855,0.000,0.000,0.000
149566.968,17.578,26.855,26.855,20.996,18.555,0.000,0.000,0.000
149566.972,18.066,22.461,27.832,18.555,19.043,0.000,0.000,0.000
149566.976,16.602,20.996,30.762,20.508,14.160,0.000,0.000,0.000
149566.980,11.230,29.297,32.715,21.973,8.789,0.000,0.000,0.000
149566.984,13.184,31.738,29.785,18.066,11.719,0.000,0.000,0.000
149566.988,19.043,25.879,29.297,18.066,9.766,0.000,0.000,0.000
149566.990,16.602,25.879,34.180,20.020,7.324,0.000,0.000,0.000
149566.994,8.789,26.367,32.227,16.602,7.812,0.000,0.000,0.000
149566.998,10.254,28.320,26.855,19.531,13.672,0.000,0.000,0.000
149567.002,15.625,29.297,21.484,23.438,20.508,0.000,0.000,0.000
149567.006,18.555,29.297,21.484,24.414,28.809,0.000,0.000,0.000
149567.010,22.461,30.273,22.461,32.715,41.504,0.000,0.000,0.000
149567.014,19.531,29.297,19.531,34.668,33.691,0.000,0.000,0.000
149567.018,19.043,26.367,25.879,28.809,24.414,0.000,0.000,0.000
149567.022,23.926,25.391,36.133,28.809,32.715,0.000,0.000,0.000
149567.025,22.949,30.273,39.062,31.250,41.016,0.000,0.000,0.000
149567.029,20.508,33.691,41.016,32.715,36.621,0.000,0.000,0.000
149567.033,22.461,33.691,37.109,32.227,28.320,0.000,0.000,0.000
149567.037,24.902,32.715,29.785,31.250,22.949,0.000,0.000,0.000
149567.040,22.461,31.250,20.020,30.762,25.879,0.000,0.000,0.000
149567.044,16.113,25.879,12.695,29.297,25.879,0.000,0.000,0.000
149567.048,14.160,22.461,20.508,28.320,26.367,0.000,0.000,0.000
149567.052,21.484,27.344,27.344,31.250,29.785,0.000,0.000,0.000
149567.056,24.414,28.320,25.879,34.668,24.414,0.000,0.000,0.000
149567.060,21.973,24.902,30.762,33.203,23.438,0.000,0.000,0.000
149567.064,23.438,25.879,35.156,36.621,30.762,0.000,0.000,0.000
149567.068,25.879,32.715,33.203,33.691,33.691,0.000,0.000,0.000
149567.072,30.273,30.762,33.691,30.762,36.133,0.000,0.000,0.000
149567.076,30.762,27.832,29.785,36.621,41.992,0.000,0.000,0.000
149567.079,23.438,24.414,26.855,35.156,39.551,0.000,0.000,0.000
149567.082,26.367,23.438,32.227,36.133,46.875,0.000,0.000,0.000
149567.086,34.668,26.855,35.156,37.598,48.340,0.000,0.000,0.000
149567.090,30.762,24.414,30.762,29.297,34.668,0.000,0.000,0.000
149567.094,28.809,28.320,30.762,30.762,34.668,0.000,0.000,0.000
149567.098,31.250,36.621,31.738,35.645,33.691,0.000,0.000,0.000
149567.102,30.273,34.180,20.508,28.320,39.062,0.000,0.000,0.000
149567.106,31.738,28.809,16.113,24.902,34.668,0.000,0.000,0.000
149567.110,27.344,25.879,24.414,26.367,20.996,0.000,0.000,0.000
149567.113,23.926,28.809,26.367,26.855,22.949,0.000,0.000,0.000
149567.117,26.367,33.203,26.367,25.879,29.785,0.000,0.000,0.000
149567.121,29.297,34.668,30.762,24.414,38.086,0.000,0.000,0.000
149567.125,24.902,29.785,28.809,24.414,35.156,0.000,0.000,0.000
149567.140,20.508,27.832,29.297,22.949,31.250,0.000,0.000,0.000
149567.144,21.484,26.367,33.203,20.996,30.273,0.000,0.000,0.000
149567.148,21.973,23.926,35.645,25.879,25.391,0.000,0.000,0.000
149567.152,20.996,27.832,29.297,26.855,20.020,0.000,0.000,0.000
149567.156,20.020,30.273,18.555,24.902,22.949,0.000,0.000,0.000
149567.160,19.531,25.879,17.090,22.461,23.438,0.000,0.000,0.000
149567.164,20.996,24.414,13.184,19.043,21.973,0.000,0.000,0.000
149567.168,17.578,26.855,20.508,21.484,27.832,0.000,0.000,0.000
149567.172,8.789,27.344,34.180,23.438,28.809,0.000,0.000,0.000
149567.176,13.672,29.785,40.527,22.949,26.367,0.000,0.000,0.000
149567.180,19.531,30.273,40.039,19.043,23.438,0.000,0.000,0.000
149567.183,19.043,26.855,38.086,20.508,18.555,0.000,0.000,0.000
149567.185,17.090,27.344,38.574,23.438,20.020,0.000,0.000,0.000
149567.189,17.578,28.809,35.156,22.461,26.367,0.000,0.000,0.000
149567.192,18.066,28.320,28.320,16.113,22.461,0.000,0.000,0.000
149567.196,15.137,26.367,24.414,7.812,14.160,0.000,0.000,0.000
149567.200,16.602,27.344,22.461,12.207,13.672,0.000,0.000,0.000
149567.204,17.090,30.762,17.090,17.578,22.461,0.000,0.000,0.000
149567.208,18.555,32.715,19.531,16.113,27.344,0.000,0.000,0.000
149567.212,22.461,36.133,25.879,16.113,30.762,0.000,0.000,0.000
149567.216,20.020,32.715,31.738,19.043,35.645,0.000,0.000,0.000
149567.220,20.996,27.344,36.621,24.414,40.527,0.000,0.000,0.000
149567.224,21.973,27.832,32.715,27.832,37.109,0.000,0.000,0.000
149567.228,17.090,27.344,23.926,23.926,24.414,0.000,0.000,0.000
149567.230,18.555,30.762,25.879,23.438,30.762,0.000,0.000,0.000
149567.233,19.531,32.715,23.438,26.855,39.062,0.000,0.000,0.000
149567.237,20.020,34.180,16.113,29.297,38.086,0.000,0.000,0.000
149567.241,27.832,33.203,22.461,28.809,35.156,0.000,0.000,0.000
149567.245,27.832,28.809,29.785,24.902,31.738,0.000,0.000,0.000
149567.249,22.949,31.738,28.320,26.855,30.762,0.000,0.000,0.000
149567.253,22.461,33.691,30.762,29.785,33.691,0.000,0.000,0.000
149567.257,23.438,31.250,34.668,24.414,27.832,0.000,0.000,0.000
149567.261,22.949,30.762,37.598,18.066,23.926,0.000,0.000,0.000
149567.265,20.508,36.133,40.527,20.020,32.715,0.000,0.000,0.000
149567.269,19.531,41.992,36.621,23.438,31.738,0.000,0.000,0.000
149567.272,18.066,40.527,27.344,17.090,29.297,0.000,0.000,0.000
149567.275,20.020,34.668,25.879,13.672,31.738,0.000,0.000,0.000
149567.278,21.973,31.738,23.926,20.020,32.227,0.000,0.000,0.000
149567.282,20.508,32.715,19.043,22.461,31.738,0.000,0.000,0.000
149567.286,26.855,33.203,26.367,26.855,39.551,0.000,0.000,0.000
149567.290,33.203,33.691,33.203,31.250,45.898,0.000,0.000,0.000
149567.294,31.250,36.133,32.715,27.832,39.551,0.000,0.000,0.000
149567.298,28.809,38.574,31.738,28.809,40.039,0.000,0.000,0.000
149567.302,28.320,37.598,32.715,30.273,48.340,0.000,0.000,0.000
149567.306,29.297,40.527,29.297,21.973,46.875,0.000,0.000,0.000
149567.310,30.762,42.480,25.391,18.066,35.156,0.000,0.000,0.000
149567.314,25.391,35.156,25.879,17.578,32.715,0.000,0.000,0.000
149567.317,22.949,27.832,23.438,18.066,33.691,0.000,0.000,0.000
149567.321,27.832,29.297,26.855,20.996,37.598,0.000,0.000,0.000
149567.325,26.367,29.297,27.344,18.555,38.574,0.000,0.000,0.000
149567.329,20.996,26.367,20.508,18.555,30.762,0.000,0.000,0.000
149567.333,20.508,26.367,18.555,21.973,29.297,0.000,0.000,0.000
149567.336,20.020,24.902,24.902,20.020,25.391,0.000,0.000,0.000
149567.340,22.461,28.809,31.250,16.602,20.996,0.000,0.000,0.000
149567.344,26.367,39.062,29.297,19.043,20.996,0.000,0.000,0.000
149567.348,22.461,35.645,30.762,22.461,29.297,0.000,0.000,0.000
149567.352,21.973,30.273,31.250,24.414,33.203,0.000,0.000,0.000
149567.356,27.344,30.762,25.879,25.879,31.250,0.000,0.000,0.000
149567.360,30.273,30.273,22.949,26.855,35.156,0.000,0.000,0.000
149567.364,23.926,25.879,20.996,22.949,27.832,0.000,0.000,0.000
149567.365,19.043,23.438,21.484,20.996,24.902,0.000,0.000,0.000
149567.369,21.973,27.832,22.949,19.043,29.297,0.000,0.000,0.000
149567.373,20.996,31.738,20.996,16.602,25.391,0.000,0.000,0.000
149567.377,15.625,26.367,19.043,18.555,23.438,0.000,0.000,0.000
149567.380,15.137,23.438,21.973,23.926,26.367,0.000,0.000,0.000
149567.384,18.066,25.879,26.367,23.438,21.973,0.000,0.000,0.000
149567.388,17.090,24.902,24.902,15.137,21.973,0.000,0.000,0.000
149567.392,17.090,23.926,24.902,15.625,33.691,4.000,1.000,45.000
149567.396,21.973,25.879,24.902,21.484,36.621,0.000,0.000,0.000
149567.400,28.320,32.715,24.414,23.438,31.738,0.000,0.000,0.000
149567.404,30.762,35.156,25.879,25.391,34.668,0.000,0.000,0.000
149567.408,28.320,32.715,28.320,29.297,39.551,0.000,0.000,0.000
149567.410,25.391,29.297,29.297,31.738,32.227,0.000,0.000,0.000
149567.414,23.926,23.438,27.344,30.273,29.785,0.000,0.000,0.000
149567.418,25.879,19.531,28.320,26.367,33.691,0.000,0.000,0.000
149567.421,24.902,22.949,28.809,27.832,30.762,0.000,0.000,0.000
149567.425,19.531,22.949,25.391,30.762,30.762,0.000,0.000,0.000
149567.429,19.043,25.879,25.879,29.297,30.762,0.000,0.000,0.000
149567.433,23.438,28.809,25.879,25.879,40.527,0.000,0.000,0.000
149567.437,24.902,24.414,28.320,23.926,40.527,0.000,0.000,0.000
149567.441,22.949,26.367,29.785,26.367,36.133,0.000,0.000,0.000
149567.445,20.996,28.809,23.926,27.832,38.086,0.000,0.000,0.000
149567.449,20.996,25.391,21.484,22.949,32.715,0.000,0.000,0.000
149567.453,28.320,24.902,28.320,21.973,31.250,0.000,0.000,0.000
149567.457,29.297,29.785,32.227,23.438,34.668,0.000,0.000,0.000
149567.461,21.973,28.320,24.902,21.484,30.762,0.000,0.000,0.000
149567.465,22.949,26.367,21.484,21.484,33.203,0.000,0.000,0.000
149567.469,26.855,28.809,26.367,20.508,32.227,0.000,0.000,0.000
149567.473,27.832,26.855,26.367,21.484,31.250,0.000,0.000,0.000
149567.477,28.320,26.855,26.367,23.926,37.598,0.000,0.000,0.000
149567.481,28.809,31.738,29.785,25.391,27.344,0.000,0.000,0.000
149567.485,33.691,35.645,29.297,29.297,25.879,0.000,0.000,0.000
149567.488,34.668,33.203,26.855,29.297,27.344,0.000,0.000,0.000
149567.492,24.414,29.785,25.391,24.902,20.020,0.000,0.000,0.000
149567.496,21.484,30.762,29.297,26.367,29.785,0.000,0.000,0.000
149567.500,25.879,28.320,30.273,28.320,38.574,0.000,0.000,0.000
149567.515,27.344,28.320,25.391,22.949,42.480,0.000,0.000,0.000
149567.519,23.438,31.250,20.996,26.367,45.410,0.000,0.000,0.000
149567.523,19.531,32.227,20.508,31.250,44.922,0.000,0.000,0.000
149567.527,21.973,32.227,26.855,26.367,44.922,0.000,0.000,0.000
149567.530,25.391,31.738,32.227,25.391,41.992,0.000,0.000,0.000
149567.534,27.344,32.227,30.273,28.809,40.039,0.000,0.000,0.000
149567.538,21.973,32.715,26.367,26.367,32.227,0.000,0.000,0.000
149567.542,21.973,32.227,24.902,23.926,22.461,0.000,0.000,0.000
149567.546,27.344,30.273,25.391,26.855,29.297,0.000,0.000,0.000
149567.550,26.855,24.902,29.297,26.367,41.016,0.000,0.000,0.000
149567.554,25.879,23.438,31.738,26.367,42.480,0.000,0.000,0.000
149567.558,29.785,29.297,31.250,29.297,51.270,0.000,0.000,0.000
149567.562,35.156,33.691,30.762,30.273,60.059,0.000,0.000,0.000
149567.566,33.691,33.691,33.203,29.785,53.223,0.000,0.000,0.000
149567.570,26.367,32.227,34.180,26.855,43.945,0.000,0.000,0.000
149567.574,18.555,30.762,35.156,24.902,39.062,0.000,0.000,0.000
149567.578,15.625,31.250,38.574,21.484,34.668,0.000,0.000,0.000
149567.581,16.113,35.156,37.109,17.578,27.832,0.000,0.000,0.000
149567.585,12.695,34.668,32.227,18.066,16.113,0.000,0.000,0.000
149567.589,10.254,29.785,29.785,19.531,7.812,0.000,0.000,0.000
149567.593,12.207,30.273,30.273,17.578,13.672,0.000,0.000,0.000
149567.597,18.066,30.273,23.926,17.090,20.996,0.000,0.000,0.000
149567.601,18.555,33.203,17.090,18.066,18.066,0.000,0.000,0.000
149567.605,17.578,40.039,16.113,20.508,18.555,0.000,0.000,0.000
149567.606,22.461,38.086,23.438,22.461,28.320,0.000,0.000,0.000
149567.610,28.809,31.738,32.227,24.414,32.715,0.000,0.000,0.000
149567.613,31.738,35.645,36.621,26.367,35.156,0.000,0.000,0.000
149567.617,31.250,36.621,37.598,27.832,36.621,0.000,0.000,0.000
149567.621,29.785,31.250,36.621,26.855,33.203,0.000,0.000,0.000
149567.625,28.809,30.762,35.645,22.461,30.273,0.000,0.000,0.000
149567.629,30.273,32.227,33.691,22.461,34.668,0.000,0.000,0.000
149567.633,31.250,35.156,24.902,28.320,32.715,0.000,0.000,0.000
149567.637,26.367,36.133,19.043,27.832,24.414,0.000,0.000,0.000
149567.641,24.414,35.156,25.391,23.926,25.391,0.000,0.000,0.000
149567.645,27.832,36.621,33.203,25.391,29.785,0.000,0.000,0.000
149567.649,27.832,33.203,34.180,28.809,32.715,0.000,0.000,0.000
149567.650,23.926,27.344,30.273,26.367,31.738,0.000,0.000,0.000
149567.654,24.902,29.785,30.762,22.461,33.203,0.000,0.000,0.000
149567.658,26.367,32.715,32.715,21.484,34.668,0.000,0.000,0.000
149567.662,23.438,31.738,33.203,19.531,33.691,0.000,0.000,0.000
149567.666,20.508,32.715,33.203,20.020,36.621,0.000,0.000,0.000
149567.670,20.996,35.156,31.250,20.508,38.574,0.000,0.000,0.000
149567.674,22.949,30.762,26.367,19.043,25.391,0.000,0.000,0.000
149567.678,23.926,34.180,20.020,18.066,14.648,0.000,0.000,0.000
149567.681,22.949,41.992,26.367,22.461,17.090,0.000,0.000,0.000
149567.685,16.602,32.715,28.320,21.973,17.578,0.000,0.000,0.000
149567.689,14.160,23.926,16.602,15.137,16.602,0.000,0.000,0.000
149567.693,11.230,23.438,19.043,11.230,16.602,0.000,0.000,0.000
149567.695,11.230,25.391,30.762,16.113,24.414,0.000,0.000,0.000
149567.699,11.230,25.879,35.645,21.973,29.297,0.000,0.000,0.000
149567.703,13.184,26.367,35.645,18.066,23.438,0.000,0.000,0.000
149567.707,19.043,31.738,34.180,14.160,20.996,0.000,0.000,0.000
149567.711,19.531,37.598,31.738,14.160,17.578,0.000,0.000,0.000
149567.715,16.602,31.250,27.344,15.625,18.555,0.000,0.000,0.000
149567.719,18.066,28.320,27.832,18.066,24.414,0.000,0.000,0.000
149567.722,20.508,33.203,32.715,17.090,24.902,0.000,0.000,0.000
149567.726,17.090,31.738,34.180,17.090,23.926,0.000,0.000,0.000
149567.730,13.184,25.879,36.133,22.949,27.832,0.000,0.000,0.000
149567.734,14.648,26.855,38.574,23.926,30.273,0.000,0.000,0.000
149567.738,17.578,33.691,36.133,20.508,27.832,0.000,0.000,0.000
149567.740,18.555,36.133,32.227,20.996,23.438,0.000,0.000,0.000
149567.744,17.090,30.762,31.250,23.438,20.020,0.000,0.000,0.000
149567.748,13.184,26.855,34.668,24.414,19.531,0.000,0.000,0.000
149567.751,13.672,27.832,37.109,20.996,19.531,0.000,0.000,0.000
149567.755,15.625,28.320,33.203,20.020,22.949,0.000,0.000,0.000
149567.759,19.043,30.273,30.273,24.414,23.438,0.000,0.000,0.000
149567.763,17.578,33.203,32.715,26.367,19.043,0.000,0.000,0.000
149567.767,16.602,32.715,30.273,20.020,17.578,0.000,0.000,0.000
149567.771,16.602,23.926,30.273,16.602,10.742,0.000,0.000,0.000
149567.775,20.996,27.344,35.156,23.438,18.555,0.000,0.000,0.000
149567.779,24.902,37.109,30.273,27.344,28.809,0.000,0.000,0.000
149567.783,21.484,32.227,25.879,21.484,25.391,0.000,0.000,0.000
149567.787,23.926,26.855,27.344,16.602,26.367,0.000,0.000,0.000
149567.791,26.855,27.832,27.832,19.531,31.738,0.000,0.000,0.000
149567.795,26.367,30.762,30.762,21.484,29.785,0.000,0.000,0.000
149567.799,27.344,32.227,39.062,21.484,32.227,0.000,0.000,0.000
149567.803,28.809,31.250,41.992,20.508,37.109,0.000,0.000,0.000
149567.807,30.762,32.715,39.551,22.949,37.598,0.000,0.000,0.000
149567.811,28.320,34.668,36.133,28.809,39.062,0.000,0.000,0.000
149567.815,27.344,34.668,35.645,30.273,41.992,0.000,0.000,0.000
149567.818,25.391,33.691,39.062,26.367,41.992,0.000,0.000,0.000
149567.822,24.902,31.738,39.551,25.391,37.598,0.000,0.000,0.000
149567.826,28.809,32.227,38.086,30.762,40.527,0.000,0.000,0.000
149567.830,25.879,33.691,32.227,29.785,37.598,0.000,0.000,0.000
149567.845,21.973,32.227,32.227,24.902,28.320,0.000,0.000,0.000
149567.849,25.391,30.762,31.738,29.297,35.156,0.000,0.000,0.000
149567.853,22.949,35.645,21.484,32.715,33.691,0.000,0.000,0.000
149567.857,20.996,37.598,24.414,32.227,26.855,0.000,0.000,0.000
149567.861,24.414,34.668,33.691,30.273,35.156,0.000,0.000,0.000
149567.865,25.879,32.715,36.621,28.809,34.668,0.000,0.000,0.000
149567.869,23.926,29.785,39.062,31.250,24.902,0.000,0.000,0.000
149567.873,21.484,29.785,41.016,32.227,24.414,0.000,0.000,0.000
149567.877,20.996,30.762,39.551,29.297,26.855,0.000,0.000,0.000
149567.880,23.926,31.738,32.715,27.344,28.809,0.000,0.000,0.000
149567.884,26.855,29.785,28.809,24.414,26.367,0.000,0.000,0.000
149567.888,19.531,27.832,27.344,21.973,21.973,0.000,0.000,0.000
149567.890,15.137,29.785,27.344,26.367,24.902,0.000,0.000,0.000
149567.894,21.484,29.785,28.320,28.320,30.273,0.000,0.000,0.000
149567.898,23.438,28.809,28.320,22.461,27.344,0.000,0.000,0.000
149567.902,23.926,30.762,34.180,23.926,23.926,0.000,0.000,0.000
149567.906,27.344,31.250,40.039,30.762,26.367,0.000,0.000,0.000
149567.910,27.832,32.715,41.992,28.809,26.367,0.000,0.000,0.000
149567.914,29.297,33.203,39.551,24.902,24.414,0.000,0.000,0.000
149567.918,29.297,33.203,33.203,22.949,21.484,0.000,0.000,0.000
149567.922,23.926,34.180,34.668,23.926,22.461,0.000,0.000,0.000
149567.925,19.531,36.133,35.156,24.414,23.926,0.000,0.000,0.000
149567.929,19.043,38.086,31.738,21.484,32.715,0.000,0.000,0.000
149567.933,20.508,31.250,33.203,22.461,34.668,0.000,0.000,0.000
149567.935,21.484,27.344,31.250,26.367,25.879,0.000,0.000,0.000
149567.939,23.926,34.180,29.297,26.855,24.414,0.000,0.000,0.000
149567.943,27.344,34.180,30.762,23.926,20.996,0.000,0.000,0.000
149567.947,29.785,33.203,32.715,20.996,19.043,0.000,0.000,0.000
149567.951,33.691,37.598,31.738,25.879,20.020,0.000,0.000,0.000
149567.955,28.809,37.598,27.344,26.367,18.555,0.000,0.000,0.000
149567.959,23.926,34.668,29.785,21.973,20.020,0.000,0.000,0.000
149567.963,25.391,32.227,34.180,20.020,20.996,0.000,0.000,0.000
149567.967,22.949,29.297,27.344,21.973,22.461,0.000,0.000,0.000
149567.971,20.996,23.926,19.043,25.879,26.367,0.000,0.000,0.000
149567.975,21.973,19.531,25.391,26.855,31.250,0.000,0.000,0.000
149567.978,25.879,24.902,33.691,26.367,36.133,0.000,0.000,0.000
149567.981,30.762,31.738,33.203,28.320,31.738,0.000,0.000,0.000
149567.984,31.738,37.109,34.668,29.785,27.344,0.000,0.000,0.000
149567.988,30.273,39.551,36.133,29.297,27.832,0.000,0.000,0.000
149567.992,34.180,39.551,31.738,27.832,33.691,0.000,0.000,0.000
149567.996,36.133,41.016,25.879,24.414,40.039,0.000,0.000,0.000
149568.000,33.691,36.621,28.809,23.926,37.109,0.000,0.000,0.000
149568.004,29.297,31.738,32.227,21.973,33.691,0.000,0.000,0.000
149568.008,28.809,31.738,29.785,18.555,39.062,0.000,0.000,0.000
149568.012,32.715,31.738,24.414,16.602,40.527,0.000,0.000,0.000
149568.016,26.855,31.250,21.484,15.625,36.133,0.000,0.000,0.000
149568.020,20.508,33.203,20.996,15.137,33.691,0.000,0.000,0.000
149568.023,26.367,37.109,21.484,17.090,35.645,0.000,0.000,0.000
149568.027,29.785,35.156,22.461,16.113,36.621,0.000,0.000,0.000
149568.031,23.926,28.809,19.531,13.184,31.738,0.000,0.000,0.000
149568.035,19.043,30.273,21.484,17.090,28.809,0.000,0.000,0.000
149568.039,12.695,29.297,24.902,14.648,24.902,0.000,0.000,0.000
149568.043,12.207,27.344,24.414,9.766,20.508,0.000,0.000,0.000
149568.047,13.184,28.320,25.879,9.277,20.020,0.000,0.000,0.000
149568.051,6.836,28.809,25.391,9.277,20.996,0.000,0.000,0.000
149568.055,4.883,30.273,23.926,7.324,20.020,0.000,0.000,0.000
149568.058,7.812,27.832,18.555,3.418,21.973,0.000,0.000,0.000
149568.062,8.301,25.879,10.742,4.395,20.996,0.000,0.000,0.000
149568.066,6.836,26.855,14.160,6.348,16.113,0.000,0.000,0.000
149568.070,8.789,31.738,21.973,10.254,21.484,0.000,0.000,0.000
149568.070,15.137,32.227,16.113,13.184,30.273,0.000,0.000,0.000
149568.074,21.484,28.320,4.395,12.207,37.109,0.000,0.000,0.000
149568.078,21.973,29.785,12.695,16.602,40.039,0.000,0.000,0.000
149568.082,20.996,31.738,30.762,19.043,27.344,0.000,0.000,0.000
149568.086,20.996,29.297,34.180,16.113,25.391,0.000,0.000,0.000
149568.090,20.996,27.832,26.367,14.160,30.762,0.000,0.000,0.000
149568.094,19.531,25.391,23.926,12.695,20.996,0.000,0.000,0.000
149568.098,16.113,27.832,22.461,12.695,19.531,0.000,0.000,0.000
149568.102,16.602,28.809,20.020,13.184,24.902,0.000,0.000,0.000
149568.106,16.602,26.367,22.949,13.184,25.879,0.000,0.000,0.000
149568.109,15.137,25.391,26.855,12.207,25.879,0.000,0.000,0.000
149568.113,11.719,27.344,29.297,12.695,22.949,0.000,0.000,0.000
149568.115,10.254,29.297,25.879,14.160,24.902,0.000,0.000,0.000
149568.119,16.602,28.809,23.926,18.066,22.949,0.000,0.000,0.000
149568.123,16.113,28.809,21.973,21.484,23.926,0.000,0.000,0.000
149568.127,16.113,25.391,22.949,21.973,26.855,0.000,0.000,0.000
149568.131,19.531,28.809,27.344,22.949,31.738,0.000,0.000,0.000
149568.135,22.949,37.109,22.949,24.902,35.645,0.000,0.000,0.000
149568.139,28.320,33.691,25.879,26.855,38.086,0.000,0.000,0.000
149568.143,27.832,32.227,31.250,28.809,43.945,0.000,0.000,0.000
149568.147,21.973,34.180,31.250,30.762,42.969,0.000,0.000,0.000
149568.151,19.043,31.250,31.738,27.344,36.133,0.000,0.000,0.000
149568.154,18.555,30.762,32.227,21.484,30.273,0.000,0.000,0.000
149568.158,16.602,29.297,32.227,18.066,32.227,0.000,0.000,0.000
149568.160,13.184,25.391,29.297,23.438,40.039,0.000,0.000,0.000
149568.164,11.230,24.414,28.320,24.902,31.250,0.000,0.000,0.000
149568.168,15.137,25.879,31.738,21.973,24.414,0.000,0.000,0.000
149568.172,11.719,28.320,29.785,20.508,29.785,0.000,0.000,0.000
149568.176,7.324,27.832,25.879,19.531,23.438,0.000,0.000,0.000
149568.180,11.230,26.367,28.809,21.973,10.742,0.000,0.000,0.000
149568.184,15.625,27.832,28.809,21.484,13.184,0.000,0.000,0.000
149568.188,16.113,26.855,18.066,19.043,16.602,0.000,0.000,0.000
149568.192,11.719,27.344,7.324,20.996,17.090,0.000,0.000,0.000
149568.196,9.277,29.785,17.090,22.461,20.996,0.000,0.000,0.000
149568.199,10.742,31.250,32.715,18.066,18.066,0.000,0.000,0.000
149568.203,11.230,28.320,37.598,14.648,10.742,0.000,0.000,0.000
149568.207,13.184,25.391,38.086,16.113,7.812,0.000,0.000,0.000
149568.211,13.672,27.344,39.062,19.043,12.207,0.000,0.000,0.000
149568.215,13.184,29.785,37.598,16.113,16.602,0.000,0.000,0.000
149568.219,18.555,33.691,32.227,13.672,23.926,0.000,0.000,0.000
149568.223,21.973,37.109,23.926,13.184,26.855,0.000,0.000,0.000
149568.227,18.066,30.762,20.508,13.672,19.531,0.000,0.000,0.000
149568.231,19.531,26.855,21.484,15.625,20.508,0.000,0.000,0.000
149568.235,19.043,27.344,23.926,12.207,15.137,0.000,0.000,0.000
149568.239,16.602,33.203,24.902,13.672,10.254,0.000,0.000,0.000
149568.242,17.578,37.598,23.926,19.043,15.625,0.000,0.000,0.000
149568.246,15.137,32.227,26.367,20.020,15.625,0.000,0.000,0.000
149568.250,18.066,26.367,29.785,20.996,19.043,0.000,0.000,0.000
149568.267,22.461,27.344,27.344,20.508,21.973,0.000,0.000,0.000
149568.271,20.020,29.297,22.949,21.973,26.367,0.000,0.000,0.000
149568.275,18.066,25.879,19.531,21.484,31.738,0.000,0.000,0.000
149568.279,18.066,25.879,18.066,17.578,26.855,0.000,0.000,0.000
149568.283,17.090,28.809,18.555,15.137,21.484,0.000,0.000,0.000
149568.287,21.484,35.645,22.949,17.578,26.855,0.000,0.000,0.000
149568.291,22.949,41.504,29.297,24.414,33.203,0.000,0.000,0.000
149568.295,21.484,34.180,32.227,25.391,26.855,0.000,0.000,0.000
149568.298,26.855,28.320,36.133,24.414,26.367,0.000,0.000,0.000
149568.302,24.414,30.273,35.645,24.414,29.785,0.000,0.000,0.000
149568.306,17.090,24.414,28.809,25.879,22.949,0.000,0.000,0.000
149568.310,19.043,24.414,31.250,29.785,22.461,0.000,0.000,0.000
149568.310,22.949,28.320,32.227,24.902,22.949,0.000,0.000,0.000
149568.314,22.949,30.273,19.531,18.555,21.973,0.000,0.000,0.000
149568.318,20.996,33.691,14.648,19.043,20.020,0.000,0.000,0.000
149568.322,24.414,33.691,21.973,24.414,28.320,0.000,0.000,0.000
149568.326,28.320,33.203,32.715,24.902,36.133,0.000,0.000,0.000
149568.330,31.738,31.738,40.039,27.344,33.203,0.000,0.000,0.000
149568.334,33.203,28.320,42.480,34.668,36.621,0.000,0.000,0.000
149568.338,29.297,31.250,39.062,37.598,35.645,0.000,0.000,0.000
149568.342,29.297,29.297,34.668,38.086,34.668,0.000,0.000,0.000
149568.346,30.273,27.832,34.180,38.086,40.527,0.000,0.000,0.000
149568.350,27.344,29.785,32.227,37.109,37.598,0.000,0.000,0.000
149568.353,22.949,26.855,30.762,36.621,32.227,0.000,0.000,0.000
149568.355,21.484,30.762,33.691,35.645,35.156,0.000,0.000,0.000
149568.359,23.438,34.668,29.297,28.809,33.691,0.000,0.000,0.000
149568.363,21.973,31.738,23.926,24.414,24.414,0.000,0.000,0.000
149568.367,16.602,28.809,29.785,26.855,19.531,0.000,0.000,0.000
149568.371,13.672,29.297,37.109,24.414,18.555,0.000,0.000,0.000
149568.375,21.484,31.738,37.109,22.949,20.996,0.000,0.000,0.000
149568.379,23.926,30.762,36.621,26.367,27.832,0.000,0.000,0.000
149568.383,18.555,30.762,36.621,27.344,31.738,0.000,0.000,0.000
149568.387,19.043,30.762,32.715,31.738,34.180,0.000,0.000,0.000
149568.390,25.391,30.273,30.273,34.668,33.203,0.000,0.000,0.000
149568.394,26.367,29.297,30.273,33.691,30.762,0.000,0.000,0.000
149568.398,25.391,31.738,28.320,37.109,42.969,0.000,0.000,0.000
149568.401,22.949,34.180,25.879,35.156,43.945,0.000,0.000,0.000
149568.404,19.531,29.297,35.156,25.879,18.555,0.000,0.000,0.000
149568.408,25.391,26.855,40.527,26.367,14.648,0.000,0.000,0.000
149568.412,23.438,29.297,32.227,24.902,16.602,0.000,0.000,0.000
149568.416,15.625,32.715,25.391,19.531,10.742,0.000,0.000,0.000
149568.420,14.160,32.715,22.949,17.090,15.625,0.000,0.000,0.000
149568.424,14.648,27.832,22.949,11.230,16.113,0.000,0.000,0.000
149568.428,15.625,24.902,25.391,10.742,13.672,0.000,0.000,0.000
149568.432,13.672,28.320,26.367,15.137,22.461,0.000,0.000,0.000
149568.436,18.555,32.715,25.391,16.602,26.367,0.000,0.000,0.000
149568.440,23.438,31.738,24.902,16.113,26.855,0.000,0.000,0.000
149568.443,20.996,28.320,19.531,12.207,27.832,0.000,0.000,0.000
149568.446,22.949,31.250,16.602,15.137,27.344,0.000,0.000,0.000
149568.449,22.949,35.156,23.438,19.043,24.414,0.000,0.000,0.000
149568.453,20.996,32.715,25.879,14.160,21.484,0.000,0.000,0.000
149568.457,20.508,32.715,24.902,11.719,21.484,0.000,0.000,0.000
149568.461,19.043,35.156,26.367,12.695,17.090,0.000,0.000,0.000
149568.465,16.602,34.180,24.414,11.719,15.137,0.000,0.000,0.000
149568.469,16.602,35.156,25.879,9.277,14.648,0.000,0.000,0.000
149568.473,18.555,36.621,28.809,5.859,15.137,0.000,0.000,0.000
149568.477,15.625,37.109,23.926,2.441,14.648,0.000,0.000,0.000
149568.481,12.695,31.738,22.461,6.836,11.719,0.000,0.000,0.000
149568.485,14.648,27.832,23.926,10.254,13.184,0.000,0.000,0.000
149568.489,17.090,29.297,21.484,9.277,16.113,0.000,0.000,0.000
149568.492,19.043,29.785,21.484,12.695,16.602,0.000,0.000,0.000
149568.496,14.648,28.809,24.902,17.578,20.020,0.000,0.000,0.000
149568.500,7.812,29.297,25.879,16.602,17.578,0.000,0.000,0.000
149568.504,7.812,25.879,28.809,10.742,16.602,0.000,0.000,0.000
149568.508,12.207,21.484,32.227,10.742,14.648,0.000,0.000,0.000
149568.512,10.254,25.391,30.762,13.672,12.695,0.000,0.000,0.000
149568.516,7.812,25.879,28.320,16.602,20.508,0.000,0.000,0.000
149568.520,10.742,21.973,26.367,14.160,28.320,0.000,0.000,0.000
149568.524,14.160,17.578,24.414,11.230,23.438,0.000,0.000,0.000
149568.527,14.160,15.625,24.414,14.160,14.648,0.000,0.000,0.000
149568.531,13.184,19.531,26.367,16.602,18.555,0.000,0.000,0.000
149568.535,12.207,21.973,25.391,12.207,15.625,0.000,0.000,0.000
149568.535,10.254,21.973,22.949,6.836,7.812,0.000,0.000,0.000
149568.538,15.625,23.926,30.273,10.742,15.137,0.000,0.000,0.000
149568.542,15.137,29.297,35.156,13.672,21.484,0.000,0.000,0.000
149568.546,10.742,28.320,32.227,11.719,20.020,0.000,0.000,0.000
149568.550,16.602,23.438,30.762,10.742,22.949,0.000,0.000,0.000
149568.554,20.508,26.855,29.785,14.160,20.996,0.000,0.000,0.000
149568.558,19.043,29.297,27.344,18.066,27.832,0.000,0.000,0.000
149568.562,20.020,28.809,27.344,20.020,37.598,0.000,0.000,0.000
149568.566,22.461,32.715,29.297,20.508,37.109,0.000,0.000,0.000
149568.570,24.414,32.715,26.855,21.484,39.551,0.000,0.000,0.000
149568.574,25.391,31.250,27.344,26.855,43.457,0.000,0.000,0.000
149568.578,22.461,34.668,30.762,29.785,47.852,0.000,0.000,0.000
149568.594,21.973,29.785,28.320,28.320,47.363,0.000,0.000,0.000
149568.598,25.879,30.273,30.273,26.367,45.410,0.000,0.000,0.000
149568.602,27.832,32.715,36.133,27.832,51.270,0.000,0.000,0.000
149568.606,24.902,31.250,33.203,28.809,46.387,0.000,0.000,0.000
149568.610,24.414,31.738,27.832,23.926,31.250,0.000,0.000,0.000
149568.614,25.391,29.785,29.297,21.484,32.715,0.000,0.000,0.000
149568.618,25.391,34.668,36.133,25.391,38.086,0.000,0.000,0.000
149568.622,27.832,42.969,37.598,31.250,36.133,0.000,0.000,0.000
149568.626,25.879,39.551,33.691,29.297,34.180,0.000,0.000,0.000
149568.630,25.879,34.180,31.250,21.484,32.715,0.000,0.000,0.000
149568.634,26.855,34.180,33.691,20.020,27.344,0.000,0.000,0.000
149568.637,25.391,36.133,38.574,25.391,29.785,0.000,0.000,0.000
149568.639,20.996,38.574,39.551,28.809,28.320,0.000,0.000,0.000
149568.643,20.020,39.551,33.691,23.926,27.344,0.000,0.000,0.000
149568.647,23.926,36.621,31.738,24.902,36.133,0.000,0.000,0.000
149568.651,24.414,39.551,32.715,28.809,40.039,0.000,0.000,0.000
149568.655,23.926,41.992,34.180,25.879,34.180,0.000,0.000,0.000
149568.659,25.879,37.109,36.133,22.949,35.645,0.000,0.000,0.000
149568.663,30.273,36.621,33.203,21.484,41.504,0.000,0.000,0.000
149568.667,33.691,37.109,29.297,21.973,41.992,0.000,0.000,0.000
149568.671,34.180,37.598,30.762,27.344,43.457,0.000,0.000,0.000
149568.675,33.203,37.109,33.691,28.809,43.945,0.000,0.000,0.000
149568.679,32.715,35.156,35.645,24.414,43.945,0.000,0.000,0.000
149568.682,34.180,37.109,33.691,27.344,42.480,0.000,0.000,0.000
149568.684,35.156,36.133,37.109,35.156,43.457,0.000,0.000,0.000
149568.688,34.668,39.062,40.527,37.109,43.945,0.000,0.000,0.000
149568.692,39.062,41.992,35.156,36.133,45.410,0.000,0.000,0.000
149568.696,41.992,33.691,29.297,35.156,45.898,0.000,0.000,0.000
149568.700,35.645,34.668,29.785,36.133,43.945,0.000,0.000,0.000
149568.704,33.203,37.598,33.203,38.086,41.992,0.000,0.000,0.000
149568.708,37.598,38.574,32.227,38.086,39.551,0.000,0.000,0.000
149568.712,36.133,38.574,34.180,36.621,36.133,0.000,0.000,0.000
149568.716,26.855,35.645,38.086,30.762,23.438,0.000,0.000,0.000
149568.720,20.020,40.527,35.156,28.320,17.090,0.000,0.000,0.000
149568.724,16.113,39.062,33.203,27.832,24.414,0.000,0.000,0.000
149568.727,13.672,26.367,31.738,23.926,26.855,0.000,0.000,0.000
149568.731,12.207,23.926,30.273,22.461,22.949,0.000,0.000,0.000
149568.735,15.137,23.926,28.809,25.391,25.391,2.000,1.000,0.000
149568.739,17.090,22.461,27.832,24.414,28.320,0.000,0.000,0.000
149568.743,17.578,23.926,28.809,20.020,23.438,0.000,0.000,0.000
149568.747,19.531,24.902,34.668,19.043,19.531,0.000,0.000,0.000
149568.750,23.926,32.227,39.062,25.879,26.367,0.000,0.000,0.000
149568.754,24.902,38.574,33.203,31.250,30.273,0.000,0.000,0.000
149568.758,27.344,33.691,26.855,30.273,34.180,0.000,0.000,0.000
149568.762,32.715,27.832,28.320,30.762,32.227,0.000,0.000,0.000
149568.766,28.809,27.344,31.738,29.785,25.879,0.000,0.000,0.000
149568.770,26.367,30.762,32.715,27.832,21.484,0.000,0.000,0.000
149568.774,29.297,28.809,34.180,27.344,28.320,0.000,0.000,0.000
149568.776,28.809,32.227,34.180,24.414,33.203,0.000,0.000,0.000
149568.780,24.902,39.551,35.156,20.996,26.367,0.000,0.000,0.000
149568.783,20.508,33.691,31.738,21.973,28.320,0.000,0.000,0.000
149568.787,23.926,34.668,29.297,24.414,27.344,0.000,0.000,0.000
149568.791,29.297,41.016,34.180,25.391,27.344,0.000,0.000,0.000
149568.795,29.297,38.086,36.133,26.367,28.320,0.000,0.000,0.000
149568.799,28.809,34.668,34.180,31.738,25.391,0.000,0.000,0.000
149568.803,30.273,31.250,31.738,32.227,22.949,0.000,0.000,0.000
149568.807,31.250,28.809,33.203,25.391,20.508,0.000,0.000,0.000
149568.811,25.879,26.855,34.668,22.949,20.020,0.000,0.000,0.000
149568.815,24.414,28.320,33.691,26.367,16.602,0.000,0.000,0.000
149568.819,23.926,31.738,36.133,25.879,9.277,0.000,0.000,0.000
149568.820,22.949,33.203,39.062,24.414,17.090,0.000,0.000,0.000
149568.824,25.391,31.250,36.621,26.367,29.785,0.000,0.000,0.000
149568.828,23.926,30.762,31.738,24.414,28.809,0.000,0.000,0.000
149568.832,22.461,32.227,28.809,25.391,35.645,0.000,0.000,0.000
149568.836,32.715,34.180,30.273,27.344,39.062,0.000,0.000,0.000
149568.840,38.086,37.598,29.785,25.879,31.250,0.000,0.000,0.000
149568.844,37.598,37.109,28.320,27.832,25.391,0.000,0.000,0.000
149568.848,36.133,32.715,29.785,28.809,14.160,0.000,0.000,0.000
149568.852,34.180,35.645,28.809,26.855,6.836,0.000,0.000,0.000
149568.856,40.527,37.598,32.715,32.715,23.438,0.000,0.000,0.000
149568.859,40.527,31.250,39.062,38.086,45.898,0.000,0.000,0.000
149568.863,31.250,29.297,34.668,37.109,52.734,0.000,0.000,0.000
149568.865,28.320,29.785,32.715,36.133,55.176,0.000,0.000,0.000
149568.869,26.367,26.855,34.180,28.320,55.176,0.000,0.000,0.000
149568.873,22.949,25.879,33.691,23.926,41.504,0.000,0.000,0.000
149568.877,20.996,32.715,33.691,30.273,38.574,0.000,0.000,0.000
149568.881,20.508,37.109,34.180,29.785,51.270,0.000,0.000,0.000
149568.885,19.531,36.621,35.645,22.461,41.016,0.000,0.000,0.000
149568.889,16.602,33.203,32.715,20.996,28.320,0.000,0.000,0.000
149568.893,14.160,26.367,27.832,22.949,33.203,0.000,0.000,0.000
149568.897,15.137,27.832,29.297,25.391,34.668,0.000,0.000,0.000
149568.901,21.484,32.227,30.762,29.297,42.969,0.000,0.000,0.000
149568.905,20.508,28.809,28.809,25.391,41.504,0.000,0.000,0.000
149568.908,17.578,25.879,29.297,21.973,32.227,0.000,0.000,0.000
149568.912,16.113,27.832,33.203,25.391,34.180,0.000,0.000,0.000
149568.916,15.137,35.645,37.109,22.949,33.203,0.000,0.000,0.000
149568.920,20.996,36.621,36.621,21.484,33.203,0.000,0.000,0.000
149568.924,22.461,32.715,35.156,22.949,40.527,0.000,0.000,0.000
149568.928,20.020,34.180,33.691,24.414,36.621,0.000,0.000,0.000
149568.932,18.066,34.668,30.273,23.438,28.320,0.000,0.000,0.000
149568.936,17.090,34.180,29.785,14.160,24.902,0.000,0.000,0.000
149568.939,17.578,28.809,31.250,9.277,22.461,0.000,0.000,0.000
149568.943,19.043,26.855,29.785,12.695,23.926,0.000,0.000,0.000
149568.947,20.508,30.762,29.297,18.066,28.809,0.000,0.000,0.000
149568.951,20.508,27.832,29.785,19.043,35.645,0.000,0.000,0.000
149568.955,28.320,25.391,29.297,20.020,49.805,0.000,0.000,0.000
149568.957,31.738,28.809,36.621,23.926,49.316,0.000,0.000,0.000
149568.961,24.902,31.250,43.945,27.832,35.156,0.000,0.000,0.000
149568.965,26.367,31.250,42.480,30.273,34.668,0.000,0.000,0.000
149568.969,30.762,33.203,37.109,29.785,35.645,0.000,0.000,0.000
149568.973,28.809,36.133,36.133,29.785,34.180,0.000,0.000,0.000
149568.977,27.344,37.598,33.691,33.203,37.109,0.000,0.000,0.000
149568.981,28.809,39.062,24.902,34.668,38.574,0.000,0.000,0.000
149568.985,32.227,35.156,26.367,32.227,39.551,0.000,0.000,0.000
149568.989,27.344,30.762,33.203,27.832,34.180,0.000,0.000,0.000
149568.992,20.508,31.738,32.227,24.902,31.738,0.000,0.000,0.000
149568.996,21.484,33.203,27.344,27.344,35.156,0.000,0.000,0.000
149569.000,21.484,31.250,29.297,25.391,34.180,0.000,0.000,0.000
149569.015,22.461,28.809,28.809,20.020,31.250,0.000,0.000,0.000
149569.019,20.996,31.250,26.367,24.902,30.273,0.000,0.000,0.000
149569.023,16.113,35.645,25.879,29.785,26.855,0.000,0.000,0.000
149569.027,19.043,33.691,25.391,25.391,22.949,0.000,0.000,0.000
149569.031,25.879,29.297,26.367,25.391,25.879,0.000,0.000,0.000
149569.035,24.902,26.367,24.414,26.367,28.809,0.000,0.000,0.000
149569.039,18.555,25.879,24.902,26.367,29.297,0.000,0.000,0.000
149569.043,20.020,29.297,29.297,27.344,33.203,0.000,0.000,0.000
149569.047,23.926,29.785,26.367,24.902,39.062,0.000,0.000,0.000
149569.051,25.391,25.879,20.020,22.949,38.574,0.000,0.000,0.000
149569.054,20.020,25.879,18.555,21.973,35.645,0.000,0.000,0.000
149569.058,17.578,33.691,23.926,21.973,36.621,0.000,0.000,0.000
149569.060,20.508,30.273,24.902,20.996,39.551,0.000,0.000,0.000
149569.064,18.066,20.508,20.996,17.578,33.691,0.000,0.000,0.000
149569.068,15.137,23.438,20.508,17.578,27.832,0.000,0.000,0.000
149569.072,15.625,30.273,23.926,21.973,28.320,0.000,0.000,0.000
149569.076,19.531,33.691,25.391,20.508,27.832,0.000,0.000,0.000
149569.080,22.461,31.250,25.391,17.090,22.461,0.000,0.000,0.000
149569.084,21.484,29.785,24.902,18.555,21.484,0.000,0.000,0.000
149569.087,22.949,33.203,20.020,21.973,30.273,0.000,0.000,0.000
149569.091,21.973,29.785,23.926,22.949,32.715,0.000,0.000,0.000
149569.095,19.531,25.391,31.250,16.602,29.785,0.000,0.000,0.000
149569.099,21.973,24.902,33.203,18.066,31.250,0.000,0.000,0.000
149569.103,21.484,27.832,33.203,22.949,31.738,0.000,0.000,0.000
149569.106,19.531,30.273,31.738,19.531,27.344,0.000,0.000,0.000
149569.109,18.066,29.785,29.785,15.137,23.926,0.000,0.000,0.000
149569.113,19.043,31.250,28.320,14.160,23.438,0.000,0.000,0.000
149569.117,16.113,29.785,28.320,13.672,17.090,0.000,0.000,0.000
149569.121,10.742,26.855,28.809,13.672,13.672,0.000,0.000,0.000
149569.125,15.625,26.855,29.785,17.578,20.508,0.000,0.000,0.000
149569.129,22.949,29.297,30.762,17.578,25.391,0.000,0.000,0.000
149569.133,24.414,33.691,25.879,18.555,28.320,0.000,0.000,0.000
149569.137,22.949,31.738,21.973,20.020,31.738,0.000,0.000,0.000
149569.141,25.391,29.785,16.602,16.113,35.156,0.000,0.000,0.000
149569.145,28.809,34.668,14.648,17.090,31.738,0.000,0.000,0.000
149569.148,26.855,34.180,26.855,25.879,28.320,0.000,0.000,0.000
149569.150,25.879,31.738,36.621,29.297,29.785,0.000,0.000,0.000
149569.154,27.344,35.156,37.598,26.367,31.738,0.000,0.000,0.000
149569.158,27.832,34.668,38.086,23.926,28.809,0.000,0.000,0.000
149569.162,28.809,36.133,35.156,23.926,24.902,0.000,0.000,0.000
149569.166,29.297,37.109,30.273,26.855,26.367,0.000,0.000,0.000
149569.170,26.367,32.715,27.344,26.367,24.414,0.000,0.000,0.000
149569.174,25.879,28.320,24.414,23.926,22.949,0.000,0.000,0.000
149569.178,27.832,29.297,24.902,20.020,18.555,0.000,0.000,0.000
149569.182,24.902,32.715,26.367,20.508,19.043,0.000,0.000,0.000
149569.186,22.949,31.738,23.438,24.902,25.879,0.000,0.000,0.000
149569.190,24.902,27.832,25.879,21.484,23.438,0.000,0.000,0.000
149569.193,25.391,27.344,27.832,21.973,20.508,0.000,0.000,0.000
149569.197,25.391,30.273,31.250,30.762,26.855,0.000,0.000,0.000
149569.201,20.508,28.320,33.691,31.250,22.461,0.000,0.000,0.000
149569.205,16.113,26.367,29.785,26.855,17.578,0.000,0.000,0.000
149569.208,14.648,30.273,28.320,23.438,20.020,0.000,0.000,0.000
149569.212,12.207,33.691,28.320,20.020,20.996,0.000,0.000,0.000
149569.216,13.672,32.715,25.879,22.949,24.414,0.000,0.000,0.000
149569.220,20.020,34.180,26.855,26.855,22.949,0.000,0.000,0.000
149569.224,25.391,34.668,29.785,23.438,22.949,0.000,0.000,0.000
149569.228,27.344,32.715,32.715,20.996,24.414,0.000,0.000,0.000
149569.232,20.996,30.762,32.227,24.414,23.926,0.000,0.000,0.000
149569.236,20.020,29.297,30.273,26.855,30.762,0.000,0.000,0.000
149569.240,20.996,32.715,28.320,24.414,32.715,0.000,0.000,0.000
149569.241,19.531,36.621,27.344,21.973,27.832,0.000,0.000,0.000
149569.244,17.090,38.574,30.273,22.949,25.391,0.000,0.000,0.000
149569.248,16.602,37.109,29.297,24.902,24.902,0.000,0.000,0.000
149569.252,23.438,31.250,27.832,27.344,23.926,0.000,0.000,0.000
149569.256,25.879,27.832,29.785,23.438,21.484,0.000,0.000,0.000
149569.260,22.949,28.320,31.250,22.461,23.438,0.000,0.000,0.000
149569.264,24.414,28.809,32.227,25.391,25.879,0.000,0.000,0.000
149569.268,22.949,27.832,32.715,20.508,18.066,0.000,0.000,0.000
149569.272,23.438,25.391,29.297,18.066,17.090,0.000,0.000,0.000
149569.276,26.855,28.809,29.297,21.973,28.320,0.000,0.000,0.000
149569.280,21.973,35.645,30.762,23.926,29.297,0.000,0.000,0.000
149569.284,21.484,36.133,30.762,25.879,24.902,0.000,0.000,0.000
149569.286,23.926,34.180,31.738,24.414,26.367,0.000,0.000,0.000
149569.289,22.949,32.715,32.227,22.461,21.484,0.000,0.000,0.000
149569.293,22.461,34.180,32.715,27.344,23.438,0.000,0.000,0.000
149569.297,18.555,33.691,33.203,24.414,27.344,0.000,0.000,0.000
149569.301,23.438,34.668,35.645,26.855,36.133,0.000,0.000,0.000
149569.305,31.250,41.016,33.691,29.297,40.039,0.000,0.000,0.000
149569.309,26.367,36.133,32.715,24.902,36.621,0.000,0.000,0.000
149569.313,20.508,27.344,34.668,25.879,41.992,0.000,0.000,0.000
149569.317,18.555,29.785,32.715,23.438,38.574,0.000,0.000,0.000
149569.321,19.531,34.668,29.297,21.484,35.645,0.000,0.000,0.000
149569.325,18.555,29.785,27.832,25.391,30.762,0.000,0.000,0.000
149569.329,15.625,26.367,24.902,25.879,19.043,0.000,0.000,0.000
149569.346,18.555,25.879,25.391,23.438,18.555,0.000,0.000,0.000
149569.350,25.391,27.832,33.691,26.367,25.391,0.000,0.000,0.000
149569.353,24.902,30.762,33.691,23.926,27.344,0.000,0.000,0.000
149569.357,19.531,27.344,25.879,20.508,27.344,0.000,0.000,0.000
149569.361,23.926,29.297,25.391,25.391,31.738,0.000,0.000,0.000
149569.365,32.227,34.180,27.832,25.879,36.133,0.000,0.000,0.000
149569.369,31.250,34.180,26.367,21.484,32.227,0.000,0.000,0.000
149569.373,21.484,29.785,24.902,21.484,23.926,0.000,0.000,0.000
149569.377,18.066,27.344,22.949,23.926,23.438,0.000,0.000,0.000
149569.381,23.438,34.180,23.438,24.902,22.461,0.000,0.000,0.000
149569.385,26.855,38.086,22.461,23.926,23.926,0.000,0.000,0.000
149569.389,22.461,34.180,23.926,20.020,25.879,0.000,0.000,0.000
149569.390,20.020,32.715,30.762,21.973,32.227,0.000,0.000,0.000
149569.394,21.973,33.691,26.855,22.461,40.039,0.000,0.000,0.000
149569.398,23.438,35.156,20.020,20.020,47.363,0.000,0.000,0.000
149569.402,23.438,36.133,25.879,24.414,47.363,0.000,0.000,0.000
149569.406,23.926,32.227,31.738,27.344,44.922,0.000,0.000,0.000
149569.410,24.902,23.438,25.391,24.414,42.969,0.000,0.000,0.000
149569.414,28.320,23.926,19.043,23.926,40.039,0.000,0.000,0.000
149569.418,26.367,29.785,24.414,27.344,42.480,0.000,0.000,0.000
149569.422,21.973,33.691,23.926,26.855,36.133,0.000,0.000,0.000
149569.425,20.020,33.203,21.484,25.391,31.250,0.000,0.000,0.000
149569.429,21.484,33.691,28.320,23.926,29.297,0.000,0.000,0.000
149569.433,20.508,38.574,32.715,22.461,28.320,0.000,0.000,0.000
149569.437,14.160,34.668,34.180,24.902,27.344,0.000,0.000,0.000
149569.441,11.230,26.855,26.855,25.879,29.297,0.000,0.000,0.000
149569.445,12.207,25.391,23.926,22.461,31.250,0.000,0.000,0.000
149569.449,19.531,25.391,31.738,24.414,33.691,0.000,0.000,0.000
149569.453,20.020,29.297,33.691,27.832,32.227,0.000,0.000,0.000
149569.457,20.996,34.668,35.156,30.762,36.133,0.000,0.000,0.000
149569.461,26.367,35.645,35.645,29.785,38.086,0.000,0.000,0.000
149569.465,26.855,34.668,31.738,25.391,28.320,0.000,0.000,0.000
149569.468,28.320,35.156,31.738,26.855,32.227,0.000,0.000,0.000
149569.472,31.250,37.598,31.250,31.250,43.457,0.000,0.000,0.000
149569.476,31.250,35.645,32.227,30.273,46.875,0.000,0.000,0.000
149569.480,34.180,33.203,31.738,27.832,48.828,0.000,0.000,0.000
149569.481,36.133,28.809,30.762,30.273,43.457,0.000,0.000,0.000
149569.484,28.320,25.879,33.203,32.715,39.551,0.000,0.000,0.000
149569.488,22.949,32.227,32.227,30.762,35.645,0.000,0.000,0.000
149569.492,23.926,36.133,33.691,26.855,34.668,0.000,0.000,0.000
149569.496,25.879,36.621,35.156,25.879,34.180,0.000,0.000,0.000
149569.500,25.391,36.621,29.297,27.832,33.691,0.000,0.000,0.000
149569.504,20.020,30.762,26.855,28.320,29.785,0.000,0.000,0.000
149569.508,21.484,28.320,31.738,26.855,27.832,0.000,0.000,0.000
149569.512,25.879,29.785,31.738,25.391,30.273,0.000,0.000,0.000
149569.516,22.461,29.297,31.250,27.344,26.367,0.000,0.000,0.000
149569.520,17.090,27.832,35.156,29.297,30.273,0.000,0.000,0.000
149569.524,19.531,24.902,28.809,26.367,30.762,0.000,0.000,0.000
149569.526,21.973,24.902,26.367,22.949,22.461,0.000,0.000,0.000
149569.530,17.090,31.250,33.203,21.484,16.602,0.000,0.000,0.000
149569.534,14.160,34.668,37.109,24.902,23.926,0.000,0.000,0.000
149569.538,15.137,31.250,36.621,27.344,31.738,0.000,0.000,0.000
149569.542,16.113,32.227,30.273,23.438,28.320,0.000,0.000,0.000
149569.545,15.137,30.273,25.391,20.996,20.508,0.000,0.000,0.000
149569.549,10.742,24.414,27.832,21.484,15.625,0.000,0.000,0.000
149569.553,12.695,26.367,32.227,21.484,19.043,0.000,0.000,0.000
149569.557,19.043,25.879,31.738,22.461,19.531,0.000,0.000,0.000
149569.561,22.949,25.391,32.227,23.438,16.113,0.000,0.000,0.000
149569.565,23.438,33.691,30.273,28.320,19.043,0.000,0.000,0.000
149569.569,22.949,32.715,24.902,31.250,24.902,0.000,0.000,0.000
149569.570,26.367,28.809,28.809,28.809,27.832,0.000,0.000,0.000
149569.574,32.227,31.738,32.227,30.273,25.391,0.000,0.000,0.000
149569.578,29.297,31.738,32.227,33.691,28.809,0.000,0.000,0.000
149569.582,24.414,31.738,31.738,34.180,31.250,0.000,0.000,0.000
149569.586,28.809,35.645,30.273,29.785,33.691,0.000,0.000,0.000
149569.590,32.227,35.645,28.809,26.855,42.969,0.000,0.000,0.000
149569.594,31.738,31.738,21.484,30.273,42.969,0.000,0.000,0.000
149569.598,26.855,28.809,20.996,30.762,39.551,0.000,0.000,0.000
149569.602,22.949,30.273,27.832,26.855,31.738,0.000,0.000,0.000
149569.606,26.367,31.738,30.273,27.344,28.809,0.000,0.000,0.000
149569.610,28.320,28.809,29.785,29.297,34.180,0.000,0.000,0.000
149569.613,26.367,28.320,30.273,29.785,31.250,0.000,0.000,0.000
149569.615,28.320,30.273,32.227,31.738,30.273,0.000,0.000,0.000
149569.619,29.297,33.203,33.691,31.738,32.227,0.000,0.000,0.000
149569.623,30.273,30.762,32.715,29.297,30.762,0.000,0.000,0.000
149569.627,29.297,30.273,32.227,27.832,24.902,0.000,0.000,0.000
149569.631,23.926,30.273,29.297,27.344,25.391,0.000,0.000,0.000
149569.635,24.902,23.438,25.879,26.855,32.227,0.000,0.000,0.000
149569.639,27.832,21.973,25.391,22.949,20.020,0.000,0.000,0.000
149569.643,23.926,27.344,26.367,19.043,14.160,0.000,0.000,0.000
149569.647,18.066,28.809,26.367,20.996,18.066,0.000,0.000,0.000
149569.651,20.508,28.809,24.902,21.973,17.578,0.000,0.000,0.000
149569.654,25.391,29.297,26.367,21.973,24.902,0.000,0.000,0.000
149569.658,26.367,30.273,29.785,25.879,23.438,0.000,0.000,0.000
149569.662,26.367,33.691,35.156,29.785,27.344,0.000,0.000,0.000
149569.666,28.320,38.086,36.133,32.715,35.156,0.000,0.000,0.000
149569.670,29.785,32.227,31.738,30.273,31.250,0.000,0.000,0.000
149569.674,29.785,26.855,28.320,26.367,25.879,0.000,0.000,0.000
149569.678,29.297,30.762,21.973,27.344,31.250,0.000,0.000,0.000
149569.682,26.367,36.133,20.020,26.367,35.645,0.000,0.000,0.000
149569.686,25.879,39.062,29.297,21.973,34.668,0.000,0.000,0.000
149569.690,26.855,37.598,29.785,20.020,34.180,0.000,0.000,0.000
149569.694,21.484,40.527,25.391,20.996,40.039,0.000,0.000,0.000
149569.698,13.672,40.527,29.297,21.973,31.250,0.000,0.000,0.000
149569.701,15.625,36.621,33.691,17.090,21.973,0.000,0.000,0.000
149569.705,20.508,34.180,33.203,12.695,23.438,0.000,0.000,0.000
149569.721,20.020,29.785,31.738,18.066,24.902,0.000,0.000,0.000
149569.724,12.695,33.203,27.832,19.531,24.902,0.000,0.000,0.000
149569.728,12.695,34.668,25.391,14.648,25.391,0.000,0.000,0.000
149569.732,21.973,32.715,29.785,15.137,29.785,0.000,0.000,0.000
149569.736,21.973,32.715,29.297,16.602,29.785,0.000,0.000,0.000
149569.740,17.090,35.156,30.273,16.602,30.762,0.000,0.000,0.000
149569.744,17.090,39.062,38.574,15.137,32.227,0.000,0.000,0.000
149569.748,23.438,35.156,42.969,13.672,30.762,0.000,0.000,0.000
149569.752,31.738,32.227,40.527,19.531,34.180,0.000,0.000,0.000
149569.756,26.367,31.738,32.715,20.020,31.738,0.000,0.000,0.000
149569.760,19.531,27.832,29.297,15.137,29.297,0.000,0.000,0.000
149569.763,22.461,24.414,29.297,13.672,25.391,0.000,0.000,0.000
149569.765,24.902,27.344,33.691,15.625,17.578,0.000,0.000,0.000
149569.769,23.926,30.762,38.086,17.578,15.625,0.000,0.000,0.000
149569.773,16.602,30.762,35.645,15.137,8.789,0.000,0.000,0.000
149569.777,15.625,29.297,34.668,10.254,6.348,0.000,0.000,0.000
149569.781,23.926,27.344,34.668,13.184,15.137,0.000,0.000,0.000
149569.785,21.973,28.809,34.180,18.066,19.531,0.000,0.000,0.000
149569.789,15.625,30.762,32.227,18.555,21.484,0.000,0.000,0.000
149569.793,16.113,35.156,30.273,19.043,29.297,0.000,0.000,0.000
149569.797,19.531,34.668,29.297,16.113,32.715,0.000,0.000,0.000
149569.801,22.461,31.738,32.715,18.066,29.785,0.000,0.000,0.000
149569.804,22.949,36.621,30.273,22.949,25.879,0.000,0.000,0.000
149569.808,23.926,39.551,23.438,24.414,31.738,0.000,0.000,0.000
149569.810,21.484,32.227,30.762,21.973,32.227,0.000,0.000,0.000
149569.814,21.973,28.809,40.039,21.973,29.785,0.000,0.000,0.000
149569.818,21.973,29.297,40.039,27.344,30.273,0.000,0.000,0.000
149569.822,17.578,32.227,39.062,27.832,24.414,0.000,0.000,0.000
149569.826,18.555,34.180,36.621,23.438,21.973,0.000,0.000,0.000
149569.830,22.461,32.715,34.668,20.020,24.902,0.000,0.000,0.000
149569.834,20.020,37.598,32.227,18.066,24.414,0.000,0.000,0.000
149569.838,15.137,37.109,28.320,20.020,19.043,0.000,0.000,0.000
149569.842,20.508,29.785,30.273,20.020,22.461,0.000,0.000,0.000
149569.846,23.438,24.902,32.715,17.578,24.414,0.000,0.000,0.000
149569.849,21.484,22.949,28.809,19.043,22.949,0.000,0.000,0.000
149569.853,17.090,24.902,22.461,18.555,21.973,0.000,0.000,0.000
149569.856,16.602,26.367,24.414,19.531,24.414,0.000,0.000,0.000
149569.860,22.461,25.879,28.809,21.484,29.297,0.000,0.000,0.000
149569.864,21.484,28.320,23.438,18.555,24.414,0.000,0.000,0.000
149569.867,19.043,31.738,22.949,19.531,24.902,0.000,0.000,0.000
149569.871,21.973,36.621,30.273,23.926,31.250,0.000,0.000,0.000
149569.875,23.926,37.598,33.203,24.414,26.855,0.000,0.000,0.000
149569.879,23.926,32.227,36.621,22.461,21.484,0.000,0.000,0.000
149569.883,26.855,33.203,38.086,23.926,27.832,0.000,0.000,0.000
149569.887,24.902,35.156,36.133,27.344,30.273,0.000,0.000,0.000
149569.891,22.949,31.250,39.062,26.855,29.297,0.000,0.000,0.000
149569.895,25.879,28.809,38.574,24.902,31.250,0.000,0.000,0.000
149569.899,26.855,27.344,30.273,30.273,34.668,0.000,0.000,0.000
149569.902,20.996,28.809,31.250,34.180,34.180,0.000,0.000,0.000
149569.906,21.484,35.156,34.668,35.156,35.156,0.000,0.000,0.000
149569.910,20.508,31.250,36.621,30.762,36.133,0.000,0.000,0.000
149569.914,16.113,24.902,35.645,27.832,25.879,0.000,0.000,0.000
149569.918,18.555,26.367,31.738,30.273,23.438,0.000,0.000,0.000
149569.922,23.926,30.762,32.715,32.715,25.391,0.000,0.000,0.000
149569.926,29.297,32.715,34.180,32.715,24.902,0.000,0.000,0.000
149569.930,28.320,31.738,30.762,30.273,26.367,0.000,0.000,0.000
149569.934,23.926,33.691,23.926,29.297,27.832,0.000,0.000,0.000
149569.937,22.461,31.738,21.484,29.785,23.926,0.000,0.000,0.000
149569.941,20.996,31.250,23.438,24.414,17.090,0.000,0.000,0.000
149569.945,19.531,29.785,27.832,20.020,14.648,0.000,0.000,0.000
149569.946,19.043,26.367,26.855,24.902,14.160,0.000,0.000,0.000
149569.949,17.578,27.344,27.832,27.832,13.184,0.000,0.000,0.000
149569.953,16.113,29.785,29.785,23.926,16.602,0.000,0.000,0.000
149569.957,22.461,27.832,24.902,22.949,26.367,0.000,0.000,0.000
149569.961,23.926,28.809,23.438,26.367,30.273,0.000,0.000,0.000
149569.965,24.414,35.156,24.902,31.738,38.574,0.000,0.000,0.000
149569.969,27.344,35.156,28.809,31.738,44.922,0.000,0.000,0.000
149569.973,28.320,34.668,35.645,29.785,49.805,0.000,0.000,0.000
149569.977,29.297,32.227,28.320,28.320,50.293,0.000,0.000,0.000
149569.981,23.926,29.785,20.020,28.809,39.062,0.000,0.000,0.000
149569.985,20.020,31.250,23.926,27.344,34.180,0.000,0.000,0.000
149569.988,24.414,34.180,28.809,23.926,34.180,0.000,0.000,0.000
149569.991,25.391,35.156,27.344,25.879,32.715,0.000,0.000,0.000
149569.994,20.508,36.621,29.785,27.344,34.180,0.000,0.000,0.000
149569.998,19.043,38.086,36.133,28.320,27.832,0.000,0.000,0.000
149570.002,21.973,40.039,33.203,27.344,23.438,0.000,0.000,0.000
149570.006,22.461,40.039,25.879,25.391,28.809,0.000,0.000,0.000
149570.010,22.461,35.645,25.879,27.832,27.344,0.000,0.000,0.000
149570.014,26.367,39.551,29.785,33.203,30.273,0.000,0.000,0.000
149570.018,26.855,40.039,26.855,30.273,31.738,0.000,0.000,0.000
149570.022,20.996,31.250,22.949,20.996,19.043,0.000,0.000,0.000
149570.026,20.508,29.297,27.344,21.484,11.719,0.000,0.000,0.000
149570.030,21.484,33.203,31.738,25.391,13.672,0.000,0.000,0.000
149570.033,24.902,35.645,33.203,26.367,20.020,0.000,0.000,0.000
149570.035,31.250,40.039,33.691,24.902,26.367,0.000,0.000,0.000
149570.039,31.250,39.062,34.180,24.414,28.809,0.000,0.000,0.000
149570.042,25.391,33.691,34.180,26.367,27.832,0.000,0.000,0.000
149570.046,22.461,34.180,34.180,27.344,30.273,0.000,0.000,0.000
149570.050,20.020,30.762,28.809,22.461,24.414,0.000,0.000,0.000
149570.054,18.066,27.832,19.043,16.602,15.137,0.000,0.000,0.000
149570.058,16.113,28.320,14.160,17.578,12.695,0.000,0.000,0.000
149570.062,11.230,24.902,18.066,16.602,12.695,0.000,0.000,0.000
149570.066,8.789,22.949,23.926,11.230,14.648,0.000,0.000,0.000
149570.070,10.254,27.344,26.855,10.254,16.602,0.000,0.000,0.000
149570.074,6.836,29.785,29.785,11.719,14.160,0.000,0.000,0.000
149570.078,6.836,30.273,30.273,12.695,17.578,0.000,0.000,0.000
149570.081,13.184,29.785,30.762,13.184,17.578,0.000,0.000,0.000
149570.085,20.996,29.297,27.344,14.160,19.531,0.000,0.000,0.000
149570.089,27.832,31.250,24.902,19.531,28.320,0.000,0.000,0.000
149570.093,26.855,34.180,26.855,23.926,29.297,0.000,0.000,0.000
149570.096,27.344,35.645,26.367,23.926,38.086,0.000,0.000,0.000
149570.100,32.715,34.668,25.879,21.973,43.457,0.000,0.000,0.000
149570.104,32.715,34.668,27.344,22.461,41.016,0.000,0.000,0.000
149570.108,28.809,32.715,25.879,20.996,40.527,0.000,0.000,0.000
149570.112,28.320,26.855,29.785,21.973,41.992,0.000,0.000,0.000
149570.116,30.273,28.320,31.738,22.461,41.992,0.000,0.000,0.000
149570.120,29.785,30.762,26.367,20.020,37.598,0.000,0.000,0.000
149570.124,27.344,31.250,24.414,20.020,29.785,0.000,0.000,0.000
149570.141,28.809,35.645,26.367,24.414,27.832,0.000,0.000,0.000
149570.145,35.645,38.574,27.832,24.902,31.250,0.000,0.000,0.000
149570.149,42.480,39.062,22.949,22.949,37.109,0.000,0.000,0.000
149570.153,40.039,41.504,22.461,24.414,37.598,0.000,0.000,0.000
149570.156,32.227,38.086,27.344,21.973,37.109,0.000,0.000,0.000
149570.160,27.344,34.668,25.391,20.020,36.621,0.000,0.000,0.000
149570.164,27.344,33.691,24.902,19.531,35.156,0.000,0.000,0.000
149570.168,25.879,29.297,22.461,18.555,31.250,0.000,0.000,0.000
149570.172,18.555,24.902,19.043,18.066,28.320,0.000,0.000,0.000
149570.176,15.625,26.855,20.996,14.648,27.832,0.000,0.000,0.000
149570.180,15.137,33.203,20.996,9.766,26.855,0.000,0.000,0.000
149570.184,14.160,31.738,20.996,12.695,30.762,0.000,0.000,0.000
149570.184,18.066,29.297,25.879,19.043,34.180,0.000,0.000,0.000
149570.188,21.484,33.691,23.926,20.508,34.180,0.000,0.000,0.000
149570.192,19.531,38.086,23.438,15.137,33.691,0.000,0.000,0.000
149570.196,18.555,31.738,27.344,12.695,33.203,0.000,0.000,0.000
149570.200,15.137,26.855,23.926,12.695,28.809,0.000,0.000,0.000
149570.204,13.672,29.785,24.902,17.090,29.785,0.000,0.000,0.000
149570.208,18.555,30.273,27.344,18.555,38.574,0.000,0.000,0.000
149570.212,21.973,30.273,28.809,16.602,36.133,0.000,0.000,0.000
149570.216,21.484,29.297,27.344,20.996,30.762,0.000,0.000,0.000
149570.220,15.625,26.855,26.367,22.461,29.297,0.000,0.000,0.000
149570.224,12.207,29.785,29.785,20.996,24.414,0.000,0.000,0.000
149570.227,16.602,32.715,28.320,22.461,27.344,0.000,0.000,0.000
149570.230,18.555,32.715,25.879,22.949,28.320,0.000,0.000,0.000
149570.234,18.555,38.574,25.391,24.414,24.414,0.000,0.000,0.000
149570.238,20.996,41.016,24.902,26.855,27.344,0.000,0.000,0.000
149570.242,24.902,36.133,21.973,24.414,28.809,4.000,1.000,0.000
149570.245,22.949,30.762,21.484,25.879,29.297,0.000,0.000,0.000
149570.249,19.531,31.250,27.832,30.762,32.715,0.000,0.000,0.000
149570.253,20.020,31.738,30.762,32.227,31.250,0.000,0.000,0.000
149570.257,22.949,31.250,29.297,30.762,32.227,0.000,0.000,0.000
149570.261,26.367,34.668,32.227,33.203,35.156,0.000,0.000,0.000
149570.265,23.926,32.715,33.203,34.668,33.691,0.000,0.000,0.000
149570.269,19.531,27.344,25.879,32.715,31.738,0.000,0.000,0.000
149570.273,20.020,24.902,22.461,33.203,34.668,0.000,0.000,0.000
149570.275,20.508,25.879,28.320,30.273,35.156,0.000,0.000,0.000
149570.279,21.973,26.367,29.297,27.832,27.344,0.000,0.000,0.000
149570.283,23.438,29.297,26.367,32.227,26.855,0.000,0.000,0.000
149570.287,25.391,30.762,28.809,31.738,26.367,0.000,0.000,0.000
149570.291,29.297,29.785,34.180,29.785,29.297,0.000,0.000,0.000
149570.295,30.273,30.762,34.668,28.809,31.738,0.000,0.000,0.000
149570.299,26.855,34.668,32.715,29.297,31.250,0.000,0.000,0.000
149570.303,29.785,40.039,32.227,33.691,36.133,0.000,0.000,0.000
149570.307,33.691,34.668,30.273,32.715,38.086,0.000,0.000,0.000
149570.310,31.250,25.391,25.391,26.855,42.480,0.000,0.000,0.000
149570.314,28.320,22.461,25.879,27.344,41.016,0.000,0.000,0.000
149570.318,31.738,25.879,29.297,32.227,36.133,0.000,0.000,0.000
149570.320,31.250,28.809,32.227,28.320,31.738,0.000,0.000,0.000
149570.324,30.273,29.785,27.832,23.438,27.832,0.000,0.000,0.000
149570.328,34.180,33.691,21.973,27.832,35.156,0.000,0.000,0.000
149570.332,34.180,35.645,23.438,30.273,37.598,0.000,0.000,0.000
149570.336,31.250,38.574,26.367,26.367,33.203,0.000,0.000,0.000
149570.340,33.203,39.062,25.879,25.391,31.250,0.000,0.000,0.000
149570.344,33.203,31.738,25.391,27.832,32.715,0.000,0.000,0.000
149570.348,24.414,27.832,32.227,30.762,33.203,0.000,0.000,0.000
149570.352,25.879,30.762,35.156,32.227,33.691,0.000,0.000,0.000
149570.356,29.297,29.297,32.715,29.785,25.879,0.000,0.000,0.000
149570.360,27.344,26.855,29.785,31.738,22.949,0.000,0.000,0.000
149570.363,24.902,25.879,25.879,34.180,9.277,0.000,0.000,0.000
149570.367,20.996,25.391,25.391,32.227,-0.977,0.000,0.000,0.000
149570.371,22.949,31.250,26.855,32.715,15.625,0.000,0.000,0.000
149570.375,23.926,35.645,32.227,33.203,24.902,0.000,0.000,0.000
149570.379,20.508,35.645,33.203,31.738,26.367,0.000,0.000,0.000
149570.383,16.602,29.785,27.344,27.832,29.297,0.000,0.000,0.000
149570.387,20.020,27.832,25.391,25.391,32.227,0.000,0.000,0.000
149570.391,26.855,32.715,25.879,25.391,32.715,0.000,0.000,0.000
149570.395,26.855,34.668,24.902,24.902,31.738,0.000,0.000,0.000
149570.399,24.414,35.645,24.902,24.414,31.738,0.000,0.000,0.000
149570.403,24.902,33.691,23.926,20.508,34.180,0.000,0.000,0.000
149570.406,26.367,30.273,22.949,16.602,37.109,0.000,0.000,0.000
149570.410,25.391,30.762,26.367,16.602,35.645,0.000,0.000,0.000
149570.411,20.020,26.367,28.809,17.578,31.738,0.000,0.000,0.000
149570.415,16.113,20.508,27.832,18.555,32.715,0.000,0.000,0.000
149570.418,17.578,24.902,25.391,14.648,24.902,0.000,0.000,0.000
149570.422,19.043,31.738,24.902,13.184,18.066,0.000,0.000,0.000
149570.426,19.531,34.668,26.855,20.996,20.508,0.000,0.000,0.000
149570.430,20.020,32.227,26.367,27.832,20.508,0.000,0.000,0.000
149570.434,21.973,28.320,25.879,27.832,28.320,0.000,0.000,0.000
149570.438,22.949,35.156,27.344,28.320,31.250,0.000,0.000,0.000
149570.442,24.414,36.621,32.715,30.762,30.273,0.000,0.000,0.000
149570.446,22.949,29.785,31.738,32.227,32.715,0.000,0.000,0.000
149570.450,20.020,27.344,24.902,26.855,31.738,0.000,0.000,0.000
149570.454,21.973,27.832,20.020,22.461,31.250,0.000,0.000,0.000
149570.455,24.902,32.227,21.973,26.855,36.133,0.000,0.000,0.000
149570.459,24.902,32.227,23.438,31.738,37.598,0.000,0.000,0.000
149570.463,20.508,29.785,21.973,30.762,30.762,0.000,0.000,0.000
149570.467,22.461,32.715,29.297,30.762,28.809,0.000,0.000,0.000
149570.471,28.320,35.645,35.156,32.227,30.762,0.000,0.000,0.000
149570.475,25.391,36.133,36.133,30.273,27.344,0.000,0.000,0.000
149570.479,22.461,37.109,34.180,26.855,25.879,0.000,0.000,0.000
149570.483,22.461,31.738,31.738,23.438,26.367,0.000,0.000,0.000
149570.487,24.902,32.227,31.738,22.461,21.973,0.000,0.000,0.000
149570.491,25.879,35.645,30.273,26.367,31.250,0.000,0.000,0.000
149570.494,19.531,31.738,28.809,22.949,36.621,0.000,0.000,0.000
149570.498,20.020,28.809,27.344,15.137,27.344,0.000,0.000,0.000
149570.515,26.367,27.832,20.020,14.160,24.414,0.000,0.000,0.000
149570.519,21.973,26.855,18.555,14.160,24.414,0.000,0.000,0.000
149570.523,15.137,32.227,21.484,16.602,27.344,0.000,0.000,0.000
149570.527,17.090,33.691,26.367,19.043,35.156,0.000,0.000,0.000
149570.531,27.832,29.297,29.297,23.438,35.156,0.000,0.000,0.000
149570.535,24.902,34.180,26.367,15.625,16.602,0.000,0.000,0.000
149570.539,9.766,41.504,20.508,1.465,4.883,0.000,0.000,0.000
149570.543,13.184,41.504,23.926,5.371,16.113,0.000,0.000,0.000
149570.547,15.137,38.086,28.320,7.812,18.066,0.000,0.000,0.000
149570.550,9.277,30.762,23.438,8.301,13.672,0.000,0.000,0.000
149570.554,11.230,28.320,22.461,19.043,21.973,0.000,0.000,0.000
149570.558,13.672,35.156,21.973,22.461,27.344,0.000,0.000,0.000
149570.560,22.949,38.086,21.973,20.508,36.133,0.000,0.000,0.000
149570.564,30.273,42.480,20.020,22.461,44.434,0.000,0.000,0.000
149570.568,25.879,42.969,23.438,24.414,40.527,0.000,0.000,0.000
149570.572,16.602,34.180,33.691,25.391,28.809,0.000,0.000,0.000
149570.576,13.672,29.297,38.574,23.438,22.461,0.000,0.000,0.000
149570.580,14.648,29.785,39.062,24.902,30.273,0.000,0.000,0.000
149570.584,19.531,38.086,36.621,32.227,39.062,0.000,0.000,0.000
149570.588,23.926,36.621,30.273,33.203,39.551,0.000,0.000,0.000
149570.592,22.461,25.879,29.297,26.367,33.203,0.000,0.000,0.000
149570.596,22.461,24.902,30.762,19.531,23.926,0.000,0.000,0.000
149570.600,24.414,31.250,27.832,19.531,25.879,0.000,0.000,0.000
149570.603,20.996,32.227,24.902,20.508,27.344,0.000,0.000,0.000
149570.606,21.973,30.273,23.926,21.973,29.297,0.000,0.000,0.000
149570.610,27.832,35.645,27.344,21.973,36.133,0.000,0.000,0.000
149570.613,30.762,33.203,30.762,24.414,40.039,0.000,0.000,0.000
149570.617,37.598,23.438,33.203,36.621,56.152,0.000,0.000,0.000
149570.621,40.039,23.438,32.715,36.621,54.199,0.000,0.000,0.000
149570.625,36.133,35.645,25.879,23.438,33.203,0.000,0.000,0.000
149570.629,39.551,45.898,20.996,23.438,41.992,0.000,0.000,0.000
149570.633,34.668,48.828,21.973,21.484,42.480,0.000,0.000,0.000
149570.637,27.344,44.922,20.996,17.090,28.809,0.000,0.000,0.000
149570.641,33.691,32.715,20.996,20.020,33.203,0.000,0.000,0.000
149570.645,35.645,27.344,22.461,19.531,36.621,0.000,0.000,0.000
149570.649,36.621,33.203,23.926,25.391,41.992,0.000,0.000,0.000
149570.651,40.039,35.645,28.320,35.156,51.758,0.000,0.000,0.000
149570.654,36.621,28.809,30.762,36.621,45.410,0.000,0.000,0.000
149570.658,33.203,29.785,27.344,33.203,35.645,0.000,0.000,0.000
149570.662,29.297,40.527,26.367,27.832,31.250,0.000,0.000,0.000
149570.666,18.066,37.598,25.879,26.367,22.461,0.000,0.000,0.000
149570.670,13.184,25.879,23.438,25.391,19.531,0.000,0.000,0.000
149570.674,19.531,23.438,24.414,24.902,23.926,0.000,0.000,0.000
149570.678,25.391,24.414,28.320,23.438,27.832,0.000,0.000,0.000
149570.682,30.273,30.273,34.180,26.855,30.762,0.000,0.000,0.000
149570.686,30.273,34.668,34.180,32.715,30.762,0.000,0.000,0.000
149570.690,29.297,34.668,30.273,29.785,30.273,0.000,0.000,0.000
149570.693,27.832,35.156,27.832,25.391,33.691,0.000,0.000,0.000
149570.696,28.320,31.250,24.414,26.855,41.016,0.000,0.000,0.000
149570.699,27.832,28.809,22.949,29.297,31.738,0.000,0.000,0.000
149570.703,26.367,28.809,24.902,27.832,22.949,0.000,0.000,0.000
149570.707,28.809,28.809,26.855,26.367,28.320,0.000,0.000,0.000
149570.711,24.902,28.809,26.367,26.855,28.809,0.000,0.000,0.000
149570.715,15.137,30.762,26.855,24.902,23.926,0.000,0.000,0.000
149570.719,12.695,33.691,28.320,24.902,25.391,0.000,0.000,0.000
149570.723,16.113,31.738,27.344,23.438,30.273,0.000,0.000,0.000
149570.727,17.578,27.344,24.902,25.391,33.203,0.000,0.000,0.000
149570.731,19.531,30.762,25.391,32.227,26.367,0.000,0.000,0.000
149570.735,24.414,34.668,27.344,35.645,21.973,0.000,0.000,0.000
149570.739,28.320,33.203,26.367,33.203,26.855,0.000,0.000,0.000
149570.740,31.250,36.621,27.344,32.227,28.809,0.000,0.000,0.000
149570.744,34.180,37.598,29.785,34.180,33.691,0.000,0.000,0.000
149570.748,34.180,37.598,27.344,34.668,39.551,0.000,0.000,0.000
149570.752,37.109,39.062,25.391,36.133,45.410,0.000,0.000,0.000
149570.756,24.902,31.738,28.809,28.320,29.297,0.000,0.000,0.000
149570.760,11.230,27.344,29.785,21.484,17.578,0.000,0.000,0.000
149570.764,16.113,26.855,30.762,28.320,26.367,0.000,0.000,0.000
149570.767,16.113,30.762,31.250,26.855,20.996,0.000,0.000,0.000
149570.771,14.648,32.227,32.227,24.414,18.066,0.000,0.000,0.000
149570.775,14.648,26.855,33.203,26.855,20.996,0.000,0.000,0.000
149570.779,16.113,31.738,29.297,28.320,24.902,0.000,0.000,0.000
149570.783,23.438,34.180,28.320,32.227,36.621,0.000,0.000,0.000
149570.788,26.367,27.832,28.320,31.738,35.645,0.000,0.000,0.000
149570.792,25.391,28.320,27.832,28.809,24.414,0.000,0.000,0.000
149570.796,28.320,34.668,28.320,30.762,27.832,0.000,0.000,0.000
149570.799,30.762,38.086,34.180,33.203,34.668,0.000,0.000,0.000
149570.803,30.762,35.645,31.250,30.273,35.645,0.000,0.000,0.000
149570.807,30.273,33.203,22.949,26.855,35.156,0.000,0.000,0.000
149570.811,23.438,29.785,21.973,23.438,29.785,0.000,0.000,0.000
149570.815,20.996,30.273,24.902,21.484,32.715,0.000,0.000,0.000
149570.819,26.367,32.227,29.785,20.020,34.668,0.000,0.000,0.000
149570.823,25.879,30.762,29.785,18.555,28.809,0.000,0.000,0.000
149570.827,21.484,29.297,25.391,20.508,28.320,0.000,0.000,0.000
149570.831,17.578,30.762,23.926,21.973,35.156,0.000,0.000,0.000
149570.831,20.020,31.250,26.367,25.391,40.527,0.000,0.000,0.000
149570.835,25.879,34.180,30.273,27.344,48.828,0.000,0.000,0.000
149570.839,25.391,33.691,28.809,26.855,49.316,0.000,0.000,0.000
149570.843,20.020,27.344,27.832,28.320,34.180,0.000,0.000,0.000
149570.847,15.625,26.367,25.391,25.391,26.367,0.000,0.000,0.000
149570.851,19.043,33.203,27.832,25.391,30.273,0.000,0.000,0.000
149570.855,20.020,35.645,31.250,25.879,31.738,0.000,0.000,0.000
149570.859,12.695,28.320,28.809,19.531,21.484,0.000,0.000,0.000
149570.862,10.254,25.391,25.879,17.578,17.090,0.000,0.000,0.000
149570.866,14.160,26.367,24.902,18.066,21.484,0.000,0.000,0.000
149570.870,16.113,30.273,26.367,16.113,21.484,0.000,0.000,0.000
149570.874,13.184,32.227,22.949,16.113,18.555,0.000,0.000,0.000
149570.891,13.184,30.273,22.461,16.602,22.461,0.000,0.000,0.000
149570.895,17.090,29.297,28.809,15.625,23.926,0.000,0.000,0.000
149570.898,21.484,31.250,30.273,18.555,21.484,0.000,0.000,0.000
149570.902,24.414,36.621,30.762,21.973,23.438,0.000,0.000,0.000
149570.906,26.367,34.180,28.809,23.926,30.273,0.000,0.000,0.000
149570.910,25.879,30.273,24.414,21.973,34.668,0.000,0.000,0.000
149570.914,23.926,27.344,24.414,19.043,36.621,0.000,0.000,0.000
149570.918,26.855,29.297,28.809,23.926,37.109,0.000,0.000,0.000
149570.922,28.809,32.227,34.180,30.762,33.203,0.000,0.000,0.000
149570.926,28.809,34.668,33.691,30.273,38.574,0.000,0.000,0.000
149570.930,30.273,35.645,28.320,24.414,43.945,0.000,0.000,0.000
149570.934,26.367,29.297,23.926,21.973,38.574,0.000,0.000,0.000
149570.935,19.043,25.879,21.973,21.484,28.809,0.000,0.000,0.000
149570.939,15.625,26.855,23.438,22.461,22.461,0.000,0.000,0.000
149570.943,15.137,26.367,22.949,20.996,16.113,0.000,0.000,0.000
149570.947,17.578,25.391,25.391,23.438,18.066,0.000,0.000,0.000
149570.951,21.973,28.809,30.273,32.715,24.414,0.000,0.000,0.000
149570.955,23.926,33.691,29.297,35.156,28.320,0.000,0.000,0.000
149570.959,27.344,36.621,22.461,26.367,26.367,0.000,0.000,0.000
149570.963,28.809,34.180,19.531,15.137,23.926,0.000,0.000,0.000
149570.967,23.926,32.715,22.461,13.672,23.438,0.000,0.000,0.000
149570.971,20.996,33.203,25.879,20.020,24.414,0.000,0.000,0.000
149570.975,22.949,29.297,24.902,21.484,28.809,0.000,0.000,0.000
149570.978,27.832,29.785,23.438,18.555,30.273,0.000,0.000,0.000
149570.981,26.855,32.715,22.949,17.578,26.855,0.000,0.000,0.000
149570.985,27.832,37.109,20.996,20.508,29.297,0.000,0.000,0.000
149570.989,29.297,36.133,23.926,24.902,35.645,0.000,0.000,0.000
149570.993,31.738,29.785,27.832,26.367,36.621,0.000,0.000,0.000
149570.996,37.109,31.250,25.879,26.367,37.598,0.000,0.000,0.000
149571.000,34.180,33.203,25.391,27.832,36.621,0.000,0.000,0.000
149571.004,34.668,34.668,26.855,29.785,40.039,0.000,0.000,0.000
149571.008,36.133,35.156,24.902,24.414,34.668,0.000,0.000,0.000
149571.012,37.598,33.203,21.484,20.020,27.832,0.000,0.000,0.000
149571.016,33.203,32.227,21.484,24.414,28.809,0.000,0.000,0.000
149571.020,28.809,31.250,24.414,26.367,25.879,0.000,0.000,0.000
149571.024,33.203,35.645,28.320,27.344,23.926,0.000,0.000,0.000
149571.026,33.203,34.180,28.809,26.367,22.461,0.000,0.000,0.000
149571.029,27.832,31.250,25.879,24.414,25.391,0.000,0.000,0.000
149571.033,24.902,30.762,28.809,27.344,30.762,0.000,0.000,0.000
149571.037,24.414,28.809,32.715,30.273,30.762,0.000,0.000,0.000
149571.041,25.391,30.273,29.785,25.391,28.320,0.000,0.000,0.000
149571.045,24.414,27.832,27.832,19.043,27.832,0.000,0.000,0.000
149571.049,22.461,26.855,31.250,21.484,24.902,0.000,0.000,0.000
149571.053,20.508,34.668,29.785,21.973,20.508,0.000,0.000,0.000
149571.057,16.113,33.691,24.414,18.066,20.996,0.000,0.000,0.000
149571.061,17.578,26.855,18.066,16.602,26.367,0.000,0.000,0.000
149571.065,16.113,25.879,20.020,18.555,30.273,0.000,0.000,0.000
149571.069,12.695,26.367,29.297,21.973,28.320,0.000,0.000,0.000
149571.071,17.578,27.832,32.227,23.926,24.902,0.000,0.000,0.000
149571.074,20.996,26.855,31.250,20.508,23.926,0.000,0.000,0.000
149571.078,17.578,23.926,29.785,17.090,23.926,0.000,0.000,0.000
149571.082,17.578,30.273,27.344,20.508,27.832,0.000,0.000,0.000
149571.086,20.996,32.227,23.926,20.996,29.297,0.000,0.000,0.000
149571.090,20.020,22.461,24.414,15.625,27.344,0.000,0.000,0.000
149571.094,23.926,20.996,25.391,17.578,18.555,0.000,0.000,0.000
149571.098,23.926,26.367,28.809,22.461,18.555,0.000,0.000,0.000
149571.102,20.020,29.297,31.250,21.484,20.508,0.000,0.000,0.000
149571.106,24.902,31.250,28.320,20.508,21.973,0.000,0.000,0.000
149571.110,26.855,32.227,22.949,18.555,22.461,0.000,0.000,0.000
149571.114,22.949,33.691,19.531,17.090,22.949,0.000,0.000,0.000
149571.115,21.484,31.738,24.414,20.020,26.855,0.000,0.000,0.000
149571.119,20.508,25.391,30.273,18.555,23.438,0.000,0.000,0.000
149571.123,18.555,22.461,30.273,14.160,24.414,0.000,0.000,0.000
149571.127,14.648,21.484,30.273,17.578,25.391,0.000,0.000,0.000
149571.131,13.184,22.949,29.785,20.508,24.902,0.000,0.000,0.000
149571.135,13.184,22.461,29.297,17.090,26.855,0.000,0.000,0.000
149571.139,17.578,27.832,29.297,19.043,27.344,0.000,0.000,0.000
149571.143,20.020,30.762,25.879,22.949,27.832,0.000,0.000,0.000
149571.147,13.672,26.855,22.461,20.996,24.414,0.000,0.000,0.000
149571.151,12.695,26.855,23.438,19.531,18.066,0.000,0.000,0.000
149571.154,17.578,24.902,24.902,19.043,18.555,0.000,0.000,0.000
149571.158,19.531,23.926,22.949,19.043,20.508,0.000,0.000,0.000
149571.161,15.137,27.832,22.461,18.555,23.438,0.000,0.000,0.000
149571.165,14.648,30.273,26.855,18.066,24.902,0.000,0.000,0.000
149571.168,16.602,34.668,27.832,11.719,17.090,0.000,0.000,0.000
149571.172,15.625,37.598,24.902,7.812,14.648,0.000,0.000,0.000
149571.176,18.066,32.227,25.391,11.719,21.484,0.000,0.000,0.000
149571.180,18.066,29.297,24.902,14.648,24.414,0.000,0.000,0.000
149571.184,19.043,31.250,21.973,12.207,22.949,0.000,0.000,0.000
149571.188,24.414,31.738,19.531,9.766,23.926,0.000,0.000,0.000
149571.192,25.391,31.738,22.949,14.160,27.832,0.000,0.000,0.000
149571.196,23.438,29.297,26.367,20.020,32.227,0.000,0.000,0.000
149571.200,23.438,32.227,24.902,20.508,35.156,0.000,0.000,0.000
149571.204,26.855,40.039,19.531,17.090,35.156,0.000,0.000,0.000
149571.207,27.344,39.062,12.207,15.625,39.551,0.000,0.000,0.000
149571.211,23.926,31.250,18.066,19.043,43.945,0.000,0.000,0.000
149571.215,22.461,27.344,24.902,21.484,37.598,0.000,0.000,0.000
149571.219,24.414,31.738,28.320,22.949,39.551,0.000,0.000,0.000
149571.223,20.508,36.621,31.738,21.973,43.457,0.000,0.000,0.000
149571.226,13.184,31.250,28.809,20.508,22.461,0.000,0.000,0.000
149571.230,8.301,28.320,21.973,16.113,5.371,0.000,0.000,0.000
149571.234,7.324,35.156,20.508,13.184,4.395,0.000,0.000,0.000
149571.238,9.766,33.691,24.414,15.137,1.465,0.000,0.000,0.000
149571.242,7.324,26.855,23.926,14.648,-0.488,0.000,0.000,0.000
149571.246,7.324,25.879,23.926,17.090,3.906,0.000,0.000,0.000
149571.250,12.695,25.391,27.832,18.066,12.695,0.000,0.000,0.000
149571.267,19.043,29.297,26.367,17.578,20.996,0.000,0.000,0.000
149571.271,19.531,29.785,26.367,19.531,28.320,0.000,0.000,0.000
149571.275,15.625,29.785,28.320,19.531,24.902,0.000,0.000,0.000
149571.279,19.531,33.203,29.297,20.020,24.414,0.000,0.000,0.000
149571.283,20.020,28.320,26.855,19.531,27.344,0.000,0.000,0.000
149571.287,14.160,25.879,23.438,17.090,26.367,0.000,0.000,0.000
149571.290,13.672,25.391,24.902,19.531,27.832,0.000,0.000,0.000
149571.294,16.602,26.367,28.320,23.926,23.926,0.000,0.000,0.000
149571.298,19.043,30.762,27.832,20.996,22.461,0.000,0.000,0.000
149571.302,21.484,31.738,26.367,19.043,26.855,0.000,0.000,0.000
149571.306,20.020,31.738,28.809,22.949,32.715,0.000,0.000,0.000
149571.310,19.531,33.691,29.785,24.414,32.227,0.000,0.000,0.000
149571.311,25.391,33.203,29.297,26.855,31.250,0.000,0.000,0.000
149571.315,30.273,27.832,28.809,27.832,32.227,0.000,0.000,0.000
149571.318,27.344,26.855,26.367,27.344,32.227,0.000,0.000,0.000
149571.322,24.414,29.785,27.344,29.785,31.738,0.000,0.000,0.000
149571.326,25.879,35.156,27.344,28.809,40.039,0.000,0.000,0.000
149571.330,28.809,36.133,29.785,27.832,43.945,0.000,0.000,0.000
149571.334,27.344,33.691,31.738,29.297,37.598,0.000,0.000,0.000
149571.338,21.484,33.691,28.320,25.879,30.762,0.000,0.000,0.000
149571.342,19.531,33.691,24.902,19.043,28.809,0.000,0.000,0.000
149571.346,21.973,29.785,22.949,17.578,29.785,0.000,0.000,0.000
149571.350,21.973,29.297,20.508,17.578,27.832,0.000,0.000,0.000
149571.354,18.066,30.762,21.973,16.113,29.785,0.000,0.000,0.000
149571.356,16.602,30.273,21.973,15.625,27.832,0.000,0.000,0.000
149571.359,17.090,29.785,15.625,11.230,15.137,0.000,0.000,0.000
149571.363,19.531,33.203,20.996,10.254,11.230,0.000,0.000,0.000
149571.367,17.090,37.109,30.762,12.207,14.648,0.000,0.000,0.000
149571.371,14.160,34.180,28.320,11.719,13.672,0.000,0.000,0.000
149571.375,17.578,29.785,24.414,11.230,12.207,0.000,0.000,0.000
149571.379,15.625,25.879,23.438,12.695,13.184,0.000,0.000,0.000
149571.383,16.602,30.273,25.879,19.043,17.578,0.000,0.000,0.000
149571.387,20.020,34.180,25.879,24.902,20.508,0.000,0.000,0.000
149571.391,20.020,32.715,24.902,20.996,18.066,0.000,0.000,0.000
149571.395,21.973,33.691,26.855,18.066,16.602,0.000,0.000,0.000
149571.398,19.531,36.621,28.809,25.391,23.438,0.000,0.000,0.000
149571.400,16.602,35.645,30.273,28.320,34.180,0.000,0.000,0.000
149571.404,18.555,32.227,31.250,26.367,38.574,0.000,0.000,0.000
149571.408,25.391,28.320,32.227,28.809,42.480,0.000,0.000,0.000
149571.411,26.367,26.855,34.180,29.785,43.457,0.000,0.000,0.000
149571.415,19.043,28.809,34.668,27.832,34.668,0.000,0.000,0.000
149571.419,21.484,32.715,34.668,31.250,33.203,0.000,0.000,0.000
149571.423,24.414,36.621,33.691,32.227,36.133,0.000,0.000,0.000
149571.427,22.461,37.598,30.762,26.855,30.762,0.000,0.000,0.000
149571.431,21.484,33.203,27.832,25.391,27.832,0.000,0.000,0.000
149571.435,18.555,28.809,29.785,25.879,30.273,0.000,0.000,0.000
149571.439,20.020,29.785,31.738,21.484,31.250,0.000,0.000,0.000
149571.443,22.949,30.762,28.809,20.020,27.832,0.000,0.000,0.000
149571.445,19.531,27.344,24.902,18.555,18.555,0.000,0.000,0.000
149571.448,14.648,25.879,22.949,16.602,12.695,0.000,0.000,0.000
149571.452,18.555,33.203,23.438,17.090,17.090,0.000,0.000,0.000
149571.456,22.461,36.133,27.832,17.578,19.531,0.000,0.000,0.000
149571.460,15.625,29.785,31.250,14.648,10.254,0.000,0.000,0.000
149571.464,14.160,32.227,28.809,14.648,8.301,0.000,0.000,0.000
149571.468,16.113,32.227,23.926,14.648,12.695,0.000,0.000,0.000
149571.472,18.066,30.762,26.855,11.230,17.578,0.000,0.000,0.000
149571.476,21.973,31.738,29.297,13.672,22.461,0.000,0.000,0.000
149571.480,18.555,31.250,26.367,18.555,29.785,0.000,0.000,0.000
149571.484,14.160,29.297,23.926,19.531,31.250,0.000,0.000,0.000
149571.487,18.555,27.344,19.531,17.578,27.344,0.000,0.000,0.000
149571.490,23.438,30.762,15.625,21.484,30.273,0.000,0.000,0.000
149571.494,24.414,27.344,19.043,25.879,28.320,0.000,0.000,0.000
149571.498,22.461,26.855,24.902,28.809,25.879,0.000,0.000,0.000
149571.502,24.414,29.785,31.250,29.297,23.926,0.000,0.000,0.000
149571.506,29.297,27.832,34.180,30.762,28.809,0.000,0.000,0.000
149571.510,27.344,27.832,31.250,34.180,34.668,0.000,0.000,0.000
149571.514,19.531,26.367,27.344,35.156,31.738,0.000,0.000,0.000
149571.518,17.090,25.391,26.367,28.809,28.809,0.000,0.000,0.000
149571.521,20.996,31.738,28.809,23.438,33.203,0.000,0.000,0.000
149571.525,19.531,29.785,28.320,23.926,35.645,0.000,0.000,0.000
149571.529,19.043,29.785,23.926,27.344,37.598,0.000,0.000,0.000
149571.533,20.996,32.227,22.949,27.344,42.480,0.000,0.000,0.000
149571.535,21.973,29.297,28.320,25.879,43.457,0.000,0.000,0.000
149571.539,22.461,28.320,27.832,23.438,37.598,0.000,0.000,0.000
149571.542,19.531,25.879,26.855,24.414,34.180,0.000,0.000,0.000
149571.546,20.996,29.297,33.203,27.344,35.156,0.000,0.000,0.000
149571.550,21.484,30.762,32.715,24.902,36.133,0.000,0.000,0.000
149571.554,19.531,28.320,26.855,22.949,31.250,0.000,0.000,0.000
149571.558,20.020,28.809,28.809,20.508,24.902,0.000,0.000,0.000
149571.562,17.090,25.879,28.320,21.484,24.902,0.000,0.000,0.000
149571.566,14.648,22.461,25.391,18.066,24.414,0.000,0.000,0.000
149571.570,19.531,25.879,23.926,14.160,28.809,0.000,0.000,0.000
149571.574,21.973,26.855,23.438,17.090,20.020,0.000,0.000,0.000
149571.578,20.508,29.785,23.438,17.578,15.625,0.000,0.000,0.000
149571.580,22.949,30.273,26.855,19.043,24.902,0.000,0.000,0.000
149571.584,24.902,31.250,33.203,20.996,28.809,0.000,0.000,0.000
149571.588,25.391,34.180,30.273,20.508,25.879,0.000,0.000,0.000
149571.592,24.902,31.250,29.785,22.949,26.367,0.000,0.000,0.000
149571.596,20.508,30.273,31.738,21.973,26.367,0.000,0.000,0.000
149571.600,23.926,27.344,29.785,21.973,29.785,0.000,0.000,0.000
149571.603,27.344,27.832,28.809,24.414,33.203,0.000,0.000,0.000
149571.607,24.414,28.320,31.250,27.344,30.273,2.000,1.000,90.000
149571.611,24.414,25.879,31.738,31.250,31.250,0.000,0.000,0.000
149571.615,29.297,29.785,35.645,30.273,37.598,0.000,0.000,0.000
149571.619,32.227,30.762,34.668,29.297,41.016,0.000,0.000,0.000
149571.623,26.855,32.227,32.227,30.762,29.785,0.000,0.000,0.000
149571.640,23.926,34.668,35.645,32.227,24.414,0.000,0.000,0.000
149571.644,25.879,29.785,39.062,28.809,25.879,0.000,0.000,0.000
149571.648,24.902,28.320,39.062,26.367,21.484,0.000,0.000,0.000
149571.652,22.949,29.785,36.133,26.367,21.484,0.000,0.000,0.000
149571.656,20.508,25.879,34.180,24.902,23.438,0.000,0.000,0.000
149571.660,18.066,25.879,30.762,21.484,26.855,0.000,0.000,0.000
149571.664,20.996,27.832,26.367,22.461,32.227,0.000,0.000,0.000
149571.667,24.902,29.297,26.367,25.879,32.227,0.000,0.000,0.000
149571.671,20.508,33.691,31.738,26.855,28.320,0.000,0.000,0.000
149571.675,23.926,34.180,34.180,30.273,32.227,0.000,0.000,0.000
149571.679,31.738,33.203,30.273,31.738,40.527,0.000,0.000,0.000
149571.683,28.320,31.250,28.320,24.902,36.133,0.000,0.000,0.000
149571.686,24.902,31.250,30.762,23.926,30.762,0.000,0.000,0.000
149571.689,25.879,33.691,34.668,30.273,31.250,0.000,0.000,0.000
149571.693,28.809,33.203,36.133,28.809,30.762,0.000,0.000,0.000
149571.697,28.809,31.250,34.668,22.949,31.250,0.000,0.000,0.000
149571.701,23.926,35.645,32.715,22.949,25.391,0.000,0.000,0.000
149571.705,23.926,36.621,29.297,26.855,25.391,0.000,0.000,0.000
149571.709,23.438,28.320,27.832,24.902,30.762,0.000,0.000,0.000
149571.713,20.996,28.809,28.809,22.461,31.738,0.000,0.000,0.000
149571.717,21.484,34.180,31.738,23.926,30.762,0.000,0.000,0.000
149571.721,20.996,31.250,28.320,27.344,30.273,0.000,0.000,0.000
149571.725,19.531,29.297,22.461,28.320,28.809,0.000,0.000,0.000
149571.728,24.902,37.598,26.855,30.273,21.973,0.000,0.000,0.000
149571.731,27.832,38.574,33.203,31.250,13.184,0.000,0.000,0.000
149571.735,26.367,32.715,33.691,31.250,3.906,0.000,0.000,0.000
149571.739,28.320,33.691,29.785,29.785,0.488,0.000,0.000,0.000
149571.742,32.227,33.691,29.297,30.273,12.207,0.000,0.000,0.000
149571.746,34.180,33.203,29.785,35.645,27.832,0.000,0.000,0.000
149571.750,32.715,35.156,27.832,36.133,36.133,0.000,0.000,0.000
149571.754,33.691,33.691,26.367,36.621,39.551,0.000,0.000,0.000
149571.758,35.156,31.250,25.391,35.156,40.039,0.000,0.000,0.000
149571.762,35.645,34.180,28.809,31.738,42.480,0.000,0.000,0.000
149571.766,31.738,38.574,28.320,29.785,41.504,0.000,0.000,0.000
149571.770,22.949,32.227,29.297,26.855,37.598,0.000,0.000,0.000
149571.774,21.973,25.391,36.621,26.367,40.039,0.000,0.000,0.000
149571.775,24.414,28.320,36.621,24.902,41.016,0.000,0.000,0.000
149571.779,23.438,29.297,32.715,21.484,40.527,0.000,0.000,0.000
149571.783,22.949,27.832,31.250,22.949,43.945,0.000,0.000,0.000
149571.787,23.438,29.297,27.344,24.902,51.758,0.000,0.000,0.000
149571.791,26.855,36.133,30.762,23.926,54.688,0.000,0.000,0.000
149571.795,24.902,38.574,32.227,21.484,52.734,0.000,0.000,0.000
149571.799,16.113,31.250,29.785,19.043,50.293,0.000,0.000,0.000
149571.803,16.602,30.273,27.344,20.996,53.223,0.000,0.000,0.000
149571.807,23.926,32.227,27.832,23.926,56.641,0.000,0.000,0.000
149571.811,21.484,31.250,26.855,19.531,48.340,0.000,0.000,0.000
149571.815,16.602,31.250,23.438,17.578,45.898,0.000,0.000,0.000
149571.818,17.578,26.855,24.902,18.555,45.898,0.000,0.000,0.000
149571.821,19.531,25.391,30.273,20.508,42.969,0.000,0.000,0.000
149571.825,16.602,30.762,31.738,20.508,41.992,0.000,0.000,0.000
149571.828,13.672,29.297,31.250,18.066,37.109,0.000,0.000,0.000
149571.832,12.207,27.344,31.738,20.996,34.180,0.000,0.000,0.000
149571.836,15.625,26.367,33.691,23.438,37.598,0.000,0.000,0.000
149571.840,24.414,25.391,31.250,22.949,39.551,0.000,0.000,0.000
149571.844,24.414,28.320,28.320,24.902,38.086,0.000,0.000,0.000
149571.848,22.949,32.227,27.344,27.832,37.598,0.000,0.000,0.000
149571.852,22.461,33.691,26.367,27.832,38.086,0.000,0.000,0.000
149571.856,22.949,28.809,25.879,23.926,39.062,0.000,0.000,0.000
149571.860,29.297,32.227,25.391,25.879,38.574,0.000,0.000,0.000
149571.864,29.297,29.297,27.832,32.227,36.133,0.000,0.000,0.000
149571.881,26.367,20.996,32.227,30.762,31.250,0.000,0.000,0.000
149571.884,30.273,23.926,34.180,28.809,38.086,0.000,0.000,0.000
149571.888,34.180,29.297,29.297,29.785,43.945,0.000,0.000,0.000
149571.892,31.250,32.715,23.926,25.879,40.527,0.000,0.000,0.000
149571.896,26.367,33.691,25.391,26.367,37.109,0.000,0.000,0.000
149571.900,26.855,36.621,29.785,26.855,38.086,0.000,0.000,0.000
149571.904,29.297,40.527,29.785,21.973,35.645,0.000,0.000,0.000
149571.908,29.297,38.086,26.855,20.996,26.855,0.000,0.000,0.000
149571.912,23.438,29.785,23.926,20.996,16.602,0.000,0.000,0.000
149571.916,18.066,27.832,25.879,18.555,7.812,0.000,0.000,0.000
149571.920,22.461,30.762,27.832,18.066,10.742,0.000,0.000,0.000
149571.924,24.902,30.762,25.879,20.508,19.043,0.000,0.000,0.000
149571.911,21.484,31.738,28.320,20.508,9.277,0.000,0.000,0.000
149571.915,18.066,31.738,30.762,17.090,5.859,0.000,0.000,0.000
149571.918,16.113,31.250,28.809,14.648,8.301,0.000,0.000,0.000
149571.922,18.066,34.668,25.879,16.602,12.207,0.000,0.000,0.000
149571.926,20.996,34.180,25.879,24.414,21.484,0.000,0.000,0.000
149571.930,20.020,30.273,23.926,25.879,28.320,0.000,0.000,0.000
149571.934,21.973,29.785,25.879,21.484,27.344,0.000,0.000,0.000
149571.938,22.949,32.227,31.250,21.484,20.508,0.000,0.000,0.000
149571.942,21.484,32.227,33.203,23.926,25.391,0.000,0.000,0.000
149571.946,23.438,30.273,32.715,26.855,35.156,0.000,0.000,0.000
149571.950,28.809,33.691,32.715,24.902,37.598,0.000,0.000,0.000
149571.954,30.273,37.109,32.227,22.461,37.598,0.000,0.000,0.000
149571.958,27.832,40.527,31.250,27.344,45.410,0.000,0.000,0.000
149571.962,27.832,41.016,31.250,33.203,52.246,0.000,0.000,0.000
149571.966,27.344,33.691,32.715,28.320,47.852,0.000,0.000,0.000
149571.970,33.691,28.320,33.203,26.855,47.852,0.000,0.000,0.000
149571.974,39.551,30.273,34.668,31.738,53.711,0.000,0.000,0.000
149571.978,35.645,32.227,35.645,30.762,50.293,0.000,0.000,0.000
149571.982,36.621,35.156,35.156,32.715,48.828,0.000,0.000,0.000
149571.986,41.992,40.527,33.691,36.621,56.152,0.000,0.000,0.000
149571.990,38.574,39.551,29.297,35.645,52.246,0.000,0.000,0.000
149571.993,28.320,35.156,32.227,35.645,41.016,0.000,0.000,0.000
149571.997,22.949,33.691,33.691,36.621,41.016,0.000,0.000,0.000
149572.001,22.949,34.180,32.715,34.180,32.227,0.000,0.000,0.000
149572.015,26.367,31.738,38.086,33.203,28.809,0.000,0.000,0.000
149572.019,23.926,32.715,41.992,35.156,26.855,0.000,0.000,0.000
149572.023,17.090,29.785,38.086,32.227,21.484,0.000,0.000,0.000
149572.027,20.020,25.879,31.738,29.297,23.926,0.000,0.000,0.000
149572.031,24.902,28.809,31.250,26.367,23.926,0.000,0.000,0.000
149572.035,25.879,36.133,33.203,23.926,34.180,0.000,0.000,0.000
149572.039,24.902,40.039,31.250,25.391,40.527,0.000,0.000,0.000
149572.043,22.461,32.715,27.344,22.949,36.621,0.000,0.000,0.000
149572.047,25.391,27.832,27.344,22.461,33.691,0.000,0.000,0.000
149572.051,26.367,30.762,31.250,21.484,31.250,0.000,0.000,0.000
149572.055,20.996,33.203,33.203,20.020,29.297,0.000,0.000,0.000
149572.058,22.949,32.715,34.668,25.879,28.320,0.000,0.000,0.000
149572.061,28.320,31.250,34.668,29.297,33.691,0.000,0.000,0.000
149572.065,27.344,31.250,33.691,25.879,29.297,0.000,0.000,0.000
149572.069,24.414,37.109,33.203,26.367,28.320,0.000,0.000,0.000
149572.072,20.996,38.574,29.297,28.809,35.645,0.000,0.000,0.000
149572.076,22.461,29.785,21.973,24.902,30.762,0.000,0.000,0.000
149572.080,22.949,26.367,20.508,20.508,17.090,0.000,0.000,0.000
149572.084,19.531,27.344,21.973,18.555,12.695,0.000,0.000,0.000
149572.088,21.973,30.273,24.902,19.043,20.020,0.000,0.000,0.000
149572.092,27.832,35.645,29.785,21.484,27.344,0.000,0.000,0.000
149572.096,28.809,36.133,30.762,21.484,30.273,0.000,0.000,0.000
149572.100,24.902,38.574,29.785,18.555,29.297,0.000,0.000,0.000
149572.104,23.926,41.504,26.367,21.973,31.250,0.000,0.000,0.000
149572.105,28.320,38.086,24.902,25.391,36.133,0.000,0.000,0.000
149572.109,28.809,30.762,24.414,18.555,31.738,0.000,0.000,0.000
149572.113,25.879,26.367,22.461,11.719,26.855,0.000,0.000,0.000
149572.117,22.949,25.879,23.438,16.602,29.785,0.000,0.000,0.000
149572.121,21.484,23.438,23.438,20.996,28.809,0.000,0.000,0.000
149572.125,23.926,28.320,23.926,20.996,27.344,0.000,0.000,0.000
149572.129,24.902,33.203,26.367,22.461,31.250,0.000,0.000,0.000
149572.133,21.484,29.785,28.809,23.926,31.738,0.000,0.000,0.000
149572.136,21.484,31.250,27.344,27.344,30.273,0.000,0.000,0.000
149572.140,25.391,32.227,26.367,27.832,33.691,0.000,0.000,0.000
149572.144,28.809,30.762,26.855,26.367,36.621,0.000,0.000,0.000
149572.148,29.785,29.785,25.391,26.855,35.156,0.000,0.000,0.000
149572.151,24.414,30.762,25.391,28.320,24.902,0.000,0.000,0.000
149572.155,25.391,30.762,25.879,29.785,24.902,0.000,0.000,0.000
149572.159,29.297,26.855,28.809,26.367,29.297,0.000,0.000,0.000
149572.163,29.297,26.855,29.785,25.391,35.156,0.000,0.000,0.000
149572.167,24.902,28.809,31.250,24.902,35.645,0.000,0.000,0.000
149572.171,22.461,31.738,31.738,22.461,29.297,0.000,0.000,0.000
149572.175,27.832,35.645,25.879,17.090,26.367,0.000,0.000,0.000
149572.179,27.344,35.156,18.555,13.184,26.855,0.000,0.000,0.000
149572.183,19.531,30.762,17.578,13.672,27.344,0.000,0.000,0.000
149572.187,14.160,21.973,20.996,12.207,26.855,0.000,0.000,0.000
149572.190,12.207,21.973,21.973,10.742,28.320,0.000,0.000,0.000
149572.194,13.672,27.832,20.508,11.230,27.832,0.000,0.000,0.000
149572.196,14.648,29.297,19.531,14.648,33.203,0.000,0.000,0.000
149572.200,9.277,25.879,19.043,14.648,29.297,0.000,0.000,0.000
149572.203,9.766,23.438,21.484,14.160,20.996,0.000,0.000,0.000
149572.207,13.672,21.973,26.855,15.137,17.090,0.000,0.000,0.000
149572.211,13.672,21.484,27.344,13.672,14.648,0.000,0.000,0.000
149572.215,11.230,19.531,26.855,17.090,12.207,0.000,0.000,0.000
149572.219,7.324,17.090,26.367,15.625,10.254,0.000,0.000,0.000
149572.223,10.742,20.508,22.461,13.184,17.090,0.000,0.000,0.000
149572.227,14.648,24.414,19.043,15.625,11.719,0.000,0.000,0.000
149572.231,10.254,25.391,17.578,15.137,4.395,0.000,0.000,0.000
149572.235,8.789,23.926,21.973,16.602,11.230,0.000,0.000,0.000
149572.239,10.742,27.832,24.414,15.625,11.719,0.000,0.000,0.000
149572.241,14.648,31.738,23.438,13.672,12.695,0.000,0.000,0.000
149572.244,13.672,29.297,27.344,14.648,15.625,0.000,0.000,0.000
149572.248,7.812,29.297,30.273,17.578,13.672,0.000,0.000,0.000
149572.252,12.207,27.832,29.297,20.020,22.461,0.000,0.000,0.000
149572.256,19.043,26.367,27.344,19.531,23.438,0.000,0.000,0.000
149572.260,16.602,28.320,25.391,20.020,15.625,0.000,0.000,0.000
149572.264,14.648,31.250,24.902,20.508,15.137,0.000,0.000,0.000
149572.268,18.066,31.250,21.484,19.043,17.090,0.000,0.000,0.000
149572.272,20.508,27.832,19.043,18.555,18.555,0.000,0.000,0.000
149572.276,22.949,29.297,20.508,21.973,20.996,0.000,0.000,0.000
149572.280,25.879,36.621,25.391,25.391,26.855,0.000,0.000,0.000
149572.283,27.832,36.133,28.320,26.367,33.203,0.000,0.000,0.000
149572.286,27.832,33.203,31.738,26.855,37.598,0.000,0.000,0.000
149572.290,28.809,33.691,33.203,26.367,42.969,0.000,0.000,0.000
149572.294,26.855,29.785,27.344,25.391,42.480,0.000,0.000,0.000
149572.297,20.508,25.391,21.484,21.973,33.691,0.000,0.000,0.000
149572.301,18.555,25.879,18.066,16.113,21.484,0.000,0.000,0.000
149572.305,21.973,26.367,16.602,14.648,25.879,0.000,0.000,0.000
149572.309,20.996,29.785,19.043,18.066,24.902,0.000,0.000,0.000
149572.313,18.555,33.691,19.531,18.555,18.555,0.000,0.000,0.000
149572.317,19.531,36.133,14.160,16.113,27.832,0.000,0.000,0.000
149572.321,22.461,33.203,14.648,16.113,32.227,0.000,0.000,0.000
149572.325,24.902,28.809,22.949,22.949,31.250,0.000,0.000,0.000
149572.329,23.926,29.785,28.809,28.809,31.250,0.000,0.000,0.000
149572.330,21.973,31.250,32.715,27.344,28.809,0.000,0.000,0.000
149572.334,24.902,29.297,31.738,27.832,28.809,0.000,0.000,0.000
149572.338,26.367,28.320,29.297,29.785,32.227,0.000,0.000,0.000
149572.342,21.484,32.715,26.367,28.320,24.902,0.000,0.000,0.000
149572.346,18.066,40.527,23.926,24.414,14.648,0.000,0.000,0.000
149572.350,19.531,40.039,24.902,23.438,20.020,0.000,0.000,0.000
149572.354,20.508,33.691,22.461,23.926,31.250,0.000,0.000,0.000
149572.358,17.090,29.785,21.973,23.438,34.668,0.000,0.000,0.000
149572.361,18.066,30.762,26.367,25.879,34.668,0.000,0.000,0.000
149572.365,25.879,29.297,29.785,31.250,35.645,0.000,0.000,0.000
149572.369,29.785,26.855,33.691,33.691,37.109,0.000,0.000,0.000
149572.373,23.926,30.273,35.645,31.250,28.809,0.000,0.000,0.000
149572.391,20.020,31.738,31.250,29.785,22.461,0.000,0.000,0.000
149572.395,20.020,31.738,24.902,26.855,23.438,0.000,0.000,0.000
149572.398,20.020,31.250,22.461,25.879,20.996,0.000,0.000,0.000
149572.402,22.949,26.855,25.879,29.297,28.320,0.000,0.000,0.000
149572.406,23.438,25.879,28.809,28.320,31.250,0.000,0.000,0.000
149572.410,25.879,28.809,31.250,27.832,21.973,0.000,0.000,0.000
149572.414,27.344,27.832,28.320,26.367,21.973,0.000,0.000,0.000
149572.418,24.902,25.879,20.508,26.367,25.391,0.000,0.000,0.000
149572.422,19.531,22.461,19.043,29.785,24.414,0.000,0.000,0.000
149572.426,20.996,23.438,25.391,31.738,24.902,0.000,0.000,0.000
149572.430,25.391,33.691,30.762,27.344,26.855,0.000,0.000,0.000
149572.434,21.973,32.227,28.809,19.531,22.949,0.000,0.000,0.000
149572.436,18.066,25.879,25.879,18.555,21.484,0.000,0.000,0.000
149572.440,20.508,28.320,27.344,21.484,22.461,0.000,0.000,0.000
149572.443,22.949,30.762,25.879,18.555,24.414,0.000,0.000,0.000
149572.447,25.391,32.227,25.879,17.090,21.484,0.000,0.000,0.000
149572.451,24.902,34.180,27.344,23.438,22.949,0.000,0.000,0.000
149572.455,20.508,35.156,28.320,24.902,22.461,0.000,0.000,0.000
149572.459,23.438,37.109,25.879,23.438,23.926,0.000,0.000,0.000
149572.463,30.762,35.156,25.391,29.297,33.203,0.000,0.000,0.000
149572.467,30.762,32.715,28.809,29.785,34.668,0.000,0.000,0.000
149572.471,26.367,35.645,27.832,26.855,30.273,0.000,0.000,0.000
149572.475,25.879,36.133,26.855,25.391,30.762,0.000,0.000,0.000
149572.479,29.297,40.527,32.715,25.879,37.109,0.000,0.000,0.000
149572.480,28.320,42.969,34.668,23.926,35.156,0.000,0.000,0.000
149572.484,24.902,41.504,34.180,21.973,29.785,0.000,0.000,0.000
149572.488,22.461,39.551,29.297,23.438,21.484,0.000,0.000,0.000
149572.492,22.949,33.691,24.902,23.438,24.414,0.000,0.000,0.000
149572.496,28.809,31.738,25.879,25.879,31.738,0.000,0.000,0.000
149572.500,25.391,33.203,26.367,24.414,26.855,0.000,0.000,0.000
149572.504,21.484,33.691,27.344,22.461,29.297,0.000,0.000,0.000
149572.508,26.855,30.762,32.227,23.438,33.203,0.000,0.000,0.000
149572.512,26.855,31.250,35.156,22.461,32.227,0.000,0.000,0.000
149572.516,20.508,38.574,28.320,20.508,29.297,0.000,0.000,0.000
149572.519,17.090,37.598,21.484,18.555,23.926,0.000,0.000,0.000
149572.523,18.066,34.180,18.555,13.672,17.090,0.000,0.000,0.000
149572.526,18.555,33.691,17.578,7.812,18.555,0.000,0.000,0.000
149572.530,18.555,30.762,19.043,8.301,18.555,0.000,0.000,0.000
149572.533,19.043,31.250,20.996,15.625,20.996,0.000,0.000,0.000
149572.537,16.113,31.738,20.996,15.137,26.855,0.000,0.000,0.000
149572.541,20.996,30.762,18.066,13.184,28.809,0.000,0.000,0.000
149572.545,26.367,34.668,18.555,17.090,33.691,0.000,0.000,0.000
149572.549,21.484,34.180,22.949,20.996,29.785,0.000,0.000,0.000
149572.553,17.578,27.832,22.461,20.996,22.461,0.000,0.000,0.000
149572.557,18.555,26.855,23.438,20.020,21.484,0.000,0.000,0.000
149572.561,20.508,28.320,27.832,20.508,22.949,0.000,0.000,0.000
149572.565,20.508,26.855,28.809,22.461,21.484,0.000,0.000,0.000
149572.569,19.531,27.832,28.320,26.367,21.484,0.000,0.000,0.000
149572.571,21.484,28.809,27.832,23.926,25.879,0.000,0.000,0.000
149572.575,21.484,28.320,23.438,20.508,27.344,0.000,0.000,0.000
149572.578,20.508,26.367,20.996,25.879,30.273,0.000,0.000,0.000
149572.582,18.555,28.809,18.066,31.250,35.645,0.000,0.000,0.000
149572.586,17.578,31.250,18.555,31.250,33.203,0.000,0.000,0.000
149572.590,21.484,27.344,24.902,25.879,28.809,0.000,0.000,0.000
149572.594,21.484,23.926,28.809,26.855,29.785,0.000,0.000,0.000
149572.598,23.438,28.320,32.715,32.715,30.273,0.000,0.000,0.000
149572.602,24.414,27.344,32.715,27.832,26.367,0.000,0.000,0.000
149572.606,20.508,21.973,29.785,21.973,22.461,0.000,0.000,0.000
149572.610,17.578,27.344,27.832,19.043,16.602,0.000,0.000,0.000
149572.614,16.113,32.227,20.020,19.043,17.090,0.000,0.000,0.000
149572.616,15.625,34.668,16.113,18.066,20.020,0.000,0.000,0.000
149572.619,15.625,33.203,20.508,12.207,19.531,0.000,0.000,0.000
149572.623,15.137,30.273,26.367,11.719,23.926,0.000,0.000,0.000
149572.627,12.207,30.273,28.809,13.672,20.020,0.000,0.000,0.000
149572.631,11.719,29.297,28.809,15.137,19.043,0.000,0.000,0.000
149572.635,17.578,28.320,26.855,14.160,24.414,0.000,0.000,0.000
149572.639,23.438,31.250,23.926,14.648,25.879,0.000,0.000,0.000
149572.643,21.484,30.273,25.391,14.648,27.832,0.000,0.000,0.000
149572.647,18.555,27.832,27.832,17.090,28.320,0.000,0.000,0.000
149572.651,21.484,32.715,21.973,20.020,29.297,0.000,0.000,0.000
149572.655,23.438,33.203,18.066,21.973,26.855,0.000,0.000,0.000
149572.659,19.043,29.297,22.949,23.926,26.367,0.000,0.000,0.000
149572.663,14.648,27.344,23.926,26.855,32.227,0.000,0.000,0.000
149572.666,16.113,28.320,26.855,28.320,36.621,0.000,0.000,0.000
149572.670,21.973,30.273,31.738,26.855,33.691,0.000,0.000,0.000
149572.674,23.438,29.785,35.645,24.414,25.879,0.000,0.000,0.000
149572.678,22.949,30.762,36.621,27.832,35.645,0.000,0.000,0.000
149572.682,24.902,36.133,32.227,32.227,41.016,0.000,0.000,0.000
149572.686,25.879,36.133,31.738,28.320,32.227,0.000,0.000,0.000
149572.690,24.414,33.691,29.785,24.902,32.227,0.000,0.000,0.000
149572.694,20.020,31.738,25.879,26.855,31.738,0.000,0.000,0.000
149572.698,16.602,29.785,27.344,28.320,35.645,0.000,0.000,0.000
149572.702,19.531,29.297,33.203,30.762,44.434,0.000,0.000,0.000
149572.706,18.555,27.344,35.645,25.391,42.969,0.000,0.000,0.000
149572.720,16.602,22.949,30.762,21.973,36.133,0.000,0.000,0.000
149572.724,17.090,29.297,28.320,25.391,34.180,0.000,0.000,0.000
149572.728,19.531,39.062,28.809,23.926,38.574,0.000,0.000,0.000
149572.732,22.949,36.133,27.832,23.438,43.945,0.000,0.000,0.000
149572.736,22.461,31.250,27.832,19.531,38.574,0.000,0.000,0.000
149572.740,22.461,34.180,27.344,19.531,32.227,0.000,0.000,0.000
149572.744,24.414,36.133,24.902,20.996,29.297,0.000,0.000,0.000
149572.748,27.344,34.180,24.902,18.555,23.926,0.000,0.000,0.000
149572.752,26.855,33.691,20.996,17.090,24.414,0.000,0.000,0.000
149572.756,22.461,29.785,15.137,17.578,32.715,0.000,0.000,0.000
149572.760,19.043,27.832,18.555,18.066,33.691,0.000,0.000,0.000
149572.763,19.043,31.738,21.484,16.113,25.391,0.000,0.000,0.000
149572.765,22.461,29.297,20.996,17.090,27.344,0.000,0.000,0.000
149572.769,25.879,27.832,21.973,24.414,36.621,0.000,0.000,0.000
149572.773,24.414,29.297,24.414,26.855,36.621,0.000,0.000,0.000
