timestamps,TP9,AF7,AF8,TP10,Right AUX,Marker
1486824225.488,133.301,26.855,35.156,175.781,25.879,0
1486824225.492,61.035,34.180,27.832,180.664,135.254,0
1486824225.496,-51.270,33.203,37.598,25.391,139.648,0
1486824225.500,-49.316,27.832,39.062,-110.352,12.695,0
1486824225.503,70.312,26.855,35.645,-22.949,-66.895,0
1486824225.507,126.465,24.414,34.180,162.598,46.875,0
1486824225.511,78.125,27.832,34.668,188.965,125.488,0
1486824225.515,-31.250,34.668,38.574,46.875,130.371,0
1486824225.519,-72.266,34.668,34.180,-109.863,58.594,0
1486824225.523,41.992,32.715,30.273,-55.176,-76.172,0
1486824225.527,135.254,32.227,33.203,149.902,-25.391,0
1486824225.531,93.750,33.203,44.434,202.637,91.309,0
1486824225.535,-29.785,34.668,47.852,66.895,149.414,0
1486824225.539,-79.590,31.738,38.574,-91.309,71.777,0
1486824225.543,41.504,28.809,35.156,-59.082,-69.824,0
1486824225.546,135.254,30.273,33.203,134.277,-12.207,0
1486824225.550,104.004,32.715,38.574,208.984,100.586,0
1486824225.554,-11.230,32.715,40.527,98.633,108.887,0
1486824225.558,-76.172,32.715,37.598,-68.848,34.180,0
1486824225.562,35.645,29.785,38.086,-61.523,-79.102,0
1486824225.566,129.883,23.438,37.109,128.906,-43.457,0
1486824225.570,111.816,27.832,41.992,215.332,87.402,0
1486824225.574,16.602,35.645,46.875,126.953,128.906,0
1486824225.578,-66.895,37.109,46.875,-43.457,71.777,0
1486824225.582,23.926,34.180,42.969,-82.031,-48.828,0
1486824225.585,132.324,30.273,33.691,90.332,-25.879,0
1486824225.589,121.582,31.250,33.691,205.078,107.422,0
1486824225.593,23.926,33.691,45.898,135.742,141.602,0
1486824225.597,-79.590,33.203,44.434,-40.527,79.102,0
1486824225.601,-8.789,30.762,35.645,-106.445,-35.645,0
1486824225.605,117.676,27.344,35.156,72.266,-41.504,0
1486824225.609,123.535,27.344,43.457,212.891,92.285,0
1486824225.613,30.762,31.738,49.805,152.832,150.879,0
1486824225.617,-64.941,30.762,48.828,-8.301,118.164,0
1486824225.621,-21.973,27.344,39.062,-106.445,5.371,0
1486824225.625,100.586,26.367,32.227,33.691,-38.574,0
1486824225.628,136.719,29.297,34.668,203.613,63.965,0
1486824225.632,59.570,29.297,37.109,171.875,120.605,0
1486824225.636,-53.711,27.344,41.504,7.324,112.305,0
1486824225.640,-38.574,29.297,39.062,-110.352,17.090,0
1486824225.644,86.426,29.785,32.715,16.113,-33.691,0
1486824225.648,132.324,28.320,42.480,202.148,38.086,0
1486824225.652,71.289,31.738,52.246,179.688,125.488,0
1486824225.656,-44.434,32.227,53.711,13.184,121.582,0
1486824225.660,-49.316,32.227,44.922,-105.957,15.625,0
1486824225.664,77.148,33.203,35.645,-3.418,-51.758,0
1486824225.667,134.766,27.832,38.086,188.965,13.184,0
1486824225.671,77.148,29.297,42.480,200.684,100.586,0
1486824225.675,-38.574,30.762,44.922,44.922,108.398,0
1486824225.679,-60.547,27.344,41.504,-94.238,22.461,1
1486824225.683,62.500,26.855,37.109,-20.996,-46.875,0
1486824225.687,129.395,28.809,39.062,171.875,17.578,0
1486824225.691,83.984,28.809,41.504,202.637,93.262,0
1486824225.695,-24.902,29.297,35.645,65.430,116.699,0
1486824225.699,-77.148,26.367,37.109,-97.656,13.184,0
1486824225.703,35.156,22.461,39.062,-65.918,-92.773,0
1486824225.707,127.930,24.414,39.551,143.555,12.207,0
1486824225.710,95.215,26.367,45.410,207.031,128.906,0
1486824225.714,-16.602,28.320,46.387,84.961,147.949,0
1486824225.718,-73.242,31.738,41.016,-80.566,38.086,0
1486824225.722,29.785,27.344,38.086,-75.684,-104.980,0
1486824225.726,129.883,24.902,38.574,127.441,-47.363,0
1486824225.730,115.723,31.250,39.062,221.191,77.148,0
1486824225.734,10.254,33.691,42.480,117.676,123.535,0
1486824225.738,-68.359,34.180,44.922,-61.523,40.527,0
1486824225.742,20.996,33.203,42.969,-93.262,-109.863,0
1486824225.746,134.277,30.762,39.551,100.586,-77.637,0
1486824225.750,122.070,29.785,40.039,220.215,38.086,0
1486824225.753,13.672,33.691,41.504,132.324,70.801,0
1486824225.757,-73.730,31.250,41.504,-41.016,29.785,0
1486824225.761,-6.836,26.367,39.551,-99.121,-84.473,0
1486824225.765,116.211,29.297,39.062,80.078,-68.359,0
1486824225.769,130.371,30.762,39.062,223.145,66.895,0
1486824225.773,43.945,28.320,44.434,159.668,143.555,0
1486824225.777,-61.523,29.785,48.828,-22.461,111.328,0
1486824225.781,-20.508,32.715,45.898,-103.516,-53.711,0
1486824225.785,114.746,29.297,42.480,60.547,-108.887,0
1486824225.789,136.230,26.855,39.062,209.961,42.480,0
1486824225.792,52.246,32.715,42.480,160.156,110.352,0
1486824225.796,-47.852,33.691,46.387,2.441,65.918,0
1486824225.800,-31.250,30.273,40.039,-106.934,-9.277,0
1486824225.804,105.469,30.762,37.109,28.809,-62.012,0
1486824225.808,158.691,37.109,42.969,208.984,29.785,0
1486824225.812,89.355,35.156,48.340,176.270,100.098,0
1486824225.816,-32.227,32.715,45.410,22.949,117.676,0
1486824225.820,-31.250,31.738,38.574,-107.910,-10.742,0
1486824225.824,98.145,27.344,34.668,-2.930,-114.258,0
1486824225.828,145.020,27.344,35.645,194.336,-7.812,0
1486824225.832,83.496,26.367,42.480,205.566,73.730,0
1486824225.835,-35.645,29.297,40.527,49.805,75.684,0
1486824225.839,-56.641,30.273,39.062,-105.957,-11.230,0
1486824225.843,75.195,30.273,41.016,-23.926,-91.797,0
1486824225.847,135.742,32.227,39.062,182.617,6.348,0
1486824225.851,75.684,33.203,39.551,208.984,93.262,0
1486824225.855,-34.668,33.691,41.504,61.523,112.793,0
1486824225.859,-68.359,30.273,39.062,-101.562,35.156,0
1486824225.863,48.340,25.391,34.668,-53.223,-106.445,0
1486824225.867,132.324,25.391,35.645,152.832,-19.531,0
1486824225.871,94.727,25.879,36.621,206.543,100.586,0
1486824225.875,-16.602,29.785,36.621,85.449,129.395,0
1486824225.878,-72.754,33.691,35.156,-89.355,57.617,0
1486824225.882,37.109,27.344,33.203,-83.008,-86.426,0
1486824225.886,132.812,23.438,34.180,128.906,7.812,0
1486824225.890,104.492,32.227,34.668,211.914,143.555,0
1486824225.894,9.766,35.645,38.574,106.445,122.559,0
1486824225.898,-72.266,31.738,42.969,-69.824,64.453,0
1486824225.902,19.043,30.273,41.504,-81.543,-50.293,0
1486824225.906,132.812,30.273,37.109,114.258,-33.203,0
1486824225.910,121.094,30.273,40.039,217.285,98.633,0
1486824225.914,26.855,32.715,42.480,141.602,133.789,0
1486824225.917,-62.012,34.668,40.527,-52.246,86.426,0
1486824225.921,6.348,27.832,36.621,-110.352,-41.992,0
1486824225.925,129.883,23.926,34.668,91.309,-47.852,0
1486824225.929,130.371,31.250,33.691,223.633,70.801,0
1486824225.933,31.250,39.551,37.109,156.250,119.629,0
1486824225.937,-61.035,36.621,43.945,-20.996,95.215,0
1486824225.941,-7.324,27.832,41.504,-100.586,-23.438,0
1486824225.945,109.863,26.367,34.668,64.941,-55.664,0
1486824225.949,134.277,29.785,35.645,214.355,65.918,0
1486824225.953,52.734,34.180,42.480,171.387,130.371,0
1486824225.957,-55.664,36.621,43.945,-10.254,71.777,0
1486824225.960,-19.531,35.156,40.039,-111.328,-65.918,0
1486824225.964,101.074,31.738,35.156,35.645,-106.445,0
1486824225.968,144.531,31.738,35.156,205.078,44.922,0
1486824225.972,77.637,32.715,41.016,188.965,145.996,0
1486824225.976,-43.945,32.715,38.086,9.277,100.098,0
1486824225.980,-43.457,29.785,30.273,-116.211,-11.719,0
1486824225.984,78.613,26.855,31.250,5.371,-85.938,0
1486824225.988,133.301,28.320,36.621,185.547,24.414,0
1486824225.992,73.242,30.762,45.898,190.430,130.859,0
1486824225.996,-42.480,35.156,49.805,33.691,122.070,0
1486824225.999,-53.711,32.227,38.574,-113.281,9.277,0
1486824226.003,69.336,24.414,36.621,-20.996,-97.656,0
1486824226.007,138.184,30.762,35.156,172.363,20.996,0
1486824226.011,80.566,35.156,36.133,190.918,138.184,0
1486824226.015,-32.715,33.691,39.062,40.527,134.277,0
1486824226.019,-55.664,32.715,36.133,-99.121,64.453,0
1486824226.023,59.570,31.738,31.738,-32.227,-7.812,0
1486824226.027,136.230,30.762,31.250,153.320,45.410,0
1486824226.031,98.145,29.785,37.598,207.031,119.141,0
1486824226.035,-9.766,33.203,41.016,73.242,139.648,0
1486824226.039,-61.035,33.691,42.969,-89.355,69.824,0
1486824226.042,40.527,32.227,38.574,-47.363,-39.062,0
1486824226.046,140.625,33.691,38.086,150.391,7.324,0
1486824226.050,117.188,34.668,41.992,227.539,145.020,0
1486824226.054,3.906,35.645,43.457,109.863,169.922,0
1486824226.058,-66.406,34.668,40.527,-65.430,61.035,0
1486824226.062,18.555,30.273,39.551,-74.707,-75.684,0
1486824226.066,125.000,27.344,39.062,119.629,-14.160,0
1486824226.070,107.910,27.832,38.574,226.074,125.977,0
1486824226.074,4.395,31.250,41.504,106.445,136.230,0
1486824226.078,-76.172,29.785,42.480,-73.242,51.758,0
1486824226.082,4.395,26.855,40.039,-91.309,-73.242,0
1486824226.085,122.070,31.250,36.621,87.402,-50.293,0
1486824226.089,111.328,30.762,37.598,210.449,87.891,0
1486824226.093,10.254,26.855,42.480,127.930,160.645,0
1486824226.097,-82.031,26.855,40.527,-45.410,98.145,0
1486824226.101,-23.438,28.809,36.621,-113.281,-41.504,0
1486824226.105,100.098,30.762,41.504,47.852,-36.621,0
1486824226.109,117.676,30.762,42.480,210.938,82.520,0
1486824226.113,31.738,32.715,44.434,154.297,158.691,0
1486824226.117,-68.848,34.180,47.852,-24.902,120.605,0
1486824226.121,-37.109,30.273,41.016,-101.562,-35.156,0
1486824226.124,95.215,26.855,35.156,39.062,-99.609,0
1486824226.128,148.438,29.297,34.668,209.473,54.199,0
1486824226.132,68.848,32.715,39.551,178.711,154.785,0
1486824226.136,-50.293,33.691,42.480,0.000,83.496,0
1486824226.140,-41.016,29.297,40.039,-104.004,-24.414,0
1486824226.144,84.473,24.902,35.645,15.137,-95.703,0
1486824226.148,137.695,26.855,37.598,201.660,31.738,0
1486824226.152,65.430,33.203,41.504,183.105,161.133,0
1486824226.156,-53.711,36.133,41.016,11.230,120.117,0
1486824226.160,-60.059,33.691,42.480,-105.469,-19.043,0
1486824226.164,70.801,26.367,43.945,-9.277,-70.801,0
1486824226.167,134.766,24.902,38.086,182.129,25.391,0
1486824226.171,76.172,32.227,39.551,193.359,104.492,0
1486824226.175,-23.438,36.621,44.922,55.664,128.418,0
1486824226.179,-53.711,35.156,41.992,-81.543,24.414,0
1486824226.183,51.758,30.762,39.062,-31.738,-85.938,0
1486824226.187,131.836,31.738,37.109,165.527,16.602,0
1486824226.191,88.867,34.668,36.621,208.496,124.512,0
1486824226.195,-18.066,35.645,40.527,78.125,159.668,0
1486824226.199,-72.754,35.645,41.992,-79.590,69.336,0
1486824226.203,37.598,29.297,33.203,-63.477,-41.504,0
1486824226.207,133.789,30.273,33.203,133.301,37.598,0
1486824226.210,98.633,35.156,40.039,205.566,137.207,0
1486824226.214,-18.066,34.180,41.504,83.496,153.320,0
1486824226.218,-81.055,32.227,42.480,-78.613,57.617,0
1486824226.222,21.973,30.762,33.691,-87.402,-103.516,0
1486824226.226,123.535,33.691,32.227,110.352,-30.273,0
1486824226.230,109.863,39.062,39.062,213.867,108.398,0
1486824226.234,5.371,37.598,37.598,112.305,161.621,0
1486824226.238,-71.777,34.668,40.039,-53.223,79.590,0
1486824226.242,4.883,28.809,38.086,-86.914,-61.035,0
1486824226.246,111.328,26.855,35.156,84.961,-35.156,0
1486824226.249,112.305,26.855,39.551,212.402,78.613,0
1486824226.253,15.137,29.785,44.922,149.414,145.996,0
1486824226.257,-71.777,33.203,46.875,-32.227,71.777,0
1486824226.261,-13.672,29.297,41.992,-100.586,-68.848,0
1486824226.265,110.840,25.391,37.109,67.383,-60.547,0
1486824226.269,127.930,27.344,32.227,209.961,51.758,0
1486824226.273,40.527,31.250,33.203,149.414,106.934,0
1486824226.277,-61.035,30.762,42.969,-21.973,53.223,0
1486824226.281,-26.855,26.367,42.480,-112.305,-66.406,0
1486824226.285,95.215,24.902,38.086,33.203,-103.027,0
1486824226.289,125.488,24.902,42.480,202.637,7.324,0
1486824226.292,55.176,26.855,42.969,170.898,111.816,0
1486824226.296,-49.316,34.180,40.039,9.766,122.559,0
1486824226.300,-33.691,35.645,38.086,-101.074,-20.508,0
1486824226.304,89.355,30.762,38.086,19.043,-99.121,0
1486824226.308,133.789,33.203,38.086,193.359,70.801,0
1486824226.312,77.148,36.133,40.039,179.199,141.602,0
1486824226.316,-34.180,35.156,42.969,23.926,89.355,0
1486824226.320,-40.039,36.133,39.551,-103.516,13.672,0
1486824226.324,81.055,31.738,36.621,-0.977,-72.754,0
1486824226.328,132.812,31.250,36.621,183.105,11.719,0
1486824226.331,84.473,34.180,36.621,188.477,148.438,0
1486824226.335,-37.598,32.227,38.574,50.781,144.531,0
1486824226.339,-67.383,28.320,41.504,-99.121,21.973,0
1486824226.343,62.988,25.391,42.480,-32.227,-71.777,0
1486824226.347,134.766,26.855,36.621,169.922,30.762,1
1486824226.351,94.238,34.180,37.598,206.055,123.047,0
1486824226.355,-14.160,39.551,46.875,81.055,150.879,0
1486824226.359,-65.430,32.227,45.410,-81.055,38.574,0
1486824226.363,49.805,23.926,40.527,-47.852,-93.262,0
1486824226.367,151.367,29.297,37.109,157.227,31.250,0
1486824226.371,109.375,34.668,41.504,226.562,149.414,0
1486824226.374,-8.301,35.156,46.875,109.863,176.758,0
1486824226.378,-60.059,32.715,43.945,-60.547,85.938,0
1486824226.382,44.434,31.250,40.527,-65.918,-66.895,0
1486824226.386,147.949,31.250,42.480,131.348,-42.480,0
1486824226.390,120.605,33.203,43.457,230.469,87.402,0
1486824226.394,10.254,34.668,48.828,129.395,162.598,0
1486824226.398,-69.824,33.691,47.852,-56.641,95.215,0
1486824226.402,19.043,31.250,33.691,-93.262,-67.871,0
1486824226.406,145.508,30.762,32.227,100.586,-41.992,0
1486824226.410,124.512,35.156,40.527,206.543,86.914,0
1486824226.414,20.020,36.133,38.574,127.441,134.277,0
1486824226.417,-70.801,33.691,35.645,-38.086,91.797,0
1486824226.421,-12.695,30.273,36.621,-97.656,-27.832,0
1486824226.425,103.516,27.832,37.109,90.332,-38.086,0
1486824226.429,111.816,25.879,43.457,228.516,64.941,0
1486824226.433,29.785,28.320,45.898,159.668,131.348,0
1486824226.437,-67.383,30.273,40.527,-2.441,114.746,0
1486824226.441,-16.602,28.809,35.645,-90.820,19.043,0
1486824226.445,119.141,32.227,34.180,58.105,-43.457,0
1486824226.449,148.926,34.180,38.086,219.727,51.270,0
1486824226.453,59.570,31.738,45.410,174.805,112.305,0
1486824226.456,-52.246,34.180,44.434,3.906,109.375,0
1486824226.460,-27.832,31.738,36.133,-102.051,6.348,0
1486824226.464,97.656,29.785,34.180,27.344,-87.402,0
1486824226.468,136.230,31.738,36.133,200.195,46.875,0
1486824226.472,61.523,32.715,38.574,182.617,144.531,0
1486824226.476,-51.758,35.156,39.551,21.973,141.113,0
1486824226.480,-47.852,30.273,39.062,-107.422,42.969,0
1486824226.484,73.730,28.320,31.250,-12.207,-48.828,0
1486824226.488,125.000,28.809,31.738,166.504,31.738,0
1486824226.492,63.477,26.855,42.480,174.316,122.070,0
1486824226.496,-49.805,30.762,39.551,34.180,114.258,0
1486824226.499,-64.453,33.203,31.250,-103.027,22.949,0
1486824226.503,60.059,30.273,35.156,-38.574,-81.055,0
1486824226.507,126.465,30.762,38.574,153.320,-1.953,0
1486824226.511,76.172,35.156,37.598,196.289,108.398,0
1486824226.515,-30.273,36.621,39.062,55.176,112.793,0
1486824226.519,-71.289,30.762,37.598,-110.352,9.277,0
1486824226.523,33.691,25.391,31.250,-70.312,-79.590,0
1486824226.527,110.352,25.391,30.273,143.555,38.574,0
1486824226.531,90.332,30.273,32.715,203.613,171.875,0
1486824226.535,-14.648,32.715,35.645,73.730,186.035,0
1486824226.538,-80.078,32.715,39.551,-89.844,81.055,0
1486824226.542,25.879,32.227,41.016,-73.242,-15.625,0
1486824226.546,126.953,27.344,40.039,122.070,22.461,0
1486824226.550,109.375,29.785,38.574,219.727,98.633,0
1486824226.554,11.719,36.621,46.875,129.883,152.832,0
1486824226.558,-56.152,35.156,45.898,-54.688,62.012,0
1486824226.562,43.457,34.668,42.969,-79.102,-86.426,0
1486824226.566,149.414,36.621,43.945,115.723,-43.457,0
1486824226.570,134.766,34.180,36.133,229.492,78.613,0
1486824226.574,36.621,32.715,34.180,136.230,128.418,0
1486824226.578,-56.641,31.250,40.527,-45.410,62.500,0
1486824226.581,13.184,27.832,41.016,-89.844,-63.477,0
1486824226.585,134.277,33.691,40.039,88.379,-40.039,0
1486824226.589,131.348,35.156,37.598,215.332,94.727,0
1486824226.593,40.527,30.762,36.133,156.738,114.258,0
1486824226.597,-62.012,31.738,41.504,-19.043,85.449,0
1486824226.601,-22.461,28.809,39.062,-106.445,-20.020,0
1486824226.605,100.586,24.414,38.086,50.781,-30.273,0
1486824226.609,124.023,28.809,44.434,204.102,76.660,0
1486824226.613,41.016,33.203,47.363,169.434,120.605,0
1486824226.617,-68.848,31.738,45.898,-1.953,98.633,0
1486824226.621,-41.504,27.832,41.992,-108.887,-8.301,0
1486824226.624,90.820,26.855,37.109,20.996,-53.223,0
1486824226.628,123.535,30.273,37.598,185.059,45.898,0
1486824226.632,49.316,31.250,41.504,171.387,130.859,0
1486824226.636,-52.246,32.227,46.875,12.207,127.930,0
1486824226.640,-42.969,30.762,41.504,-112.305,-13.672,0
1486824226.644,82.031,28.320,35.645,-9.766,-97.168,0
1486824226.648,133.301,30.762,37.109,174.805,24.414,0
1486824226.652,75.684,35.156,41.016,184.570,107.422,0
1486824226.656,-41.992,34.668,44.434,35.645,107.422,0
1486824226.660,-61.523,30.273,38.086,-104.492,23.438,0
1486824226.663,73.730,32.715,36.621,-30.273,-46.875,0
1486824226.667,141.602,34.668,41.992,165.527,37.598,0
1486824226.671,82.031,32.715,39.551,196.289,134.766,0
1486824226.675,-31.738,34.180,41.016,43.457,139.160,0
1486824226.679,-71.289,31.738,39.062,-108.398,20.508,0
1486824226.683,44.434,27.344,33.691,-60.547,-66.895,0
1486824226.687,134.766,29.785,37.109,138.184,34.180,0
1486824226.691,95.215,29.785,41.992,206.055,82.031,0
1486824226.695,-20.996,34.668,42.480,75.195,75.684,0
1486824226.699,-74.219,33.691,42.480,-87.402,41.504,0
1486824226.703,38.086,27.832,40.527,-74.219,-69.336,0
1486824226.706,134.277,31.738,37.109,126.953,-35.156,0
1486824226.710,106.445,30.762,42.480,217.773,102.051,0
1486824226.714,1.465,32.227,42.480,101.562,134.277,0
1486824226.718,-67.383,35.645,39.062,-72.754,15.625,0
1486824226.722,22.461,28.809,35.645,-94.727,-102.051,0
1486824226.726,124.512,24.902,29.785,95.215,-30.762,0
1486824226.730,115.234,30.273,34.668,210.449,87.402,0
1486824226.734,2.930,31.250,38.086,121.582,117.676,0
1486824226.738,-84.961,28.320,33.691,-47.363,62.500,0
1486824226.742,-2.441,28.320,30.273,-105.469,-79.102,0
1486824226.746,126.465,27.832,32.227,70.312,-83.008,0
1486824226.749,128.906,30.762,36.133,217.285,62.012,0
1486824226.753,31.250,34.180,42.969,141.602,149.414,0
1486824226.757,-58.594,35.156,45.410,-32.715,83.984,0
1486824226.761,-11.230,31.738,36.621,-105.469,-43.457,0
1486824226.765,108.887,32.227,31.738,50.293,-89.844,0
1486824226.769,133.301,35.156,32.715,217.773,41.992,0
1486824226.773,46.875,34.180,38.574,167.480,154.785,0
1486824226.777,-55.664,35.645,44.922,-10.742,113.281,0
1486824226.781,-25.391,34.668,35.645,-109.863,11.230,0
1486824226.785,102.051,30.273,33.203,33.691,-62.500,0
1486824226.788,144.531,31.738,39.551,215.332,16.113,0
1486824226.792,72.754,35.645,44.434,173.828,109.863,0
1486824226.796,-41.992,33.691,47.363,8.301,103.516,0
1486824226.800,-26.855,30.762,39.551,-110.352,-20.508,0
1486824226.804,97.168,31.738,31.250,-0.488,-77.148,0
1486824226.808,137.207,29.785,34.180,191.406,49.316,0
1486824226.812,75.195,32.227,41.016,181.152,132.324,0
1486824226.816,-39.551,33.691,49.316,38.574,137.695,0
1486824226.820,-51.758,31.250,45.898,-96.191,39.062,0
1486824226.824,67.871,25.391,38.574,-19.531,-32.227,0
1486824226.828,125.977,26.367,38.086,183.105,66.406,0
1486824226.831,76.172,31.738,41.016,195.801,111.816,0
1486824226.835,-38.086,34.180,43.945,53.711,115.723,0
1486824226.839,-65.430,36.621,37.598,-98.633,42.480,0
1486824226.843,69.336,35.156,35.156,-44.434,-49.805,0
1486824226.847,142.578,31.738,40.527,166.016,39.551,0
1486824226.851,95.215,33.691,43.457,210.938,142.090,0
1486824226.855,-9.766,34.180,48.340,83.984,169.434,0
1486824226.859,-65.430,27.832,45.898,-86.426,103.027,0
1486824226.863,41.016,30.273,35.645,-60.059,-25.879,0
1486824226.867,140.625,35.156,35.156,151.367,19.531,0
1486824226.870,104.004,29.297,40.527,207.520,118.164,0
1486824226.874,-8.301,29.297,39.062,86.426,146.484,0
1486824226.878,-64.941,31.250,34.668,-78.125,104.492,0
1486824226.882,20.508,26.855,31.250,-91.309,-29.785,0
1486824226.886,119.629,27.344,33.691,107.910,-18.555,0
1486824226.890,114.258,30.762,40.039,218.750,100.098,0
1486824226.894,0.488,30.273,43.457,118.164,156.250,0
1486824226.898,-73.242,29.785,41.992,-60.059,105.957,0
1486824226.902,3.906,26.855,37.109,-111.816,-48.340,0
1486824226.906,113.281,27.344,38.086,77.637,-33.203,0
1486824226.910,116.211,32.227,36.621,206.543,98.145,0
1486824226.913,0.488,31.250,37.109,125.000,146.973,0
1486824226.917,-95.215,27.344,40.039,-45.410,133.301,0
1486824226.921,-18.555,29.297,39.062,-113.281,-27.832,0
1486824226.925,111.328,36.133,37.598,68.848,-55.664,1
1486824226.929,125.977,39.062,34.180,212.891,85.449,0
1486824226.933,35.156,36.621,35.156,146.484,121.094,0
1486824226.937,-68.848,35.156,39.551,-25.391,82.031,0
1486824226.941,-26.855,35.156,29.785,-112.793,-22.949,0
1486824226.945,101.074,37.598,22.949,41.016,-83.008,0
1486824226.949,134.277,37.109,36.133,208.008,60.547,0
1486824226.953,47.852,33.691,41.016,174.316,154.785,0
1486824226.956,-64.453,34.668,39.062,6.836,132.324,0
1486824226.960,-43.945,33.203,39.551,-117.188,-5.371,0
1486824226.964,78.613,30.762,37.109,9.766,-83.984,0
1486824226.968,122.559,34.668,37.598,195.312,31.738,0
1486824226.972,50.293,33.203,44.922,184.082,118.164,0
1486824226.976,-61.035,31.738,48.828,24.902,112.793,0
1486824226.980,-62.500,33.203,38.574,-117.188,16.602,0
1486824226.984,67.871,28.809,33.691,-10.254,-49.805,0
1486824226.988,132.812,31.738,35.645,184.082,26.855,0
1486824226.992,82.031,36.133,39.062,189.941,110.352,0
1486824226.995,-33.691,35.645,37.109,36.133,140.625,0
1486824226.999,-64.941,33.691,33.203,-117.188,15.137,0
1486824227.003,54.688,28.809,36.621,-47.363,-86.914,0
1486824227.007,134.766,30.273,39.062,155.273,24.414,0
1486824227.011,99.609,33.691,41.992,205.078,132.812,0
1486824227.015,-20.508,36.133,45.898,67.871,143.555,0
1486824227.019,-66.895,33.691,45.898,-82.520,36.621,0
1486824227.023,47.852,31.738,41.992,-35.156,-69.336,0
1486824227.027,127.441,32.715,37.109,147.461,-0.488,0
1486824227.031,102.539,33.691,37.598,211.426,105.957,0
1486824227.035,-2.930,37.598,39.551,97.168,169.922,0
1486824227.038,-68.359,37.109,34.668,-78.613,80.078,0
1486824227.042,31.250,33.203,32.715,-68.359,-72.266,0
1486824227.046,133.301,35.645,36.621,129.883,6.836,0
1486824227.050,116.211,32.715,37.598,217.773,138.184,0
1486824227.054,4.883,28.809,41.016,125.000,178.223,0
1486824227.058,-74.707,28.320,38.086,-59.570,75.195,0
1486824227.062,11.719,25.879,29.785,-87.402,-83.008,0
1486824227.066,125.000,28.320,32.227,99.121,-48.828,0
1486824227.070,123.047,31.250,39.062,219.727,83.008,0
1486824227.074,25.879,33.691,42.969,147.461,122.559,0
1486824227.078,-69.336,32.227,44.922,-33.691,77.148,0
1486824227.081,2.441,24.902,41.504,-88.867,-50.293,0
1486824227.085,129.883,25.391,37.598,86.426,-69.824,0
1486824227.089,132.812,30.273,39.062,222.168,68.848,0
1486824227.093,37.109,33.691,44.922,169.434,124.023,0
1486824227.097,-62.012,32.715,48.828,-12.207,100.098,0
1486824227.101,-6.836,30.762,39.062,-107.910,-15.625,0
1486824227.105,107.910,29.785,34.668,51.758,-50.293,0
1486824227.109,128.906,25.879,40.527,217.773,84.473,0
1486824227.113,56.152,28.809,41.504,173.340,148.926,0
1486824227.117,-50.781,35.645,43.457,5.371,140.137,0
1486824227.120,-26.367,29.297,41.016,-97.168,4.883,0
1486824227.124,108.887,27.832,38.086,32.715,-83.496,0
1486824227.128,150.391,29.785,41.016,211.914,31.250,0
1486824227.132,72.754,31.738,39.551,196.777,122.559,0
1486824227.136,-42.969,37.109,39.551,30.762,107.422,0
1486824227.140,-41.504,33.691,43.457,-98.145,-28.809,0
1486824227.144,90.820,28.320,41.992,15.137,-104.980,0
1486824227.148,145.996,30.273,41.504,197.266,27.832,0
1486824227.152,96.191,31.250,41.504,195.801,104.980,0
1486824227.156,-14.648,33.691,39.551,54.199,96.680,0
1486824227.160,-43.945,33.691,41.504,-81.055,4.883,0
1486824227.163,80.566,29.785,44.434,0.488,-99.121,0
1486824227.167,152.344,25.879,42.480,183.594,-4.395,0
1486824227.171,97.656,27.344,42.480,210.449,120.117,0
1486824227.175,-23.438,31.250,46.387,70.312,114.746,0
1486824227.179,-61.523,30.762,47.852,-82.520,-14.160,0
1486824227.183,52.734,27.832,45.410,-40.039,-110.840,0
1486824227.187,135.742,28.809,42.969,154.785,-26.855,0
1486824227.191,103.027,27.832,49.316,220.703,95.215,0
1486824227.195,-6.348,29.297,50.293,92.773,120.605,0
1486824227.199,-68.359,33.691,38.086,-72.754,54.688,0
1486824227.202,27.344,28.809,34.180,-57.129,-49.805,0
1486824227.206,120.605,23.926,41.992,136.719,17.090,0
1486824227.210,104.980,29.297,44.434,218.262,111.816,0
1486824227.214,2.930,35.156,47.852,102.539,124.512,0
1486824227.218,-72.754,30.762,50.781,-52.246,84.961,0
1486824227.222,17.090,31.250,39.551,-77.637,-60.059,0
1486824227.226,126.465,32.715,38.574,97.168,-55.664,0
1486824227.230,125.977,31.250,46.875,220.215,68.848,0
1486824227.234,22.949,35.156,47.852,129.395,132.324,0
1486824227.238,-63.965,36.133,42.480,-36.621,103.027,0
1486824227.242,13.672,32.227,43.457,-83.984,-27.832,0
1486824227.245,120.605,25.879,42.480,78.125,-33.691,0
1486824227.249,124.023,29.297,37.598,223.145,102.539,0
1486824227.253,33.691,34.668,40.039,154.297,176.270,0
1486824227.257,-70.312,29.785,45.898,-20.996,107.422,0
1486824227.261,-21.973,26.855,45.410,-94.238,-54.199,0
1486824227.265,102.051,25.879,41.504,55.664,-68.359,0
1486824227.269,117.676,22.949,41.504,216.309,67.871,0
1486824227.273,40.527,28.320,39.551,162.598,141.602,0
1486824227.277,-58.105,30.273,44.434,4.395,123.047,0
1486824227.281,-44.922,24.414,40.527,-90.332,-4.883,0
1486824227.285,80.078,24.414,29.297,23.926,-85.449,0
1486824227.288,122.559,25.391,35.156,187.012,32.715,0
1486824227.292,49.316,26.367,43.457,165.039,132.324,0
1486824227.296,-50.781,30.273,40.527,23.926,126.953,0
1486824227.300,-44.922,28.809,35.156,-98.145,4.395,0
1486824227.304,77.148,26.367,36.133,-4.395,-89.844,0
1486824227.308,145.020,29.785,36.621,189.453,42.969,0
1486824227.312,86.914,29.297,39.551,190.430,117.188,0
1486824227.316,-29.297,31.250,41.992,29.297,125.488,0
1486824227.320,-44.434,32.715,37.598,-109.863,14.160,0
1486824227.324,69.336,28.809,37.109,-26.367,-107.422,0
1486824227.327,129.395,27.344,40.527,180.176,33.203,0
1486824227.331,83.008,29.785,41.016,201.172,149.414,0
1486824227.335,-26.367,33.691,41.016,59.570,134.277,0
1486824227.339,-65.918,30.273,42.480,-91.309,30.762,0
1486824227.343,44.922,26.855,41.504,-44.922,-68.848,0
1486824227.347,129.883,28.320,40.039,164.551,22.461,0
1486824227.351,100.098,28.809,45.410,210.449,129.395,0
1486824227.355,-14.160,28.809,46.875,83.008,120.117,0
1486824227.359,-61.523,30.762,44.922,-71.777,30.273,0
1486824227.363,47.852,31.738,41.992,-56.641,-64.941,0
1486824227.367,129.883,31.250,38.574,144.531,-20.996,0
1486824227.370,108.398,34.180,46.387,208.496,94.238,0
1486824227.374,11.230,39.551,54.199,105.957,155.762,0
1486824227.378,-64.453,41.016,46.387,-52.734,43.945,0
1486824227.382,17.578,33.203,38.086,-73.730,-93.262,0
1486824227.386,129.395,23.438,40.527,121.582,-48.828,0
1486824227.390,126.465,24.902,42.480,211.914,73.242,0
1486824227.394,20.996,32.227,43.457,125.000,115.234,0
1486824227.398,-67.383,33.691,40.527,-35.645,80.566,0
1486824227.402,7.812,34.180,39.551,-86.426,-89.844,0
1486824227.406,127.930,33.203,40.039,88.867,-123.047,0
1486824227.410,125.000,33.691,35.645,208.984,21.484,0
1486824227.413,38.574,33.203,41.992,143.555,90.820,0
1486824227.417,-54.199,32.227,44.922,-30.273,75.195,0
1486824227.421,-5.859,30.273,37.598,-104.980,-32.227,0
1486824227.425,110.352,28.320,37.598,57.129,-74.219,0
1486824227.429,129.395,33.203,39.551,200.684,56.152,0
1486824227.433,46.875,36.621,39.551,150.391,156.250,0
1486824227.437,-72.266,35.645,42.969,-11.230,107.422,1
1486824227.441,-40.527,33.203,42.969,-99.121,-14.160,0
1486824227.445,96.680,29.297,41.504,43.457,-27.832,0
1486824227.449,141.602,27.832,42.969,196.289,100.098,0
1486824227.452,64.453,31.250,44.922,175.781,205.566,0
1486824227.456,-58.105,32.715,48.828,17.578,183.105,0
1486824227.460,-42.969,30.273,41.016,-114.258,34.668,0
1486824227.464,90.332,29.785,29.297,2.930,-49.316,0
1486824227.468,135.742,30.273,33.691,181.641,56.152,0
1486824227.472,71.289,34.668,41.016,179.688,132.812,0
1486824227.476,-48.340,38.574,41.016,25.879,125.488,0
1486824227.480,-56.641,34.180,34.668,-113.770,50.293,0
1486824227.484,74.707,27.832,32.715,-21.973,-19.043,0
1486824227.488,138.184,32.715,33.691,171.875,85.449,0
1486824227.492,87.402,37.598,34.180,187.012,127.441,0
1486824227.495,-21.484,37.598,40.527,34.180,101.562,0
1486824227.499,-56.641,36.133,42.969,-110.840,19.531,0
1486824227.503,50.781,36.133,42.969,-45.410,-74.707,0
1486824227.507,125.000,32.227,47.363,149.902,36.621,0
1486824227.511,85.938,30.273,45.898,196.777,142.090,0
1486824227.515,-23.438,33.691,42.969,77.148,161.133,0
1486824227.519,-76.172,31.738,41.016,-84.473,59.082,0
1486824227.523,32.715,29.785,37.109,-59.082,-75.684,0
1486824227.527,136.230,30.762,39.551,135.254,13.672,0
1486824227.531,101.562,33.203,44.922,205.566,138.672,0
1486824227.534,-7.324,37.109,47.363,105.957,139.160,0
1486824227.538,-69.336,36.133,45.898,-63.477,68.359,0
1486824227.542,25.879,31.250,40.039,-76.172,-61.523,0
1486824227.546,135.254,31.250,40.527,118.164,-48.828,0
1486824227.550,118.164,34.180,44.434,219.238,77.148,0
1486824227.554,18.066,36.133,46.387,126.465,113.770,0
1486824227.558,-60.059,33.203,43.457,-46.875,81.543,0
1486824227.562,8.789,29.297,38.574,-87.891,-39.062,0
1486824227.566,114.258,30.762,38.086,77.148,-45.410,0
1486824227.570,114.258,34.668,38.574,199.219,73.242,0
1486824227.574,23.438,39.062,38.574,144.043,117.676,0
1486824227.577,-70.312,35.645,38.574,-34.668,91.797,0
1486824227.581,-23.438,30.273,40.527,-103.027,-42.480,0
1486824227.585,95.215,27.832,39.551,64.453,-51.270,0
1486824227.589,116.699,30.273,38.086,196.289,97.656,0
1486824227.593,31.738,33.203,41.504,140.137,143.066,0
1486824227.597,-71.289,29.297,42.969,-25.391,127.930,0
1486824227.601,-32.715,26.367,34.180,-112.305,7.812,0
1486824227.605,101.562,27.832,31.250,32.227,-51.270,0
1486824227.609,131.348,27.832,40.527,203.125,37.598,0
1486824227.613,51.758,29.785,44.434,181.152,105.469,0
1486824227.617,-54.199,30.273,44.434,20.508,98.145,0
1486824227.620,-40.039,27.344,40.039,-91.309,-8.789,0
1486824227.624,81.055,27.344,36.621,19.531,-68.848,0
1486824227.628,124.023,28.809,37.109,192.871,67.871,0
1486824227.632,63.477,28.320,38.574,182.129,122.070,0
1486824227.636,-55.176,31.250,40.527,20.020,89.355,0
1486824227.640,-58.594,30.762,39.551,-114.258,18.555,0
1486824227.644,72.754,28.320,37.598,-12.207,-74.219,0
1486824227.648,140.137,31.250,41.992,181.641,11.719,0
1486824227.652,83.008,32.227,42.480,194.336,116.211,0
1486824227.656,-39.062,32.227,39.551,48.828,132.812,0
1486824227.659,-63.477,26.855,37.598,-90.332,27.344,0
1486824227.663,63.477,27.832,33.691,-23.438,-86.426,0
1486824227.667,140.625,32.715,36.621,173.340,-19.531,0
1486824227.671,93.750,33.203,41.992,211.914,106.445,0
1486824227.675,-21.973,35.645,41.504,70.801,111.328,0
1486824227.679,-64.453,33.691,38.086,-84.473,33.203,0
1486824227.683,57.129,28.320,38.574,-52.246,-89.355,0
1486824227.687,143.555,30.273,36.621,147.949,-33.203,0
1486824227.691,107.910,31.738,41.504,227.539,99.121,0
1486824227.695,-2.930,30.762,47.363,112.793,128.906,0
1486824227.699,-66.895,33.691,39.062,-57.617,30.762,0
1486824227.702,36.133,28.320,34.180,-64.453,-88.379,0
1486824227.706,141.113,26.367,37.598,123.047,-35.156,0
1486824227.710,124.023,31.250,40.039,219.727,80.078,0
1486824227.714,13.672,35.156,41.016,124.512,144.043,0
1486824227.718,-71.289,35.156,40.039,-51.758,82.520,0
1486824227.722,2.930,27.832,35.156,-89.355,-90.820,0
1486824227.726,119.629,25.391,36.621,104.004,-54.688,0
1486824227.730,125.488,25.879,39.551,230.469,71.289,0
1486824227.734,27.832,25.391,39.551,145.996,120.605,0
1486824227.738,-66.406,25.879,43.457,-34.180,83.496,0
1486824227.742,-5.371,23.926,36.133,-91.309,-105.957,0
1486824227.745,119.141,27.832,27.832,85.938,-125.000,0
1486824227.749,133.301,31.250,34.180,219.727,35.645,0
1486824227.753,39.062,28.809,38.574,152.344,125.977,0
1486824227.757,-62.988,32.715,37.598,-9.277,102.051,0
1486824227.761,-26.367,32.715,32.715,-98.633,-10.254,0
1486824227.765,98.633,27.832,37.109,38.574,-44.922,0
1486824227.769,132.812,26.855,39.551,206.543,59.570,0
1486824227.773,50.781,35.156,40.039,167.480,115.234,0
1486824227.777,-55.664,41.992,39.062,-8.301,86.426,0
1486824227.781,-37.598,35.156,35.645,-117.188,-40.527,0
1486824227.784,84.961,33.203,37.598,8.301,-126.465,0
1486824227.788,135.254,36.621,33.203,194.824,7.812,0
1486824227.792,71.289,33.203,35.156,180.664,117.676,0
1486824227.796,-44.434,30.762,40.039,18.066,104.980,0
1486824227.800,-45.898,31.738,35.645,-104.492,16.602,0
1486824227.804,84.473,29.297,30.273,-6.836,-76.660,0
1486824227.808,134.766,27.832,33.691,184.082,17.090,0
1486824227.812,75.195,32.715,37.109,191.406,103.516,0
1486824227.816,-32.715,36.621,42.969,42.480,75.684,0
1486824227.820,-56.152,31.250,44.434,-95.703,9.277,0
1486824227.824,62.012,27.832,34.180,-22.949,-51.270,0
1486824227.827,140.625,29.785,35.645,181.641,24.414,0
1486824227.831,87.891,35.645,39.551,209.473,117.188,0
1486824227.835,-32.715,32.715,40.527,67.383,143.555,0
1486824227.839,-70.801,29.297,40.039,-91.797,66.406,0
1486824227.843,46.387,30.762,36.133,-56.641,-75.195,0
1486824227.847,135.742,29.785,37.598,151.855,-34.180,0
1486824227.851,90.332,31.250,38.574,217.285,99.609,0
1486824227.855,-24.414,33.691,37.109,83.984,133.301,0
1486824227.859,-71.777,35.645,36.621,-89.355,56.641,0
1486824227.863,25.879,32.227,33.691,-86.426,-75.195,0
1486824227.866,124.512,26.855,35.156,119.629,-29.297,0
1486824227.870,110.840,30.762,35.645,222.656,120.117,0
1486824227.874,2.930,31.250,38.574,118.164,168.945,0
1486824227.878,-69.824,28.809,38.086,-64.453,77.637,0
1486824227.882,18.555,28.809,31.738,-96.191,-54.199,0
1486824227.886,126.465,30.273,36.621,102.539,-47.363,0
1486824227.890,118.652,32.715,42.480,223.633,98.145,0
1486824227.894,29.785,34.668,39.551,139.648,192.871,0
1486824227.898,-55.664,32.227,35.645,-23.926,126.465,0
1486824227.902,-4.883,26.367,34.180,-92.773,-33.691,0
1486824227.906,111.328,24.902,29.297,69.336,-46.387,0
1486824227.909,124.023,29.297,35.156,220.703,75.684,0
1486824227.913,36.133,34.180,43.945,162.109,135.742,0
1486824227.917,-54.688,30.273,41.992,-14.160,79.102,0
1486824227.921,-11.719,27.832,41.504,-104.980,-56.641,0
1486824227.925,107.910,31.250,38.574,49.805,-20.020,0
1486824227.929,125.000,32.227,35.645,212.891,114.746,0
1486824227.933,43.945,33.691,41.992,168.945,157.715,0
1486824227.937,-59.570,34.180,43.457,-9.277,90.820,0
1486824227.941,-34.668,33.691,36.133,-107.422,-54.688,0
1486824227.945,80.078,31.250,32.715,29.785,-61.035,0
1486824227.949,121.094,29.297,33.691,197.266,66.406,0
1486824227.952,63.965,30.762,38.086,182.129,121.582,0
1486824227.956,-53.711,34.668,41.992,13.184,97.168,0
1486824227.960,-54.199,34.668,42.480,-119.629,-24.902,0
1486824227.964,71.289,29.785,38.574,-1.953,-95.703,0
1486824227.968,136.719,29.785,38.574,190.430,7.812,0
1486824227.972,82.031,32.715,46.387,195.312,145.020,0
1486824227.976,-38.574,33.203,44.922,43.945,145.508,0
1486824227.980,-59.082,35.156,40.039,-100.586,24.902,0
1486824227.984,66.895,31.250,35.645,-14.160,-69.824,0
1486824227.988,132.812,29.785,36.133,185.547,20.996,0
1486824227.991,78.613,32.227,40.527,209.473,131.836,0
1486824227.995,-25.879,33.203,41.504,64.453,113.281,0
1486824227.999,-57.129,35.645,38.574,-103.027,22.949,0
1486824228.003,51.270,31.738,37.109,-49.316,-87.402,0
1486824228.007,138.672,28.320,43.457,157.227,-36.621,0
1486824228.011,104.980,33.203,47.363,213.379,92.773,0
1486824228.015,-15.625,37.598,41.504,91.309,133.789,0
1486824228.019,-71.777,35.645,38.086,-83.984,42.480,0
1486824228.023,26.367,32.227,32.715,-83.496,-95.215,0
1486824228.027,125.488,31.250,31.250,126.465,0.000,0
1486824228.031,104.980,32.715,38.574,213.379,129.883,1
1486824228.034,-10.254,34.668,42.480,103.516,135.254,0
1486824228.038,-79.102,34.668,41.992,-74.219,86.914,0
1486824228.042,18.066,33.691,35.645,-90.820,-32.227,0
1486824228.046,122.559,29.785,35.156,110.840,-36.621,0
1486824228.050,117.676,29.785,40.039,218.750,73.242,0
1486824228.054,21.484,31.250,42.480,128.906,107.910,0
1486824228.058,-59.570,30.762,44.922,-48.340,61.523,0
1486824228.062,18.555,31.738,38.086,-99.609,-52.734,0
1486824228.066,133.301,31.250,38.086,85.938,-40.039,0
1486824228.070,139.648,32.227,41.992,229.980,104.492,0
1486824228.074,40.527,33.691,39.551,158.203,197.754,0
1486824228.077,-70.801,33.691,38.086,-40.039,153.320,0
1486824228.081,-18.066,31.250,33.691,-110.352,20.508,0
1486824228.085,100.586,29.297,34.180,62.500,-19.531,0
1486824228.089,116.699,31.250,39.551,212.402,108.398,0
1486824228.093,39.062,31.738,43.945,160.156,151.855,0
1486824228.097,-66.406,31.738,45.898,-24.414,104.980,0
1486824228.101,-44.434,31.738,41.504,-130.859,7.324,0
1486824228.105,85.938,29.297,33.691,26.855,-84.961,0
1486824228.109,125.977,30.273,38.086,204.590,29.297,0
1486824228.113,46.387,37.109,40.527,172.363,150.391,0
1486824228.116,-62.012,37.598,38.086,-5.371,135.254,0
1486824228.120,-52.246,32.227,36.621,-125.977,-11.230,0
1486824228.124,75.684,29.785,37.598,5.859,-95.215,0
1486824228.128,138.184,33.691,39.551,191.406,16.602,0
1486824228.132,81.543,37.109,40.039,200.195,128.906,0
1486824228.136,-30.762,36.133,45.898,33.203,135.742,0
1486824228.140,-40.527,35.156,44.434,-115.723,-18.555,0
1486824228.144,73.242,30.762,41.504,-6.836,-83.984,0
1486824228.148,139.160,28.809,43.945,193.848,50.781,0
1486824228.152,82.031,31.250,48.828,211.426,97.656,0
1486824228.156,-44.434,31.738,47.852,45.410,86.426,0
1486824228.159,-69.824,29.297,40.527,-114.746,35.156,0
1486824228.163,47.363,25.391,36.133,-49.316,-82.031,0
1486824228.167,125.488,25.879,41.504,154.785,-17.578,0
1486824228.171,87.402,30.273,39.551,211.426,110.840,0
1486824228.175,-26.367,33.691,38.574,59.082,106.934,0
1486824228.179,-77.148,30.273,42.969,-106.934,3.418,0
1486824228.183,35.645,29.297,37.598,-65.430,-118.652,0
1486824228.187,134.277,29.785,41.504,137.207,-62.012,0
1486824228.191,107.910,26.855,43.945,221.191,70.801,0
1486824228.195,4.395,28.320,46.387,101.562,101.074,0
1486824228.198,-63.965,27.832,49.316,-73.730,53.711,0
1486824228.202,28.809,22.949,42.480,-74.707,-75.195,0
1486824228.206,132.324,24.414,36.133,119.629,-28.809,0
1486824228.210,116.211,27.832,41.016,223.633,107.910,0
1486824228.214,25.879,30.762,42.969,118.652,149.414,0
1486824228.218,-56.152,30.273,43.457,-56.152,104.980,0
1486824228.222,18.555,25.391,41.504,-84.473,-52.246,0
1486824228.226,139.160,28.809,36.621,92.285,-64.453,0
1486824228.230,132.812,32.715,41.504,211.914,54.199,0
1486824228.234,31.250,34.180,47.363,135.742,119.629,0
1486824228.238,-60.059,36.133,45.898,-33.203,94.727,0
1486824228.241,0.488,33.203,42.969,-93.750,-31.250,0
1486824228.245,118.164,26.855,43.945,70.312,-48.828,0
1486824228.249,138.672,33.203,42.480,213.379,78.125,0
1486824228.253,58.105,39.551,40.527,152.344,144.531,0
1486824228.257,-52.246,35.156,41.504,-21.973,109.863,0
1486824228.261,-16.602,30.762,39.551,-107.422,-43.945,0
1486824228.265,102.051,30.762,40.527,43.457,-97.168,0
1486824228.269,135.742,31.250,48.340,208.008,24.902,0
1486824228.273,67.383,30.762,44.922,169.434,122.070,0
1486824228.277,-46.875,32.715,37.109,8.789,109.863,0
1486824228.281,-33.203,33.691,37.109,-95.215,-9.277,0
1486824228.284,98.633,30.762,37.598,16.602,-87.402,0
1486824228.288,152.832,32.227,42.480,201.660,-0.488,0
1486824228.292,81.055,32.227,44.434,188.965,105.469,0
1486824228.296,-35.645,31.250,44.434,25.879,129.883,0
1486824228.300,-42.969,28.320,45.410,-94.238,18.555,0
1486824228.304,76.660,26.367,38.086,-7.324,-71.777,0
1486824228.308,144.043,27.832,34.668,180.176,11.230,0
1486824228.312,87.402,30.273,39.062,200.195,119.141,0
1486824228.316,-36.621,33.691,45.410,46.387,123.047,0
1486824228.320,-61.035,33.691,39.551,-104.004,-12.207,0
1486824228.323,56.152,31.250,30.762,-30.762,-74.219,0
1486824228.327,126.953,29.785,37.109,164.062,13.672,0
1486824228.331,94.238,32.715,45.410,189.453,63.477,0
1486824228.335,-19.043,36.133,43.457,52.734,75.195,0
1486824228.339,-74.219,30.273,38.574,-95.703,44.434,0
1486824228.343,39.062,27.344,36.621,-58.594,-60.059,0
1486824228.347,131.348,30.273,33.203,144.043,-9.766,0
1486824228.351,92.773,28.320,35.645,206.543,106.934,0
1486824228.355,-7.324,30.762,37.598,88.867,117.188,0
1486824228.359,-63.477,33.203,40.039,-66.895,6.836,0
1486824228.363,24.902,29.297,38.574,-76.660,-104.980,0
1486824228.366,123.047,29.297,36.621,114.258,-58.594,0
1486824228.370,112.305,26.367,41.992,222.656,62.012,0
1486824228.374,10.742,28.320,42.969,120.117,97.656,0
1486824228.378,-80.078,32.227,41.992,-65.430,41.016,0
1486824228.382,2.930,27.832,37.109,-100.586,-105.957,0
1486824228.386,108.887,26.855,32.715,85.449,-82.520,0
1486824228.390,109.375,30.273,36.133,205.566,77.148,0
1486824228.394,17.578,32.715,39.062,124.023,127.441,0
1486824228.398,-77.148,36.621,41.016,-44.434,82.520,0
1486824228.402,-8.789,34.180,38.086,-99.121,-51.758,0
1486824228.406,118.164,29.297,37.598,74.219,-62.500,0
1486824228.409,129.395,32.715,38.574,220.215,80.078,0
1486824228.413,37.598,34.668,40.039,161.133,145.020,0
1486824228.417,-63.965,37.598,42.480,-1.465,108.887,0
1486824228.421,-22.949,35.645,46.875,-90.332,1.465,0
1486824228.425,104.980,30.273,44.922,53.711,-30.762,0
1486824228.429,137.207,31.738,39.062,222.168,40.039,0
1486824228.433,56.152,33.691,46.387,182.129,90.820,0
1486824228.437,-50.293,30.273,42.480,11.230,83.984,0
1486824228.441,-41.016,28.320,38.086,-102.539,-47.852,0
1486824228.445,88.867,28.320,40.039,13.184,-103.027,0
1486824228.448,133.789,29.785,40.039,193.359,35.156,0
1486824228.452,58.594,34.180,44.434,178.711,138.184,0
1486824228.456,-52.246,38.086,44.434,15.137,98.633,0
1486824228.460,-56.641,32.227,37.109,-103.027,0.977,0
1486824228.464,64.941,24.902,40.527,-8.789,-46.875,0
1486824228.468,127.441,27.832,44.434,183.105,44.922,0
1486824228.472,80.078,32.715,38.086,186.523,125.000,0
1486824228.476,-39.551,32.227,34.180,23.926,145.508,0
1486824228.480,-65.918,28.809,32.715,-110.840,48.340,0
1486824228.484,59.082,24.414,33.691,-37.109,-66.406,0
1486824228.488,136.719,26.855,32.227,164.551,28.809,0
1486824228.491,85.938,33.691,36.133,208.008,136.719,0
1486824228.495,-28.320,33.691,42.969,67.871,131.836,0
1486824228.499,-65.918,33.691,40.527,-97.656,26.367,0
1486824228.503,46.387,32.227,33.691,-49.805,-76.660,0
1486824228.507,134.277,30.273,32.227,154.785,20.020,0
1486824228.511,100.586,32.227,34.668,209.961,116.699,0
1486824228.515,-6.348,35.645,37.598,94.727,108.398,0
1486824228.519,-62.988,33.203,39.062,-74.219,52.734,0
1486824228.523,44.434,30.273,34.668,-72.266,-88.379,0
1486824228.527,142.578,30.762,37.598,128.418,-26.855,0
1486824228.530,107.910,32.227,41.016,214.355,103.516,0
1486824228.534,5.371,33.691,40.527,114.258,149.414,0
1486824228.538,-71.777,34.180,37.598,-63.965,64.453,0
1486824228.542,3.906,33.203,37.109,-92.285,-68.359,0
1486824228.546,122.070,32.227,38.574,104.980,-32.715,0
1486824228.550,125.488,33.691,40.527,208.984,40.527,0
1486824228.554,19.531,37.109,44.434,127.441,105.957,0
1486824228.558,-80.078,36.621,39.062,-48.340,75.684,0
1486824228.562,-11.719,28.809,35.645,-108.887,-58.594,0
1486824228.566,108.887,28.809,39.062,68.848,-64.941,0
1486824228.570,122.070,34.180,42.969,213.379,53.711,0
1486824228.573,39.062,34.668,42.480,150.879,135.254,0
1486824228.577,-53.223,35.645,43.945,-30.762,94.727,0
1486824228.581,-16.113,30.762,43.945,-104.980,-73.242,0
1486824228.585,104.492,24.414,44.922,60.547,-83.984,0
1486824228.589,136.719,23.926,42.969,208.984,38.574,0
1486824228.593,52.734,29.297,43.945,159.668,116.699,0
1486824228.597,-55.176,32.227,49.805,-9.766,109.863,0
1486824228.601,-32.227,26.367,38.574,-113.281,-51.270,0
1486824228.605,89.355,23.438,32.715,20.020,-104.980,0
1486824228.609,124.023,29.297,41.016,191.406,27.832,0
1486824228.613,59.082,32.227,44.922,174.316,109.863,0
1486824228.616,-53.223,32.715,44.434,2.930,104.004,0
1486824228.620,-53.223,32.715,43.457,-120.605,-28.809,0
1486824228.624,73.730,29.297,38.086,-6.348,-109.863,0
1486824228.628,124.512,28.809,38.574,191.895,10.742,0
1486824228.632,64.453,30.273,43.945,204.590,126.465,0
1486824228.636,-34.180,34.180,40.527,34.180,122.070,0
1486824228.640,-53.711,34.180,37.598,-104.980,21.484,0
1486824228.644,57.129,27.344,40.039,-17.090,-60.059,0
1486824228.648,134.766,24.414,39.062,169.922,41.504,0
1486824228.652,84.961,29.297,38.574,198.730,180.176,0
1486824228.655,-35.156,30.762,41.504,64.453,177.246,0
1486824228.659,-66.895,27.832,41.504,-84.961,84.961,0
1486824228.663,51.758,26.855,34.180,-42.969,-43.457,0
1486824228.667,135.742,24.902,36.621,145.020,4.395,0
1486824228.671,95.703,25.391,46.875,208.496,111.328,1
1486824228.675,-11.230,29.785,44.922,83.496,148.438,0
1486824228.679,-70.312,27.832,41.504,-84.473,60.059,0
1486824228.683,31.738,23.438,38.574,-66.406,-88.867,0
1486824228.687,131.348,26.855,39.551,125.000,-22.949,0
1486824228.691,110.840,28.809,44.922,208.496,121.582,0
1486824228.695,2.930,31.250,42.480,101.562,135.254,0
1486824228.698,-76.660,32.715,37.109,-71.289,68.848,0
1486824228.702,20.508,25.879,34.180,-87.891,-67.383,0
1486824228.706,126.953,26.367,34.668,107.910,-62.988,0
1486824228.710,119.141,32.227,38.574,222.656,79.102,0
1486824228.714,27.344,32.715,44.434,131.836,116.699,0
1486824228.718,-62.500,29.785,39.551,-42.480,48.828,0
1486824228.722,7.324,26.855,31.250,-79.102,-79.590,0
1486824228.726,131.348,29.297,31.738,91.309,-44.434,0
1486824228.730,125.977,32.715,38.574,208.984,78.125,0
1486824228.734,23.926,33.691,47.852,162.598,133.789,0
1486824228.738,-69.824,35.156,50.781,-13.184,83.984,0
1486824228.741,-16.113,31.738,40.039,-94.238,-69.336,0
1486824228.745,113.281,27.832,33.203,54.199,-116.699,0
1486824228.749,132.324,31.250,37.109,210.449,20.996,0
1486824228.753,42.480,33.691,42.480,170.410,98.633,0
1486824228.757,-68.848,31.738,40.039,-18.066,56.152,0
1486824228.761,-39.062,25.879,36.133,-112.793,-17.090,0
1486824228.765,78.613,23.926,33.691,16.602,-39.551,0
1486824228.769,113.281,28.320,32.715,185.059,55.664,0
1486824228.773,47.363,29.785,36.133,169.434,120.117,0
1486824228.777,-58.594,31.738,39.062,4.883,94.238,0
1486824228.780,-50.293,26.367,44.922,-112.793,-45.898,0
1486824228.784,79.590,27.344,41.504,-9.277,-81.543,0
1486824228.788,140.625,34.180,32.715,187.012,57.617,0
1486824228.792,79.590,32.715,37.109,200.195,145.020,0
1486824228.796,-34.180,32.715,44.922,24.902,117.676,0
1486824228.800,-44.922,26.855,45.898,-100.098,17.578,0
1486824228.804,83.984,24.902,39.551,-9.277,-58.105,0
1486824228.808,143.555,25.879,34.668,167.969,-3.418,0
1486824228.812,78.125,27.832,40.527,202.637,113.281,0
1486824228.816,-37.598,31.738,45.410,62.988,148.926,0
1486824228.820,-67.871,29.297,40.527,-93.262,36.621,0
1486824228.823,56.641,29.297,42.969,-47.852,-64.941,0
1486824228.827,143.555,29.297,40.527,144.043,5.859,0
1486824228.831,103.516,29.297,37.109,206.543,109.863,0
1486824228.835,-20.996,33.203,41.504,78.613,166.504,0
1486824228.839,-81.543,29.785,41.992,-86.426,66.895,0
1486824228.843,20.508,25.391,36.621,-67.871,-82.031,0
1486824228.847,117.676,30.273,32.715,129.883,-5.371,0
1486824228.851,98.633,31.738,35.156,214.355,132.324,0
1486824228.855,-16.113,32.227,37.598,98.145,171.875,0
1486824228.859,-82.520,30.762,39.062,-84.961,77.637,0
1486824228.862,23.926,31.250,34.180,-103.516,-73.730,0
1486824228.866,126.465,29.297,32.227,94.727,-43.945,0
1486824228.870,105.469,22.949,43.457,225.098,92.285,0
1486824228.874,1.465,28.809,45.410,130.371,156.250,0
1486824228.878,-83.008,31.250,37.109,-62.988,64.941,0
1486824228.882,-2.930,24.902,34.668,-107.422,-81.543,0
1486824228.886,115.723,27.832,33.691,84.961,-43.457,0
1486824228.890,123.535,31.738,36.133,220.703,78.613,0
1486824228.894,31.738,33.203,40.039,143.555,134.277,0
1486824228.898,-66.406,32.715,34.180,-39.062,111.816,0
1486824228.902,-12.695,29.785,30.762,-117.188,-31.250,0
1486824228.905,113.281,26.367,34.668,60.059,-41.504,0
1486824228.909,128.906,25.879,39.551,225.586,87.402,0
1486824228.913,39.062,25.391,49.316,158.691,153.320,0
1486824228.917,-60.547,27.832,48.828,-6.348,134.277,0
1486824228.921,-28.809,29.297,39.062,-98.145,-1.465,0
1486824228.925,100.586,30.273,36.621,25.391,-39.062,0
1486824228.929,136.230,28.809,37.109,208.984,76.660,0
1486824228.933,56.152,27.832,41.016,176.758,110.352,0
1486824228.937,-47.363,30.762,42.969,9.277,106.445,0
1486824228.941,-36.133,27.832,39.062,-115.723,2.930,0
1486824228.945,96.680,24.414,39.062,9.766,-77.148,0
1486824228.948,144.531,28.809,43.457,206.055,43.457,0
1486824228.952,73.730,37.598,48.340,185.059,93.262,0
1486824228.956,-41.992,31.738,50.781,29.297,104.492,0
1486824228.960,-48.340,22.461,40.527,-109.375,27.344,0
1486824228.964,75.195,24.414,31.738,-23.926,-76.172,0
1486824228.968,136.719,27.832,33.691,182.617,3.906,0
1486824228.972,92.285,31.250,36.133,199.219,86.914,0
1486824228.976,-20.508,35.645,38.574,46.387,103.516,0
1486824228.980,-58.594,33.691,36.621,-108.887,19.531,0
1486824228.984,62.988,30.762,33.691,-44.434,-103.516,0
1486824228.987,147.461,30.273,37.109,163.574,-35.645,0
1486824228.991,95.215,33.691,41.016,203.125,81.055,0
1486824228.995,-22.461,35.156,42.480,67.383,86.914,0
1486824228.999,-61.035,33.203,41.016,-87.891,15.137,0
1486824229.003,45.898,29.297,33.691,-61.035,-109.863,0
1486824229.007,129.395,27.832,28.809,139.160,-36.621,0
1486824229.011,104.492,31.250,36.621,217.773,111.816,0
1486824229.015,-4.395,31.250,43.945,99.609,137.695,0
1486824229.019,-65.430,29.297,40.527,-78.613,43.945,0
1486824229.023,31.738,25.879,37.109,-76.172,-83.008,0
1486824229.027,130.859,26.855,36.133,136.719,-3.418,0
1486824229.030,116.699,32.227,35.645,226.074,113.770,0
1486824229.034,20.020,32.715,38.574,115.723,134.766,0
1486824229.038,-53.223,28.809,36.621,-59.570,75.195,0
1486824229.042,22.461,27.832,33.203,-85.938,-50.293,0
1486824229.046,128.418,28.809,37.109,113.770,-54.688,0
1486824229.050,130.859,26.855,48.340,243.164,61.523,0
1486824229.054,31.738,29.297,48.828,155.273,124.512,0
1486824229.058,-63.477,28.320,41.016,-36.621,63.965,0
1486824229.062,-2.930,24.902,37.109,-102.539,-63.965,0
1486824229.066,115.234,26.855,37.109,77.148,-56.641,0
1486824229.070,123.047,28.320,36.621,218.262,95.215,0
1486824229.073,30.273,28.809,38.574,146.973,139.648,0
1486824229.077,-73.242,33.203,35.156,-22.461,118.652,0
1486824229.081,-33.691,31.250,33.691,-117.676,38.086,0
1486824229.085,96.191,27.344,36.133,26.367,-57.129,0
1486824229.089,130.859,27.832,40.527,211.426,69.824,0
1486824229.093,46.875,32.227,46.387,174.316,214.355,0
1486824229.097,-63.477,35.156,43.945,-5.371,153.809,0
1486824229.101,-44.434,24.902,38.574,-106.445,-6.348,0
1486824229.105,85.938,20.020,39.551,30.273,-61.523,0
1486824229.109,139.160,25.879,42.480,197.754,38.086,0
1486824229.112,69.336,28.320,40.039,180.176,135.742,0
1486824229.116,-52.734,27.344,38.574,18.555,135.254,0
1486824229.120,-55.664,23.438,36.133,-108.887,-4.395,0
1486824229.124,75.195,19.531,31.250,-3.906,-95.215,0
1486824229.128,132.324,22.949,36.133,193.359,34.180,0
1486824229.132,73.730,26.855,42.969,195.312,157.227,0
1486824229.136,-35.156,28.320,41.992,33.691,139.648,0
1486824229.140,-54.688,28.320,38.574,-96.680,31.738,0
1486824229.144,60.547,27.344,33.203,-19.531,-65.918,0
1486824229.148,135.742,27.832,37.109,172.363,7.324,0
1486824229.152,87.891,25.879,41.016,207.520,95.703,0
1486824229.155,-32.715,25.879,40.527,63.965,128.418,0
1486824229.159,-66.406,26.855,37.598,-101.074,44.922,0
1486824229.163,45.410,30.273,32.715,-51.758,-78.125,0
1486824229.167,127.930,26.855,32.227,152.344,20.996,0
1486824229.171,104.980,26.367,35.645,208.984,129.395,0
1486824229.175,-7.812,32.227,38.574,84.473,153.809,0
1486824229.179,-68.359,32.227,44.434,-86.426,57.129,0
1486824229.183,38.574,28.809,41.992,-66.895,-70.312,0
1486824229.187,129.395,27.344,33.691,130.371,-10.742,0
1486824229.191,111.328,29.297,35.645,214.844,102.539,0
1486824229.194,5.859,31.738,34.668,122.559,159.668,0
1486824229.198,-64.941,33.203,31.738,-62.988,75.684,0
1486824229.202,13.672,29.785,33.691,-91.309,-56.152,0
1486824229.206,116.211,30.273,38.086,109.375,13.672,0
1486824229.210,119.629,33.203,44.434,218.262,98.633,0
1486824229.214,24.902,36.133,42.969,135.742,107.422,0
1486824229.218,-69.336,34.180,40.527,-41.992,101.562,0
1486824229.222,-6.348,27.344,34.668,-96.680,-19.531,0
1486824229.226,118.164,25.879,34.668,67.383,-73.242,0
1486824229.230,120.117,33.203,41.016,201.660,27.344,0
1486824229.234,27.344,36.621,37.109,136.719,108.887,0
1486824229.237,-72.754,28.320,34.668,-42.969,76.172,0
1486824229.241,-24.902,24.902,34.180,-109.375,-38.574,0
1486824229.245,104.004,29.785,37.109,52.246,-58.594,0
1486824229.249,130.859,32.715,44.434,214.355,85.938,0
1486824229.253,56.152,35.156,49.316,170.410,176.270,0
1486824229.257,-51.758,34.668,47.852,-12.207,125.000,0
1486824229.261,-27.832,32.227,35.156,-107.422,0.488,0
1486824229.265,95.215,30.762,29.785,32.715,-67.383,0
1486824229.269,133.301,29.297,39.062,199.707,28.320,0
1486824229.273,60.059,27.832,45.898,186.523,95.215,0
1486824229.277,-41.992,30.273,41.992,15.137,89.844,0
1486824229.280,-29.785,31.250,34.668,-120.605,-0.977,0
1486824229.284,77.637,31.738,34.668,-0.977,-74.219,0
1486824229.288,136.230,34.180,39.551,189.453,26.855,0
1486824229.292,85.449,37.109,40.039,185.547,116.699,0
1486824229.296,-40.527,40.039,42.480,30.273,118.652,0
1486824229.300,-56.641,34.180,42.480,-104.004,1.953,0
1486824229.304,69.336,27.344,36.621,-27.344,-85.449,0
1486824229.308,135.254,25.879,36.621,166.992,31.250,2
1486824229.312,82.031,29.297,39.062,195.801,103.027,0
1486824229.316,-35.156,35.645,41.992,41.992,107.422,0
1486824229.319,-69.824,33.691,41.016,-102.539,66.406,0
1486824229.323,41.992,30.273,39.551,-53.223,-78.613,0
1486824229.327,126.953,27.832,37.598,144.043,-17.578,0
1486824229.331,87.891,28.320,40.039,209.961,143.066,0
1486824229.335,-20.020,32.715,47.852,78.125,174.316,0
1486824229.339,-67.383,31.738,45.898,-90.332,81.055,0
1486824229.343,37.598,27.832,39.551,-62.988,-66.895,0
1486824229.347,138.672,31.738,36.133,140.137,-42.480,0
1486824229.351,107.910,34.180,41.016,228.516,73.242,0
1486824229.355,-4.395,31.738,48.828,121.094,112.793,0
1486824229.359,-77.148,31.250,45.410,-60.059,73.730,0
1486824229.362,15.137,28.320,36.133,-74.707,-60.059,0
1486824229.366,127.441,24.414,36.621,121.582,-18.066,0
1486824229.370,116.699,28.809,43.457,220.703,118.652,0
1486824229.374,14.160,34.180,41.992,121.094,175.781,0
1486824229.378,-76.172,32.227,36.621,-51.758,96.680,0
1486824229.382,-11.719,25.879,34.668,-98.145,-39.062,0
1486824229.386,115.234,23.926,31.738,80.078,-24.414,0
1486824229.390,118.652,29.785,30.273,212.891,89.844,0
1486824229.394,22.949,31.250,37.598,133.789,146.973,0
1486824229.398,-67.383,29.785,39.551,-34.668,102.539,0
1486824229.402,-16.602,27.344,34.668,-93.750,-59.570,0
1486824229.405,105.957,27.832,40.527,72.266,-66.406,0
1486824229.409,123.535,32.715,46.387,217.773,106.934,0
1486824229.413,45.898,33.691,41.016,152.832,154.785,0
1486824229.417,-63.477,34.668,40.039,-13.184,118.164,0
1486824229.421,-41.992,30.762,37.109,-99.609,-2.930,0
1486824229.425,87.891,26.855,32.227,38.086,-86.914,0
1486824229.429,137.695,23.926,34.668,204.590,24.414,0
1486824229.433,65.430,25.391,38.574,161.621,129.883,0
1486824229.437,-61.035,29.785,41.016,4.883,98.145,0
1486824229.441,-51.270,27.832,38.086,-100.586,-25.879,0
1486824229.444,85.938,25.879,38.086,20.508,-60.547,0
1486824229.448,127.441,27.832,44.922,207.031,76.660,0
1486824229.452,68.359,35.156,44.922,184.082,119.141,0
1486824229.456,-44.434,33.691,41.016,26.855,89.355,0
1486824229.460,-63.965,22.949,39.062,-102.051,3.906,0
1486824229.464,62.500,20.508,31.738,-17.578,-104.004,0
1486824229.468,126.465,23.926,32.227,178.711,3.906,0
1486824229.472,76.172,26.367,42.480,189.941,106.934,0
1486824229.476,-38.086,28.809,46.387,43.945,96.680,0
1486824229.480,-72.266,29.785,42.969,-95.215,-9.277,0
1486824229.484,50.293,26.367,42.480,-44.434,-112.793,0
1486824229.487,122.559,24.902,38.086,150.879,-4.395,0
1486824229.491,78.613,24.414,33.691,188.477,122.559,0
1486824229.495,-21.484,28.809,40.527,58.105,138.672,0
1486824229.499,-73.242,31.738,41.016,-80.566,52.246,0
1486824229.503,32.715,28.320,35.645,-54.199,-48.340,0
1486824229.507,133.301,30.273,39.062,142.090,16.113,0
1486824229.511,109.375,32.715,43.457,208.496,117.188,0
1486824229.515,1.953,33.691,41.504,87.891,161.621,0
1486824229.519,-66.406,33.203,37.109,-70.312,77.637,0
1486824229.523,39.062,27.344,34.180,-71.777,-97.656,0
1486824229.526,147.949,28.320,34.180,128.418,-36.133,0
1486824229.530,132.324,32.715,38.086,220.215,142.090,0
1486824229.534,24.902,36.133,40.527,117.188,175.781,0
1486824229.538,-65.430,32.715,42.969,-50.293,84.961,0
1486824229.542,7.812,25.879,40.527,-83.984,-18.555,0
1486824229.546,119.629,28.320,35.156,104.492,7.812,0
1486824229.550,124.023,29.297,35.645,221.680,125.488,0
1486824229.554,35.645,28.809,41.504,145.020,177.734,0
1486824229.558,-65.430,32.715,47.852,-27.344,100.098,0
1486824229.562,-5.371,31.250,40.527,-101.074,-50.781,0
1486824229.566,130.859,30.762,36.133,64.941,-74.707,0
1486824229.569,136.719,32.227,41.016,213.379,70.801,0
1486824229.573,39.551,33.203,41.992,151.367,155.273,0
1486824229.577,-56.152,31.250,41.504,-21.973,125.488,0
1486824229.581,-19.043,27.832,41.016,-107.910,-9.277,0
1486824229.585,102.539,32.715,37.598,49.316,-61.523,0
1486824229.589,129.395,35.156,40.039,198.730,52.246,0
1486824229.593,58.594,32.715,47.363,154.297,98.633,0
1486824229.597,-51.270,30.273,45.898,2.441,84.961,0
1486824229.601,-47.363,26.855,40.039,-110.352,-12.695,0
1486824229.605,81.543,25.879,38.086,20.508,-54.688,0
1486824229.609,135.742,28.320,38.086,192.871,67.383,0
1486824229.612,70.312,35.645,42.480,170.898,152.832,0
1486824229.616,-52.246,37.109,44.922,22.949,125.000,0
1486824229.620,-60.547,30.273,38.574,-106.445,17.090,0
1486824229.624,75.195,29.785,40.039,-11.230,-52.734,0
1486824229.628,135.742,31.250,42.969,166.992,53.711,0
1486824229.632,65.430,30.273,40.039,173.340,145.020,0
1486824229.636,-51.758,30.273,37.598,39.062,124.512,0
1486824229.640,-70.801,28.809,38.574,-96.680,20.508,0
1486824229.644,57.129,27.344,37.598,-32.715,-87.891,0
1486824229.648,135.742,21.484,37.109,153.320,17.578,0
1486824229.651,89.355,22.949,41.504,195.801,144.043,0
1486824229.655,-30.273,28.809,40.527,57.617,130.371,0
1486824229.659,-80.078,25.879,33.203,-106.445,38.574,0
1486824229.663,35.156,25.391,31.738,-59.570,-59.570,0
1486824229.667,128.906,29.297,32.227,130.371,-0.488,0
1486824229.671,104.980,24.414,35.156,196.777,120.117,0
1486824229.675,-4.883,25.391,35.156,96.680,148.926,0
1486824229.679,-67.871,33.691,37.109,-79.590,35.645,0
1486824229.683,41.016,29.297,35.645,-69.336,-66.406,0
1486824229.687,140.137,26.367,33.691,120.117,9.277,0
1486824229.691,115.234,31.250,36.133,208.496,100.586,0
1486824229.694,22.949,31.738,43.945,122.070,125.977,0
1486824229.698,-54.199,30.762,47.363,-43.945,81.543,0
1486824229.702,19.531,31.738,36.621,-71.777,-43.457,0
1486824229.706,143.066,33.203,33.203,103.027,-20.996,0
1486824229.710,141.113,39.062,35.645,218.750,76.660,0
1486824229.714,34.668,42.969,38.574,144.531,145.020,0
1486824229.718,-54.688,41.016,38.574,-33.691,83.008,0
1486824229.722,8.301,37.109,37.598,-99.609,-83.008,0
1486824229.726,128.418,32.715,37.109,68.848,-61.523,0
1486824229.730,141.113,29.297,36.621,212.891,106.934,0
1486824229.733,47.363,32.227,40.527,154.297,139.160,0
1486824229.737,-53.711,34.668,40.039,-21.484,87.402,0
1486824229.741,-8.789,34.180,35.645,-96.191,-13.672,0
1486824229.745,118.652,33.203,38.086,54.688,-83.984,0
1486824229.749,144.043,33.691,40.527,207.520,32.227,0
1486824229.753,59.570,35.156,40.039,165.039,128.906,0
1486824229.757,-46.387,35.156,40.527,-0.977,104.492,0
1486824229.761,-30.762,29.297,35.156,-99.121,-9.277,0
1486824229.765,91.797,27.832,34.180,22.949,-70.801,0
1486824229.769,144.531,30.762,42.480,198.242,31.738,0
1486824229.773,70.312,32.227,43.457,189.941,142.090,0
1486824229.776,-50.293,37.109,36.621,24.414,154.785,0
1486824229.780,-41.992,34.180,36.621,-95.215,14.648,0
1486824229.784,84.961,30.273,37.598,2.930,-60.059,0
1486824229.788,143.555,30.273,34.668,179.688,38.574,0
1486824229.792,88.867,29.297,38.086,192.871,103.516,0
1486824229.796,-41.504,29.785,42.969,39.551,100.098,0
1486824229.800,-65.430,30.762,39.551,-100.098,-22.949,0
1486824229.804,54.199,27.344,31.250,-25.879,-82.031,0
1486824229.808,129.395,27.832,32.715,166.504,7.324,0
1486824229.812,92.285,31.738,41.504,207.031,106.934,0
1486824229.816,-21.484,32.227,44.434,72.266,157.227,0
1486824229.819,-62.500,34.180,41.504,-93.750,14.160,0
1486824229.823,44.922,34.668,40.039,-51.270,-96.191,0
1486824229.827,127.441,29.297,42.480,153.809,17.090,0
1486824229.831,90.332,27.832,40.039,213.867,143.555,0
1486824229.835,-18.066,29.297,37.109,80.566,169.434,0
1486824229.839,-77.148,29.785,37.598,-89.355,72.266,0
1486824229.843,31.738,29.785,39.551,-75.684,-75.195,0
1486824229.847,133.301,28.320,38.574,126.953,-28.320,0
1486824229.851,102.051,27.344,36.621,212.891,124.512,0
1486824229.855,-5.371,30.273,40.039,100.098,153.809,0
1486824229.858,-75.195,32.715,39.551,-68.359,52.246,0
1486824229.862,26.855,29.785,34.668,-84.961,-91.309,0
1486824229.866,130.371,26.367,36.621,108.887,-73.730,0
1486824229.870,120.117,27.832,39.551,235.352,87.891,0
1486824229.874,26.367,31.250,32.227,138.184,167.480,0
1486824229.878,-65.430,30.273,30.273,-49.316,114.258,0
1486824229.882,13.184,27.832,31.738,-84.473,-59.082,1
1486824229.886,113.281,26.367,34.180,97.656,-59.082,0
1486824229.890,106.934,27.344,39.551,224.121,112.793,0
1486824229.894,38.086,30.273,42.969,151.367,162.598,0
1486824229.898,-67.383,29.297,40.039,-29.297,111.816,0
1486824229.901,-20.020,28.320,39.062,-102.539,-21.973,0
1486824229.905,125.488,25.879,42.480,64.453,-47.363,0
1486824229.909,133.301,24.414,40.527,216.797,62.012,0
1486824229.913,44.434,29.785,41.504,168.945,101.562,0
1486824229.917,-52.246,30.273,43.457,2.930,100.098,0
1486824229.921,-32.227,24.414,38.574,-100.098,11.719,0
1486824229.925,98.633,22.461,37.109,34.180,-69.824,0
1486824229.929,135.742,22.949,41.504,205.078,19.043,0
1486824229.933,61.035,29.785,44.434,181.152,92.773,0
1486824229.937,-52.734,31.738,43.945,15.137,75.684,0
1486824229.941,-54.688,25.879,36.133,-106.934,-40.039,0
1486824229.944,74.219,23.926,34.180,-3.906,-73.730,0
1486824229.948,128.906,28.320,40.527,184.570,62.012,0
1486824229.952,64.941,33.691,43.457,188.965,131.836,0
1486824229.956,-39.551,33.691,45.898,33.691,126.953,0
1486824229.960,-50.781,35.645,46.387,-104.492,-6.348,0
1486824229.964,65.918,33.203,37.598,-20.996,-93.750,0
1486824229.968,137.695,30.762,34.668,180.176,48.828,0
1486824229.972,82.520,33.691,38.574,207.031,143.555,0
1486824229.976,-37.598,34.180,39.551,57.129,124.023,0
1486824229.980,-64.941,34.180,41.504,-102.539,57.617,0
1486824229.983,56.641,27.832,39.062,-59.082,-50.781,0
1486824229.987,128.906,24.902,30.762,145.020,63.477,0
1486824229.991,82.031,27.832,36.621,206.543,213.867,0
1486824229.995,-33.691,28.809,43.457,68.359,194.824,0
1486824229.999,-81.055,27.344,43.457,-97.656,97.168,0
1486824230.003,31.738,25.879,34.180,-72.266,-25.879,0
1486824230.007,123.535,27.832,33.203,131.348,42.480,0
1486824230.011,108.887,27.832,39.062,208.984,141.602,0
1486824230.015,4.395,28.320,41.016,101.074,155.273,0
1486824230.019,-75.195,31.250,41.016,-68.359,73.730,0
1486824230.023,26.367,28.809,39.062,-69.824,-72.754,0
1486824230.026,142.578,29.785,40.039,119.629,-45.898,0
1486824230.030,128.418,36.133,41.504,214.355,73.730,0
1486824230.034,20.020,37.598,45.898,133.789,132.812,0
1486824230.038,-70.801,33.691,47.852,-31.250,95.215,0
1486824230.042,-1.465,28.809,38.086,-91.797,-56.152,0
1486824230.046,112.793,29.785,31.738,85.449,-59.570,0
1486824230.050,123.047,34.668,39.062,214.355,85.449,0
1486824230.054,26.855,36.621,46.387,145.508,158.691,0
1486824230.058,-77.148,32.715,45.410,-29.785,75.684,0
1486824230.062,-19.531,29.297,39.551,-108.887,-64.941,0
1486824230.065,105.957,28.320,37.109,60.059,-53.223,0
1486824230.069,127.930,31.250,39.551,221.191,69.824,0
1486824230.073,46.875,34.668,41.992,163.574,126.465,0
1486824230.077,-61.523,31.250,41.992,-9.277,93.262,0
1486824230.081,-36.133,26.367,38.086,-102.539,-32.227,0
1486824230.085,90.332,26.367,34.180,36.621,-83.496,0
1486824230.089,133.789,30.273,38.086,208.008,14.648,0
1486824230.093,64.453,33.203,39.551,162.109,125.000,0
1486824230.097,-47.363,35.645,37.598,3.418,135.742,0
1486824230.101,-46.875,28.320,38.086,-113.281,-23.438,0
1486824230.105,79.102,26.367,32.715,2.441,-84.961,0
1486824230.108,135.742,30.762,31.250,195.312,28.320,0
1486824230.112,76.660,34.180,37.598,187.012,94.727,0
1486824230.116,-42.969,38.086,40.527,31.738,112.305,0
1486824230.120,-54.688,31.250,34.668,-105.957,9.277,0
1486824230.124,79.102,25.879,29.297,-5.859,-112.305,0
1486824230.128,139.648,26.367,32.715,185.547,-41.016,0
1486824230.132,85.938,31.738,35.645,205.078,82.520,0
1486824230.136,-28.809,39.551,42.969,64.941,105.469,0
1486824230.140,-62.012,31.738,38.574,-104.492,-10.742,0
1486824230.144,50.781,25.391,30.762,-40.039,-114.746,0
1486824230.148,127.441,26.855,38.574,161.133,-26.367,0
1486824230.151,91.309,29.297,39.551,202.148,85.938,0
1486824230.155,-19.043,28.809,41.016,85.938,82.520,0
1486824230.159,-73.730,27.344,41.992,-83.496,-16.602,0
1486824230.163,39.551,26.855,41.992,-57.129,-111.816,0
1486824230.167,129.883,27.832,43.945,157.715,-23.926,0
1486824230.171,100.586,30.273,42.969,218.262,94.727,0
1486824230.175,-3.418,30.273,45.898,108.398,115.234,0
1486824230.179,-72.754,29.297,46.875,-77.148,45.898,0
1486824230.183,28.809,25.879,38.574,-89.844,-72.754,0
1486824230.187,134.277,28.809,38.086,128.418,-44.434,0
1486824230.190,112.793,27.832,44.434,216.309,96.191,0
1486824230.194,4.883,27.344,42.969,119.629,156.250,0
1486824230.198,-68.359,29.297,44.434,-58.105,92.285,0
1486824230.202,11.230,26.367,37.109,-97.656,-31.738,0
1486824230.206,124.023,26.855,36.621,99.121,-8.301,0
1486824230.210,120.605,29.785,43.457,212.891,102.051,0
1486824230.214,20.020,30.273,38.574,127.930,127.930,0
1486824230.218,-70.801,28.320,32.227,-54.199,125.000,0
1486824230.222,-13.672,25.879,31.250,-129.395,3.906,0
1486824230.226,115.723,24.414,36.621,56.641,-19.043,0
1486824230.230,136.719,25.879,39.551,208.496,122.559,0
1486824230.233,42.480,31.250,36.133,158.691,181.641,0
1486824230.237,-65.918,31.250,36.133,-31.250,130.859,0
1486824230.241,-25.391,28.809,38.574,-132.324,-39.062,0
1486824230.245,102.539,28.320,39.551,41.016,-77.148,0
1486824230.249,122.559,28.809,37.109,206.055,63.477,0
1486824230.253,32.227,30.273,35.645,162.598,128.418,0
1486824230.257,-77.637,29.785,37.109,-19.531,113.281,0
1486824230.261,-46.387,29.297,35.645,-122.559,18.555,0
1486824230.265,92.773,24.902,39.551,21.973,-43.945,0
1486824230.269,131.348,24.902,41.504,203.125,21.973,0
1486824230.273,62.988,28.809,39.062,192.871,93.262,0
1486824230.276,-45.410,27.832,41.992,14.160,74.219,0
1486824230.280,-53.223,28.809,41.504,-108.398,-53.711,0
1486824230.284,79.590,29.297,40.527,0.000,-141.602,0
1486824230.288,136.719,32.715,41.992,184.082,-14.160,0
1486824230.292,78.613,31.250,44.922,200.684,88.379,0
1486824230.296,-30.762,24.902,44.922,37.109,49.805,0
1486824230.300,-66.406,24.902,38.574,-108.887,-48.828,0
1486824230.304,48.340,22.461,32.715,-23.926,-136.230,0
1486824230.308,127.930,23.438,33.691,174.316,-30.273,0
1486824230.312,90.820,26.367,42.969,208.984,69.336,0
1486824230.315,-20.996,31.250,42.969,58.594,111.816,0
1486824230.319,-59.570,31.250,33.691,-96.680,40.039,0
1486824230.323,55.176,24.902,31.250,-38.574,-89.355,0
1486824230.327,134.766,25.391,31.250,153.320,-58.594,0
1486824230.331,102.539,27.344,37.109,209.961,79.102,0
1486824230.335,-8.301,28.809,41.504,79.102,124.023,0
1486824230.339,-69.824,26.855,35.156,-83.496,54.688,0
1486824230.343,42.969,25.391,31.250,-60.059,-59.570,0
1486824230.347,134.766,25.391,31.250,129.883,-7.324,0
1486824230.351,112.305,27.832,31.738,215.332,104.980,0
1486824230.355,12.695,31.250,37.109,107.422,113.770,0
1486824230.358,-63.965,29.785,38.086,-69.336,60.059,0
1486824230.362,23.926,28.809,32.227,-84.961,-78.613,0
1486824230.366,128.418,29.297,35.645,109.375,-58.105,0
1486824230.370,125.000,26.367,41.016,226.562,60.059,0
1486824230.374,28.320,28.809,39.551,130.859,106.934,0
1486824230.378,-59.570,30.762,41.992,-46.875,64.941,0
1486824230.382,2.441,25.391,40.039,-91.309,-89.844,0
1486824230.386,122.559,23.438,35.156,80.078,-48.340,0
1486824230.390,140.625,28.809,36.621,216.309,78.125,0
1486824230.394,40.039,32.715,37.598,137.207,91.797,0
1486824230.397,-68.848,32.227,36.621,-38.086,62.988,0
1486824230.401,-16.113,30.273,36.133,-104.492,-42.969,0
1486824230.405,118.164,32.227,36.621,52.246,-65.918,0
1486824230.409,135.254,32.227,38.086,209.961,80.566,0
1486824230.413,52.734,31.738,45.410,161.621,166.016,0
1486824230.417,-51.270,32.715,39.551,-14.648,110.840,0
1486824230.421,-19.531,29.297,33.203,-112.305,10.254,0
1486824230.425,98.145,26.367,36.133,25.391,-29.785,0
1486824230.429,130.371,30.273,37.598,208.984,84.473,0
1486824230.433,62.988,36.621,43.945,176.270,134.766,1
1486824230.437,-54.199,35.156,42.969,-1.953,70.801,0
1486824230.440,-50.293,29.785,37.109,-115.234,-32.227,0
1486824230.444,79.102,28.809,41.504,2.930,-94.727,0
1486824230.448,133.789,26.855,41.504,190.918,48.340,0
1486824230.452,71.289,27.344,38.574,174.316,117.676,0
1486824230.456,-44.434,33.691,44.922,25.879,89.355,0
1486824230.460,-53.223,35.156,44.434,-93.262,-6.836,0
1486824230.464,62.012,33.203,34.180,-17.578,-84.961,0
1486824230.468,117.676,29.297,35.156,167.969,14.648,0
1486824230.472,65.918,31.250,37.598,187.988,131.836,0
1486824230.476,-44.434,34.668,41.016,45.410,134.277,0
1486824230.480,-63.477,34.668,40.527,-91.309,11.719,0
1486824230.483,60.547,33.691,35.645,-45.410,-115.234,0
1486824230.487,145.996,33.203,34.668,154.785,-43.945,0
1486824230.491,108.887,33.691,37.598,210.449,90.820,0
1486824230.495,-15.625,36.133,41.504,87.402,135.254,0
1486824230.499,-73.242,36.133,43.457,-73.242,51.270,0
1486824230.503,37.598,30.273,40.527,-72.754,-76.660,0
1486824230.507,131.836,30.762,36.133,135.254,-1.465,0
1486824230.511,110.840,34.668,36.621,221.680,119.629,0
1486824230.515,1.465,31.250,38.574,112.305,163.574,0
1486824230.519,-81.055,29.785,40.039,-61.035,69.824,0
1486824230.522,8.789,29.297,38.574,-81.055,-87.402,0
1486824230.526,115.723,31.738,34.668,112.305,-41.504,0
1486824230.530,110.840,33.691,36.621,217.285,103.516,0
1486824230.534,8.301,29.297,46.387,121.582,117.188,0
1486824230.538,-76.660,31.250,47.363,-56.152,23.438,0
1486824230.542,-0.977,30.273,41.992,-93.262,-91.797,0
1486824230.546,117.676,26.855,42.969,80.078,-55.176,0
1486824230.550,126.465,31.738,38.574,212.402,84.961,0
1486824230.554,32.227,32.227,37.109,150.391,151.855,0
1486824230.558,-62.988,28.809,40.527,-26.855,109.375,0
1486824230.562,-18.555,29.297,36.133,-93.262,-19.531,0
1486824230.565,106.445,28.320,32.227,68.359,-74.707,0
1486824230.569,130.859,28.809,32.227,210.449,26.367,0
1486824230.573,47.363,32.715,35.156,153.320,140.137,0
1486824230.577,-62.012,33.203,40.527,-8.789,101.074,0
1486824230.581,-37.109,29.297,40.527,-98.633,-39.062,0
1486824230.585,93.750,26.855,39.062,39.062,-62.012,0
1486824230.589,131.348,25.879,38.086,206.543,54.199,0
1486824230.593,57.129,29.785,46.387,182.129,120.605,0
1486824230.597,-54.688,32.227,46.875,17.090,113.281,0
1486824230.601,-39.551,27.344,37.598,-110.352,-0.977,0
1486824230.605,85.449,25.879,40.039,5.371,-34.668,0
1486824230.608,142.578,28.320,42.969,192.383,80.078,0
1486824230.612,84.961,28.809,43.457,187.012,135.254,0
1486824230.616,-44.434,30.273,44.434,33.691,133.789,0
1486824230.620,-56.152,28.320,37.598,-97.168,33.691,0
1486824230.624,72.754,26.367,32.715,-7.812,-52.246,0
1486824230.628,140.625,29.297,37.109,184.082,6.348,0
1486824230.632,89.355,29.297,41.504,203.613,110.840,0
1486824230.636,-30.762,27.344,43.457,51.270,127.930,0
1486824230.640,-62.500,26.855,41.016,-102.539,2.441,0
1486824230.644,61.523,28.809,38.574,-45.898,-129.883,0
1486824230.647,142.090,29.785,39.062,157.227,-44.434,0
1486824230.651,93.262,28.320,43.457,208.984,126.465,0
1486824230.655,-18.555,32.227,44.922,82.031,169.434,0
1486824230.659,-68.848,32.227,40.527,-79.102,46.875,0
1486824230.663,38.574,25.391,36.133,-58.105,-107.422,0
1486824230.667,135.254,24.902,35.156,144.043,-3.906,0
1486824230.671,112.305,28.320,35.645,210.449,114.258,0
1486824230.675,1.953,27.832,37.598,101.074,106.934,0
1486824230.679,-68.359,27.832,39.062,-63.477,29.297,0
1486824230.683,29.297,27.832,37.109,-74.707,-92.285,0
1486824230.687,125.488,25.391,34.668,118.652,-23.926,0
1486824230.690,102.539,27.832,40.039,214.844,101.562,0
1486824230.694,11.230,28.809,44.434,127.441,153.320,0
1486824230.698,-72.266,29.785,41.504,-42.480,82.520,0
1486824230.702,0.000,27.832,37.598,-83.984,-36.621,0
1486824230.706,115.234,25.879,38.086,88.379,-23.926,0
1486824230.710,116.211,27.344,42.480,214.355,72.754,0
1486824230.714,20.996,28.809,40.039,138.672,119.629,0
1486824230.718,-78.125,26.367,34.668,-36.133,91.309,0
1486824230.722,-19.531,26.855,38.574,-97.168,-48.828,0
1486824230.726,102.539,28.320,36.133,60.059,-79.590,0
1486824230.729,115.234,31.738,33.203,205.566,77.148,0
1486824230.733,42.480,36.133,35.645,155.273,155.273,0
1486824230.737,-60.547,35.156,38.086,-16.602,101.562,0
1486824230.741,-21.973,32.715,39.551,-107.422,-41.992,0
1486824230.745,101.562,27.832,39.062,41.504,-84.961,0
1486824230.749,126.465,28.320,38.086,206.055,35.156,0
1486824230.753,58.594,32.227,40.039,179.199,137.695,0
1486824230.757,-49.316,31.250,41.992,15.625,118.652,0
1486824230.761,-41.504,27.832,38.086,-104.004,-34.668,0
1486824230.765,81.543,23.926,37.109,27.344,-70.312,0
1486824230.769,138.184,25.879,38.086,202.148,59.082,0
1486824230.772,67.871,31.738,37.598,180.664,119.629,0
1486824230.776,-45.410,33.203,37.109,28.320,107.422,0
1486824230.780,-45.410,29.785,37.598,-96.191,21.484,0
1486824230.784,68.848,27.344,34.180,-10.742,-56.641,0
1486824230.788,137.207,26.367,36.133,177.734,21.973,0
1486824230.792,85.449,26.367,41.992,198.242,128.906,0
1486824230.796,-43.457,29.297,40.527,46.387,123.535,0
1486824230.800,-56.152,32.227,36.133,-104.492,27.832,0
1486824230.804,66.895,28.809,35.156,-38.574,-89.355,0
1486824230.808,129.395,29.785,36.133,160.156,18.066,0
1486824230.812,94.727,32.227,40.039,207.031,135.742,0
1486824230.815,-18.555,29.297,45.898,82.520,124.023,0
1486824230.819,-69.824,32.227,40.039,-88.867,60.547,0
1486824230.823,42.969,25.391,31.250,-59.082,-84.961,0
1486824230.827,131.836,22.949,33.691,147.949,-32.227,0
1486824230.831,96.191,29.297,38.574,212.402,111.328,0
1486824230.835,-16.602,33.203,41.992,93.262,127.930,0
1486824230.839,-78.613,33.203,41.016,-89.355,29.297,0
1486824230.843,14.648,29.785,39.551,-88.379,-131.348,0
1486824230.847,115.234,28.320,37.598,118.164,-66.895,0
1486824230.851,104.980,29.785,38.086,220.215,83.008,0
1486824230.854,5.371,31.738,45.898,121.094,102.539,0
1486824230.858,-78.125,31.250,50.781,-62.500,66.895,0
1486824230.862,-1.465,27.344,39.551,-91.797,-30.762,0
1486824230.866,115.234,27.344,31.738,93.262,-12.207,0
1486824230.870,124.023,31.738,39.062,207.031,94.238,0
1486824230.874,26.855,35.156,41.992,140.137,160.156,0
1486824230.878,-62.012,37.109,41.016,-35.645,116.211,0
1486824230.882,-0.977,35.156,37.109,-102.539,-28.809,0
1486824230.886,101.074,26.855,37.109,65.430,-43.945,0
1486824230.890,111.328,26.855,40.527,208.008,114.258,0
1486824230.894,35.645,32.715,45.410,158.203,176.758,0
1486824230.897,-67.383,33.203,47.363,-19.531,132.812,0
1486824230.901,-29.785,30.762,40.527,-107.422,-9.766,0
1486824230.905,97.168,29.297,35.645,48.340,-63.965,0
1486824230.909,130.859,32.715,40.527,201.172,72.754,0
1486824230.913,73.730,39.551,42.480,164.062,144.043,0
1486824230.917,-41.992,37.598,41.992,-3.418,131.836,0
1486824230.921,-29.785,29.785,41.504,-110.840,25.391,0
1486824230.925,103.516,29.785,35.156,19.043,-34.180,0
1486824230.929,136.230,29.785,29.785,185.059,58.594,0
1486824230.933,63.965,32.715,39.062,182.129,144.043,0
1486824230.937,-49.316,35.156,44.922,24.414,148.438,0
1486824230.940,-58.594,29.785,38.574,-115.234,2.930,0
1486824230.944,67.383,24.414,39.062,-7.812,-64.453,0
1486824230.948,121.094,27.832,37.109,184.082,95.703,0
1486824230.952,74.707,31.738,35.645,174.316,137.695,0
1486824230.956,-41.016,29.785,38.086,26.855,127.930,0
1486824230.960,-69.824,26.855,36.621,-105.469,60.059,1
1486824230.964,55.176,26.367,34.180,-37.598,-50.293,0
1486824230.968,120.117,26.855,34.668,155.762,57.129,0
1486824230.972,74.219,26.367,38.574,196.777,197.266,0
1486824230.976,-35.156,32.227,39.551,59.082,208.984,0
1486824230.979,-73.242,30.273,37.109,-90.820,105.957,0
1486824230.983,41.016,24.902,39.551,-51.270,-16.602,0
1486824230.987,125.488,26.367,39.062,146.484,27.344,0
1486824230.991,94.727,28.320,37.598,221.680,145.996,0
1486824230.995,-15.137,28.809,42.969,93.750,157.227,0
1486824230.999,-73.242,30.273,43.457,-73.242,62.988,0
1486824231.003,36.133,25.391,36.621,-70.801,-42.969,0
1486824231.007,134.277,25.879,35.156,119.629,3.418,0
1486824231.011,111.816,35.156,35.645,213.867,115.234,0
1486824231.015,1.953,31.738,37.109,104.004,173.828,0
1486824231.019,-75.684,23.926,39.062,-62.988,92.773,0
1486824231.022,12.695,21.973,35.156,-94.238,-38.574,0
1486824231.026,115.723,23.438,33.691,89.844,-5.371,0
1486824231.030,110.840,29.785,39.551,228.027,123.047,0
1486824231.034,11.719,34.180,38.086,132.324,133.789,0
1486824231.038,-76.660,29.785,36.621,-52.734,44.922,0
1486824231.042,-4.395,23.926,37.598,-111.816,-69.336,0
1486824231.046,119.629,24.414,33.691,78.613,-43.457,0
1486824231.050,119.629,26.855,33.203,220.215,82.520,0
1486824231.054,21.973,27.832,37.109,134.277,153.809,0
1486824231.058,-67.871,29.297,34.668,-31.250,155.762,0
1486824231.061,-17.090,27.832,35.156,-123.535,15.137,0
1486824231.065,108.398,24.414,39.062,40.527,-22.949,0
1486824231.069,135.742,27.344,44.434,221.680,123.535,0
1486824231.073,54.199,30.273,45.898,160.645,150.391,0
1486824231.077,-58.594,32.227,41.504,-11.719,79.590,0
1486824231.081,-36.621,27.344,44.434,-116.211,9.766,0
1486824231.085,92.285,20.996,41.016,9.766,-38.086,0
1486824231.089,137.695,24.902,36.133,190.918,40.039,0
1486824231.093,65.918,30.762,41.504,162.598,120.117,0
1486824231.097,-60.547,33.691,43.945,1.465,95.703,0
1486824231.101,-55.664,28.809,33.203,-124.512,-7.812,0
1486824231.104,82.520,24.414,28.809,-15.625,-57.617,0
1486824231.108,141.113,28.320,34.668,186.523,31.738,0
1486824231.112,85.938,35.156,41.504,187.988,131.348,0
1486824231.116,-33.203,35.645,47.363,33.691,137.207,0
1486824231.120,-48.340,32.227,39.551,-106.934,-8.789,0
1486824231.124,71.289,28.320,33.691,-27.344,-89.844,0
1486824231.128,143.555,26.855,37.598,184.570,46.387,0
1486824231.132,100.098,27.344,40.039,207.520,120.117,0
1486824231.136,-26.367,27.344,41.504,53.711,106.445,0
1486824231.140,-67.871,29.785,37.598,-93.750,55.176,0
1486824231.144,54.199,27.832,37.109,-50.293,-73.242,0
1486824231.147,139.160,25.391,45.410,166.016,-24.902,0
1486824231.151,104.980,29.297,43.457,225.098,125.488,0
1486824231.155,-11.230,34.668,40.039,88.867,130.859,0
1486824231.159,-52.734,29.785,46.875,-73.242,7.324,0
1486824231.163,60.547,26.367,43.945,-57.617,-122.070,0
1486824231.167,139.160,28.809,39.551,151.367,-41.016,0
1486824231.171,116.211,30.762,48.828,233.398,108.887,0
1486824231.175,10.254,31.738,49.805,122.070,163.086,0
1486824231.179,-64.453,31.738,44.922,-49.316,110.352,0
1486824231.183,27.344,29.785,43.457,-63.477,-29.297,0
1486824231.186,141.113,28.809,43.945,142.578,-5.371,0
1486824231.190,129.395,32.227,45.410,239.258,96.191,0
1486824231.194,23.438,36.133,45.898,136.719,116.699,0
1486824231.198,-54.199,37.109,44.922,-36.621,64.941,0
1486824231.202,17.578,34.668,41.992,-79.590,-63.477,0
1486824231.206,122.559,36.133,42.969,94.238,-69.336,0
1486824231.210,132.324,35.645,43.457,226.562,83.984,0
1486824231.214,38.574,35.645,41.016,149.414,148.438,0
1486824231.218,-62.500,37.598,41.016,-34.668,61.523,0
1486824231.222,-4.395,31.738,39.551,-97.656,-58.594,0
1486824231.226,119.141,32.227,37.109,73.730,-64.941,0
1486824231.229,130.371,37.109,32.227,215.332,61.035,0
1486824231.233,32.715,37.109,35.156,154.785,156.250,0
1486824231.237,-66.406,34.180,44.434,-20.020,128.906,0
1486824231.241,-22.461,32.715,37.598,-119.629,-29.297,0
1486824231.245,96.680,30.273,34.668,31.738,-65.918,0
1486824231.249,127.930,27.832,35.645,205.566,72.754,0
1486824231.253,54.199,26.367,34.180,167.480,142.090,0
1486824231.257,-57.129,25.879,39.551,-0.488,117.676,0
1486824231.261,-45.898,29.297,33.691,-107.422,12.695,0
1486824231.265,72.754,29.297,31.738,17.578,-57.129,0
1486824231.269,124.023,28.320,35.645,193.848,12.207,0
1486824231.272,62.988,31.250,38.574,181.152,102.539,0
1486824231.276,-52.734,31.250,41.992,30.273,135.254,0
1486824231.280,-57.129,29.297,40.039,-108.887,12.207,0
1486824231.284,62.988,28.809,32.715,-21.973,-85.449,0
1486824231.288,131.836,28.320,36.133,181.641,10.742,0
1486824231.292,81.543,34.180,43.457,203.125,117.676,0
1486824231.296,-40.039,41.016,39.062,49.316,153.809,0
1486824231.300,-60.059,36.133,38.574,-94.727,33.691,0
1486824231.304,62.012,29.297,33.691,-36.621,-76.172,0
1486824231.308,126.465,27.344,36.133,155.273,4.395,0
1486824231.311,84.961,27.832,46.875,201.172,92.773,0
1486824231.315,-21.973,30.762,44.922,71.777,94.727,0
1486824231.319,-63.477,28.320,39.551,-92.285,-0.977,0
1486824231.323,46.387,26.367,36.133,-60.547,-105.469,0
1486824231.327,122.559,28.809,33.203,145.020,-48.828,0
1486824231.331,90.332,29.297,39.551,208.008,60.059,0
1486824231.335,-7.812,34.180,41.016,90.820,103.027,0
1486824231.339,-71.777,35.156,38.574,-77.148,28.320,0
1486824231.343,21.484,30.273,34.668,-77.148,-83.496,0
1486824231.347,130.859,26.855,34.180,122.070,-53.223,0
1486824231.351,104.980,25.391,36.133,212.402,46.875,0
1486824231.354,-15.625,28.809,37.109,115.234,145.996,0
1486824231.358,-92.285,30.273,35.156,-74.219,54.199,0
1486824231.362,-11.719,27.344,31.738,-113.770,-99.609,0
1486824231.366,104.980,26.367,33.691,88.379,-56.152,0
1486824231.370,99.609,31.738,37.109,207.520,50.781,0
1486824231.374,15.137,37.109,44.922,131.348,117.188,0
1486824231.378,-62.988,35.645,46.387,-44.922,73.242,0
1486824231.382,-20.996,32.715,39.062,-101.074,-72.754,0
1486824231.386,95.215,28.809,38.086,74.219,-66.895,0
1486824231.390,121.582,30.273,36.133,208.008,69.824,0
1486824231.393,44.922,34.668,37.598,155.762,134.277,0
1486824231.397,-62.988,32.227,42.969,-18.066,95.703,0
1486824231.401,-31.250,30.762,37.109,-101.562,-47.852,0
1486824231.405,96.191,31.250,37.109,48.828,-85.449,0
1486824231.409,121.094,32.227,44.922,203.125,55.664,0
1486824231.413,41.016,33.691,45.410,162.598,120.117,0
1486824231.417,-70.312,34.668,43.457,-6.348,74.219,0
1486824231.421,-48.828,32.715,41.016,-109.375,-46.875,0
1486824231.425,88.379,30.273,38.574,13.672,-83.496,0
1486824231.429,135.742,28.320,41.016,188.477,24.414,0
1486824231.433,63.477,30.762,39.551,175.293,90.820,0
1486824231.436,-51.270,35.645,39.551,14.160,103.027,0
1486824231.440,-50.781,29.297,44.922,-102.051,-19.043,0
1486824231.444,78.125,23.926,42.480,5.371,-122.559,0
1486824231.448,138.184,27.832,39.062,190.918,7.324,0
1486824231.452,80.078,26.367,41.504,200.195,124.023,0
1486824231.456,-30.273,28.320,49.316,50.293,108.887,0
1486824231.460,-52.734,31.738,45.410,-92.773,-23.926,0
1486824231.464,70.801,27.832,34.180,-15.625,-121.094,0
1486824231.468,139.160,28.809,36.621,179.199,-11.230,0
1486824231.472,91.309,32.715,42.969,207.520,84.473,0
1486824231.476,-20.020,32.227,43.945,71.289,101.074,0
1486824231.479,-68.848,29.785,44.434,-77.637,20.508,0
1486824231.483,42.480,25.879,39.062,-44.434,-104.980,0
1486824231.487,127.930,26.855,37.598,154.785,-37.598,0
1486824231.491,108.887,29.297,45.898,225.586,112.305,0
1486824231.495,-0.488,30.273,46.875,101.562,157.227,0
1486824231.499,-65.430,31.738,44.434,-73.242,38.574,0
1486824231.503,38.086,30.273,41.016,-62.988,-98.633,0
1486824231.507,120.605,26.367,38.574,136.230,-21.484,0
1486824231.511,101.074,25.879,43.457,219.727,125.977,0
1486824231.515,9.766,28.809,41.992,111.816,123.535,0
1486824231.518,-65.918,29.785,37.598,-64.453,47.852,0
1486824231.522,19.043,28.320,38.574,-87.891,-86.426,0
1486824231.526,135.742,28.809,38.574,106.445,-75.684,0
1486824231.530,113.281,32.227,43.457,220.215,79.102,0
1486824231.534,19.043,34.180,46.387,133.789,119.629,0
1486824231.538,-62.988,34.180,43.457,-33.203,38.574,0
1486824231.542,-6.348,31.738,42.969,-85.938,-84.473,0
1486824231.546,114.746,32.715,38.574,79.590,-49.805,0
1486824231.550,117.188,36.133,35.156,217.285,83.496,0
1486824231.554,27.832,35.645,38.086,144.531,141.113,0
1486824231.558,-63.965,34.180,42.480,-28.809,68.848,0
1486824231.561,-20.020,30.273,37.598,-100.586,-80.078,0
1486824231.565,104.492,28.320,31.250,43.457,-108.398,0
1486824231.569,116.699,30.273,35.645,206.055,22.461,0
1486824231.573,36.133,33.691,42.480,160.645,104.980,0
1486824231.577,-73.242,31.738,41.992,-12.695,105.957,0
1486824231.581,-47.363,31.250,43.945,-102.051,11.230,0
1486824231.585,89.355,29.297,45.898,33.203,-72.266,0
1486824231.589,130.859,27.832,38.574,212.402,64.941,0
1486824231.593,65.430,33.691,37.109,186.035,185.547,0
1486824231.597,-48.340,35.156,39.551,25.879,128.418,1
1486824231.601,-35.645,30.762,37.109,-87.402,-13.672,0
1486824231.604,95.215,29.785,31.738,8.301,-59.570,0
1486824231.608,136.230,29.785,35.156,193.848,62.500,0
1486824231.612,83.008,31.738,39.551,187.988,165.527,0
1486824231.616,-30.273,36.133,38.086,17.090,167.480,0
1486824231.620,-49.805,37.109,37.598,-111.816,20.508,0
1486824231.624,73.730,31.738,38.086,-23.926,-119.141,0
1486824231.628,141.113,30.762,40.039,167.480,-37.109,0
1486824231.632,92.285,33.691,38.574,193.359,127.930,0
1486824231.636,-31.250,37.109,36.621,40.039,166.992,0
1486824231.640,-72.266,35.645,36.621,-100.098,44.434,0
1486824231.643,51.758,30.273,34.668,-36.621,-80.566,0
1486824231.647,135.254,33.203,38.574,166.504,10.742,0
1486824231.651,102.051,35.156,40.527,216.797,155.762,0
1486824231.655,-8.301,36.133,43.945,80.078,158.203,0
1486824231.659,-71.289,35.156,44.922,-68.848,82.031,0
1486824231.663,31.250,29.297,36.133,-59.570,-59.570,0
1486824231.667,126.465,29.297,37.109,139.648,-29.785,0
1486824231.671,111.328,30.762,44.434,223.633,80.078,0
1486824231.675,3.418,30.762,43.945,110.840,139.160,0
1486824231.679,-68.359,31.250,41.016,-61.035,65.430,0
1486824231.683,28.809,29.785,40.039,-78.613,-58.594,0
1486824231.686,130.371,29.297,43.945,120.117,8.301,0
1486824231.690,111.328,33.691,44.922,208.496,117.188,0
1486824231.694,17.090,35.156,41.016,105.469,122.559,0
1486824231.698,-67.871,33.691,40.527,-59.570,57.129,0
1486824231.702,-9.766,30.762,39.551,-106.445,-63.477,0
1486824231.706,113.281,32.715,37.109,77.637,-27.832,0
1486824231.710,129.395,38.086,43.945,204.590,137.207,0
1486824231.714,31.250,34.668,48.828,125.488,140.137,0
1486824231.718,-65.430,32.227,41.016,-38.086,104.492,0
1486824231.722,-10.742,31.738,39.551,-98.145,-4.883,0
1486824231.725,106.445,29.785,45.898,73.242,-50.781,0
1486824231.729,125.488,32.227,45.898,212.891,102.539,0
1486824231.733,40.039,33.203,46.387,160.156,179.199,0
1486824231.737,-63.477,31.250,45.410,-2.930,110.352,0
1486824231.741,-17.578,28.809,40.039,-91.797,-20.508,0
1486824231.745,102.539,26.367,36.621,55.664,-47.852,0
1486824231.749,140.137,27.832,41.504,208.008,51.270,0
1486824231.753,75.684,32.227,50.781,177.734,129.883,0
1486824231.757,-42.969,35.156,49.805,21.973,110.352,0
1486824231.761,-34.180,34.180,38.574,-98.145,-15.625,0
1486824231.765,90.820,32.715,35.645,22.949,-84.473,0
1486824231.768,141.602,35.156,38.086,190.918,24.902,0
1486824231.772,93.262,39.062,40.039,185.059,128.906,0
1486824231.776,-33.203,39.551,40.527,34.668,144.043,0
1486824231.780,-49.805,36.621,41.504,-92.773,24.902,0
1486824231.784,88.867,38.086,41.992,10.742,-74.707,0
1486824231.788,161.133,43.457,42.969,186.035,42.969,0
1486824231.792,108.398,41.504,46.875,198.730,163.086,0
1486824231.796,-16.113,37.598,50.293,56.641,157.715,0
1486824231.800,-47.852,35.156,47.852,-95.703,58.594,0
1486824231.804,62.988,29.785,41.016,-30.762,-52.246,0
1486824231.808,142.090,28.809,41.504,163.086,10.254,0
1486824231.811,110.840,33.203,45.410,204.102,137.695,0
1486824231.815,0.977,35.645,46.387,77.148,157.227,0
1486824231.819,-42.969,35.645,46.875,-81.543,25.391,0
1486824231.823,59.570,31.250,41.016,-40.039,-87.891,0
1486824231.827,137.207,29.297,37.598,155.273,-23.438,0
1486824231.831,109.863,32.227,44.922,213.867,100.098,0
1486824231.835,6.348,34.180,47.363,111.328,155.762,0
1486824231.839,-61.035,32.227,40.039,-57.129,91.309,0
1486824231.843,37.598,27.344,37.109,-68.359,-60.547,0
1486824231.847,128.418,26.855,40.039,109.863,-20.508,0
1486824231.850,111.328,31.738,40.527,206.055,109.375,0
1486824231.854,18.555,34.180,41.992,121.094,139.648,0
1486824231.858,-74.219,32.227,41.016,-66.895,122.559,0
1486824231.862,-5.859,31.738,36.133,-103.027,-46.387,0
1486824231.866,105.957,28.809,34.668,90.820,-22.461,0
1486824231.870,109.863,27.832,35.156,208.984,131.348,0
1486824231.874,19.043,32.227,38.086,134.766,135.742,0
1486824231.878,-69.824,32.715,42.480,-29.785,71.289,0
1486824231.882,-12.207,24.902,41.504,-91.797,-52.734,0
1486824231.886,104.004,21.973,37.109,63.965,-44.434,0
1486824231.890,115.234,27.832,39.551,204.102,80.078,0
1486824231.893,31.250,32.715,45.898,148.438,104.004,0
1486824231.897,-73.242,32.227,41.016,-29.297,106.445,0
1486824231.901,-31.250,32.227,33.691,-104.004,13.184,0
1486824231.905,94.727,33.203,34.668,47.363,-49.316,0
1486824231.909,128.418,32.227,39.062,202.148,67.383,0
1486824231.913,54.688,33.691,40.039,173.340,144.043,0
1486824231.917,-57.129,31.250,40.039,7.324,127.930,0
1486824231.921,-44.434,27.344,41.016,-102.051,-15.137,0
1486824231.925,81.055,28.809,38.574,21.973,-66.406,0
1486824231.929,133.789,29.785,39.551,194.824,48.828,0
1486824231.933,59.570,29.785,39.062,176.758,117.188,0
1486824231.936,-52.246,32.227,38.086,16.602,128.906,0
1486824231.940,-44.434,27.344,39.062,-105.469,39.062,0
1486824231.944,71.289,26.855,35.645,-4.395,-80.566,0
1486824231.948,131.348,34.180,39.551,185.547,-2.441,0
1486824231.952,79.590,34.668,41.016,197.266,124.023,0
1486824231.956,-40.527,32.227,38.574,42.480,116.699,0
1486824231.960,-62.988,30.273,38.086,-109.863,-32.715,0
1486824231.964,59.570,30.273,36.133,-37.109,-110.840,0
1486824231.968,139.648,30.273,35.156,167.969,-0.488,0
1486824231.972,93.262,29.785,39.062,208.008,97.656,0
1486824231.975,-28.809,33.203,46.387,72.754,111.328,0
1486824231.979,-85.938,29.785,41.992,-85.449,38.086,0
1486824231.983,26.367,24.902,35.645,-59.570,-91.309,0
1486824231.987,125.488,29.785,38.086,136.230,-52.246,0
1486824231.991,86.914,30.273,42.480,209.473,74.707,0
1486824231.995,-25.391,27.344,39.551,90.820,104.492,0
1486824231.999,-78.125,27.832,39.551,-81.543,45.410,0
1486824232.003,16.113,28.320,41.016,-89.355,-113.770,0
1486824232.007,122.559,30.762,41.504,110.352,-75.195,0
1486824232.011,111.816,34.668,47.852,217.285,113.770,0
1486824232.015,-2.930,36.621,46.387,111.328,181.152,0
1486824232.018,-83.008,32.227,43.945,-67.871,99.609,0
1486824232.022,7.324,30.273,43.457,-98.145,-68.359,0
1486824232.026,110.352,31.738,37.598,91.309,-59.082,0
1486824232.030,100.586,29.785,39.062,217.773,114.746,0
1486824232.034,13.672,28.320,42.969,129.395,182.129,0
1486824232.038,-80.566,32.715,37.109,-46.875,88.867,0
1486824232.042,-17.090,35.156,33.691,-99.609,-49.805,0
1486824232.046,117.676,34.668,35.156,72.266,-36.133,0
1486824232.050,124.023,33.691,40.039,211.914,81.055,0
1486824232.054,24.414,34.668,41.504,152.832,127.441,0
1486824232.057,-75.195,34.180,36.133,-17.578,92.773,0
1486824232.061,-28.320,32.227,29.785,-99.121,-26.367,0
1486824232.065,104.492,26.855,34.180,47.363,-43.457,0
1486824232.069,127.441,28.809,42.969,202.637,95.703,0
1486824232.073,38.574,36.621,35.645,156.250,130.859,0
1486824232.077,-66.895,35.645,31.250,-14.648,123.047,0
1486824232.081,-37.598,31.250,37.109,-110.352,22.949,0
1486824232.085,101.562,27.344,36.621,28.320,-50.781,0
1486824232.089,139.648,28.320,36.621,197.266,64.453,0
1486824232.093,65.918,34.180,41.504,180.664,133.301,0
1486824232.097,-46.875,38.086,43.945,20.020,83.496,0
1486824232.100,-51.758,36.133,40.039,-98.633,-23.926,0
1486824232.104,74.219,32.715,33.691,3.906,-102.051,0
1486824232.108,138.672,32.227,32.715,192.871,18.555,0
1486824232.112,83.496,32.227,45.410,196.777,142.090,0
1486824232.116,-33.691,33.203,45.410,35.645,123.047,0
1486824232.120,-50.781,34.668,32.227,-104.492,-2.441,0
1486824232.124,67.871,34.180,30.762,-20.996,-77.148,0
1486824232.128,129.395,29.785,36.621,174.805,25.879,0
1486824232.132,77.637,27.344,41.992,202.148,126.465,0
1486824232.136,-30.273,31.738,46.875,75.195,156.250,0
1486824232.140,-67.383,34.668,44.922,-85.449,45.898,0
1486824232.143,43.945,31.250,37.109,-50.781,-95.215,0
1486824232.147,126.465,32.715,33.691,155.273,27.832,0
1486824232.151,91.309,35.645,36.133,208.496,141.602,0
1486824232.155,-17.090,34.668,41.016,78.613,123.535,0
1486824232.159,-70.312,34.668,45.410,-90.332,40.039,0
1486824232.163,32.715,29.785,39.062,-66.406,-83.496,0
1486824232.167,124.023,29.297,34.180,140.625,-7.324,0
1486824232.171,106.445,32.715,36.621,206.543,121.094,0
1486824232.175,1.953,36.621,37.598,98.145,170.898,0
1486824232.179,-78.125,39.062,36.621,-80.078,91.797,0
1486824232.182,13.184,31.738,35.156,-100.098,-64.941,1
1486824232.186,122.559,25.879,39.062,105.957,-39.062,0
1486824232.190,111.328,29.297,40.039,218.262,95.215,0
1486824232.194,20.508,33.203,43.457,117.676,148.926,0
1486824232.198,-64.453,33.203,45.898,-61.523,109.375,0
1486824232.202,5.371,31.250,34.668,-102.539,-51.758,0
1486824232.206,118.652,30.273,31.250,82.520,-57.617,0
1486824232.210,121.582,29.297,41.504,223.633,80.078,0
1486824232.214,36.621,31.738,43.457,152.344,117.676,0
1486824232.218,-52.734,33.203,42.969,-24.902,100.586,0
1486824232.222,7.324,32.227,42.480,-102.051,-50.293,0
1486824232.225,127.441,29.297,41.016,67.383,-89.844,0
1486824232.229,137.207,27.832,43.945,223.145,60.547,0
1486824232.233,51.758,30.762,41.016,169.434,118.652,0
1486824232.237,-57.617,31.250,40.039,-7.812,92.773,0
1486824232.241,-32.715,29.785,39.062,-120.117,-27.344,0
1486824232.245,92.773,27.344,37.109,39.551,-66.895,0
1486824232.249,126.465,24.414,43.945,211.914,58.594,0
1486824232.253,43.945,24.902,44.922,154.785,123.047,0
1486824232.257,-71.777,26.367,40.527,-9.766,124.023,0
1486824232.261,-65.430,26.855,33.691,-138.672,0.000,0
1486824232.265,51.270,25.391,30.762,-19.043,-97.656,0
1486824232.268,97.656,28.809,34.180,181.152,41.016,0
1486824232.272,50.293,34.668,35.645,168.457,133.301,0
1486824232.276,-55.176,33.691,38.086,12.695,133.301,0
1486824232.280,-70.312,29.297,38.086,-118.652,50.293,0
1486824232.284,56.641,26.367,35.156,-33.691,-89.844,0
1486824232.288,128.906,27.832,38.086,178.223,11.230,0
1486824232.292,86.914,29.297,42.480,199.219,137.207,0
1486824232.296,-25.391,29.297,41.992,54.688,121.094,0
1486824232.300,-55.176,24.902,41.504,-91.309,19.531,0
1486824232.304,67.871,23.926,38.086,-30.273,-78.125,0
1486824232.307,153.809,32.227,36.133,169.922,0.977,0
1486824232.311,117.188,34.668,41.016,208.984,112.305,0
1486824232.315,-1.465,31.250,42.969,80.566,140.137,0
1486824232.319,-57.617,30.273,39.062,-91.797,37.109,0
1486824232.323,63.965,30.762,40.527,-62.500,-67.383,0
1486824232.327,159.668,32.715,41.992,151.367,2.441,0
1486824232.331,132.324,33.203,41.992,214.844,95.215,0
1486824232.335,16.602,32.715,49.316,96.191,112.793,0
1486824232.339,-60.547,35.645,46.387,-75.684,20.996,0
1486824232.343,29.297,30.762,36.621,-76.172,-99.121,0
1486824232.347,120.605,27.344,34.668,126.953,-21.484,0
1486824232.350,103.027,30.273,38.574,222.656,93.262,0
1486824232.354,1.465,31.250,43.457,125.977,111.328,0
1486824232.358,-79.102,29.297,45.898,-53.711,97.656,0
1486824232.362,-10.742,24.414,41.992,-93.750,-43.457,0
1486824232.366,108.398,27.832,38.086,100.098,-79.102,0
1486824232.370,119.629,31.250,38.086,214.355,62.012,0
1486824232.374,15.137,27.832,43.457,121.582,133.301,0
1486824232.378,-77.637,30.273,53.223,-51.270,78.125,0
1486824232.382,-20.996,29.297,46.387,-107.422,-59.082,0
1486824232.386,95.703,29.297,33.203,59.570,-88.867,0
1486824232.389,120.117,33.203,36.621,205.566,21.973,0
1486824232.393,34.180,31.250,38.574,154.785,98.145,0
1486824232.397,-59.570,31.250,34.180,-23.438,72.266,0
1486824232.401,-14.648,30.762,37.109,-108.887,-18.066,0
1486824232.405,111.328,28.320,36.621,52.734,-62.012,0
1486824232.409,144.043,31.738,38.086,212.891,46.875,0
1486824232.413,69.824,38.574,41.504,179.199,137.695,0
1486824232.417,-41.992,39.551,44.434,8.789,109.375,0
1486824232.421,-37.109,32.715,48.828,-105.469,-4.883,0
1486824232.425,91.797,31.738,40.527,31.250,-50.781,0
1486824232.429,139.160,34.180,35.156,207.031,78.125,0
1486824232.432,71.777,36.133,41.016,188.477,168.945,0
1486824232.436,-32.715,41.504,45.410,15.625,128.418,0
1486824232.440,-52.246,38.086,44.922,-111.816,32.227,0
1486824232.444,65.918,31.250,37.109,-3.418,-64.453,0
1486824232.448,139.160,30.762,36.133,194.336,29.297,0
1486824232.452,77.637,28.320,45.898,209.961,145.996,0
1486824232.456,-22.949,30.762,50.293,36.621,145.508,0
1486824232.460,-45.410,29.785,43.457,-109.863,50.781,0
1486824232.464,61.523,26.367,34.180,-28.809,-79.590,0
1486824232.468,145.508,32.227,38.574,171.387,-19.043,0
1486824232.472,98.633,35.156,43.945,214.355,95.703,0
1486824232.475,-21.973,33.691,46.875,67.871,139.160,0
1486824232.479,-59.082,32.227,44.922,-85.938,33.691,0
1486824232.483,54.199,26.855,41.992,-40.039,-73.242,0
1486824232.487,135.254,27.832,47.363,149.414,-3.418,0
1486824232.491,106.934,32.227,48.828,216.797,104.980,0
1486824232.495,0.000,32.227,47.852,83.496,154.297,0
1486824232.499,-63.965,32.227,46.387,-88.867,63.965,0
1486824232.503,38.086,29.785,40.527,-69.824,-79.102,0
1486824232.507,141.602,29.785,43.457,130.859,-23.926,0
1486824232.511,118.652,30.273,47.363,232.910,121.094,0
1486824232.514,2.930,32.715,41.504,116.699,146.484,0
1486824232.518,-68.848,30.273,43.457,-67.871,64.453,0
1486824232.522,19.531,25.391,41.016,-83.008,-112.793,0
1486824232.526,123.535,29.297,40.039,107.422,-82.520,0
1486824232.530,115.234,31.250,48.828,224.609,83.008,0
1486824232.534,22.461,30.273,52.246,136.719,131.348,0
1486824232.538,-64.941,33.203,48.340,-47.852,65.918,0
1486824232.542,-4.883,30.762,43.457,-96.191,-72.266,0
1486824232.546,115.723,29.785,40.527,78.125,-62.988,0
1486824232.550,125.488,32.715,48.828,224.609,62.500,0
1486824232.554,38.086,33.203,47.852,161.133,108.887,0
1486824232.557,-59.570,35.156,39.551,-31.250,69.824,0
1486824232.561,-20.508,32.227,36.133,-101.562,-59.570,0
1486824232.565,99.121,28.809,36.133,51.758,-64.941,0
1486824232.569,125.000,30.762,41.992,204.102,68.848,0
1486824232.573,46.875,34.180,47.852,161.621,116.699,0
1486824232.577,-65.918,36.133,44.922,-11.230,100.098,0
1486824232.581,-48.828,34.668,39.551,-110.840,7.324,0
1486824232.585,75.195,28.320,38.086,19.531,-21.973,0
1486824232.589,115.234,28.320,38.574,190.918,108.887,0
1486824232.593,56.641,31.738,46.387,159.180,145.020,0
1486824232.597,-59.082,32.227,41.016,-2.441,123.047,0
1486824232.600,-57.129,30.762,30.762,-110.840,27.832,0
1486824232.604,66.406,26.367,30.762,-11.719,-51.758,0
1486824232.608,129.883,26.855,33.203,172.852,32.715,0
1486824232.612,76.660,29.785,38.086,182.129,121.582,0
1486824232.616,-44.922,34.180,41.992,32.715,143.066,0
1486824232.620,-61.523,35.645,41.016,-103.516,22.949,0
1486824232.624,58.105,30.273,38.086,-25.879,-95.215,0
1486824232.628,129.883,33.203,37.109,169.922,1.953,0
1486824232.632,82.520,37.109,41.016,197.266,122.070,0
1486824232.636,-31.738,35.645,39.551,50.293,137.695,0
1486824232.639,-73.730,32.715,33.203,-100.098,52.246,0
1486824232.643,45.898,25.879,33.691,-34.668,-50.293,0
1486824232.647,140.625,28.320,39.551,156.738,0.977,0
1486824232.651,97.656,30.762,44.434,202.148,122.070,0
1486824232.655,-9.277,34.180,45.410,80.566,156.738,0
1486824232.659,-67.383,36.133,39.062,-93.262,20.996,0
1486824232.663,32.715,27.832,32.715,-73.242,-76.172,0
1486824232.667,134.766,27.832,34.180,129.395,-4.883,0
1486824232.671,109.375,33.691,37.598,213.867,90.820,0
1486824232.675,2.441,31.250,42.969,107.422,139.160,0
1486824232.679,-69.824,28.320,39.551,-66.895,61.523,0
1486824232.682,22.461,27.832,33.691,-79.102,-60.059,0
1486824232.686,131.836,29.785,32.715,111.328,-5.371,0
1486824232.690,112.305,31.738,39.062,209.961,101.074,0
1486824232.694,3.906,30.762,44.434,121.582,140.625,0
1486824232.698,-82.031,33.203,41.504,-49.805,105.957,0
1486824232.702,-3.418,34.180,40.039,-99.121,-31.738,0
1486824232.706,115.234,30.762,35.645,82.520,-49.316,0
1486824232.710,121.582,28.320,37.109,221.680,92.285,1
1486824232.714,36.621,32.715,41.504,147.461,138.184,0
1486824232.718,-61.523,32.715,42.480,-21.973,61.523,0
1486824232.721,-16.113,30.762,40.527,-90.820,-58.594,0
1486824232.725,108.398,32.227,41.992,60.059,-69.824,0
1486824232.729,127.441,29.785,42.480,217.773,77.148,0
1486824232.733,45.410,29.297,36.133,157.227,166.992,0
1486824232.737,-62.500,29.785,34.180,-16.602,125.000,0
1486824232.741,-41.504,24.414,32.227,-114.258,-35.645,0
1486824232.745,86.914,20.020,35.645,20.020,-100.586,0
1486824232.749,124.512,23.438,38.086,192.871,65.918,0
1486824232.753,52.734,27.344,38.086,161.621,185.547,0
1486824232.757,-57.617,29.297,41.504,1.953,150.879,0
1486824232.761,-48.340,29.297,43.457,-113.281,0.000,0
1486824232.764,88.867,27.344,47.852,7.812,-82.520,0
1486824232.768,135.254,28.320,43.457,199.219,39.062,0
1486824232.772,63.477,24.902,39.062,194.336,134.766,0
1486824232.776,-42.969,25.879,42.480,36.133,102.539,0
1486824232.780,-40.039,28.809,41.016,-99.609,-10.254,0
1486824232.784,77.148,25.879,36.621,-4.883,-65.430,0
1486824232.788,127.930,27.832,36.133,184.570,18.555,0
1486824232.792,75.684,29.785,39.062,195.801,101.074,0
1486824232.796,-32.227,34.180,44.434,48.340,103.027,0
1486824232.800,-62.012,35.645,43.457,-105.957,11.230,0
1486824232.804,49.316,28.809,39.551,-39.551,-81.543,0
1486824232.807,125.977,27.832,43.457,161.621,2.930,0
1486824232.811,87.402,29.785,47.852,197.754,114.746,0
1486824232.815,-20.996,33.691,43.945,76.660,132.324,0
1486824232.819,-63.965,35.156,33.203,-86.426,25.879,0
1486824232.823,40.039,29.785,29.297,-57.617,-73.730,0
1486824232.827,125.000,27.344,35.156,142.578,-9.766,0
1486824232.831,95.703,29.297,38.086,196.777,91.309,0
1486824232.835,-16.602,30.273,39.062,89.355,150.391,0
1486824232.839,-71.289,32.715,39.551,-75.684,86.426,0
1486824232.843,26.855,31.250,36.133,-85.938,-78.125,0
1486824232.846,123.535,28.809,31.738,111.328,-44.434,0
1486824232.850,109.375,29.297,40.039,204.590,84.473,0
1486824232.854,3.906,30.762,47.852,113.281,132.324,0
1486824232.858,-72.754,31.250,38.086,-52.246,64.453,0
1486824232.862,6.836,29.297,33.691,-92.285,-76.172,0
1486824232.866,121.094,29.785,37.598,85.449,-60.059,0
1486824232.870,116.699,31.738,41.016,200.195,112.793,0
1486824232.874,16.602,31.738,38.574,123.047,176.758,0
1486824232.878,-79.590,31.250,34.180,-48.340,117.676,0
1486824232.882,-20.020,27.832,33.203,-104.980,-27.344,0
1486824232.886,112.793,26.855,33.691,72.754,-76.660,0
1486824232.889,131.836,28.320,37.109,209.473,65.918,0
1486824232.893,39.551,32.227,42.969,150.879,160.645,0
1486824232.897,-65.918,35.156,45.898,-11.230,126.465,0
1486824232.901,-26.367,31.738,41.504,-111.328,-12.695,0
1486824232.905,97.656,29.297,41.016,36.133,-63.477,0
1486824232.909,129.883,30.273,44.922,203.613,67.871,0
1486824232.913,45.898,28.320,41.992,163.574,146.484,0
1486824232.917,-59.570,27.344,38.086,0.000,138.672,0
1486824232.921,-38.086,28.809,37.109,-108.398,-0.488,0
1486824232.925,86.426,30.273,33.691,24.902,-82.520,0
1486824232.928,137.695,33.691,38.086,199.707,69.336,0
1486824232.932,74.707,33.691,43.457,181.152,145.996,0
1486824232.936,-33.691,34.180,42.969,25.879,99.121,0
1486824232.940,-45.410,35.156,41.992,-104.492,-19.531,0
1486824232.944,78.613,35.156,40.527,0.977,-88.867,0
1486824232.948,145.508,30.273,41.504,188.965,47.852,0
1486824232.952,93.262,30.762,42.969,198.730,145.508,0
1486824232.956,-27.832,32.227,43.457,55.176,115.723,0
1486824232.960,-68.848,29.297,39.062,-83.984,46.875,0
1486824232.964,57.129,28.809,34.180,-27.344,-31.738,0
1486824232.968,138.184,30.273,39.062,163.086,35.645,0
1486824232.971,91.797,31.738,42.969,207.520,150.879,0
1486824232.975,-29.297,33.203,39.551,60.059,136.230,0
1486824232.979,-78.125,30.273,34.668,-95.703,49.316,0
1486824232.983,35.156,24.902,35.645,-63.965,-66.895,0
1486824232.987,126.953,26.367,41.016,125.488,1.953,0
1486824232.991,94.727,28.809,41.504,202.637,134.277,0
1486824232.995,-20.020,31.250,41.992,93.750,152.344,0
1486824232.999,-76.660,31.738,41.992,-83.984,39.062,0
1486824233.003,28.809,27.344,38.574,-65.918,-109.863,0
1486824233.007,128.418,28.320,34.180,134.766,-27.344,0
1486824233.011,117.188,28.809,36.621,211.914,96.191,0
1486824233.014,12.695,32.227,39.062,112.305,109.375,0
1486824233.018,-74.707,33.203,37.598,-63.965,83.008,0
1486824233.022,11.719,27.344,32.715,-96.191,-58.594,0
1486824233.026,125.488,26.855,34.180,87.402,-56.641,0
1486824233.030,110.352,27.832,38.086,203.613,94.727,0
1486824233.034,15.625,29.297,37.598,122.070,188.965,0
1486824233.038,-71.777,30.273,37.109,-54.688,107.910,0
1486824233.042,-7.324,28.809,36.621,-99.121,-69.824,0
1486824233.046,117.676,26.367,38.086,72.754,-46.387,0
1486824233.050,141.602,32.715,36.621,201.172,41.016,0
1486824233.053,46.387,36.133,39.062,141.113,105.957,0
1486824233.057,-67.871,35.156,41.016,-28.809,96.680,0
1486824233.061,-15.625,34.180,40.527,-107.422,-51.758,0
1486824233.065,108.887,29.297,39.551,46.875,-57.617,0
1486824233.069,136.230,30.762,39.062,202.148,82.520,0
1486824233.073,50.781,36.133,48.340,159.180,133.789,0
1486824233.077,-61.035,36.133,45.898,-9.277,118.652,0
1486824233.081,-40.039,32.715,33.691,-110.840,-17.578,0
1486824233.085,82.520,28.809,36.133,23.438,-72.754,0
1486824233.089,123.047,29.785,45.410,209.473,56.152,0
1486824233.093,58.594,33.691,46.875,187.988,112.305,0
1486824233.096,-50.293,33.691,44.922,21.973,90.820,0
1486824233.100,-55.176,32.715,39.062,-98.633,8.301,0
1486824233.104,71.289,29.785,33.691,-13.184,-72.266,0
1486824233.108,137.695,24.902,38.574,177.246,35.645,0
1486824233.112,77.637,28.320,41.504,192.871,140.137,0
1486824233.116,-46.387,31.250,45.410,31.738,130.859,0
1486824233.120,-62.988,27.832,42.480,-104.004,19.531,0
1486824233.124,61.035,27.344,33.691,-30.762,-85.449,0
1486824233.128,124.023,28.320,37.598,159.668,10.254,0
1486824233.132,78.613,29.785,42.480,202.637,111.816,0
1486824233.136,-35.156,31.738,43.945,62.988,119.141,0
1486824233.139,-78.613,29.297,39.062,-101.074,4.883,0
1486824233.143,40.527,26.855,32.227,-62.012,-106.445,0
1486824233.147,133.301,29.297,34.668,147.461,4.883,0
1486824233.151,102.539,32.227,37.598,217.285,124.512,0
1486824233.155,-8.789,35.645,41.016,80.078,94.727,0
1486824233.159,-61.035,35.156,39.062,-75.195,29.785,0
1486824233.163,48.340,34.180,36.133,-65.430,-88.867,0
1486824233.167,137.695,34.180,39.551,126.465,-52.734,0
1486824233.171,104.004,33.691,39.551,223.633,77.148,0
1486824233.175,2.441,36.133,39.062,118.652,116.211,0
1486824233.178,-60.547,34.668,41.016,-55.664,72.754,0
1486824233.182,21.973,32.227,38.574,-91.797,-33.691,0
1486824233.186,123.535,30.273,41.504,103.027,1.465,0
1486824233.190,113.770,32.227,46.875,224.609,113.770,0
1486824233.194,16.602,35.645,43.945,136.719,142.090,0
1486824233.198,-66.895,32.715,40.039,-35.156,103.516,0
1486824233.202,4.883,29.785,38.574,-97.168,-25.391,0
1486824233.206,123.535,26.367,41.504,79.590,-42.480,0
1486824233.210,124.512,27.344,42.480,218.750,83.984,0
1486824233.214,35.645,32.715,39.062,139.160,155.762,1
1486824233.218,-62.988,34.180,40.039,-29.297,100.098,0
1486824233.221,-13.672,31.250,40.039,-105.469,-65.430,0
1486824233.225,118.652,30.273,36.133,59.082,-49.316,0
1486824233.229,135.254,33.203,37.109,222.168,96.191,0
1486824233.233,45.898,35.645,47.363,166.992,157.715,0
1486824233.237,-58.105,36.133,47.852,5.859,135.254,0
1486824233.241,-28.809,32.227,38.086,-103.027,-26.855,0
1486824233.245,101.562,28.320,38.086,36.133,-78.125,0
1486824233.249,144.043,30.273,44.922,218.262,70.801,0
1486824233.253,67.871,32.715,44.434,182.129,138.184,0
1486824233.257,-44.434,35.156,39.062,20.020,121.582,0
1486824233.260,-43.457,35.156,41.016,-108.398,39.551,0
1486824233.264,85.938,29.785,41.992,5.859,-53.711,0
1486824233.268,142.090,27.832,38.086,204.590,45.410,0
1486824233.272,81.543,33.203,35.156,186.035,152.832,0
1486824233.276,-39.551,33.691,39.062,33.203,127.441,0
1486824233.280,-54.688,32.715,39.551,-104.492,17.578,0
1486824233.284,73.242,32.227,34.180,-23.438,-55.664,0
1486824233.288,145.508,33.691,36.621,179.688,50.293,0
1486824233.292,100.586,36.621,45.410,190.918,120.117,0
1486824233.296,-26.855,36.621,46.387,53.223,86.914,0
1486824233.300,-63.965,34.180,42.480,-87.891,18.555,0
1486824233.303,58.105,29.297,40.527,-38.574,-96.191,0
1486824233.307,132.324,29.785,42.969,169.434,-26.367,0
1486824233.311,92.773,36.133,45.898,212.891,106.934,0
1486824233.315,-14.648,39.551,45.898,79.590,137.207,0
1486824233.319,-73.242,31.738,45.410,-85.449,21.973,0
1486824233.323,31.738,23.438,40.039,-67.383,-111.816,0
1486824233.327,135.742,26.855,40.527,152.344,-22.949,0
1486824233.331,103.516,26.855,41.016,224.121,126.953,0
1486824233.335,-3.418,25.391,40.527,101.074,158.691,0
1486824233.339,-72.266,27.832,44.922,-71.777,62.500,0
1486824233.343,16.113,28.809,35.156,-85.938,-82.031,0
1486824233.346,120.605,30.273,32.227,116.699,-42.480,0
1486824233.350,107.910,33.691,40.527,215.332,89.355,0
1486824233.354,2.441,34.180,41.504,113.770,125.977,0
1486824233.358,-72.266,32.227,41.992,-62.500,87.891,0
1486824233.362,4.395,29.297,36.621,-99.121,-58.594,0
1486824233.366,116.211,28.320,35.156,86.914,-57.617,0
1486824233.370,127.441,31.738,41.016,216.309,94.238,0
1486824233.374,35.156,33.691,42.969,148.438,133.301,0
1486824233.378,-65.430,31.738,43.457,-27.832,67.871,0
1486824233.382,-10.254,27.832,41.504,-96.680,-37.109,0
1486824233.385,116.211,27.832,37.598,68.848,-27.832,0
1486824233.389,125.488,30.762,34.668,211.914,62.500,0
1486824233.393,41.016,31.738,39.062,156.738,132.324,0
1486824233.397,-58.594,29.785,43.457,-14.648,110.840,0
1486824233.401,-32.227,26.367,37.598,-110.352,-24.414,0
1486824233.405,97.656,23.438,35.156,54.199,-63.965,0
1486824233.409,135.254,26.367,37.109,220.215,50.781,0
1486824233.413,60.547,33.203,35.156,166.992,117.676,0
1486824233.417,-52.246,37.109,40.039,5.859,91.309,0
1486824233.421,-33.691,36.133,41.504,-97.656,-35.645,0
1486824233.425,94.727,36.133,42.969,24.902,-94.727,0
1486824233.428,138.184,33.203,43.457,195.801,9.766,0
1486824233.432,75.195,33.691,38.086,180.664,92.285,0
1486824233.436,-42.969,37.598,40.527,13.672,116.699,0
1486824233.440,-46.875,34.668,40.039,-107.422,24.414,0
1486824233.444,78.613,30.762,39.062,9.766,-55.664,0
1486824233.448,132.812,33.203,41.504,205.078,86.914,0
1486824233.452,81.055,35.645,44.434,209.961,177.734,0
1486824233.456,-24.414,38.086,46.875,48.340,135.742,0
1486824233.460,-51.758,34.668,43.457,-98.633,26.367,0
1486824233.464,60.059,28.320,39.062,-31.250,-61.035,0
1486824233.468,135.254,32.227,40.527,165.527,27.832,0
1486824233.471,83.496,33.691,41.992,206.055,125.488,0
1486824233.475,-28.809,31.738,47.363,64.453,125.000,0
1486824233.479,-73.242,31.738,47.852,-96.680,40.527,0
1486824233.483,36.133,27.832,36.133,-59.082,-80.566,0
1486824233.487,130.371,26.855,39.551,150.879,-0.488,0
1486824233.491,97.656,32.227,42.480,219.727,112.793,0
1486824233.495,-5.371,34.668,44.922,92.773,104.980,0
1486824233.499,-74.219,32.227,42.480,-82.031,46.875,0
1486824233.503,25.391,28.320,35.645,-71.289,-54.688,0
1486824233.507,135.254,29.297,37.598,128.906,-5.859,0
1486824233.510,113.281,33.691,41.016,217.773,98.145,0
1486824233.514,-0.977,34.180,41.992,112.305,135.742,0
1486824233.518,-75.684,32.715,41.504,-64.941,87.891,0
1486824233.522,21.484,28.320,38.086,-86.426,-43.457,0
1486824233.526,124.023,24.902,34.180,103.027,-22.949,0
1486824233.530,117.676,32.227,39.551,223.145,85.938,0
1486824233.534,21.484,37.598,47.363,136.719,111.328,0
1486824233.538,-78.125,35.156,44.434,-43.945,73.730,0
1486824233.542,-5.859,31.250,42.969,-87.891,-47.363,0
1486824233.546,117.676,30.762,38.086,86.914,-68.848,0
1486824233.550,132.324,32.227,39.062,223.145,63.477,0
1486824233.553,48.828,33.691,47.363,163.574,127.441,0
1486824233.557,-53.711,32.227,46.387,-12.695,61.035,0
1486824233.561,-25.879,28.320,42.480,-98.145,-86.914,0
1486824233.565,92.773,27.832,45.898,58.594,-107.422,0
1486824233.569,130.371,28.320,44.434,213.379,30.273,0
1486824233.573,53.223,30.762,43.457,162.109,100.098,0
1486824233.577,-56.152,31.738,46.875,-6.836,68.359,0
1486824233.581,-39.062,30.273,39.062,-99.121,-50.781,0
1486824233.585,87.402,28.809,36.621,28.809,-87.402,0
1486824233.589,141.602,29.297,41.504,201.660,40.039,0
1486824233.592,74.707,31.250,41.504,189.453,117.188,0
1486824233.596,-47.363,32.227,43.945,27.344,87.402,0
1486824233.600,-36.621,33.691,40.527,-96.191,-49.316,0
1486824233.604,85.449,31.738,35.156,14.160,-112.793,0
1486824233.608,134.766,29.297,37.598,195.312,-11.719,0
1486824233.612,81.055,32.227,44.922,196.777,89.844,0
1486824233.616,-37.598,33.203,45.898,45.898,133.789,0
1486824233.620,-53.711,29.785,38.086,-100.586,40.039,0
1486824233.624,65.430,27.832,31.250,-26.367,-88.379,0
1486824233.628,127.930,28.809,32.715,177.246,-20.508,0
1486824233.632,86.426,30.762,44.434,215.332,99.121,0
1486824233.635,-11.230,36.133,45.898,57.617,118.652,0
1486824233.639,-55.176,32.715,39.551,-100.098,43.457,0
1486824233.643,45.410,30.762,35.645,-41.504,-56.152,0
1486824233.647,129.883,28.809,36.133,153.809,29.785,0
1486824233.651,102.051,31.250,44.922,208.496,129.883,0
1486824233.655,-11.719,34.668,48.340,83.984,152.832,0
1486824233.659,-79.590,31.250,40.527,-80.566,100.098,0
1486824233.663,33.691,30.273,34.668,-63.965,-32.227,0
1486824233.667,141.113,30.762,32.227,143.066,11.719,0
1486824233.671,116.699,28.809,35.156,231.445,117.188,0
1486824233.675,-1.953,32.227,41.504,109.375,158.203,0
1486824233.678,-81.543,32.715,38.574,-65.430,94.727,0
1486824233.682,5.859,28.809,34.668,-81.055,-63.477,0
1486824233.686,118.164,29.297,38.086,110.840,-39.551,0
1486824233.690,107.910,31.250,40.039,218.750,96.191,0
1486824233.694,17.090,31.250,48.340,121.094,150.391,0
1486824233.698,-63.477,34.180,40.527,-47.852,80.566,0
1486824233.702,4.395,31.250,25.391,-91.797,-67.871,0
1486824233.706,129.883,29.297,27.344,79.590,-76.660,0
1486824233.710,117.676,31.738,32.227,220.703,85.449,0
1486824233.714,15.625,30.273,39.551,140.625,166.992,0
1486824233.717,-75.195,28.320,42.969,-42.969,125.000,0
1486824233.721,-23.438,25.391,38.086,-97.656,-9.277,0
1486824233.725,115.723,23.438,35.645,60.059,-30.762,0
1486824233.729,127.930,24.902,37.109,206.543,71.289,0
1486824233.733,31.738,28.320,43.457,148.926,142.578,0
1486824233.737,-64.941,27.832,52.734,-18.555,122.070,0
1486824233.741,-38.574,28.809,42.480,-101.074,3.418,0
1486824233.745,95.703,28.809,31.250,29.785,-39.062,1
1486824233.749,137.207,26.855,34.668,197.754,67.871,0
1486824233.753,54.688,27.832,38.086,165.527,133.789,0
1486824233.757,-63.477,27.344,34.180,-7.324,90.820,0
1486824233.760,-50.293,26.855,31.250,-110.840,-13.672,0
1486824233.764,82.520,28.320,36.621,7.324,-75.195,0
1486824233.768,123.047,30.762,34.668,186.035,18.066,0
1486824233.772,59.082,33.203,33.203,165.527,67.383,0
1486824233.776,-45.410,35.645,37.598,19.531,76.660,0
1486824233.780,-56.152,36.133,41.016,-99.609,-1.465,0
1486824233.784,69.824,30.762,35.645,-26.367,-108.887,0
1486824233.788,143.066,32.715,27.832,176.270,-4.883,0
1486824233.792,91.309,36.621,33.203,189.453,106.445,0
1486824233.796,-21.484,35.645,38.086,35.156,120.117,0
1486824233.800,-54.199,32.227,35.156,-103.027,2.441,0
1486824233.803,82.520,28.320,32.227,-44.434,-72.266,0
1486824233.807,159.180,32.715,32.227,159.180,-2.930,0
1486824233.811,92.285,31.738,38.086,205.566,117.188,0
1486824233.815,-20.996,27.832,41.504,71.289,178.223,0
1486824233.819,-71.289,26.855,39.062,-82.520,58.594,0
1486824233.823,35.645,24.902,34.180,-57.617,-84.961,0
1486824233.827,123.047,26.367,32.715,145.020,-2.441,0
1486824233.831,94.727,28.809,43.457,206.055,122.559,0
1486824233.835,0.488,29.297,49.316,94.727,143.555,0
1486824233.839,-62.988,32.227,43.457,-55.664,62.012,0
1486824233.842,32.715,31.250,34.668,-76.660,-107.422,0
1486824233.846,135.254,27.832,32.715,114.258,-92.773,0
1486824233.850,114.258,29.297,36.133,208.496,48.828,0
1486824233.854,12.207,31.250,41.504,116.211,117.188,0
1486824233.858,-73.730,30.273,43.457,-49.316,58.105,0
1486824233.862,12.695,29.297,40.527,-97.168,-69.336,0
1486824233.866,115.234,29.297,34.180,86.914,-54.199,0
1486824233.870,95.703,31.250,36.621,202.148,57.617,0
1486824233.874,20.508,37.598,46.387,125.977,128.418,0
1486824233.878,-71.289,38.086,43.457,-29.785,98.145,0
1486824233.882,-22.949,31.250,32.227,-105.469,-65.918,0
1486824233.885,110.840,25.879,31.250,64.453,-56.152,0
1486824233.889,135.254,27.344,33.691,207.031,72.754,0
1486824233.893,45.898,33.691,36.621,149.414,116.699,0
1486824233.897,-67.383,33.203,37.598,2.441,93.750,0
1486824233.901,-29.785,31.738,36.621,-91.797,-20.996,0
1486824233.905,108.887,33.203,39.551,48.828,-60.059,0
1486824233.909,140.137,29.785,33.691,198.242,75.195,0
1486824233.913,57.129,29.297,32.227,163.086,137.207,0
1486824233.917,-51.758,31.738,40.527,10.254,129.395,0
1486824233.921,-40.527,29.785,37.598,-108.398,49.316,0
1486824233.924,87.402,28.320,35.156,23.926,-21.484,0
1486824233.928,136.719,28.809,37.109,195.801,85.938,0
1486824233.932,71.289,29.785,38.086,179.199,137.207,0
1486824233.936,-28.809,32.227,42.480,35.645,100.098,0
1486824233.940,-36.621,31.738,37.598,-93.262,11.719,0
1486824233.944,74.707,29.297,34.180,0.977,-65.430,0
1486824233.948,135.254,28.320,35.645,185.547,38.574,0
1486824233.952,88.379,32.715,39.551,193.848,102.051,0
1486824233.956,-18.555,37.109,44.922,55.664,99.121,0
1486824233.960,-40.527,40.527,49.316,-85.449,21.484,0
1486824233.964,76.172,36.621,44.434,-11.230,-93.750,0
1486824233.967,147.949,24.902,38.086,169.434,2.930,0
1486824233.971,114.746,25.391,40.527,198.730,93.262,0
1486824233.975,1.953,33.691,40.039,74.219,124.023,0
1486824233.979,-59.570,34.180,37.109,-93.750,37.109,0
1486824233.983,52.734,33.203,36.133,-46.387,-61.523,0
1486824233.987,143.066,36.621,34.180,148.926,19.043,0
1486824233.991,105.469,37.598,37.598,208.496,131.836,0
1486824233.995,-2.441,34.180,46.875,97.656,172.852,0
1486824233.999,-65.918,30.762,39.551,-78.125,82.520,0
1486824234.003,32.715,27.832,31.738,-73.730,-58.594,0
1486824234.007,130.371,25.391,39.551,120.605,-21.484,0
1486824234.010,103.516,26.855,39.551,207.520,106.934,0
1486824234.014,-1.953,31.738,36.621,120.605,145.996,0
1486824234.018,-69.824,35.156,38.574,-50.293,67.871,0
1486824234.022,14.648,30.273,39.062,-84.473,-38.574,0
1486824234.026,126.953,29.785,37.109,92.285,-15.137,0
1486824234.030,125.488,36.133,36.621,210.938,109.375,0
1486824234.034,13.672,40.039,42.969,143.066,190.918,0
1486824234.038,-76.660,37.109,47.852,-30.273,110.840,0
1486824234.042,-19.043,27.832,38.574,-93.262,-21.973,0
1486824234.046,100.098,28.809,33.691,63.477,-17.090,0
1486824234.049,126.953,34.180,41.016,204.590,70.312,0
1486824234.053,27.344,30.273,44.922,160.645,136.230,0
1486824234.057,-72.754,29.785,40.039,-11.230,135.254,0
1486824234.061,-21.973,30.273,37.598,-98.633,21.973,0
1486824234.065,104.004,29.297,40.039,59.082,-11.230,0
1486824234.069,130.859,32.715,44.922,216.309,93.262,0
1486824234.073,49.805,32.715,51.270,165.527,132.324,0
1486824234.077,-56.152,31.250,47.363,5.371,84.961,0
1486824234.081,-37.598,32.227,40.039,-94.238,-43.457,0
1486824234.085,82.520,31.250,42.480,29.785,-79.102,0
1486824234.089,123.535,31.250,41.992,198.242,32.227,0
1486824234.092,55.176,34.180,40.527,176.758,116.699,0
1486824234.096,-57.617,31.738,45.898,20.996,139.648,0
1486824234.100,-55.176,31.250,44.922,-102.539,-4.395,0
1486824234.104,81.543,34.180,41.992,9.277,-90.332,0
1486824234.108,151.855,31.250,44.922,200.684,38.086,0
1486824234.112,91.309,32.227,47.852,202.637,123.535,0
1486824234.116,-24.902,36.133,45.898,49.316,131.348,0
1486824234.120,-41.504,32.715,43.945,-89.844,22.461,0
1486824234.124,76.660,30.762,44.434,-19.043,-87.402,0
1486824234.128,138.184,29.297,46.387,175.293,4.395,0
1486824234.132,83.984,27.344,43.945,214.355,128.418,0
1486824234.135,-25.879,32.227,45.410,71.289,155.762,0
1486824234.139,-53.711,32.715,44.922,-89.355,35.156,0
1486824234.143,55.176,30.273,39.062,-37.109,-83.984,0
