timestamps,TP9,AF7,AF8,TP10,Right AUX,Marker
1486824684.396,-1.465,27.344,40.527,80.078,129.395,0
1486824684.400,-41.992,30.273,41.016,-11.230,18.066,0
1486824684.404,45.410,29.785,39.062,-6.348,-125.000,0
1486824684.408,120.117,28.320,34.180,99.121,-55.664,0
1486824684.412,91.797,29.297,42.480,137.207,87.402,0
1486824684.416,-5.371,32.715,50.781,89.355,124.512,0
1486824684.420,-67.871,33.203,34.668,-6.836,79.102,0
1486824684.424,16.602,25.391,33.203,-22.461,-37.109,0
1486824684.428,103.027,22.949,46.387,85.449,-47.852,0
1486824684.431,90.332,28.809,46.875,143.555,88.379,0
1486824684.435,11.719,33.203,40.527,102.539,126.953,0
1486824684.439,-51.270,27.832,37.598,8.301,66.895,0
1486824684.443,9.277,20.996,39.551,-33.203,-53.711,0
1486824684.447,104.492,22.949,35.645,57.617,-89.355,0
1486824684.451,115.234,24.902,32.227,132.812,51.758,0
1486824684.455,39.062,26.367,38.086,98.145,157.227,0
1486824684.459,-41.992,32.227,36.621,8.301,102.051,0
1486824684.463,7.324,30.273,31.738,-30.273,-27.344,0
1486824684.467,110.840,23.438,35.645,59.570,-18.555,0
1486824684.470,121.582,29.297,40.039,130.371,74.219,0
1486824684.474,55.664,30.273,46.875,105.469,90.332,0
1486824684.478,-38.574,29.297,48.828,27.832,91.797,0
1486824684.482,-22.949,27.344,36.133,-23.926,-15.137,0
1486824684.486,85.938,19.043,34.668,49.805,-103.516,0
1486824684.490,117.676,21.484,39.062,132.812,16.602,0
1486824684.494,54.199,28.320,40.039,117.676,127.441,0
1486824684.498,-37.598,38.574,39.062,39.062,132.324,0
1486824684.502,-21.973,42.969,39.551,-18.555,-29.785,0
1486824684.506,79.102,32.715,37.109,27.832,-123.535,0
1486824684.510,112.305,27.832,31.250,118.164,19.531,0
1486824684.513,64.941,31.738,42.969,123.535,109.863,0
1486824684.517,-30.762,32.715,41.992,40.039,95.215,0
1486824684.521,-38.574,26.855,34.668,-32.227,18.555,0
1486824684.525,62.500,25.879,37.598,7.324,-96.191,0
1486824684.529,107.910,28.809,35.645,107.910,21.484,0
1486824684.533,68.359,29.297,41.504,123.047,106.445,0
1486824684.537,-23.926,31.738,50.293,54.688,114.746,0
1486824684.541,-43.945,34.668,53.223,-20.996,28.809,0
1486824684.545,56.152,32.227,45.898,4.395,-99.609,0
1486824684.549,118.652,25.391,33.691,106.934,-2.441,0
1486824684.553,84.961,29.785,36.133,130.371,125.000,0
1486824684.556,-7.812,36.621,40.039,68.848,154.785,0
1486824684.560,-41.992,35.645,39.551,-14.648,77.637,0
1486824684.564,47.363,32.227,41.992,-5.859,-46.387,0
1486824684.568,118.164,29.785,36.621,97.168,-11.719,0
1486824684.572,99.609,29.297,35.156,142.090,97.656,0
1486824684.576,11.230,31.250,41.016,84.473,113.770,0
1486824684.580,-45.898,31.738,44.434,-6.836,30.762,0
1486824684.584,31.250,29.785,48.340,-8.789,-73.730,0
1486824684.588,121.094,30.273,45.898,93.262,-8.789,0
1486824684.592,107.422,33.691,40.039,136.719,91.309,0
1486824684.595,17.578,35.156,38.086,80.566,169.434,0
1486824684.599,-44.922,31.738,47.852,-5.859,136.719,0
1486824684.603,14.648,27.832,47.852,-20.020,-13.184,0
1486824684.607,100.586,26.855,35.156,71.777,-5.371,0
1486824684.611,99.121,30.762,38.086,136.719,115.234,0
1486824684.615,21.484,31.250,47.852,104.004,134.766,0
1486824684.619,-57.617,25.391,45.410,12.207,80.078,0
1486824684.623,-2.930,24.902,34.180,-18.066,-33.691,0
1486824684.627,105.469,26.855,28.809,61.035,-62.012,0
1486824684.631,112.793,29.785,33.203,134.766,101.074,0
1486824684.635,39.551,31.738,40.039,111.816,191.895,0
1486824684.638,-48.828,32.227,40.039,29.785,146.484,0
1486824684.642,-19.531,30.273,32.715,-25.391,-15.137,0
1486824684.646,82.520,23.438,33.691,36.133,-92.773,0
1486824684.650,107.422,21.484,36.621,124.512,53.711,0
1486824684.654,44.922,32.227,40.527,104.492,139.648,0
1486824684.658,-46.387,33.203,45.410,36.133,122.559,0
1486824684.662,-29.785,27.344,34.668,-20.996,32.715,0
1486824684.666,77.637,25.391,31.250,22.461,-54.199,0
1486824684.670,116.211,25.391,35.156,123.047,50.293,0
1486824684.674,67.871,28.809,42.969,116.211,153.809,0
1486824684.677,-22.461,28.809,49.316,44.922,162.109,0
1486824684.681,-29.297,30.273,36.133,-14.160,21.973,0
1486824684.685,71.289,26.367,32.227,23.926,-86.914,0
1486824684.689,121.582,25.391,38.574,122.559,32.715,0
1486824684.693,71.777,31.738,39.062,134.766,164.062,0
1486824684.697,-31.738,30.762,38.574,53.223,166.504,0
1486824684.701,-51.270,25.879,36.621,-22.949,51.270,0
1486824684.705,57.129,28.320,39.062,8.789,-43.457,0
1486824684.709,119.629,34.668,38.574,108.398,35.156,0
1486824684.713,78.613,32.715,35.645,128.906,137.207,0
1486824684.717,-10.254,28.809,42.969,68.848,134.766,0
1486824684.720,-44.434,31.738,50.293,0.977,49.316,0
1486824684.724,47.363,28.809,41.016,0.488,-56.641,0
1486824684.728,122.559,27.832,33.203,96.680,15.625,0
1486824684.732,96.680,35.645,39.062,132.324,123.535,0
1486824684.736,-3.906,34.668,42.969,76.172,162.598,0
1486824684.740,-56.152,32.227,37.598,-1.953,92.285,0
1486824684.744,29.785,31.738,35.156,-11.719,-110.840,0
1486824684.748,111.816,30.762,37.109,89.355,-74.219,0
1486824684.752,96.191,31.738,41.016,135.742,57.617,0
1486824684.756,9.766,30.273,43.945,80.566,92.773,0
1486824684.760,-51.758,26.367,46.387,7.324,62.500,0
1486824684.763,19.531,23.438,45.898,-10.254,-79.102,0
1486824684.767,111.816,26.367,43.945,78.613,-53.711,0
1486824684.771,107.910,27.344,38.086,136.719,99.609,0
1486824684.775,28.320,29.785,46.875,99.609,161.621,0
1486824684.779,-54.199,32.227,43.457,14.160,105.957,0
1486824684.783,-6.348,28.320,25.391,-27.344,-25.391,0
1486824684.787,97.168,23.438,38.574,62.500,-48.340,0
1486824684.791,107.910,21.973,45.898,130.371,104.492,0
1486824684.795,27.344,24.414,43.457,89.844,164.062,0
1486824684.799,-47.363,22.949,41.016,9.766,118.164,0
1486824684.802,-14.648,20.020,37.598,-37.598,12.207,0
1486824684.806,83.984,23.438,42.480,49.316,-66.406,0
1486824684.810,125.488,31.250,48.828,134.766,50.293,0
1486824684.814,63.477,34.180,44.434,110.352,139.160,0
1486824684.818,-40.039,33.203,39.062,36.621,109.375,0
1486824684.822,-22.949,30.273,41.504,-29.297,-31.738,0
1486824684.826,84.961,26.855,39.551,31.250,-87.402,0
1486824684.830,119.629,28.320,40.527,122.559,43.457,0
1486824684.834,62.988,31.738,41.992,116.699,126.465,0
1486824684.838,-30.762,31.738,43.457,49.316,141.602,0
1486824684.842,-32.715,27.344,41.504,-17.578,12.695,0
1486824684.845,70.801,29.297,38.086,24.414,-79.590,0
1486824684.849,114.746,33.203,37.598,112.305,38.086,0
1486824684.853,61.035,28.320,35.156,115.723,111.816,0
1486824684.857,-27.832,27.344,38.086,45.410,117.188,0
1486824684.861,-41.992,29.785,33.691,-25.391,42.480,0
1486824684.865,57.129,24.902,35.156,15.137,-52.734,0
1486824684.869,120.117,27.344,41.504,112.305,5.371,0
1486824684.873,83.984,31.250,43.945,128.418,132.812,0
1486824684.877,-8.301,31.738,40.527,65.430,184.082,0
1486824684.881,-39.062,33.691,36.133,-17.090,80.078,0
1486824684.885,58.594,30.762,35.645,4.395,-37.109,0
1486824684.888,121.582,25.879,40.039,110.840,38.574,0
1486824684.892,88.867,28.809,40.039,134.766,142.578,0
1486824684.896,-3.418,31.250,38.086,77.637,135.742,0
1486824684.900,-57.129,29.297,46.387,-0.488,68.848,0
1486824684.904,36.133,31.738,49.805,-6.348,-59.082,0
1486824684.908,124.512,32.227,43.457,91.797,-22.461,0
1486824684.912,104.004,29.297,37.598,136.230,82.031,0
1486824684.916,5.371,32.715,40.039,86.914,135.742,0
1486824684.920,-63.477,31.250,36.133,-0.488,72.754,0
1486824684.924,20.020,23.926,30.273,-20.508,-103.027,0
1486824684.927,119.629,25.391,37.109,76.172,-46.387,0
1486824684.931,106.445,25.879,41.504,129.395,95.215,0
1486824684.935,20.508,22.949,42.969,82.031,129.883,0
1486824684.939,-57.129,25.879,42.480,-5.859,90.332,0
1486824684.943,-3.906,23.438,35.645,-31.738,-62.012,0
1486824684.947,88.867,20.508,33.203,58.105,-64.453,0
1486824684.951,96.191,25.879,43.945,131.836,60.059,0
1486824684.955,30.762,30.762,53.223,115.723,109.375,0
1486824684.959,-49.316,31.738,43.945,32.715,115.234,0
1486824684.963,-4.395,28.320,39.062,-16.113,-14.648,0
1486824684.967,98.633,21.973,51.270,63.965,-61.523,0
1486824684.970,107.910,22.949,42.969,135.742,50.781,0
1486824684.974,40.527,25.391,35.156,111.328,139.160,0
1486824684.978,-44.922,26.855,40.527,40.527,121.582,0
1486824684.982,-24.902,27.344,41.504,-19.043,-12.207,0
1486824684.986,80.078,23.438,40.039,38.574,-91.797,0
1486824684.990,108.398,21.973,43.457,128.418,3.906,1
1486824684.994,51.270,27.832,56.641,106.934,77.148,0
1486824684.998,-37.598,30.762,49.316,21.484,73.242,0
1486824685.002,-41.992,23.926,29.785,-36.133,-30.762,0
1486824685.006,67.383,22.461,29.785,23.926,-104.980,0
1486824685.009,115.234,29.785,38.086,115.723,11.230,0
1486824685.013,63.965,31.738,41.016,118.652,119.141,0
1486824685.017,-33.691,28.320,38.574,53.711,126.465,0
1486824685.021,-49.316,23.926,45.898,-26.855,-3.418,0
1486824685.025,65.918,24.414,50.781,17.090,-78.125,0
1486824685.029,129.395,31.250,41.992,127.930,45.410,0
1486824685.033,81.543,37.109,36.621,126.953,108.398,0
1486824685.037,-16.602,37.109,33.203,56.641,95.215,0
1486824685.041,-40.039,33.203,31.738,-11.719,8.301,0
1486824685.045,57.129,32.227,37.598,4.883,-100.098,0
1486824685.049,129.395,33.691,39.551,113.770,-21.973,0
1486824685.052,98.145,30.273,40.039,143.066,119.629,0
1486824685.056,-1.465,29.297,39.551,74.707,184.082,0
1486824685.060,-48.828,33.203,41.504,0.977,83.984,0
1486824685.064,40.527,33.203,40.527,-6.348,-75.195,0
1486824685.068,106.934,28.809,35.156,79.590,-3.906,0
1486824685.072,83.008,26.855,36.621,122.559,123.535,0
1486824685.076,0.977,31.250,41.992,63.965,159.180,0
1486824685.080,-56.641,30.762,39.551,-15.625,86.426,0
1486824685.084,19.531,27.832,34.668,-29.785,-58.105,0
1486824685.088,107.910,27.344,35.156,68.848,-29.297,0
1486824685.092,107.910,28.320,35.645,138.672,91.797,0
1486824685.095,30.762,36.133,38.574,102.051,134.277,0
1486824685.099,-48.340,33.691,36.133,3.906,78.125,0
1486824685.103,14.160,24.902,32.715,-27.344,-70.312,0
1486824685.107,112.305,29.785,39.062,63.477,-41.504,0
1486824685.111,115.234,35.645,41.504,133.789,104.004,0
1486824685.115,31.738,31.738,36.133,104.492,188.965,0
1486824685.119,-51.758,26.855,46.387,20.508,143.555,0
1486824685.123,-4.395,25.391,41.504,-16.113,-1.953,0
1486824685.127,97.656,28.320,32.715,57.129,-35.156,0
1486824685.131,121.094,29.297,41.992,144.531,70.312,0
1486824685.134,50.781,28.809,47.363,125.000,115.234,0
1486824685.138,-39.062,29.785,47.363,34.668,83.008,0
1486824685.142,-16.602,27.832,44.922,-17.578,-16.602,0
1486824685.146,92.285,27.832,41.016,49.316,-62.500,0
1486824685.150,127.441,26.855,36.621,138.672,60.059,0
1486824685.154,68.848,27.832,41.016,128.906,153.320,0
1486824685.158,-22.949,31.250,43.457,57.129,133.789,0
1486824685.162,-14.648,31.250,42.480,-7.324,18.555,0
1486824685.166,91.309,25.391,41.016,37.598,-71.777,0
1486824685.170,128.906,22.949,38.574,137.695,44.922,0
1486824685.174,77.148,26.367,37.598,136.230,132.812,0
1486824685.177,-23.438,28.809,39.551,57.617,139.648,0
1486824685.181,-36.621,32.227,46.387,-14.648,67.383,0
1486824685.185,66.895,30.273,37.109,17.578,-35.156,0
1486824685.189,118.164,26.855,31.250,119.629,51.758,0
1486824685.193,75.684,28.320,37.109,132.324,157.715,0
1486824685.197,-22.949,29.297,41.016,60.547,156.738,0
1486824685.201,-47.852,28.809,47.363,-11.230,73.242,0
1486824685.205,54.199,29.297,39.062,13.184,-46.875,0
1486824685.209,125.977,31.738,33.691,113.770,-16.113,0
1486824685.213,94.727,32.715,43.457,145.508,91.309,0
1486824685.217,-6.348,33.203,36.621,80.566,94.727,0
1486824685.220,-50.293,29.297,39.062,-7.812,31.738,0
1486824685.224,41.016,24.414,39.062,-10.742,-76.172,0
1486824685.228,118.652,26.367,39.062,95.703,-52.246,0
1486824685.232,96.191,26.855,41.016,141.113,79.590,0
1486824685.236,2.930,26.855,42.969,85.938,135.254,0
1486824685.240,-53.223,29.785,46.875,4.395,58.594,0
1486824685.244,25.879,25.391,36.621,-11.719,-67.871,0
1486824685.248,111.328,23.926,29.785,83.008,-13.672,0
1486824685.252,105.957,28.809,37.109,142.578,115.723,0
1486824685.256,25.879,28.809,43.457,101.074,166.992,0
1486824685.259,-43.457,25.391,41.992,11.230,88.379,0
1486824685.263,22.949,25.391,41.992,-26.855,-79.590,0
1486824685.267,117.188,29.785,45.410,65.430,-45.898,0
1486824685.271,115.234,29.297,38.574,143.555,82.031,0
1486824685.275,29.297,24.902,36.621,105.957,138.672,0
1486824685.279,-45.410,29.785,42.480,17.090,88.867,0
1486824685.283,6.836,30.762,45.898,-20.996,-35.156,0
1486824685.287,109.375,27.344,44.434,58.594,-41.504,0
1486824685.291,126.953,23.926,37.109,137.695,45.898,0
1486824685.295,53.223,26.855,40.527,110.352,119.141,0
1486824685.299,-35.156,29.297,48.340,32.227,140.625,0
1486824685.302,-7.324,27.344,44.434,-13.672,-5.371,0
1486824685.306,94.727,26.855,36.133,44.922,-90.820,0
1486824685.310,117.188,31.250,30.273,132.812,55.664,0
1486824685.314,51.758,31.250,35.645,112.305,123.535,0
1486824685.318,-41.504,30.273,41.504,29.785,95.215,0
1486824685.322,-28.320,26.367,46.387,-22.461,4.883,0
1486824685.326,78.125,22.949,44.434,36.133,-77.637,0
1486824685.330,116.211,26.367,37.109,138.184,20.020,0
1486824685.334,61.035,29.297,40.527,129.883,136.230,0
1486824685.338,-29.297,33.691,44.922,51.758,167.480,0
1486824685.341,-37.109,30.273,43.945,-18.555,22.949,0
1486824685.345,59.082,25.879,32.227,14.648,-91.797,0
1486824685.349,116.699,27.344,30.273,114.258,-1.465,0
1486824685.353,76.660,28.320,38.574,125.488,106.445,0
1486824685.357,-20.508,29.785,47.363,53.223,127.930,0
1486824685.361,-51.270,29.297,42.969,-22.949,39.062,0
1486824685.365,42.969,26.367,34.180,1.465,-74.219,0
1486824685.369,115.234,26.367,30.762,112.305,1.953,0
1486824685.373,79.590,33.691,36.133,138.672,124.512,0
1486824685.377,-16.113,35.645,43.945,83.496,137.207,0
1486824685.381,-51.270,29.785,37.109,-8.789,66.895,0
1486824685.384,40.527,26.367,32.715,-10.254,-84.473,0
1486824685.388,117.676,26.855,38.086,101.562,-25.391,0
1486824685.392,96.191,30.762,40.527,143.066,121.582,0
1486824685.396,9.277,35.645,45.898,99.609,143.066,0
1486824685.400,-41.504,28.809,44.922,7.324,71.777,0
1486824685.404,36.133,30.762,41.016,-12.207,-70.312,0
1486824685.408,117.676,38.086,37.598,91.309,-55.176,0
1486824685.412,98.633,33.203,29.785,137.695,69.336,0
1486824685.416,13.672,31.738,33.203,92.285,120.605,0
1486824685.420,-50.781,35.156,40.039,-1.465,96.191,0
1486824685.424,18.555,33.203,37.109,-27.832,-58.594,0
1486824685.427,112.305,27.832,34.668,71.289,-68.359,0
1486824685.431,108.398,29.785,38.574,137.695,80.078,0
1486824685.435,32.715,36.133,47.363,109.863,160.156,0
1486824685.439,-51.758,34.180,51.758,15.625,86.914,0
1486824685.443,0.000,30.273,43.457,-30.273,-33.203,0
1486824685.447,106.934,32.227,33.203,57.129,-25.879,0
1486824685.451,108.398,31.738,29.785,131.836,63.965,0
1486824685.455,30.762,31.738,30.273,111.816,168.457,0
1486824685.459,-47.363,32.227,32.715,25.391,152.832,0
1486824685.463,-17.578,28.809,34.180,-31.250,17.578,0
1486824685.466,89.844,28.320,32.715,41.016,-28.320,0
1486824685.470,118.164,27.832,31.738,130.859,104.004,0
1486824685.474,47.363,28.320,44.434,116.699,201.660,0
1486824685.478,-41.016,28.809,56.641,28.320,171.875,0
1486824685.482,-28.320,24.902,56.641,-34.180,41.992,0
1486824685.486,76.172,22.949,33.691,30.762,-26.367,0
1486824685.490,116.211,26.367,18.066,123.535,76.660,0
1486824685.494,61.523,28.809,29.785,118.164,174.805,0
1486824685.498,-37.109,26.367,37.109,39.062,144.531,0
1486824685.502,-38.574,24.902,40.527,-24.414,22.461,0
1486824685.506,67.871,23.438,38.574,22.461,-78.613,0
1486824685.509,119.141,25.391,38.574,124.023,15.625,0
1486824685.513,81.543,31.738,43.945,134.766,135.254,0
1486824685.517,-20.508,32.227,41.016,54.688,157.715,0
1486824685.521,-42.480,26.855,40.527,-20.020,87.402,0
1486824685.525,60.547,27.832,44.922,15.625,-59.082,0
1486824685.529,117.188,24.414,37.109,112.305,1.953,0
1486824685.533,88.379,21.484,28.809,123.047,125.488,0
1486824685.537,-10.254,28.809,33.691,60.547,150.391,0
1486824685.541,-50.781,24.414,37.598,-19.043,53.711,0
1486824685.545,48.828,18.555,40.527,-3.906,-54.688,0
1486824685.549,118.652,22.949,46.387,108.398,27.832,0
1486824685.552,89.355,25.391,35.645,142.578,135.742,0
1486824685.556,-1.953,32.715,37.598,72.266,141.602,0
1486824685.560,-51.758,30.762,49.805,-8.789,59.082,0
1486824685.564,32.227,20.996,33.203,-6.348,-86.426,0
1486824685.568,118.652,26.367,27.344,89.844,-43.457,0
1486824685.572,102.051,30.273,40.527,142.090,76.660,0
1486824685.576,9.766,27.832,47.852,96.191,132.812,0
1486824685.580,-52.246,28.809,48.340,3.906,109.863,0
1486824685.584,18.066,27.344,34.668,-23.438,-41.504,0
1486824685.588,103.516,28.809,33.203,74.707,-36.621,0
1486824685.591,95.215,29.297,39.551,132.812,88.379,0
1486824685.595,21.484,27.344,42.969,86.914,99.609,0
1486824685.599,-52.734,31.738,42.480,5.371,67.871,0
1486824685.603,-7.324,24.414,43.945,-20.508,-30.762,0
1486824685.607,89.355,18.555,44.922,70.801,-48.340,0
1486824685.611,104.004,25.391,33.203,136.719,87.891,0
1486824685.615,28.809,24.902,30.273,101.562,147.461,0
1486824685.619,-56.152,25.391,38.086,20.996,125.000,0
1486824685.623,-14.160,26.855,35.645,-33.691,-15.137,0
1486824685.627,83.008,25.391,30.273,45.410,-52.734,0
1486824685.631,99.121,23.926,33.691,130.859,85.449,0
1486824685.634,32.227,27.832,41.504,104.980,164.062,0
1486824685.638,-58.594,28.809,47.363,24.902,126.953,0
1486824685.642,-41.992,22.461,31.738,-35.156,-24.902,0
1486824685.646,68.359,24.414,30.273,31.738,-80.566,0
1486824685.650,104.980,28.809,32.715,120.605,42.480,1
1486824685.654,46.387,26.367,33.691,106.934,141.113,0
1486824685.658,-43.945,27.344,41.016,39.062,145.020,0
1486824685.662,-39.062,31.250,40.039,-23.438,35.156,0
1486824685.666,64.453,31.738,44.434,27.344,-34.668,0
1486824685.670,109.375,28.320,37.598,124.023,65.918,0
1486824685.673,58.594,29.297,34.668,123.535,157.715,0
1486824685.677,-38.574,30.273,40.527,51.758,160.156,0
1486824685.681,-51.270,25.879,40.527,-20.996,67.871,0
1486824685.685,58.105,26.855,32.227,8.789,-14.160,0
1486824685.689,111.816,30.273,28.809,105.957,50.781,0
1486824685.693,70.801,28.809,36.621,119.629,118.164,0
1486824685.697,-25.879,29.297,39.062,53.223,153.809,0
1486824685.701,-56.152,25.879,38.574,-21.484,81.055,0
1486824685.705,41.504,23.926,36.133,-8.301,-63.965,0
1486824685.709,110.352,27.832,36.621,90.820,21.973,0
1486824685.713,80.566,27.344,37.598,127.441,141.602,0
1486824685.716,-12.207,30.273,38.574,74.219,146.484,0
1486824685.720,-54.199,30.762,42.969,-6.836,34.668,0
1486824685.724,32.227,29.785,36.621,-9.766,-100.098,0
1486824685.728,112.305,27.344,35.645,97.656,-1.953,0
1486824685.732,99.609,24.414,43.945,139.160,132.324,0
1486824685.736,12.695,30.273,43.945,84.961,139.648,0
1486824685.740,-55.176,27.832,43.945,11.719,72.266,0
1486824685.744,15.625,22.461,41.992,-9.766,-56.152,0
1486824685.748,107.422,25.391,43.945,88.867,-10.742,0
1486824685.752,106.445,26.367,47.363,147.461,95.215,0
1486824685.756,18.066,30.762,41.016,97.168,157.227,0
1486824685.759,-52.734,34.180,41.016,17.090,124.023,0
1486824685.763,15.625,27.832,45.898,-19.531,-41.016,0
1486824685.767,110.352,26.855,38.086,65.430,-58.594,0
1486824685.771,112.305,29.297,36.621,137.695,80.566,0
1486824685.775,32.715,31.250,44.434,104.980,154.297,0
1486824685.779,-49.805,33.203,39.551,23.926,106.934,0
1486824685.783,-0.488,31.738,41.504,-20.020,-12.695,0
1486824685.787,105.957,29.297,49.316,57.617,-79.102,0
1486824685.791,115.723,24.902,41.016,135.742,66.895,0
1486824685.795,50.781,32.227,31.738,119.141,144.531,0
1486824685.798,-25.391,37.598,37.598,41.992,99.121,0
1486824685.802,-1.465,31.250,35.156,-17.090,-4.883,0
1486824685.806,103.516,34.180,24.414,43.945,-89.355,0
1486824685.810,136.230,33.691,31.250,125.977,0.977,0
1486824685.814,64.453,32.227,41.992,116.211,91.797,0
1486824685.818,-29.297,34.668,43.457,49.316,98.633,0
1486824685.822,-27.832,28.809,40.527,-23.926,4.395,0
1486824685.826,67.871,29.785,39.062,12.695,-63.477,0
1486824685.830,116.211,34.180,28.320,118.652,33.691,0
1486824685.834,62.500,37.109,24.902,123.535,133.301,0
1486824685.838,-35.645,40.527,37.598,45.898,115.723,0
1486824685.841,-35.645,37.109,43.945,-13.672,0.977,0
1486824685.845,66.895,31.250,35.645,12.695,-72.754,0
1486824685.849,118.164,28.320,32.715,105.469,19.043,0
1486824685.853,80.566,25.879,43.945,128.418,123.535,0
1486824685.857,-13.184,23.438,46.875,59.570,132.324,0
1486824685.861,-48.828,23.438,34.668,-23.438,21.484,0
1486824685.865,44.434,24.414,38.086,2.441,-107.910,0
1486824685.869,113.770,25.391,40.039,115.234,-19.531,0
1486824685.873,85.449,28.809,40.039,134.766,96.680,0
1486824685.877,-0.977,29.785,51.270,70.801,96.680,0
1486824685.880,-44.922,27.344,49.805,-5.371,19.043,0
1486824685.884,40.039,24.902,42.480,0.977,-89.355,0
1486824685.888,125.977,25.391,46.875,106.934,-34.668,0
1486824685.892,103.027,27.832,42.969,144.531,105.957,0
1486824685.896,7.812,29.785,36.133,95.215,162.109,0
1486824685.900,-54.199,28.320,39.551,4.395,93.750,0
1486824685.904,20.508,26.367,39.062,-18.555,-59.570,0
1486824685.908,112.305,27.344,37.109,82.520,-62.500,0
1486824685.912,107.910,27.344,38.574,139.648,63.477,0
1486824685.916,26.855,33.203,49.316,101.562,111.816,0
1486824685.920,-51.270,34.668,62.500,13.672,59.570,0
1486824685.923,7.324,27.344,45.410,-20.020,-89.844,0
1486824685.927,101.074,23.926,21.973,67.383,-84.961,0
1486824685.931,105.469,27.344,26.855,128.906,41.504,0
1486824685.935,31.250,29.785,37.109,101.562,87.891,0
1486824685.939,-48.828,26.855,40.527,18.066,85.938,0
1486824685.943,-4.883,26.855,41.504,-30.273,-44.434,0
1486824685.947,97.168,24.414,40.039,56.152,-82.031,0
1486824685.951,111.816,24.902,41.992,128.906,73.730,0
1486824685.955,45.898,32.227,47.363,107.910,158.691,0
1486824685.959,-40.039,30.762,56.152,40.039,109.863,0
1486824685.963,-17.578,24.414,43.457,-30.762,-36.621,0
1486824685.966,88.867,26.855,27.832,35.156,-30.273,0
1486824685.970,118.652,29.785,36.133,118.164,88.867,0
1486824685.974,50.293,27.344,38.574,103.516,115.723,0
1486824685.978,-41.992,23.926,39.551,38.086,102.051,0
1486824685.982,-34.180,24.902,44.434,-30.273,-3.418,0
1486824685.986,70.801,27.344,46.387,26.855,-115.723,0
1486824685.990,123.535,27.832,45.898,125.977,-17.090,0
1486824685.994,78.125,30.762,52.246,124.512,114.258,0
1486824685.998,-24.414,30.762,55.664,48.340,124.023,0
1486824686.002,-39.551,28.320,39.062,-25.879,-4.883,0
1486824686.005,68.359,24.902,31.250,17.578,-84.473,0
1486824686.009,122.559,22.949,40.039,114.258,37.109,0
1486824686.013,79.590,27.832,43.945,127.441,148.926,0
1486824686.017,-15.625,34.180,45.898,59.082,138.184,0
1486824686.021,-39.062,34.668,47.852,-14.160,31.738,0
1486824686.025,57.129,30.762,44.922,9.766,-95.703,0
1486824686.029,117.188,28.320,41.016,107.910,-19.531,0
1486824686.033,92.773,30.762,40.039,127.441,90.820,0
1486824686.037,3.906,34.180,43.945,69.824,128.906,0
1486824686.041,-42.969,27.344,41.504,-4.883,58.594,0
1486824686.045,42.480,24.902,37.598,3.906,-87.891,0
1486824686.048,119.629,31.250,39.062,92.773,-40.527,0
1486824686.052,94.238,31.738,41.504,126.953,106.934,0
1486824686.056,-0.977,29.297,41.992,80.078,159.668,0
1486824686.060,-54.688,27.344,35.156,-6.348,84.473,0
1486824686.064,28.320,25.879,41.992,-10.742,-66.895,0
1486824686.068,117.188,26.367,47.363,85.449,-37.109,0
1486824686.072,110.840,31.738,39.551,132.324,106.934,0
1486824686.076,17.090,29.785,39.551,93.262,147.461,0
1486824686.080,-58.105,24.414,41.992,9.277,120.117,0
1486824686.084,9.766,23.926,45.410,-14.648,-21.973,0
1486824686.088,111.816,28.809,39.551,78.613,-42.480,0
1486824686.091,113.281,32.715,35.645,140.137,60.547,0
1486824686.095,26.855,29.785,39.062,104.492,125.977,0
1486824686.099,-46.387,30.273,46.875,16.602,113.281,0
1486824686.103,6.836,31.250,45.410,-19.043,-18.066,0
1486824686.107,97.656,26.367,36.621,55.664,-40.527,0
1486824686.111,107.910,24.902,34.668,127.441,90.332,0
1486824686.115,38.574,30.273,37.598,106.934,145.996,0
1486824686.119,-51.270,33.203,41.504,18.555,102.539,0
1486824686.123,-20.508,22.461,43.945,-34.180,-14.648,0
1486824686.127,82.520,15.625,37.109,33.203,-74.707,0
1486824686.130,108.887,22.461,39.062,122.559,54.688,0
1486824686.134,47.363,28.809,40.039,115.234,129.883,0
1486824686.138,-43.945,26.367,45.898,35.645,92.285,0
1486824686.142,-38.086,20.996,46.875,-24.902,-31.738,0
1486824686.146,61.523,22.461,26.855,21.484,-78.125,0
1486824686.150,104.004,23.438,31.250,116.211,16.602,0
1486824686.154,58.594,28.809,38.574,119.629,88.379,0
1486824686.158,-31.250,32.227,36.133,45.898,114.746,0
1486824686.162,-39.551,26.855,35.645,-23.438,22.949,0
1486824686.166,63.965,22.949,36.133,15.137,-67.383,0
1486824686.170,122.070,25.391,42.480,121.582,15.137,0
1486824686.173,75.684,26.367,48.828,136.230,112.305,0
1486824686.177,-32.227,27.832,40.039,55.176,119.629,0
1486824686.181,-51.270,29.297,35.156,-16.113,1.953,0
1486824686.185,49.805,25.391,42.969,9.277,-110.352,0
1486824686.189,102.051,25.391,35.645,97.656,-28.320,0
1486824686.193,68.359,32.227,32.227,127.441,84.473,0
1486824686.197,-16.602,37.109,38.574,68.848,138.184,0
1486824686.201,-53.223,32.715,38.574,-18.066,44.922,0
1486824686.205,30.273,27.832,30.273,-17.578,-79.590,0
1486824686.209,105.957,25.879,29.297,86.914,-26.367,0
1486824686.212,81.543,29.297,36.133,123.047,78.613,1
1486824686.216,-16.113,31.250,38.086,62.012,118.164,0
1486824686.220,-60.547,31.738,37.598,-14.648,58.105,0
1486824686.224,25.879,27.832,33.203,-20.508,-78.125,0
1486824686.228,104.004,24.902,32.715,76.660,-35.156,0
1486824686.232,99.121,32.715,33.203,141.113,125.977,0
1486824686.236,9.766,35.156,41.016,97.168,183.594,0
1486824686.240,-60.547,34.668,50.293,7.324,87.891,0
1486824686.244,12.695,32.227,43.457,-20.020,-43.457,0
1486824686.248,109.863,27.832,36.621,72.266,-3.418,0
1486824686.252,105.957,27.832,31.738,139.160,103.516,0
1486824686.255,17.578,29.785,37.598,96.191,139.160,0
1486824686.259,-64.941,29.297,45.410,10.254,97.168,0
1486824686.263,-2.441,24.902,37.598,-24.902,-36.621,0
1486824686.267,99.609,20.020,35.645,60.059,-48.828,0
1486824686.271,108.398,26.855,37.598,135.254,54.199,0
1486824686.275,38.574,34.668,38.574,119.141,139.160,0
1486824686.279,-49.805,34.668,41.992,36.133,111.328,0
1486824686.283,-10.742,33.691,45.410,-26.367,-45.410,0
1486824686.287,91.797,29.297,38.086,37.598,-48.828,0
1486824686.291,111.328,26.367,33.203,126.465,99.609,0
1486824686.295,48.340,29.297,45.898,112.305,151.367,0
1486824686.298,-49.805,30.273,50.293,29.785,103.027,0
1486824686.302,-31.250,25.879,41.504,-29.785,-6.348,0
1486824686.306,83.496,20.996,38.086,40.527,-50.781,0
1486824686.310,122.070,25.391,33.691,134.766,82.031,0
1486824686.314,68.848,30.762,39.062,118.652,171.387,0
1486824686.318,-20.020,34.180,49.316,48.340,142.090,0
1486824686.322,-24.414,32.227,39.062,-20.020,20.020,0
1486824686.326,71.289,23.438,30.762,23.926,-53.223,0
1486824686.330,118.652,23.438,32.715,127.441,62.500,0
1486824686.334,77.637,27.832,38.574,126.465,182.617,0
1486824686.337,-20.020,29.785,42.480,47.852,164.551,0
1486824686.341,-41.992,29.785,44.922,-21.973,37.109,0
1486824686.345,51.270,26.367,39.062,2.441,-68.359,0
1486824686.349,104.980,25.391,34.180,100.098,28.809,0
1486824686.353,73.730,24.902,50.781,128.906,104.004,0
1486824686.357,-25.391,24.902,47.852,62.012,86.914,0
1486824686.361,-62.988,28.809,32.227,-21.484,58.105,0
1486824686.365,41.504,29.297,36.133,-3.418,-61.035,0
1486824686.369,119.141,28.809,45.410,111.328,19.531,0
1486824686.373,89.355,28.809,45.898,142.578,152.832,0
1486824686.377,-5.859,31.250,41.992,79.102,165.039,0
1486824686.380,-47.852,33.691,49.316,0.977,49.805,0
1486824686.384,42.969,33.691,47.363,-2.441,-82.520,0
1486824686.388,121.094,30.762,37.109,102.051,-32.715,0
1486824686.392,101.562,27.344,35.645,146.973,65.430,0
1486824686.396,10.254,29.785,38.086,83.008,144.043,0
1486824686.400,-59.570,28.320,39.062,-5.859,82.031,0
1486824686.404,15.137,23.438,36.621,-25.879,-81.543,0
1486824686.408,105.469,23.438,32.227,68.848,-57.617,0
1486824686.412,95.703,29.297,39.551,127.441,88.867,0
1486824686.416,17.090,33.691,43.457,98.633,147.949,0
1486824686.420,-55.664,32.227,47.363,22.949,98.145,0
1486824686.423,-1.465,26.855,37.109,-25.391,-54.199,0
1486824686.427,95.703,26.367,31.250,60.059,-45.410,0
1486824686.431,106.445,31.250,38.086,132.324,81.055,0
1486824686.435,31.250,30.273,37.109,95.215,112.305,0
1486824686.439,-53.711,22.949,33.691,12.695,111.328,0
1486824686.443,-8.789,20.508,34.180,-29.785,-6.348,0
1486824686.447,91.309,24.902,34.180,49.805,-39.062,0
1486824686.451,112.793,27.832,27.344,131.348,67.871,0
1486824686.455,53.711,28.320,39.062,111.328,131.348,0
1486824686.459,-38.574,26.855,44.922,30.762,128.906,0
1486824686.462,-21.484,27.344,32.227,-24.902,-2.930,0
1486824686.466,84.961,29.297,36.621,41.992,-85.938,0
1486824686.470,120.605,29.785,42.480,135.254,43.457,0
1486824686.474,61.523,29.785,42.480,124.512,131.836,0
1486824686.478,-30.762,33.691,38.574,41.992,120.117,0
1486824686.482,-31.250,31.738,31.738,-20.996,28.809,0
1486824686.486,74.219,27.832,30.273,28.809,-66.406,0
1486824686.490,125.977,29.297,37.109,129.395,13.184,0
1486824686.494,72.754,31.250,38.574,122.559,120.605,0
1486824686.498,-27.832,34.668,33.203,47.852,160.645,0
1486824686.502,-40.527,30.762,28.809,-19.043,39.551,0
1486824686.505,67.383,21.973,41.992,14.648,-86.426,0
1486824686.509,131.836,26.855,44.922,117.188,2.930,0
1486824686.513,95.215,30.762,35.645,135.254,105.469,0
1486824686.517,-3.418,23.438,40.527,71.777,148.438,0
1486824686.521,-41.016,22.949,30.762,-16.602,52.734,0
1486824686.525,55.176,24.414,31.250,-1.953,-104.004,0
1486824686.529,124.023,25.391,46.387,104.004,-27.344,0
1486824686.533,90.332,26.367,39.551,133.301,88.867,0
1486824686.537,-3.418,26.367,36.621,72.266,126.465,0
1486824686.541,-52.734,26.855,39.062,1.465,35.645,0
1486824686.544,32.227,26.367,34.668,3.906,-109.375,0
1486824686.548,114.746,24.414,43.945,101.562,-34.668,0
1486824686.552,92.285,26.855,45.410,148.926,85.449,0
1486824686.556,0.000,32.715,42.480,88.379,132.812,0
1486824686.560,-65.918,33.203,43.945,-13.184,54.688,0
1486824686.564,9.277,29.785,34.668,-24.902,-85.449,0
1486824686.568,108.398,26.855,39.062,77.148,-64.941,0
1486824686.572,96.680,27.344,43.457,130.371,55.176,0
1486824686.576,11.719,29.785,37.109,89.355,146.973,0
1486824686.580,-48.340,31.250,34.180,-2.930,113.281,0
1486824686.584,17.090,27.344,39.551,-31.250,-43.457,0
1486824686.587,105.957,26.855,39.551,63.965,-47.852,0
1486824686.591,107.910,30.273,33.691,141.602,72.754,0
1486824686.595,39.551,32.715,42.969,115.234,138.184,0
1486824686.599,-50.781,27.832,42.969,18.066,101.074,0
1486824686.603,-14.648,24.902,29.297,-29.297,-15.137,0
1486824686.607,96.680,30.273,36.133,51.758,-37.109,0
1486824686.611,116.211,33.203,40.039,136.719,79.590,0
1486824686.615,38.086,32.227,33.203,112.305,169.434,0
1486824686.619,-49.805,35.156,38.574,20.020,142.090,0
1486824686.623,-16.602,38.574,46.875,-24.414,13.672,0
1486824686.627,80.078,31.250,41.504,44.434,-45.898,0
1486824686.630,106.934,24.902,34.668,127.441,81.055,0
1486824686.634,49.316,28.320,40.039,112.793,154.785,0
1486824686.638,-37.109,33.203,44.922,30.762,120.605,0
1486824686.642,-31.738,28.809,31.250,-21.973,21.484,0
1486824686.646,74.707,25.391,27.832,36.621,-56.641,0
1486824686.650,120.605,29.785,38.574,137.695,50.781,0
1486824686.654,66.406,32.227,41.504,135.742,141.602,0
1486824686.658,-33.203,31.250,38.574,42.969,124.023,0
1486824686.662,-41.504,29.297,40.039,-18.066,28.809,0
1486824686.666,57.617,24.414,42.969,24.414,-70.312,0
1486824686.669,113.770,23.926,37.598,118.652,18.066,0
1486824686.673,79.102,29.297,37.109,128.418,112.305,0
1486824686.677,-16.602,31.738,40.039,50.293,106.445,0
1486824686.681,-43.945,32.715,32.715,-21.484,30.762,0
1486824686.685,55.664,29.785,30.273,7.324,-92.773,0
1486824686.689,127.930,29.785,38.574,113.770,-17.578,0
1486824686.693,95.215,31.738,51.758,141.602,111.816,0
1486824686.697,-2.930,28.809,43.457,64.453,135.742,0
1486824686.701,-40.039,27.832,34.180,-15.625,39.551,0
1486824686.705,45.898,27.832,38.574,-2.441,-84.961,0
1486824686.709,124.512,29.785,41.504,88.379,-25.391,0
1486824686.712,104.492,28.809,36.133,131.348,117.676,0
1486824686.716,10.254,27.344,35.156,72.266,147.461,0
1486824686.720,-50.781,33.691,43.457,-10.742,55.176,0
1486824686.724,20.508,34.180,39.062,-15.625,-72.754,0
1486824686.728,118.652,30.273,33.691,82.520,-59.082,0
1486824686.732,109.375,30.762,41.992,148.438,73.242,0
1486824686.736,20.996,28.809,50.781,101.074,134.277,0
1486824686.740,-45.898,29.297,49.805,10.742,88.379,0
1486824686.744,15.137,32.227,51.758,-2.930,-28.809,0
1486824686.748,112.305,28.809,38.086,83.496,-11.230,0
1486824686.752,112.793,29.297,25.879,141.602,108.887,0
1486824686.755,33.691,30.762,38.086,98.145,147.461,0
1486824686.759,-45.410,27.832,41.504,17.090,102.539,0
1486824686.763,-1.465,28.320,38.086,-14.160,-9.277,0
1486824686.767,102.051,28.809,42.969,58.105,-39.062,0
1486824686.771,109.375,26.367,47.363,133.301,44.922,0
1486824686.775,32.227,25.879,45.898,109.375,121.582,0
1486824686.779,-50.781,31.738,43.457,13.672,104.980,0
1486824686.783,-23.438,32.715,27.832,-44.434,-34.668,0
1486824686.787,82.520,32.715,21.973,33.691,-77.637,0
1486824686.791,110.352,32.715,32.715,127.930,67.871,0
1486824686.794,51.270,31.738,35.645,104.492,170.898,0
1486824686.798,-33.203,34.180,41.992,29.297,147.949,0
1486824686.802,-25.391,36.621,42.480,-20.020,16.113,0
1486824686.806,74.707,37.109,40.039,29.297,-60.059,0
1486824686.810,116.699,31.250,43.945,127.441,50.293,0
1486824686.814,70.801,32.715,41.016,128.418,147.949,0
1486824686.818,-24.414,37.109,44.434,47.852,121.582,0
1486824686.822,-34.668,32.227,47.852,-26.367,-27.832,0
1486824686.826,63.965,26.855,41.016,10.254,-121.094,0
1486824686.830,116.211,28.320,36.621,115.234,10.254,0
1486824686.834,74.707,30.762,35.156,125.977,79.102,0
1486824686.837,-26.367,30.273,36.621,51.270,111.328,0
1486824686.841,-50.293,26.367,39.551,-35.156,52.246,0
1486824686.845,47.363,21.973,41.992,-14.648,-82.520,0
1486824686.849,106.445,24.902,45.898,96.680,24.414,0
1486824686.853,72.754,28.809,47.852,117.676,140.625,0
1486824686.857,-19.043,29.785,39.551,53.223,137.207,0
1486824686.861,-54.688,33.691,36.133,-20.508,86.914,0
1486824686.865,39.062,28.809,36.621,-20.020,-70.801,1
1486824686.869,115.234,23.926,39.551,83.496,-63.965,0
1486824686.873,91.797,27.344,34.668,127.441,93.750,0
1486824686.876,-3.906,31.250,34.180,71.289,103.027,0
1486824686.880,-56.641,26.367,34.180,-9.766,13.184,0
1486824686.884,26.367,22.461,33.691,-12.695,-81.055,0
1486824686.888,111.328,26.367,40.527,90.332,-23.438,0
1486824686.892,102.051,28.809,43.457,133.301,106.445,0
1486824686.896,10.742,24.902,36.621,83.984,156.738,0
1486824686.900,-57.617,22.949,35.645,6.348,73.730,0
1486824686.904,14.648,22.949,34.180,-17.090,-61.523,0
1486824686.908,111.816,17.578,39.062,80.078,-45.898,0
1486824686.912,104.492,17.090,41.992,129.395,73.730,0
1486824686.916,18.555,22.461,35.156,83.496,127.930,0
1486824686.919,-56.152,21.484,35.645,6.348,83.496,0
1486824686.923,2.930,24.414,38.574,-26.367,-42.480,0
1486824686.927,100.586,25.391,38.574,64.941,-37.109,0
1486824686.931,104.980,20.020,37.109,129.883,93.750,0
1486824686.935,34.668,21.484,40.527,102.539,179.199,0
1486824686.939,-52.246,24.902,36.621,22.461,144.043,0
1486824686.943,-13.672,26.855,33.691,-27.832,-1.953,0
1486824686.947,93.750,23.438,31.738,49.316,-44.922,0
1486824686.951,116.211,20.020,36.621,138.184,88.379,0
1486824686.955,57.617,25.391,48.340,122.559,135.254,0
1486824686.959,-31.250,32.715,42.969,40.039,100.586,0
1486824686.962,-12.695,27.832,39.062,-20.020,-13.672,0
1486824686.966,92.773,23.926,36.621,42.969,-59.082,0
1486824686.970,133.789,28.809,31.738,137.207,79.590,0
1486824686.974,73.242,27.832,39.551,131.836,153.809,0
1486824686.978,-31.250,26.855,41.992,55.664,159.668,0
1486824686.982,-29.785,28.320,31.738,-18.066,53.223,0
1486824686.986,71.289,28.809,33.203,25.879,-53.223,0
1486824686.990,118.164,27.344,40.039,113.281,19.531,0
1486824686.994,73.242,32.227,41.992,119.629,103.516,0
1486824686.998,-30.273,33.691,37.109,51.758,120.605,0
1486824687.001,-53.223,28.809,35.645,-33.203,8.789,0
1486824687.005,51.758,28.809,37.598,9.277,-93.262,0
1486824687.009,109.863,23.438,38.086,112.305,8.301,0
1486824687.013,72.266,21.973,42.969,122.070,101.562,0
1486824687.017,-17.090,26.855,39.551,62.012,127.930,0
1486824687.021,-60.547,25.391,31.250,-16.602,67.871,0
1486824687.025,30.762,21.973,42.480,-8.301,-78.125,0
1486824687.029,110.352,28.320,45.410,94.238,-20.508,0
1486824687.033,84.473,31.738,35.645,131.348,88.379,0
1486824687.037,-5.371,27.832,35.645,77.148,125.000,0
1486824687.041,-56.641,34.180,37.598,-0.977,69.824,0
1486824687.044,31.738,32.715,41.504,-11.230,-46.387,0
1486824687.048,117.188,25.879,43.945,88.867,0.977,0
1486824687.052,101.074,27.344,41.016,144.043,102.539,0
1486824687.056,10.254,28.320,48.340,96.680,148.438,0
1486824687.060,-56.641,30.762,48.340,11.230,111.816,0
1486824687.064,21.973,34.180,36.133,-7.324,-23.438,0
1486824687.068,112.305,26.855,39.551,80.566,-33.203,0
1486824687.072,106.445,22.949,38.574,144.531,96.191,0
1486824687.076,21.484,28.320,44.434,108.398,149.902,0
1486824687.080,-58.105,29.785,48.828,10.742,72.266,0
1486824687.084,1.465,23.438,37.598,-23.926,-57.617,0
1486824687.087,105.957,22.461,38.086,64.453,-41.504,0
1486824687.091,114.746,24.902,46.387,136.719,111.816,0
1486824687.095,41.016,27.344,44.434,106.934,168.945,0
1486824687.099,-54.199,29.785,45.898,21.973,105.469,0
1486824687.103,-23.438,27.832,42.480,-20.508,-23.438,0
1486824687.107,87.402,24.414,34.668,54.199,-39.062,0
1486824687.111,109.375,24.902,35.645,132.812,104.492,0
1486824687.115,44.434,30.762,39.062,114.746,172.363,0
1486824687.119,-45.898,30.273,48.340,38.086,122.559,0
1486824687.123,-30.762,27.344,40.039,-19.043,-26.367,0
1486824687.126,79.102,27.832,30.762,40.039,-96.191,0
1486824687.130,118.652,32.715,36.621,128.418,25.879,0
1486824687.134,50.781,35.156,42.480,122.559,119.629,0
1486824687.138,-46.387,28.320,43.457,42.480,126.465,0
1486824687.142,-47.852,23.926,42.969,-13.672,24.902,0
1486824687.146,57.129,24.414,34.668,27.832,-86.426,0
1486824687.150,109.863,24.902,33.203,112.305,-6.348,0
1486824687.154,59.082,27.832,43.457,124.512,108.398,0
1486824687.158,-38.574,30.273,50.781,48.828,124.023,0
1486824687.162,-54.688,25.391,39.062,-24.902,39.551,0
1486824687.166,54.688,23.926,29.785,12.207,-59.570,0
1486824687.169,113.770,23.438,35.156,113.770,40.527,0
1486824687.173,72.266,22.461,36.621,128.906,103.027,0
1486824687.177,-17.090,24.414,40.039,64.941,75.684,0
1486824687.181,-50.293,23.926,35.645,-13.672,6.348,0
1486824687.185,45.898,25.391,32.715,-7.812,-68.359,0
1486824687.189,119.141,28.809,39.551,98.633,-15.625,0
1486824687.193,87.402,30.273,45.898,131.348,73.242,0
1486824687.197,-1.953,31.250,43.945,65.430,111.816,0
1486824687.201,-42.480,30.273,32.715,-22.949,32.715,0
1486824687.205,43.945,25.879,30.273,-17.090,-110.840,0
1486824687.208,126.465,27.832,36.621,95.215,-50.781,0
1486824687.212,114.746,28.809,40.039,141.113,81.055,0
1486824687.216,24.902,28.320,41.504,85.938,122.559,0
1486824687.220,-36.621,33.203,43.945,3.418,36.621,0
1486824687.224,36.133,30.273,44.434,-0.488,-121.582,0
1486824687.228,123.047,29.297,41.504,92.773,-77.637,0
1486824687.232,111.816,31.250,40.527,146.484,55.664,0
1486824687.236,23.926,26.855,43.457,104.492,138.184,0
1486824687.240,-49.316,23.438,41.992,14.648,96.680,0
1486824687.244,7.812,23.926,40.527,-7.324,-56.641,0
1486824687.248,107.910,26.367,40.527,79.590,-58.105,0
1486824687.251,115.723,29.297,44.434,145.020,58.105,0
1486824687.255,40.039,33.691,47.363,115.723,96.680,0
1486824687.259,-42.969,33.691,47.852,27.832,57.617,0
1486824687.263,-4.395,28.320,54.688,-19.531,-59.082,0
1486824687.267,99.609,25.879,43.945,49.316,-73.242,0
1486824687.271,118.164,29.297,28.320,130.371,43.945,0
1486824687.275,44.434,31.250,40.039,112.793,119.629,0
1486824687.279,-44.434,28.809,43.945,29.297,125.000,0
1486824687.283,-25.879,24.414,33.203,-27.344,-22.949,0
1486824687.287,86.914,27.344,39.062,41.016,-78.613,0
1486824687.291,124.023,26.367,39.551,123.047,50.781,0
1486824687.294,56.641,27.832,36.133,106.445,102.051,0
1486824687.298,-32.715,33.691,47.852,37.109,77.148,0
1486824687.302,-30.273,29.297,37.109,-24.902,-9.277,0
1486824687.306,74.219,24.902,27.832,21.484,-62.012,0
1486824687.310,123.047,28.809,35.156,121.094,67.871,0
1486824687.314,67.383,33.203,34.668,130.371,175.781,0
1486824687.318,-32.715,35.645,38.086,54.688,137.207,0
1486824687.322,-42.480,30.273,36.621,-19.531,24.414,0
1486824687.326,62.988,25.879,28.320,10.742,-72.266,0
1486824687.330,114.258,27.344,34.180,107.422,16.113,0
1486824687.333,75.195,29.297,44.922,128.418,109.863,0
1486824687.337,-21.973,29.297,41.016,59.570,110.352,0
1486824687.341,-51.270,25.879,41.016,-17.578,61.523,0
1486824687.345,50.293,25.391,40.527,7.324,-49.316,0
1486824687.349,116.211,26.855,31.738,107.422,-8.301,0
1486824687.353,82.520,28.320,34.180,139.648,123.047,0
1486824687.357,-12.207,27.832,42.969,73.242,129.883,0
1486824687.361,-51.270,24.902,41.504,-18.066,63.477,0
1486824687.365,38.574,23.926,37.109,-11.230,-47.363,0
1486824687.369,119.141,26.367,31.738,93.750,-32.227,0
1486824687.373,93.750,28.809,40.039,139.160,120.117,0
1486824687.376,-0.977,28.809,48.828,81.055,189.453,0
1486824687.380,-51.270,33.203,37.109,-3.906,108.398,0
1486824687.384,22.949,34.668,34.180,-22.949,-47.852,0
1486824687.388,116.699,31.738,43.945,72.266,-44.922,0
1486824687.392,105.469,26.367,41.016,130.371,89.844,0
1486824687.396,12.207,28.320,35.156,78.125,151.367,0
1486824687.400,-54.688,32.227,40.039,3.906,73.730,0
1486824687.404,13.672,25.879,39.551,-22.461,-71.777,0
1486824687.408,115.723,25.879,33.691,55.176,-78.125,0
1486824687.412,120.117,34.180,39.551,138.672,74.707,0
1486824687.416,38.086,31.738,45.410,105.957,180.664,0
1486824687.419,-45.898,26.367,43.945,17.090,154.297,0
1486824687.423,-8.789,23.926,39.062,-29.785,9.766,0
1486824687.427,88.867,23.438,34.668,44.434,-39.062,0
1486824687.431,106.934,25.879,35.645,131.836,66.895,0
1486824687.435,33.691,29.297,41.992,109.863,101.074,0
1486824687.439,-57.129,30.762,44.922,22.949,85.449,0
1486824687.443,-26.367,24.902,39.551,-34.668,-19.043,0
1486824687.447,84.473,26.855,43.457,37.598,-81.055,0
1486824687.451,115.234,34.668,45.898,134.277,66.895,0
1486824687.455,53.711,29.297,42.969,122.070,172.852,0
1486824687.458,-39.062,28.809,45.898,40.039,139.160,0
1486824687.462,-34.668,28.320,40.039,-27.344,-11.230,0
1486824687.466,76.660,23.438,30.762,31.738,-78.125,0
1486824687.470,125.000,23.926,36.133,135.254,46.387,0
1486824687.474,74.707,25.879,42.969,126.465,104.004,0
1486824687.478,-19.043,32.227,42.969,52.246,96.680,0
1486824687.482,-35.645,31.250,37.598,-21.973,26.855,0
1486824687.486,72.266,25.391,32.715,22.461,-85.449,0
1486824687.490,130.859,30.273,42.480,125.000,2.441,0
1486824687.494,77.637,31.738,41.992,126.465,146.973,0
1486824687.498,-22.461,32.227,31.738,54.199,138.672,0
1486824687.501,-48.340,29.297,38.574,-27.832,39.551,0
1486824687.505,47.363,25.879,40.039,0.977,-94.238,0
1486824687.509,107.910,33.691,30.762,104.004,-33.203,0
1486824687.513,69.336,33.691,37.598,119.141,81.543,0
1486824687.517,-31.738,26.855,41.504,55.664,90.820,0
1486824687.521,-72.754,26.855,41.504,-32.715,47.363,0
1486824687.525,23.926,26.855,38.574,-22.461,-88.379,0
1486824687.529,102.539,28.320,46.387,91.309,-55.176,0
1486824687.533,80.078,26.855,52.246,129.395,86.426,0
1486824687.537,-5.859,26.855,45.898,78.613,147.461,0
1486824687.540,-55.664,26.367,41.504,-5.371,55.176,0
1486824687.544,25.391,24.414,34.180,-16.113,-89.355,1
1486824687.548,120.605,28.320,35.156,92.285,-52.246,0
1486824687.552,113.281,30.762,40.039,154.785,83.496,0
1486824687.556,21.484,34.668,42.969,111.328,154.785,0
1486824687.560,-55.176,30.273,42.969,16.113,114.258,0
1486824687.564,20.508,21.484,41.992,-17.578,-38.086,0
1486824687.568,116.211,27.832,45.410,80.566,-53.711,0
1486824687.572,108.887,33.691,48.340,140.625,72.754,0
1486824687.576,21.973,29.785,43.457,101.562,127.441,0
1486824687.580,-56.641,29.785,35.156,9.277,75.195,0
1486824687.583,-1.953,27.832,29.785,-31.738,-65.918,0
1486824687.587,97.656,22.949,28.320,61.523,-50.781,0
1486824687.591,108.398,22.949,31.250,128.418,96.680,0
1486824687.595,32.715,27.344,38.086,99.609,150.879,0
1486824687.599,-53.711,26.367,45.410,19.531,107.910,0
1486824687.603,-18.066,23.438,45.410,-30.762,-36.621,0
1486824687.607,84.473,24.414,42.969,48.828,-113.770,0
1486824687.611,116.211,25.391,41.504,137.695,13.184,0
1486824687.615,55.664,28.320,49.316,128.418,106.934,0
1486824687.619,-40.527,26.855,46.875,41.504,64.453,0
1486824687.623,-25.391,30.762,34.180,-24.902,-35.156,0
1486824687.626,78.613,34.180,30.273,42.969,-94.727,0
1486824687.630,121.582,26.367,35.156,133.789,-3.418,0
1486824687.634,64.453,21.973,39.062,124.512,92.285,0
1486824687.638,-28.320,26.855,47.852,48.828,94.238,0
1486824687.642,-27.344,28.320,50.781,-23.438,-7.812,0
1486824687.646,74.219,24.414,35.156,21.973,-94.727,0
1486824687.650,124.023,28.809,34.668,119.629,7.812,0
1486824687.654,74.707,32.715,33.691,125.000,122.070,0
1486824687.658,-26.855,31.738,33.203,41.504,135.742,0
1486824687.662,-48.340,31.250,38.086,-36.133,28.320,0
1486824687.665,58.105,32.715,37.109,6.836,-104.492,0
1486824687.669,117.188,31.738,37.598,108.398,-21.973,0
1486824687.673,76.172,28.320,46.387,125.977,123.535,0
1486824687.677,-17.578,29.297,55.664,61.035,122.559,0
1486824687.681,-53.223,28.320,41.992,-22.949,21.484,0
1486824687.685,37.598,24.902,25.391,-11.719,-73.730,0
1486824687.689,106.445,28.809,28.320,94.727,-42.480,0
1486824687.693,89.844,31.250,35.156,135.254,83.496,0
1486824687.697,7.812,32.227,43.457,85.938,130.859,0
1486824687.701,-44.922,31.738,48.828,4.395,39.551,0
1486824687.705,33.691,25.391,44.922,-7.812,-64.453,0
1486824687.708,119.629,26.367,48.340,91.309,-34.668,0
1486824687.712,102.051,30.273,54.199,144.043,51.270,0
1486824687.716,10.742,28.809,48.340,90.820,100.098,0
1486824687.720,-53.223,26.855,34.668,10.742,62.988,0
1486824687.724,15.625,29.297,25.391,-3.418,-83.008,0
1486824687.728,113.770,30.762,31.738,82.520,-90.332,0
1486824687.732,110.840,28.320,38.086,141.602,84.961,0
1486824687.736,19.531,27.344,42.969,104.004,157.227,0
1486824687.740,-58.594,24.902,47.852,17.090,83.008,0
1486824687.744,1.953,23.926,50.781,-12.695,-64.453,0
1486824687.748,103.027,24.414,45.898,69.824,-74.219,0
1486824687.751,115.723,27.344,39.062,137.207,54.688,0
1486824687.755,43.945,34.668,34.668,110.352,117.188,0
1486824687.759,-43.457,32.715,31.738,24.414,91.797,0
1486824687.763,-12.695,23.926,33.691,-21.484,-11.719,0
1486824687.767,95.703,25.391,39.062,61.035,-48.828,0
1486824687.771,127.441,27.344,44.434,144.043,61.523,0
1486824687.775,50.293,26.855,41.992,122.070,154.785,0
1486824687.779,-43.457,30.273,39.551,37.109,146.484,0
1486824687.783,-15.137,28.809,43.945,-15.625,5.859,0
1486824687.787,90.820,25.391,42.969,50.293,-46.875,0
1486824687.790,121.094,28.320,30.762,125.000,70.801,0
1486824687.794,62.012,32.715,29.785,116.211,131.836,0
1486824687.798,-29.785,33.203,36.621,46.875,102.051,0
1486824687.802,-26.855,28.320,42.480,-15.625,23.438,0
1486824687.806,70.801,24.414,37.598,27.344,-62.500,0
1486824687.810,118.164,23.438,34.668,117.676,15.625,0
1486824687.814,63.965,29.785,37.109,124.023,134.766,0
1486824687.818,-33.691,38.086,46.875,54.688,158.691,0
1486824687.822,-42.969,34.668,44.434,-14.648,28.320,0
1486824687.826,56.641,29.297,37.598,15.137,-84.473,0
1486824687.830,110.840,27.344,38.086,107.422,37.598,0
1486824687.833,76.172,27.344,40.039,127.930,167.480,0
1486824687.837,-15.137,29.785,34.180,62.988,159.180,0
1486824687.841,-57.617,27.832,28.320,-19.043,73.242,0
1486824687.845,37.598,24.902,31.250,-8.789,-43.457,0
1486824687.849,112.793,26.367,38.086,93.750,0.488,0
1486824687.853,85.449,26.367,41.504,124.512,100.586,0
1486824687.857,-6.836,27.832,44.434,66.895,133.301,0
1486824687.861,-60.059,29.297,51.758,-12.695,86.914,0
1486824687.865,22.949,22.461,43.457,-18.555,-59.082,0
1486824687.869,111.328,22.461,31.250,89.844,-13.184,0
1486824687.872,99.609,27.344,33.691,137.207,127.441,0
1486824687.876,14.160,29.785,37.598,80.078,198.730,0
1486824687.880,-43.945,30.762,38.086,2.441,115.723,0
1486824687.884,30.762,25.391,38.086,-11.230,-78.613,0
1486824687.888,116.211,27.344,32.227,82.520,-12.695,0
1486824687.892,104.492,29.785,41.016,142.090,168.457,0
1486824687.896,22.949,27.344,53.223,97.168,179.688,0
1486824687.900,-49.805,25.879,39.551,7.324,122.559,0
1486824687.904,4.883,25.879,31.738,-33.203,-30.273,0
1486824687.908,103.027,23.438,38.574,60.059,-30.273,0
1486824687.912,110.840,21.973,42.480,135.742,114.746,0
1486824687.915,28.809,26.855,43.457,99.121,148.438,0
1486824687.919,-51.758,28.320,41.504,19.043,112.793,0
1486824687.923,-11.719,23.438,41.016,-16.602,-14.160,0
1486824687.927,89.844,23.926,40.039,54.199,-56.641,0
1486824687.931,107.422,24.902,40.527,127.441,69.336,0
1486824687.935,35.156,26.367,41.992,104.004,144.531,0
1486824687.939,-48.340,32.227,43.945,23.926,116.699,0
1486824687.943,-29.297,28.809,43.945,-30.762,14.160,0
1486824687.947,76.660,24.902,36.621,31.738,-65.918,0
1486824687.951,104.004,31.250,37.109,125.488,27.832,0
1486824687.955,43.457,35.156,41.504,108.887,137.207,0
1486824687.958,-42.969,34.180,48.340,27.344,131.836,0
1486824687.962,-45.898,26.855,38.574,-28.809,-10.742,0
1486824687.966,66.895,23.438,36.133,19.043,-97.656,0
1486824687.970,124.023,27.832,49.805,114.746,11.230,0
1486824687.974,68.848,27.832,40.039,119.629,138.184,0
1486824687.978,-31.250,27.832,31.250,48.828,167.480,0
1486824687.982,-44.434,26.367,34.668,-16.602,56.641,0
1486824687.986,58.594,26.367,33.203,10.254,-66.895,0
1486824687.990,119.141,29.297,40.527,111.816,27.832,0
1486824687.994,81.055,30.762,52.734,128.418,147.949,0
1486824687.997,-10.254,34.668,53.711,59.570,141.113,0
1486824688.001,-41.992,33.203,41.992,-14.648,60.059,0
1486824688.005,55.176,28.809,41.016,-1.465,-62.500,0
1486824688.009,119.629,25.879,52.246,110.352,-18.555,0
1486824688.013,86.914,27.344,42.480,135.742,114.746,0
1486824688.017,-8.301,30.273,36.621,73.242,176.270,0
1486824688.021,-54.199,30.762,40.527,-8.301,72.754,0
1486824688.025,38.574,25.879,39.062,-17.578,-66.406,0
1486824688.029,111.816,21.973,40.039,87.891,3.906,0
1486824688.033,90.332,23.926,39.551,133.789,123.047,0
1486824688.037,9.277,29.297,40.039,83.496,165.039,0
1486824688.040,-46.387,35.156,36.133,0.000,86.914,0
1486824688.044,27.832,30.762,33.203,-22.949,-62.012,0
1486824688.048,117.188,29.297,31.250,71.289,-21.973,0
1486824688.052,103.516,28.320,31.738,132.324,114.258,0
1486824688.056,14.160,28.809,39.551,88.379,168.457,0
1486824688.060,-52.246,29.785,40.039,-1.953,126.465,0
1486824688.064,11.719,26.855,42.969,-20.996,-18.555,0
1486824688.068,100.586,24.414,38.086,73.242,-34.668,0
1486824688.072,105.957,26.855,31.250,133.789,98.633,0
1486824688.076,32.715,31.738,39.062,103.027,153.320,0
1486824688.080,-47.363,31.250,49.316,25.879,110.352,0
1486824688.083,0.977,31.738,45.410,-18.555,1.465,0
1486824688.087,102.051,34.180,35.156,59.082,-18.555,0
1486824688.091,120.605,31.738,41.992,136.230,101.074,0
1486824688.095,44.434,29.785,44.434,105.469,182.129,0
1486824688.099,-46.875,29.785,38.086,21.973,147.949,0
1486824688.103,-16.602,28.809,33.691,-32.227,8.789,0
1486824688.107,88.379,28.809,30.762,38.574,-38.086,0
1486824688.111,117.188,29.785,37.598,118.652,91.797,0
1486824688.115,48.340,31.738,40.039,101.562,150.391,0
1486824688.119,-43.457,33.691,41.504,39.551,151.855,0
1486824688.122,-26.855,32.715,37.598,-33.691,29.785,0
1486824688.126,85.449,35.645,31.738,15.625,-52.246,0
1486824688.130,126.953,36.621,37.109,114.746,57.617,0
1486824688.134,74.219,32.227,39.062,112.305,91.797,0
1486824688.138,-16.113,30.762,37.598,48.340,92.285,0
1486824688.142,-23.438,27.344,39.551,-23.926,11.719,0
1486824688.146,78.125,22.461,39.062,22.949,-95.215,0
1486824688.150,131.836,28.320,38.574,126.465,3.418,0
1486824688.154,85.938,37.109,43.457,130.859,116.211,0
1486824688.158,-12.695,36.621,52.246,73.730,134.277,0
1486824688.162,-39.062,26.855,50.781,1.465,44.434,0
1486824688.165,60.059,22.949,41.992,29.785,-85.938,0
1486824688.169,127.441,24.902,35.156,121.094,-21.973,1
1486824688.173,82.031,20.996,29.297,135.742,115.234,0
1486824688.177,-21.484,23.926,39.551,82.520,155.762,0
1486824688.181,-53.223,24.414,44.434,-14.648,41.992,0
1486824688.185,37.598,23.438,42.480,-10.742,-85.449,0
1486824688.189,111.816,24.902,43.457,94.727,-21.973,0
1486824688.193,86.914,23.926,45.898,128.906,96.191,0
1486824688.197,-3.418,25.391,49.316,76.172,145.996,0
1486824688.201,-58.105,26.855,37.598,-10.742,68.848,0
1486824688.204,20.020,25.879,36.621,-17.578,-102.539,0
1486824688.208,99.121,28.809,40.039,74.707,-49.316,0
1486824688.212,88.379,28.809,29.785,122.070,112.305,0
1486824688.216,1.465,30.762,33.203,87.402,142.090,0
1486824688.220,-63.965,33.691,37.109,1.465,77.148,0
1486824688.224,15.625,30.273,40.527,-17.090,-36.621,0
1486824688.228,109.863,26.855,48.828,70.801,-35.645,0
1486824688.232,104.980,27.344,42.480,130.859,74.707,0
1486824688.236,27.832,30.273,35.156,108.398,164.062,0
1486824688.240,-41.504,29.297,41.016,20.996,128.906,0
1486824688.244,6.836,21.973,45.898,-17.090,-34.180,0
1486824688.247,104.004,21.973,37.598,67.383,-62.988,0
1486824688.251,119.141,30.273,36.133,142.090,54.688,0
1486824688.255,39.062,31.738,41.504,112.793,130.371,0
1486824688.259,-53.711,25.391,33.691,23.438,106.445,0
1486824688.263,-20.020,21.973,35.645,-29.297,-11.230,0
1486824688.267,79.590,22.461,39.062,35.156,-63.477,0
1486824688.271,101.562,24.414,36.133,120.605,48.340,0
1486824688.275,34.180,24.414,34.180,106.445,143.066,0
1486824688.279,-62.012,24.414,34.180,18.066,132.324,0
1486824688.283,-41.016,25.391,38.574,-40.527,-6.348,0
1486824688.287,71.777,28.320,40.039,26.855,-46.875,0
1486824688.290,106.934,23.926,39.551,120.605,46.875,0
1486824688.294,49.805,21.484,42.480,120.117,120.117,0
1486824688.298,-39.551,26.367,49.316,51.758,151.367,0
1486824688.302,-41.504,20.996,44.922,-19.531,41.992,0
1486824688.306,62.988,20.996,31.250,12.695,-52.246,0
1486824688.310,114.258,27.344,30.762,111.816,20.020,0
1486824688.314,64.453,26.855,38.086,128.906,97.168,0
1486824688.318,-31.738,28.320,38.574,49.316,86.426,0
1486824688.322,-42.480,30.762,41.016,-24.414,-8.301,0
1486824688.326,61.523,27.832,42.480,8.301,-81.055,0
1486824688.329,118.164,25.879,40.039,107.422,8.301,0
1486824688.333,85.938,28.320,40.527,141.602,104.980,0
1486824688.337,-12.695,29.785,41.016,78.125,112.793,0
1486824688.341,-50.781,29.297,41.504,-1.953,41.016,0
1486824688.345,44.922,26.367,39.062,9.277,-76.172,0
1486824688.349,114.746,29.297,38.086,104.492,-66.406,0
1486824688.353,88.867,32.715,42.969,143.066,96.191,0
1486824688.357,-7.812,30.762,43.457,85.449,165.527,0
1486824688.361,-57.129,27.344,40.039,-1.953,58.105,0
1486824688.365,31.250,21.973,35.156,-15.137,-87.402,0
1486824688.369,115.234,22.949,31.250,87.402,-57.129,0
1486824688.372,103.027,28.320,35.645,143.066,46.387,0
1486824688.376,9.277,30.762,37.598,92.773,88.379,0
1486824688.380,-55.664,29.785,35.645,12.207,83.496,0
1486824688.384,21.973,28.809,33.691,-6.348,-66.895,0
1486824688.388,114.258,29.297,34.180,81.055,-85.449,0
1486824688.392,109.863,31.738,38.574,144.531,62.500,0
1486824688.396,28.320,32.227,42.480,108.887,122.559,0
1486824688.400,-51.270,28.809,38.086,23.438,121.094,0
1486824688.404,4.883,24.902,29.785,-23.438,-17.578,0
1486824688.408,110.352,23.926,34.668,65.918,-40.527,0
1486824688.412,116.699,28.320,36.621,143.555,88.867,0
1486824688.415,42.480,31.738,31.250,104.980,138.184,0
1486824688.419,-38.574,36.621,44.922,25.879,127.930,0
1486824688.423,-2.930,37.598,47.852,-20.996,-19.043,0
1486824688.427,89.355,28.809,33.203,47.852,-45.898,0
1486824688.431,113.770,29.297,34.180,133.789,68.359,0
1486824688.435,53.711,33.691,52.246,122.559,126.953,0
1486824688.439,-43.457,30.762,50.781,33.203,132.324,0
1486824688.443,-25.391,27.832,38.086,-22.461,7.812,0
1486824688.447,82.520,26.367,40.527,37.598,-57.129,0
1486824688.451,115.234,27.344,42.969,118.652,77.637,0
1486824688.454,53.223,30.762,41.016,114.746,142.090,0
1486824688.458,-41.016,31.738,39.551,40.039,114.258,0
1486824688.462,-41.016,30.273,35.156,-33.691,19.531,0
1486824688.466,71.289,30.762,33.691,18.066,-85.449,0
1486824688.470,123.047,31.250,43.457,123.047,-5.371,0
1486824688.474,68.359,29.297,48.340,126.953,127.441,0
1486824688.478,-29.785,27.344,42.480,52.734,154.297,0
1486824688.482,-46.387,21.484,39.551,-18.555,46.875,0
1486824688.486,55.176,23.926,33.691,14.648,-78.125,0
1486824688.490,114.258,34.180,34.180,108.887,-18.555,0
1486824688.494,73.730,31.250,43.945,122.070,103.516,0
1486824688.497,-25.391,28.320,46.387,58.594,144.043,0
1486824688.501,-53.223,29.297,46.387,-15.137,62.012,0
1486824688.505,39.551,29.297,41.992,-5.371,-84.473,0
1486824688.509,114.258,29.785,39.551,108.398,-20.508,0
1486824688.513,89.355,27.832,41.504,137.207,83.496,0
1486824688.517,-12.207,28.320,41.016,71.289,110.352,0
1486824688.521,-55.664,30.273,38.086,-6.348,62.988,0
1486824688.525,37.109,27.344,36.621,-14.160,-76.172,0
1486824688.529,115.234,25.391,39.551,78.613,-38.086,0
1486824688.533,94.238,31.738,44.922,129.395,86.426,0
1486824688.536,8.301,32.227,44.922,80.566,138.672,0
1486824688.540,-44.922,28.809,35.645,-12.207,59.082,0
1486824688.544,21.973,23.926,39.062,-31.738,-105.957,0
1486824688.548,106.445,25.391,42.480,74.707,-64.941,0
1486824688.552,103.516,29.297,46.387,141.602,78.613,0
1486824688.556,15.137,31.250,47.363,92.773,137.207,0
1486824688.560,-54.688,32.715,41.016,0.488,95.703,0
1486824688.564,0.000,29.785,43.945,-26.855,-54.688,0
1486824688.568,89.355,24.902,32.227,66.895,-47.363,0
1486824688.572,99.609,26.855,34.668,134.277,98.633,0
1486824688.576,20.508,31.738,43.457,102.051,129.395,0
1486824688.579,-60.547,28.809,41.504,20.020,96.191,0
1486824688.583,-10.742,26.855,44.922,-22.949,-37.109,0
1486824688.587,97.168,24.902,49.316,58.594,-107.422,0
1486824688.591,117.188,24.902,49.805,142.578,26.367,0
1486824688.595,41.992,26.855,44.922,114.746,88.379,0
1486824688.599,-44.922,27.832,41.016,27.832,59.082,0
1486824688.603,-17.090,30.762,42.969,-22.949,-20.996,0
1486824688.607,88.379,29.785,42.969,43.945,-83.984,0
1486824688.611,119.141,24.414,39.551,133.301,45.898,0
1486824688.615,55.664,27.344,42.480,125.488,114.746,0
1486824688.619,-33.203,33.203,45.410,43.945,86.426,0
1486824688.622,-23.438,28.809,43.457,-18.066,-7.324,0
1486824688.626,79.102,29.297,36.621,28.809,-78.125,0
1486824688.630,117.188,36.133,39.062,128.418,36.133,0
1486824688.634,63.965,29.785,43.457,128.906,131.348,0
1486824688.638,-26.855,26.855,41.992,42.969,162.598,0
1486824688.642,-32.715,26.855,46.875,-21.484,58.105,0
1486824688.646,66.895,23.926,41.992,20.508,-64.453,0
1486824688.650,117.676,25.879,38.574,115.234,20.020,0
1486824688.654,72.266,27.832,41.992,126.465,90.820,0
1486824688.658,-21.973,29.297,49.805,60.547,116.699,0
1486824688.661,-45.898,30.762,42.480,-19.531,55.176,0
1486824688.665,47.852,32.227,20.996,2.441,-56.641,0
1486824688.669,115.723,31.250,30.273,109.863,10.254,0
1486824688.673,86.426,30.762,42.969,142.090,136.230,0
1486824688.677,-11.230,34.180,46.387,82.031,178.711,0
1486824688.681,-55.664,28.809,44.922,-4.395,75.195,0
1486824688.685,38.086,24.414,38.574,1.465,-30.273,0
1486824688.689,114.746,26.855,41.992,102.051,9.766,0
1486824688.693,95.215,31.250,41.504,134.277,92.285,0
1486824688.697,8.301,33.691,41.992,76.172,117.188,0
1486824688.701,-50.781,27.832,42.480,-10.742,85.938,0
1486824688.704,24.902,24.902,33.203,-24.902,-42.480,0
1486824688.708,112.305,28.809,27.344,69.336,-50.293,0
1486824688.712,99.609,29.785,30.273,125.488,90.332,0
1486824688.716,13.184,30.762,40.039,91.309,142.578,0
1486824688.720,-55.176,34.180,39.062,-8.301,74.219,0
1486824688.724,1.465,24.414,36.133,-35.156,-62.012,0
1486824688.728,100.098,21.973,43.945,71.289,-48.340,0
1486824688.732,110.840,29.297,41.504,134.277,86.914,0
1486824688.736,25.391,28.809,34.180,89.844,123.535,0
1486824688.740,-60.059,27.832,43.457,3.418,105.957,0
1486824688.744,-7.812,24.902,39.062,-24.902,-24.414,0
1486824688.747,102.051,25.391,33.203,58.594,-53.223,0
1486824688.751,115.234,25.391,37.109,137.695,77.637,0
1486824688.755,44.922,30.273,40.039,119.629,139.160,0
1486824688.759,-37.598,32.227,41.504,29.785,123.535,0
1486824688.763,2.441,31.738,54.688,-8.301,17.578,0
1486824688.767,106.445,31.250,53.223,62.988,-72.754,0
1486824688.771,122.559,25.879,40.039,130.859,15.137,0
1486824688.775,53.711,24.902,49.316,123.047,132.324,0
1486824688.779,-45.410,27.344,39.551,34.668,136.230,0
1486824688.783,-30.762,27.832,32.227,-39.062,12.695,0
1486824688.786,76.660,25.391,36.133,25.391,-56.641,0
1486824688.790,114.746,26.855,33.203,124.512,47.852,0
1486824688.794,66.895,30.762,41.504,123.535,119.141,0
1486824688.798,-25.391,31.250,42.480,40.527,131.836,0
1486824688.802,-49.316,24.414,36.133,-36.133,21.973,0
1486824688.806,57.617,25.391,40.039,21.973,-68.359,0
1486824688.810,122.559,28.320,46.387,128.906,50.293,0
1486824688.814,70.312,26.367,43.945,128.418,159.668,0
1486824688.818,-24.902,28.320,43.945,61.035,157.715,0
1486824688.822,-44.434,27.832,38.086,-15.137,28.320,0
1486824688.826,58.594,24.902,38.574,10.742,-108.398,1
1486824688.829,129.883,28.320,53.711,122.070,-28.320,0
1486824688.833,95.703,33.203,45.898,149.414,106.445,0
1486824688.837,-2.930,32.715,35.156,81.055,143.555,0
1486824688.841,-45.898,32.227,41.992,-4.395,52.734,0
1486824688.845,49.805,30.273,41.504,9.277,-84.473,0
1486824688.849,126.465,28.809,40.039,104.004,-42.480,0
1486824688.853,94.727,28.809,49.805,140.137,97.168,0
1486824688.857,-3.906,31.738,41.504,81.543,155.762,0
1486824688.861,-51.270,36.621,37.109,-11.230,70.801,0
1486824688.865,33.203,35.645,40.527,-15.625,-70.312,0
1486824688.868,104.492,30.273,32.227,75.684,-58.105,0
1486824688.872,88.867,33.203,30.762,125.000,66.406,0
1486824688.876,9.766,35.645,45.898,76.660,111.816,0
1486824688.880,-56.641,30.273,52.734,-10.742,59.570,0
1486824688.884,12.695,29.785,33.691,-30.762,-56.152,0
1486824688.888,109.375,26.855,26.855,57.617,-52.246,0
1486824688.892,102.539,25.879,40.039,130.371,83.008,0
1486824688.896,28.809,30.273,51.758,92.773,132.812,0
1486824688.900,-45.410,31.250,41.504,11.719,80.566,0
1486824688.904,-5.371,28.809,26.855,-25.879,-47.852,0
1486824688.908,96.191,29.297,29.785,54.199,-58.594,0
1486824688.911,107.910,30.273,35.645,135.254,115.234,0
1486824688.915,29.785,28.809,38.086,100.586,189.453,0
1486824688.919,-50.293,27.344,42.969,21.973,178.223,0
1486824688.923,-19.043,23.926,42.480,-18.555,17.578,0
1486824688.927,82.031,22.461,32.227,52.246,-52.246,0
1486824688.931,106.445,21.484,37.598,132.324,73.730,0
1486824688.935,42.480,26.367,51.270,112.305,108.887,0
1486824688.939,-52.734,29.297,42.480,38.574,109.375,0
1486824688.943,-43.457,23.438,29.785,-27.832,26.367,0
1486824688.947,70.801,21.484,32.715,26.855,-49.316,0
1486824688.951,108.887,21.973,36.621,126.465,62.012,0
1486824688.954,52.734,26.855,38.086,109.375,166.016,0
1486824688.958,-40.527,25.879,42.480,32.227,131.348,0
1486824688.962,-38.086,20.508,36.133,-27.344,9.766,0
1486824688.966,65.430,22.461,32.227,17.090,-49.316,0
1486824688.970,109.863,26.855,46.387,122.070,60.547,0
1486824688.974,67.383,27.832,52.734,123.047,139.648,0
1486824688.978,-27.344,26.367,41.504,52.734,147.949,0
1486824688.982,-41.992,25.391,35.156,-17.578,49.805,0
1486824688.986,58.594,22.461,32.227,5.859,-102.051,0
1486824688.990,120.605,21.973,36.133,110.840,-13.184,0
1486824688.993,87.891,27.344,41.992,127.441,119.629,0
1486824688.997,-5.859,26.855,48.340,75.195,117.676,0
1486824689.001,-42.480,21.973,47.363,1.465,23.438,0
1486824689.005,48.340,20.996,38.574,5.371,-95.703,0
1486824689.009,123.047,24.902,35.645,109.863,-32.227,0
1486824689.013,97.168,29.785,42.480,133.789,69.824,0
1486824689.017,-2.930,29.785,46.387,78.125,99.609,0
1486824689.021,-56.641,26.367,37.109,1.465,42.480,0
1486824689.025,34.180,25.391,32.227,-9.277,-94.238,0
1486824689.029,118.164,26.855,38.574,97.168,-44.434,0
1486824689.033,103.516,33.203,44.434,144.531,95.215,0
1486824689.036,14.648,34.668,38.574,94.727,136.719,0
1486824689.040,-56.152,30.762,38.574,9.766,69.336,0
1486824689.044,20.020,31.250,39.062,-16.602,-73.242,0
1486824689.048,111.816,24.414,30.273,75.195,-26.855,0
1486824689.052,104.004,25.391,35.645,134.766,113.281,0
1486824689.056,26.855,34.668,50.293,104.492,149.414,0
1486824689.060,-53.711,29.785,45.410,24.414,116.211,0
1486824689.064,12.207,22.461,41.504,-17.578,-21.484,0
1486824689.068,109.863,22.949,37.598,72.266,-56.641,0
1486824689.072,111.328,26.367,33.203,140.137,67.871,0
1486824689.076,48.340,33.203,44.922,108.887,139.648,0
1486824689.079,-35.645,35.645,51.758,35.156,119.141,0
1486824689.083,-5.371,26.367,45.410,-24.414,-17.578,0
1486824689.087,94.238,20.020,37.109,50.293,-59.570,0
1486824689.091,121.582,24.902,43.457,142.090,70.801,0
1486824689.095,50.293,26.367,53.223,115.723,168.457,0
1486824689.099,-44.434,22.949,50.781,37.598,132.324,0
1486824689.103,-19.043,26.367,34.180,-15.137,10.254,0
1486824689.107,88.867,25.391,27.344,44.434,-19.531,0
1486824689.111,120.605,24.902,36.133,135.742,101.562,0
1486824689.115,50.293,28.320,38.086,119.629,139.648,0
1486824689.118,-41.992,30.762,45.410,45.410,128.906,0
1486824689.122,-28.320,30.762,42.480,-7.324,44.434,0
1486824689.126,74.707,29.785,34.668,34.668,-79.590,0
1486824689.130,117.676,23.926,39.062,127.441,19.043,0
1486824689.134,66.895,21.973,39.551,122.559,128.906,0
1486824689.138,-25.879,27.344,40.039,49.805,139.648,0
1486824689.142,-42.969,26.855,31.250,-15.625,36.621,0
1486824689.146,55.176,23.438,25.391,11.230,-73.242,0
1486824689.150,112.305,24.902,32.715,113.281,43.457,0
1486824689.154,70.801,27.344,45.898,132.812,118.164,0
1486824689.158,-14.648,29.297,51.270,69.824,135.742,0
1486824689.161,-48.340,26.367,39.551,-6.836,57.617,0
1486824689.165,41.016,24.414,28.809,2.930,-97.656,0
1486824689.169,115.234,31.250,31.738,100.098,-13.184,0
1486824689.173,93.750,32.227,48.828,141.113,98.145,0
1486824689.177,0.000,28.809,50.293,93.262,119.141,0
1486824689.181,-52.246,29.297,36.621,-4.395,38.086,0
1486824689.185,37.109,27.344,45.898,-9.277,-93.750,0
1486824689.189,121.582,22.949,41.016,93.750,-41.016,0
1486824689.193,99.121,24.414,30.273,135.742,77.148,0
1486824689.197,13.184,26.367,40.527,93.262,105.469,0
1486824689.200,-41.016,26.855,40.527,15.625,83.008,0
1486824689.204,35.645,27.344,33.691,-9.766,-20.020,0
1486824689.208,126.953,25.391,37.109,90.820,-15.137,0
1486824689.212,117.188,25.879,42.969,147.949,109.863,0
1486824689.216,31.250,29.785,46.875,95.215,139.160,0
1486824689.220,-50.293,27.344,35.156,8.301,85.938,0
1486824689.224,4.883,20.996,25.879,-27.344,-47.852,0
1486824689.228,100.586,24.902,30.273,60.547,-55.664,0
1486824689.232,101.074,30.762,39.062,127.441,67.383,0
1486824689.236,22.949,33.203,46.387,97.168,149.902,0
1486824689.240,-58.594,31.250,40.039,10.742,108.398,0
1486824689.243,-22.949,26.855,32.227,-33.691,-27.832,0
1486824689.247,85.938,28.809,31.738,49.805,-37.109,0
1486824689.251,114.258,32.227,38.086,134.277,89.844,0
1486824689.255,37.598,27.832,47.852,109.375,171.875,0
1486824689.259,-46.875,25.879,49.805,17.578,120.605,0
1486824689.263,-14.160,28.809,39.062,-31.738,-33.691,0
1486824689.267,85.449,27.344,36.621,37.598,-91.309,0
1486824689.271,122.070,27.344,41.992,128.906,10.254,0
1486824689.275,59.570,28.320,40.527,120.117,118.652,0
1486824689.279,-41.504,27.832,37.598,41.016,129.395,0
1486824689.283,-36.621,25.879,37.109,-24.902,-10.742,0
1486824689.286,73.730,23.438,34.180,26.367,-71.777,0
1486824689.290,123.535,22.461,41.016,133.789,41.992,0
1486824689.294,66.895,23.926,53.223,131.348,115.234,0
1486824689.298,-22.949,27.832,53.711,53.223,92.773,0
1486824689.302,-32.715,29.785,42.480,-15.625,-40.527,0
1486824689.306,62.988,26.855,35.156,20.996,-116.699,0
1486824689.310,124.512,26.855,43.457,118.652,-13.184,0
1486824689.314,79.590,25.879,52.246,122.559,94.238,0
1486824689.318,-20.508,27.344,41.992,56.152,136.230,0
1486824689.322,-46.387,27.344,36.621,-15.137,37.109,0
1486824689.325,40.527,25.391,42.480,-7.812,-87.402,0
1486824689.329,109.375,27.832,40.527,97.656,-25.391,0
1486824689.333,80.566,24.902,34.180,134.766,132.324,0
1486824689.337,-19.531,28.320,41.504,65.430,182.617,0
1486824689.341,-58.105,28.809,50.293,-12.207,102.539,0
1486824689.345,30.273,18.555,37.598,-2.441,-24.902,0
1486824689.349,110.352,21.973,30.273,96.680,32.227,0
1486824689.353,90.820,26.855,41.016,133.789,149.414,0
1486824689.357,0.000,24.414,40.527,78.613,166.016,0
1486824689.361,-53.223,26.855,35.645,-2.930,90.820,0
1486824689.365,28.320,29.785,41.992,-17.090,-62.988,0
1486824689.368,124.023,28.809,44.434,82.520,-35.156,0
1486824689.372,114.746,30.762,36.621,146.973,68.359,0
1486824689.376,24.414,32.227,38.574,111.328,131.836,0
1486824689.380,-41.016,31.738,47.852,14.160,58.105,0
1486824689.384,18.066,28.320,44.434,-27.344,-96.680,0
1486824689.388,109.863,29.785,32.227,67.383,-53.223,0
1486824689.392,119.629,34.180,34.180,138.184,57.129,0
1486824689.396,30.762,34.668,41.992,97.168,110.352,0
1486824689.400,-53.711,34.668,41.992,9.766,106.934,0
1486824689.404,-0.977,34.668,40.039,-30.762,-18.066,0
1486824689.408,104.004,31.250,39.062,50.781,-37.598,0
1486824689.411,116.211,31.738,34.668,126.953,83.008,0
1486824689.415,41.016,32.227,33.691,105.469,169.434,0
1486824689.419,-38.574,28.809,38.086,26.367,133.789,0
1486824689.423,-1.465,27.832,45.898,-22.461,-16.113,0
1486824689.427,103.027,27.832,46.387,45.410,-75.684,0
1486824689.431,127.930,29.785,41.992,135.254,21.973,0
1486824689.435,62.988,32.715,41.504,120.605,86.426,0
1486824689.439,-34.180,34.668,43.457,35.645,44.434,0
1486824689.443,-28.809,29.297,39.551,-28.320,-38.086,0
1486824689.447,78.125,23.926,33.203,16.602,-90.332,0
1486824689.450,114.258,25.391,41.016,116.211,-15.137,0
1486824689.454,54.199,27.832,43.945,123.535,94.238,0
1486824689.458,-41.992,32.227,39.551,46.387,134.277,0
1486824689.462,-46.387,31.250,36.133,-25.391,29.785,0
1486824689.466,59.082,27.832,42.480,18.555,-65.430,0
1486824689.470,111.816,28.320,49.316,116.211,34.668,0
1486824689.474,63.965,31.250,42.480,126.465,155.762,0
1486824689.478,-31.250,35.156,42.969,59.570,148.926,0
1486824689.482,-47.363,30.273,41.504,-18.066,27.344,0
1486824689.486,57.617,21.973,29.785,1.953,-77.637,1
1486824689.490,124.512,24.902,26.367,108.398,10.742,0
1486824689.493,89.355,31.738,33.203,145.996,117.188,0
1486824689.497,-10.742,31.738,41.504,71.289,108.398,0
1486824689.501,-41.992,28.320,38.574,-9.277,35.156,0
1486824689.505,55.664,25.391,33.203,-1.465,-58.594,0
1486824689.509,125.977,23.926,41.016,98.633,-8.789,0
1486824689.513,102.051,28.809,47.363,145.508,95.215,0
1486824689.517,6.348,28.320,42.480,81.543,148.438,0
1486824689.521,-45.898,27.344,34.668,-4.395,61.035,0
1486824689.525,37.598,23.438,33.691,-10.742,-60.547,0
1486824689.529,117.676,22.461,33.203,90.332,-17.578,0
1486824689.532,98.633,25.391,33.691,142.578,83.984,0
1486824689.536,7.812,24.902,41.504,90.332,140.137,0
1486824689.540,-58.105,24.902,46.387,5.859,86.914,0
1486824689.544,11.719,26.367,43.457,-20.508,-74.707,0
1486824689.548,101.562,26.855,47.363,72.266,-57.617,0
1486824689.552,97.168,23.438,49.805,145.020,84.473,0
1486824689.556,20.020,25.879,41.016,104.004,133.789,0
1486824689.560,-52.734,29.297,44.434,14.160,99.121,0
1486824689.564,1.953,28.320,45.410,-25.879,-32.715,0
1486824689.568,94.727,22.461,38.086,61.035,-70.801,0
1486824689.572,99.609,19.531,35.156,136.230,65.918,0
1486824689.575,32.715,22.949,38.574,100.586,125.488,0
1486824689.579,-50.781,26.855,45.410,23.926,87.402,0
1486824689.583,-12.695,28.320,44.922,-35.156,-34.180,0
1486824689.587,95.215,25.391,33.203,33.203,-83.496,0
1486824689.591,124.023,27.832,34.668,134.766,35.156,0
1486824689.595,56.152,28.809,42.969,108.887,139.648,0
1486824689.599,-41.504,27.832,34.668,29.297,127.441,0
1486824689.603,-22.461,26.367,39.062,-30.762,-25.879,0
1486824689.607,76.660,24.902,41.504,25.391,-80.566,0
1486824689.611,113.281,25.391,29.785,125.977,28.809,0
1486824689.615,52.246,25.391,35.156,113.770,121.582,0
1486824689.618,-44.434,27.344,45.410,37.109,115.723,0
1486824689.622,-38.086,27.344,36.133,-34.180,-2.441,0
1486824689.626,66.406,25.391,34.180,11.230,-57.617,0
1486824689.630,110.352,27.832,37.598,123.047,86.914,0
1486824689.634,63.477,30.273,44.922,129.395,155.762,0
1486824689.638,-31.738,28.320,43.457,59.082,119.141,0
1486824689.642,-55.664,27.344,35.645,-28.320,41.992,0
1486824689.646,51.758,28.809,43.945,1.953,-55.176,0
1486824689.650,111.816,28.809,47.363,114.746,-20.020,0
1486824689.654,67.871,26.367,46.387,123.535,98.633,0
1486824689.657,-26.855,22.949,47.852,54.688,162.598,0
1486824689.661,-59.082,22.461,38.086,-32.715,20.020,0
1486824689.665,42.480,24.414,30.273,-16.113,-111.816,0
1486824689.669,116.699,22.461,35.156,98.633,-1.465,0
1486824689.673,90.820,22.461,34.180,126.953,111.816,0
1486824689.677,1.953,26.367,36.133,72.754,150.879,0
1486824689.681,-50.781,28.320,45.410,-6.348,78.125,0
1486824689.685,33.691,29.297,42.969,-13.672,-86.426,0
1486824689.689,119.141,28.320,29.785,84.473,-31.250,0
1486824689.693,98.145,22.949,35.645,139.160,89.844,0
1486824689.697,8.789,22.949,43.945,93.262,157.227,0
1486824689.700,-50.781,26.367,41.016,-3.906,104.004,0
1486824689.704,19.531,26.855,40.039,-24.902,-46.875,0
1486824689.708,110.840,28.320,44.922,83.496,-29.297,0
1486824689.712,109.375,29.297,43.457,137.695,89.844,0
1486824689.716,28.320,29.785,38.086,101.562,160.645,0
1486824689.720,-47.363,28.320,39.551,12.207,121.582,0
1486824689.724,10.254,25.879,42.480,-24.902,-27.344,0
1486824689.728,108.887,27.832,33.691,70.312,-45.410,0
1486824689.732,114.258,27.344,29.785,136.230,66.895,0
1486824689.736,38.574,30.273,38.086,108.887,131.836,0
1486824689.740,-47.852,34.180,40.039,16.602,102.051,0
1486824689.743,-4.883,33.203,31.738,-25.879,-39.062,0
1486824689.747,105.469,28.320,40.527,65.918,-86.426,0
1486824689.751,118.652,28.809,42.480,142.578,51.758,0
1486824689.755,51.758,36.621,38.086,119.629,109.863,0
1486824689.759,-32.227,30.762,44.434,30.273,79.102,0
1486824689.763,-15.625,25.391,33.691,-29.297,-23.926,0
1486824689.767,84.961,24.902,30.762,36.133,-92.285,0
1486824689.771,113.770,24.414,35.645,120.605,59.082,0
1486824689.775,60.059,23.926,40.039,116.211,136.230,0
1486824689.779,-35.645,26.367,38.574,35.645,120.117,0
1486824689.782,-34.180,28.809,39.062,-31.250,27.344,0
1486824689.786,78.613,25.391,45.410,38.574,-99.609,0
1486824689.790,123.535,28.809,51.758,142.578,-11.719,0
1486824689.794,70.801,31.250,42.480,138.672,119.629,0
1486824689.798,-28.320,32.715,38.574,55.664,159.180,0
1486824689.802,-49.316,34.180,45.898,-20.020,60.059,0
1486824689.806,55.176,27.832,41.504,19.531,-99.121,0
1486824689.810,118.652,23.926,39.062,112.305,-8.301,0
1486824689.814,77.637,24.902,36.621,122.070,148.926,0
1486824689.818,-19.043,29.297,36.133,55.664,147.461,0
1486824689.822,-52.246,27.832,45.410,-17.578,33.691,0
1486824689.825,46.875,23.438,45.410,5.859,-70.801,0
1486824689.829,119.629,24.902,30.273,105.469,-11.230,0
1486824689.833,88.379,29.297,38.086,140.137,113.281,0
1486824689.837,-6.348,31.250,49.805,84.473,148.438,0
1486824689.841,-54.688,29.297,35.645,-6.348,24.414,0
1486824689.845,34.180,26.367,38.574,-8.789,-116.211,0
1486824689.849,117.188,21.973,36.621,91.309,-63.965,0
1486824689.853,94.238,23.438,31.738,141.113,81.543,0
1486824689.857,2.930,25.391,41.992,96.680,149.414,0
1486824689.861,-55.176,25.391,36.621,2.441,62.012,0
1486824689.864,25.391,21.973,37.598,-11.719,-79.590,0
1486824689.868,123.047,21.973,47.852,93.750,-24.902,0
1486824689.872,105.957,23.438,43.457,146.484,99.121,0
1486824689.876,28.320,23.926,40.039,104.980,145.996,0
1486824689.880,-32.715,30.762,36.621,26.855,88.379,0
1486824689.884,13.672,31.738,31.250,-8.789,-53.711,0
1486824689.888,104.492,27.832,34.668,69.336,-54.688,0
1486824689.892,107.910,24.902,36.133,133.789,58.105,0
1486824689.896,28.809,26.855,41.992,105.469,134.277,0
1486824689.900,-55.176,28.809,38.574,13.672,78.613,0
1486824689.904,-8.789,26.367,31.738,-35.156,-61.035,0
1486824689.907,92.285,28.320,39.551,57.617,-85.449,0
1486824689.911,104.492,32.227,36.621,137.695,22.949,0
1486824689.915,32.227,33.691,37.109,112.793,91.797,0
1486824689.919,-45.410,31.250,44.434,38.086,63.965,0
1486824689.923,-18.066,28.809,40.039,-18.066,-40.039,0
1486824689.927,86.914,27.832,40.039,38.086,-96.191,0
1486824689.931,121.582,29.297,37.598,133.789,15.137,0
1486824689.935,59.570,34.180,43.945,126.465,130.371,0
1486824689.939,-34.668,35.645,45.898,41.992,120.605,0
1486824689.943,-24.902,29.785,39.062,-19.043,-23.438,0
1486824689.947,81.543,27.344,40.039,29.297,-94.238,0
1486824689.950,117.676,27.344,35.156,116.699,42.969,0
1486824689.954,65.918,30.273,37.109,120.605,112.793,0
1486824689.958,-24.414,32.227,45.898,43.457,79.102,0
1486824689.962,-35.156,27.832,43.945,-21.973,2.930,0
1486824689.966,61.035,28.320,36.621,27.344,-60.547,0
1486824689.970,121.582,31.738,40.527,128.418,30.762,0
1486824689.974,80.078,33.691,37.109,132.324,121.094,0
1486824689.978,-14.160,34.668,43.945,59.082,147.461,0
1486824689.982,-41.016,33.203,48.828,-15.625,37.598,0
1486824689.986,59.082,29.785,37.598,8.301,-60.547,0
1486824689.989,132.812,35.645,46.387,116.699,33.691,0
1486824689.993,84.473,32.715,53.711,134.277,127.441,0
1486824689.997,-25.879,23.926,45.410,58.105,173.340,0
1486824690.001,-63.965,25.391,41.504,-21.973,102.051,0
1486824690.005,36.133,24.414,37.598,-14.160,-39.062,0
1486824690.009,117.676,23.926,31.250,89.844,5.859,0
1486824690.013,91.309,25.879,39.062,135.254,132.812,0
1486824690.017,3.906,27.344,46.875,85.938,152.832,0
1486824690.021,-44.922,29.785,42.480,-0.488,79.590,0
1486824690.025,32.227,28.809,41.016,-17.090,-62.012,0
1486824690.029,115.234,29.785,43.457,80.078,-41.504,0
1486824690.032,102.539,29.785,46.387,134.766,112.305,0
1486824690.036,15.625,29.297,44.434,89.844,160.156,0
1486824690.040,-53.711,25.879,37.109,4.883,85.449,0
1486824690.044,10.254,21.973,35.156,-21.973,-62.500,0
1486824690.048,112.305,25.879,36.621,70.801,-30.762,0
1486824690.052,114.746,27.832,39.062,144.043,119.629,0
1486824690.056,36.133,30.273,42.969,98.633,144.531,0
1486824690.060,-42.969,30.762,43.945,12.207,112.793,0
1486824690.064,2.930,27.832,46.387,-16.602,-20.996,0
1486824690.068,104.492,27.832,44.434,52.246,-45.410,0
1486824690.072,108.887,28.809,40.527,124.023,64.453,0
1486824690.075,35.156,32.715,42.480,101.074,128.906,0
1486824690.079,-47.852,35.645,35.645,17.090,129.883,0
1486824690.083,-17.090,29.785,35.645,-39.551,-38.574,0
1486824690.087,84.961,22.949,38.086,33.203,-64.453,0
1486824690.091,112.793,23.926,38.574,122.559,76.172,1
1486824690.095,48.340,30.762,41.504,96.191,87.891,0
1486824690.099,-45.410,31.738,46.875,25.391,94.727,0
1486824690.103,-27.344,31.738,42.480,-28.809,-2.441,0
1486824690.107,75.684,28.809,30.273,17.578,-97.168,0
1486824690.111,112.793,27.344,25.879,114.746,-2.441,0
1486824690.114,62.988,32.227,34.668,115.723,74.707,0
1486824690.118,-31.250,34.668,41.504,46.387,98.633,0
1486824690.122,-32.715,31.250,34.180,-18.555,1.465,0
1486824690.126,68.848,29.297,34.180,24.902,-76.172,0
1486824690.130,115.234,29.785,41.992,123.047,16.113,0
1486824690.134,75.195,26.855,44.922,119.629,114.258,0
1486824690.138,-20.020,29.785,48.340,56.152,132.324,0
1486824690.142,-42.480,26.855,37.109,-16.602,46.387,0
1486824690.146,52.734,20.996,27.832,3.906,-49.316,0
1486824690.150,116.211,23.926,32.715,104.980,14.160,0
1486824690.154,69.824,26.855,39.062,115.234,104.492,0
1486824690.157,-29.297,28.809,41.016,56.152,129.395,0
1486824690.161,-63.965,25.879,38.574,-9.766,59.082,0
1486824690.165,30.762,22.949,39.062,-3.418,-65.430,0
1486824690.169,109.375,24.414,46.387,89.844,-18.066,0
1486824690.173,84.473,27.344,44.922,117.188,123.535,0
1486824690.177,-11.230,29.297,32.227,64.453,149.414,0
1486824690.181,-56.152,27.344,33.203,-10.254,76.660,0
1486824690.185,37.109,25.879,35.156,-18.066,-64.941,0
1486824690.189,119.629,27.832,29.297,84.473,-26.367,0
1486824690.193,104.980,28.809,34.180,131.836,121.094,0
1486824690.196,9.277,32.227,35.645,77.148,158.691,0
1486824690.200,-54.199,32.715,30.273,-2.441,125.977,0
1486824690.204,24.414,30.762,32.715,-17.578,-27.832,0
1486824690.208,119.629,31.250,46.387,85.938,-12.207,0
1486824690.212,115.723,29.297,49.805,142.578,145.508,0
1486824690.216,33.691,31.250,38.574,96.191,168.945,0
1486824690.220,-42.969,34.180,35.645,14.648,101.562,0
1486824690.224,0.488,27.344,39.062,-27.344,-21.973,0
1486824690.228,90.332,24.902,39.062,62.012,15.625,0
1486824690.232,98.633,28.320,34.668,127.930,132.324,0
1486824690.236,25.879,34.180,39.551,93.750,116.211,0
1486824690.239,-53.223,34.180,43.945,20.996,73.730,0
1486824690.243,-14.160,29.785,45.898,-24.902,-26.855,0
1486824690.247,87.891,27.344,41.504,52.734,-78.613,0
1486824690.251,113.281,30.273,38.574,126.465,20.020,0
1486824690.255,49.316,32.227,41.504,105.957,106.445,0
1486824690.259,-41.016,28.809,43.945,36.621,117.188,0
1486824690.263,-23.438,28.320,46.387,-22.949,0.488,0
1486824690.267,81.543,26.367,36.621,34.668,-72.266,0
1486824690.271,118.652,24.414,36.133,125.488,37.598,0
1486824690.275,63.965,26.855,45.410,131.348,118.164,0
1486824690.279,-29.297,28.320,49.316,58.594,119.629,0
1486824690.282,-26.367,27.344,45.898,-24.902,-22.949,0
1486824690.286,85.449,28.320,44.434,25.879,-117.676,0
1486824690.290,129.395,26.855,44.434,121.094,-22.949,0
1486824690.294,68.848,30.273,32.715,121.094,55.664,0
1486824690.298,-24.902,35.645,35.156,54.199,77.637,0
1486824690.302,-32.227,29.297,44.434,-16.602,-7.324,0
1486824690.306,66.406,23.926,42.480,21.484,-95.215,0
1486824690.310,119.141,20.020,37.598,110.840,-5.859,0
1486824690.314,81.543,19.531,43.457,127.441,114.746,0
1486824690.318,-12.207,22.949,45.898,78.125,118.164,0
1486824690.321,-43.945,20.996,37.598,-0.977,13.184,0
1486824690.325,57.617,23.438,50.293,14.160,-94.238,0
1486824690.329,125.488,24.902,52.246,104.492,-32.227,0
1486824690.333,96.680,23.438,41.992,137.695,80.078,0
1486824690.337,0.000,24.414,48.340,91.309,129.395,0
1486824690.341,-49.316,25.879,46.387,3.418,68.359,0
1486824690.345,37.598,21.484,37.109,-2.441,-91.309,0
1486824690.349,111.816,20.996,41.992,101.074,-31.250,0
1486824690.353,91.309,24.902,47.363,150.879,108.398,0
1486824690.357,6.836,28.320,42.969,105.469,166.016,0
1486824690.361,-49.805,27.344,44.434,16.113,137.695,0
1486824690.364,20.996,24.902,39.062,-18.066,-41.016,0
1486824690.368,108.398,26.367,38.574,63.965,-30.762,0
1486824690.372,105.957,28.320,42.480,125.488,113.770,0
1486824690.376,19.043,27.344,43.457,88.867,131.348,0
1486824690.380,-58.105,26.367,43.945,4.395,116.211,0
1486824690.384,2.441,29.785,38.086,-21.484,-22.461,0
1486824690.388,103.516,27.344,37.598,62.500,-66.406,0
1486824690.392,110.840,22.461,38.574,131.348,56.641,0
1486824690.396,33.203,24.902,36.133,109.863,141.113,0
1486824690.400,-46.875,27.832,32.227,23.926,82.031,0
1486824690.404,-5.371,22.949,30.762,-13.184,-66.406,0
1486824690.407,97.656,21.484,30.762,62.012,-63.477,0
1486824690.411,120.605,28.320,46.875,137.695,59.570,0
1486824690.415,60.059,36.133,38.086,132.812,135.254,0
1486824690.419,-32.715,32.227,31.250,49.805,150.391,0
1486824690.423,-25.879,27.344,11.719,-22.461,27.344,0
1486824690.427,84.961,28.809,-24.414,32.715,-88.867,0
1486824690.431,121.582,27.344,33.203,126.465,31.738,0
1486824690.435,57.129,25.879,69.336,116.699,129.883,0
1486824690.439,-37.109,29.785,41.504,27.344,89.844,0
1486824690.443,-32.715,30.762,42.480,-22.949,-15.137,0
1486824690.446,71.289,29.785,57.129,22.949,-80.566,0
1486824690.450,122.559,34.180,41.992,107.422,19.043,0
1486824690.454,66.895,41.016,46.875,118.164,123.535,0
1486824690.458,-31.250,42.480,47.363,38.574,104.492,0
1486824690.462,-38.086,40.039,41.504,-23.926,-10.254,0
1486824690.466,62.988,37.598,37.109,8.301,-50.293,0
1486824690.470,124.023,38.086,38.574,94.727,32.715,0
1486824690.474,72.266,43.945,33.691,118.164,127.930,0
1486824690.478,-39.062,40.527,32.227,41.992,173.828,0
1486824690.482,-67.383,28.809,42.480,-39.551,88.867,0
1486824690.486,34.180,29.785,41.504,-7.812,-57.617,0
1486824690.489,103.516,35.645,40.527,89.844,-20.508,0
1486824690.493,58.594,35.156,43.945,111.328,123.535,0
1486824690.497,-40.039,33.691,49.316,54.199,162.598,0
1486824690.501,-74.707,34.180,48.828,-24.902,43.457,0
1486824690.505,16.602,34.668,35.645,-28.320,-60.547,0
1486824690.509,95.215,34.668,32.715,65.918,11.230,0
1486824690.513,72.754,38.574,43.945,115.723,118.652,0
1486824690.517,-18.555,41.016,48.340,61.523,149.902,0
1486824690.521,-76.172,39.062,29.785,-35.645,99.609,0
1486824690.525,6.348,39.062,1.465,-40.527,-55.176,0
1486824690.528,86.426,37.109,19.043,48.828,-40.039,0
1486824690.532,73.242,29.297,51.270,93.750,77.637,0
1486824690.536,-9.766,23.926,52.734,63.965,172.852,0
1486824690.540,-76.660,25.391,50.781,-14.160,135.742,0
1486824690.544,-0.488,27.344,48.340,-44.434,-64.453,0
1486824690.548,101.074,29.785,47.363,63.965,-46.875,0
1486824690.552,113.770,36.621,42.969,138.672,68.848,0
1486824690.556,30.273,34.668,47.363,92.773,125.977,0
1486824690.560,-59.570,29.297,41.992,6.348,121.582,0
1486824690.564,-6.348,30.762,33.691,-33.203,-32.227,0
1486824690.568,97.168,31.738,39.062,51.758,-84.961,0
1486824690.571,109.375,27.344,37.598,131.836,57.129,0
1486824690.575,41.016,30.762,40.527,104.492,108.887,0
1486824690.579,-36.621,33.203,48.828,22.949,116.211,0
1486824690.583,-10.742,29.785,41.016,-27.344,29.785,0
1486824690.587,92.285,29.297,42.480,39.551,-52.734,0
1486824690.591,131.836,25.879,46.387,134.766,50.781,0
1486824690.595,70.801,26.855,41.504,136.230,134.766,0
1486824690.599,-27.344,32.227,46.875,63.477,125.488,0
1486824690.603,-21.973,23.438,50.293,-5.859,-9.277,0
1486824690.607,83.496,12.207,48.828,52.734,-59.570,0
1486824690.611,125.000,18.066,43.945,150.391,67.383,0
1486824690.614,69.336,23.438,51.270,138.672,105.957,0
1486824690.618,-18.066,22.461,52.734,70.801,102.539,0
1486824690.622,-20.020,20.996,39.551,-6.348,12.207,0
1486824690.626,87.891,23.926,40.039,28.809,-65.430,0
1486824690.630,139.160,26.367,40.039,132.812,62.988,0
1486824690.634,88.867,28.320,33.691,134.766,135.742,0
1486824690.638,-2.441,29.297,43.457,77.637,146.973,0
1486824690.642,-29.785,26.367,40.527,3.418,51.758,0
1486824690.646,72.754,26.855,39.551,27.832,-86.914,0
1486824690.650,140.625,24.414,48.340,134.766,-19.531,0
1486824690.653,99.121,24.414,44.434,153.320,83.008,0
1486824690.657,8.301,33.203,42.969,85.938,117.188,0
1486824690.661,-33.203,33.691,38.086,-6.836,40.039,0
1486824690.665,50.781,28.320,35.645,1.953,-105.469,0
1486824690.669,125.000,30.273,45.410,106.934,-39.062,2
1486824690.673,89.355,30.273,42.480,132.812,102.539,0
1486824690.677,-15.137,33.203,36.133,83.984,118.164,0
1486824690.681,-62.500,31.250,32.227,0.977,46.387,0
1486824690.685,24.902,20.508,32.715,-16.113,-57.617,0
1486824690.689,106.934,20.996,33.691,89.844,-57.129,0
1486824690.693,98.633,24.414,34.180,141.602,45.410,0
1486824690.696,14.648,23.438,38.574,99.609,126.465,0
1486824690.700,-46.875,25.391,41.504,22.461,104.004,0
1486824690.704,30.762,23.438,45.898,-0.488,-52.246,0
1486824690.708,129.883,22.949,42.969,95.215,-76.172,0
1486824690.712,122.559,21.973,41.992,160.645,83.984,0
1486824690.716,39.062,20.508,42.480,117.188,139.648,0
1486824690.720,-35.156,23.926,41.992,33.691,52.246,0
1486824690.724,13.184,25.879,49.316,-0.488,-65.430,0
1486824690.728,118.164,28.320,51.270,81.055,-61.523,0
1486824690.732,131.836,30.762,47.852,152.344,57.129,0
1486824690.736,58.594,30.273,45.410,119.141,132.324,0
1486824690.739,-35.156,29.297,45.410,30.273,105.957,0
1486824690.743,1.953,30.762,43.945,-20.020,-32.227,0
1486824690.747,109.863,29.297,40.039,51.270,-79.102,0
1486824690.751,128.906,30.273,34.668,136.719,46.875,0
1486824690.755,68.848,32.227,39.062,125.977,125.000,0
1486824690.759,-27.344,29.297,47.363,46.387,127.441,0
1486824690.763,-20.996,27.344,42.480,-20.996,-6.836,0
1486824690.767,82.031,26.855,41.016,34.668,-90.332,0
1486824690.771,126.953,30.273,51.758,133.789,49.316,0
1486824690.775,72.754,33.691,50.781,127.441,144.043,0
1486824690.778,-30.762,36.133,36.133,41.504,101.074,0
1486824690.782,-30.762,36.621,37.598,-24.414,-22.949,0
1486824690.786,71.289,32.715,37.109,20.508,-107.910,0
1486824690.790,113.770,31.250,27.832,115.723,9.766,0
1486824690.794,70.801,34.180,41.016,122.559,107.910,0
1486824690.798,-35.156,35.645,50.781,53.711,123.047,0
1486824690.802,-52.246,31.250,39.551,-20.020,37.598,0
1486824690.806,64.453,30.762,41.016,16.113,-87.891,0
1486824690.810,123.535,31.250,41.992,120.117,6.836,0
1486824690.814,96.191,36.133,38.086,146.484,117.188,0
1486824690.818,0.977,40.039,41.016,90.820,120.605,0
1486824690.821,-40.527,40.039,40.039,-0.977,35.645,0
1486824690.825,63.965,41.504,41.016,13.672,-85.449,0
1486824690.829,130.371,36.621,43.457,117.676,0.488,0
1486824690.833,102.051,30.762,43.945,150.879,138.184,0
1486824690.837,4.395,23.926,42.969,96.191,137.207,0
1486824690.841,-53.223,21.484,47.852,5.371,33.691,0
1486824690.845,44.434,21.973,41.504,4.883,-56.152,0
1486824690.849,126.465,21.973,45.410,104.492,8.301,0
1486824690.853,101.074,27.832,51.270,143.555,81.543,0
1486824690.857,7.324,31.250,40.527,92.285,125.488,0
1486824690.860,-63.477,31.250,43.457,4.883,103.027,0
1486824690.864,16.602,30.273,46.875,-11.230,-48.828,0
1486824690.868,106.934,28.809,34.668,87.402,-34.668,0
1486824690.872,93.262,29.785,37.109,136.719,89.355,0
1486824690.876,20.996,33.203,49.805,93.262,139.648,0
1486824690.880,-46.387,34.180,47.852,13.672,87.402,0
1486824690.884,9.277,32.715,40.039,-21.484,-34.668,0
1486824690.888,103.516,29.785,34.180,58.105,-25.391,0
1486824690.892,111.328,32.715,41.992,133.789,60.547,0
1486824690.896,38.574,33.691,47.363,100.098,117.676,0
1486824690.900,-48.828,32.227,41.504,17.578,95.215,0
1486824690.903,-11.719,30.762,37.598,-27.344,-55.664,0
1486824690.907,91.309,28.320,35.645,55.176,-62.012,0
1486824690.911,112.305,29.785,40.039,139.160,61.523,0
1486824690.915,53.223,32.227,40.039,115.234,125.488,0
1486824690.919,-46.875,29.297,36.133,30.762,150.391,0
1486824690.923,-29.297,21.484,34.668,-31.738,10.742,0
1486824690.927,77.637,20.996,36.133,35.645,-48.340,0
1486824690.931,104.980,26.367,37.109,125.000,72.754,0
1486824690.935,49.805,26.855,45.898,125.000,153.320,0
1486824690.939,-37.109,26.367,51.758,49.316,145.508,0
1486824690.943,-34.668,26.367,44.922,-15.625,27.344,0
1486824690.946,70.801,22.461,41.992,38.574,-57.617,0
1486824690.950,113.770,21.484,34.668,125.488,51.758,0
1486824690.954,63.477,25.391,34.668,125.000,140.137,0
1486824690.958,-28.320,26.367,41.504,50.293,123.047,0
1486824690.962,-47.363,23.926,47.852,-26.367,0.000,0
1486824690.966,52.734,22.461,43.945,15.137,-77.637,0
1486824690.970,111.816,24.902,44.434,114.746,58.105,0
1486824690.974,73.730,31.250,52.734,125.977,131.836,0
1486824690.978,-29.785,31.250,44.434,54.199,151.367,0
1486824690.982,-66.895,26.367,38.574,-29.297,65.918,0
1486824690.985,35.645,29.297,46.387,-7.324,-71.289,0
1486824690.989,110.840,32.715,44.434,89.844,-7.812,0
1486824690.993,75.684,33.203,33.203,114.746,106.934,0
1486824690.997,-12.207,34.180,32.715,53.711,141.113,0
1486824691.001,-52.734,35.156,29.297,-22.949,56.152,0
1486824691.005,32.715,33.691,28.809,-12.695,-73.730,0
1486824691.009,123.047,32.715,38.086,83.496,-29.297,0
1486824691.013,104.980,37.598,38.574,131.348,109.375,0
1486824691.017,13.672,37.109,31.738,82.031,182.617,0
1486824691.021,-45.410,31.738,28.809,-2.930,93.262,0
1486824691.025,28.809,31.738,30.273,-9.277,-53.711,0
1486824691.028,124.023,30.762,29.297,83.008,-0.488,0
1486824691.032,117.676,35.156,36.621,143.066,106.934,0
1486824691.036,36.621,42.480,52.246,104.980,130.859,0
1486824691.040,-37.109,41.016,42.969,11.230,110.840,0
1486824691.044,19.043,37.109,34.180,-14.160,-17.090,0
1486824691.048,113.281,36.133,41.992,77.637,-29.785,0
1486824691.052,119.141,39.062,49.316,150.879,93.262,0
1486824691.056,42.480,38.574,48.828,110.352,159.180,0
1486824691.060,-39.062,36.133,44.434,21.973,140.137,0
1486824691.064,4.883,29.785,43.457,-11.719,8.789,0
1486824691.068,102.051,31.738,38.574,68.359,-36.621,0
1486824691.071,115.234,36.133,42.969,149.902,57.129,0
1486824691.075,47.363,35.645,47.363,117.676,126.953,0
1486824691.079,-45.410,35.645,38.574,34.668,111.816,0
1486824691.083,-21.484,31.738,41.016,-10.742,15.137,0
1486824691.087,89.355,31.738,46.875,49.316,-47.363,0
1486824691.091,119.629,35.156,44.434,131.836,17.578,0
1486824691.095,57.129,35.156,41.992,115.234,112.305,0
1486824691.099,-35.156,31.738,41.992,33.691,116.699,0
1486824691.103,-31.738,26.855,42.480,-24.902,0.488,0
1486824691.107,67.871,22.461,40.527,24.902,-71.777,0
1486824691.110,112.793,22.461,37.598,119.141,15.625,0
1486824691.114,61.035,27.832,42.480,121.094,161.621,0
1486824691.118,-37.598,28.320,42.969,46.387,166.504,0
1486824691.122,-41.992,25.391,36.621,-18.066,20.508,0
1486824691.126,63.965,26.855,33.691,17.578,-68.848,0
1486824691.130,114.746,27.344,31.250,112.793,22.461,0
1486824691.134,73.730,27.344,32.715,118.652,113.281,0
1486824691.138,-25.879,27.832,35.645,44.922,139.648,0
1486824691.142,-54.199,22.949,33.691,-25.391,68.848,0
1486824691.146,40.527,21.973,32.227,-7.324,-63.477,0
1486824691.150,105.957,23.438,37.109,95.703,-8.301,0
1486824691.153,79.102,22.949,40.039,125.488,130.371,0
1486824691.157,-15.625,25.879,41.016,64.941,162.598,0
1486824691.161,-55.176,29.297,41.992,-10.254,63.477,0
1486824691.165,42.480,30.762,36.133,-7.812,-62.012,0
1486824691.169,117.676,30.762,34.180,91.309,6.348,0
1486824691.173,91.797,33.691,38.574,132.324,144.043,0
1486824691.177,-0.488,35.156,33.691,74.707,133.789,0
1486824691.181,-54.688,31.250,38.574,-2.930,50.781,0
1486824691.185,32.227,27.344,40.039,-7.324,-77.148,0
1486824691.189,125.000,29.785,30.273,85.449,-71.777,0
1486824691.192,113.281,35.645,33.203,134.766,74.707,0
1486824691.196,26.367,39.062,40.527,95.703,123.047,0
1486824691.200,-40.527,31.250,42.480,6.836,55.176,0
1486824691.204,23.438,27.832,38.574,-28.320,-73.730,0
1486824691.208,109.863,28.320,41.992,70.312,-51.270,0
1486824691.212,111.328,32.227,47.363,143.555,64.941,0
1486824691.216,31.738,35.156,40.527,98.145,96.680,0
1486824691.220,-52.734,26.855,34.668,13.672,78.125,0
1486824691.224,-2.441,21.973,33.203,-24.902,-35.645,0
1486824691.228,102.051,21.973,34.180,62.500,-51.270,0
1486824691.232,116.699,24.414,42.480,143.555,106.445,0
1486824691.235,43.457,25.879,40.039,113.281,173.828,0
1486824691.239,-42.969,26.855,40.527,30.273,116.211,0
1486824691.243,-9.277,25.879,45.898,-26.855,-1.953,0
1486824691.247,93.262,25.879,48.340,47.852,-39.551,0
1486824691.251,119.629,27.344,46.875,135.254,67.871,0
1486824691.255,60.547,27.832,42.480,113.770,144.531,0
1486824691.259,-33.691,27.832,41.504,38.574,161.133,0
1486824691.263,-26.855,27.344,45.898,-17.578,44.922,0
1486824691.267,78.125,24.414,43.457,33.691,-30.273,0
1486824691.271,117.188,24.414,37.109,121.094,76.660,0
1486824691.275,63.965,30.273,39.062,118.652,119.629,0
1486824691.278,-32.715,33.691,45.898,48.340,136.719,0
1486824691.282,-37.109,29.785,51.270,-24.902,55.664,0
1486824691.286,72.266,26.855,43.457,13.184,-78.613,0
1486824691.290,118.652,28.809,31.738,118.164,10.254,0
1486824691.294,78.125,32.227,36.133,122.070,151.367,0
1486824691.298,-9.277,35.645,43.945,54.199,163.086,0
1486824691.302,-27.832,33.203,39.551,-18.066,26.855,0
1486824691.306,72.266,30.273,40.039,12.207,-98.145,0
1486824691.310,136.719,27.832,42.969,122.070,1.953,0
1486824691.314,102.539,31.738,37.109,143.066,144.043,0
1486824691.317,6.348,36.621,44.434,76.172,148.438,0
1486824691.321,-29.297,33.203,52.246,-10.254,27.832,0
1486824691.325,62.500,29.297,33.203,-1.953,-93.750,0
1486824691.329,133.301,30.273,22.461,99.609,-10.254,0
1486824691.333,106.934,30.273,32.715,138.672,99.609,1
1486824691.337,9.766,33.203,40.527,98.633,136.719,0
1486824691.341,-48.828,31.738,40.527,13.672,90.332,0
1486824691.345,32.227,25.879,42.480,-9.766,-52.734,0
1486824691.349,113.770,30.762,45.898,88.379,-3.418,0
1486824691.353,97.168,31.738,41.504,131.836,132.812,0
1486824691.357,4.395,30.273,39.062,83.008,174.805,0
1486824691.360,-62.012,33.691,52.246,-1.465,112.793,0
1486824691.364,7.812,27.344,47.363,-25.391,-64.941,0
1486824691.368,101.562,23.926,33.203,73.730,-19.043,0
1486824691.372,101.562,27.832,38.086,136.230,122.070,0
1486824691.376,15.625,29.297,39.062,98.633,150.879,0
1486824691.380,-64.453,26.855,34.668,11.230,117.676,0
1486824691.384,-10.254,24.902,32.715,-33.691,-13.184,0
1486824691.388,95.703,26.367,35.645,57.617,-57.129,0
1486824691.392,106.934,26.855,48.828,136.719,69.336,0
1486824691.396,29.785,26.855,48.828,106.445,145.508,0
1486824691.400,-53.223,28.809,40.527,31.250,89.355,0
1486824691.403,-9.766,30.762,39.551,-19.043,-14.648,0
1486824691.407,90.820,30.273,37.598,48.828,-28.809,0
1486824691.411,106.445,31.738,34.180,133.301,89.355,0
1486824691.415,45.898,32.227,36.133,110.352,142.578,0
1486824691.419,-47.363,32.227,41.504,24.902,140.137,0
1486824691.423,-29.297,33.203,35.156,-35.645,14.648,0
1486824691.427,80.566,30.762,36.621,33.203,-73.730,0
1486824691.431,112.793,30.762,40.527,119.141,49.805,0
1486824691.435,58.105,33.691,36.621,112.305,132.324,0
1486824691.439,-41.016,34.180,38.086,40.039,150.879,0
1486824691.442,-35.156,32.227,48.828,-31.738,10.742,0
1486824691.446,68.359,31.738,46.875,21.484,-101.562,0
1486824691.450,109.863,27.344,37.109,122.559,51.270,0
1486824691.454,63.965,23.926,38.086,124.023,144.531,0
1486824691.458,-29.785,28.320,44.922,56.641,104.980,0
1486824691.462,-45.410,29.297,52.246,-19.043,-10.254,0
1486824691.466,53.711,24.414,42.969,8.789,-111.816,0
1486824691.470,116.699,23.438,40.039,122.559,0.488,0
1486824691.474,79.590,24.414,44.434,146.484,127.930,0
1486824691.478,-17.090,24.414,41.992,75.684,137.695,0
1486824691.482,-49.805,24.902,38.086,-11.230,41.504,0
1486824691.485,48.828,24.902,43.945,-0.977,-109.863,0
1486824691.489,119.141,29.297,42.969,105.957,-44.922,0
1486824691.493,97.656,33.691,42.480,137.695,125.000,0
1486824691.497,9.277,35.645,51.270,80.078,175.781,0
1486824691.501,-46.387,33.203,47.852,-6.348,62.500,0
1486824691.505,41.504,27.832,37.598,-9.277,-80.566,0
1486824691.509,128.418,28.320,32.227,93.262,-49.805,0
1486824691.513,109.375,31.250,29.785,142.578,74.707,0
1486824691.517,19.531,34.668,39.062,95.703,160.156,0
1486824691.521,-41.504,38.086,45.410,9.766,91.797,0
1486824691.524,34.180,35.645,39.551,-11.230,-62.988,0
1486824691.528,125.488,34.180,39.551,78.613,-76.172,0
1486824691.532,123.047,39.062,39.551,141.113,50.781,0
1486824691.536,37.598,36.621,42.969,100.586,147.949,0
1486824691.540,-38.574,33.203,51.270,20.020,110.352,0
1486824691.544,23.438,30.762,40.527,-15.625,-22.461,0
1486824691.548,116.211,28.320,28.809,59.570,-30.273,0
1486824691.552,118.652,27.832,32.715,138.184,56.152,0
1486824691.556,40.527,28.320,40.039,116.699,124.512,0
1486824691.560,-41.504,33.203,45.898,35.156,110.840,0
1486824691.564,0.977,27.832,46.387,-12.207,-38.086,0
1486824691.567,105.469,22.461,42.969,54.199,-83.008,0
1486824691.571,125.488,32.715,45.898,137.207,37.109,0
1486824691.575,49.805,31.738,44.434,114.746,142.578,0
1486824691.579,-40.039,30.273,40.039,31.738,147.949,0
1486824691.583,-15.137,31.250,38.574,-25.391,-2.441,0
1486824691.587,94.238,27.344,40.039,38.086,-54.688,0
1486824691.591,129.395,30.273,41.992,133.789,89.844,0
1486824691.595,64.941,34.668,42.480,121.582,154.785,0
1486824691.599,-33.691,32.715,46.875,40.527,142.090,0
1486824691.603,-36.133,27.344,48.340,-10.254,2.930,0
1486824691.607,71.289,23.926,45.410,33.691,-81.543,0
1486824691.610,116.699,28.320,45.410,117.188,35.156,0
1486824691.614,68.359,33.691,49.316,125.977,132.812,0
1486824691.618,-27.344,31.250,44.434,49.805,158.203,0
1486824691.622,-48.340,24.902,42.480,-18.066,73.242,0
1486824691.626,53.223,26.855,37.598,10.742,-41.504,0
1486824691.630,108.398,31.250,34.180,105.957,27.344,0
1486824691.634,71.777,32.715,41.992,129.395,150.391,0
1486824691.638,-18.555,33.691,47.363,62.012,175.293,0
1486824691.642,-46.387,31.250,50.781,-18.066,71.777,0
1486824691.646,45.410,27.344,49.805,-1.465,-58.594,0
1486824691.649,112.305,29.785,38.086,103.027,40.039,0
1486824691.653,80.078,31.738,36.133,121.582,128.418,0
1486824691.657,-21.973,27.344,43.945,60.059,145.020,0
1486824691.661,-62.988,25.879,37.598,-20.508,54.688,0
1486824691.665,31.250,28.320,35.156,-28.809,-65.430,0
1486824691.669,109.375,27.832,37.598,77.637,15.625,0
1486824691.673,81.543,26.367,34.180,129.883,134.277,0
1486824691.677,-8.789,30.273,46.875,74.707,164.062,0
1486824691.681,-63.477,30.273,48.828,-6.836,104.492,0
1486824691.685,15.137,26.855,31.250,-30.273,-10.254,0
1486824691.689,108.887,28.320,30.762,59.570,-13.672,0
1486824691.692,99.609,31.250,44.922,137.207,107.910,0
1486824691.696,12.207,31.738,47.852,90.332,148.438,0
1486824691.700,-63.965,30.762,34.180,-2.441,98.633,0
1486824691.704,-3.418,30.273,38.086,-29.297,-17.090,0
1486824691.708,103.027,31.250,44.922,61.035,-51.758,0
1486824691.712,114.258,28.809,44.434,144.531,61.523,0
1486824691.716,33.203,25.391,48.828,106.445,140.625,0
1486824691.720,-47.363,25.879,38.574,19.043,103.516,0
1486824691.724,1.953,23.438,31.738,-20.020,-44.434,0
1486824691.728,99.609,20.020,39.551,54.688,-64.941,0
1486824691.732,112.305,26.855,41.992,135.742,71.289,0
1486824691.735,49.805,32.227,43.945,114.746,112.793,0
1486824691.739,-46.387,31.250,42.969,25.879,78.125,0
1486824691.743,-28.809,29.297,34.668,-35.156,-15.625,0
1486824691.747,79.590,24.902,41.504,36.133,-59.082,0
1486824691.751,117.676,27.344,47.363,137.207,51.758,0
1486824691.755,54.688,31.250,46.387,131.348,122.070,0
1486824691.759,-44.922,31.250,43.457,48.340,120.117,0
1486824691.763,-32.715,31.738,41.504,-17.090,10.742,0
1486824691.767,71.777,28.320,45.410,29.297,-61.523,0
1486824691.771,113.770,24.414,46.387,121.094,19.043,0
1486824691.774,62.500,28.320,46.875,127.441,117.676,0
1486824691.778,-34.180,29.297,48.828,45.410,143.555,0
1486824691.782,-43.457,27.344,41.016,-27.832,28.320,0
1486824691.786,65.918,27.832,40.039,14.648,-69.824,0
1486824691.790,124.023,27.832,42.480,116.699,20.508,0
1486824691.794,80.078,28.320,43.457,128.418,102.539,0
1486824691.798,-14.648,25.391,46.875,62.012,103.027,0
1486824691.802,-35.645,26.367,37.598,-7.324,20.020,0
1486824691.806,62.988,25.879,33.203,14.160,-104.492,0
1486824691.810,129.883,28.320,41.504,120.605,-39.062,0
1486824691.814,92.285,30.273,46.875,144.531,91.309,0
1486824691.817,-7.812,27.832,37.109,80.078,117.676,0
1486824691.821,-39.551,28.809,35.645,-3.906,-3.906,0
1486824691.825,50.781,27.344,39.551,0.000,-107.910,0
1486824691.829,122.559,27.832,33.203,104.980,-13.184,0
1486824691.833,96.191,29.785,34.180,143.066,85.449,0
1486824691.837,2.441,32.227,41.992,88.867,121.582,0
1486824691.841,-44.922,30.273,46.875,7.812,99.609,0
1486824691.845,32.227,23.438,40.039,-5.859,-37.109,0
1486824691.849,120.117,26.367,35.645,91.797,-26.855,0
1486824691.853,120.605,31.738,44.434,149.902,99.121,0
1486824691.856,22.949,32.715,49.316,102.539,145.020,0
1486824691.860,-45.410,34.180,45.410,16.602,140.625,0
1486824691.864,30.273,31.738,33.691,-3.418,-16.113,0
1486824691.868,117.188,26.367,31.738,89.355,-74.707,0
1486824691.872,106.445,25.879,43.945,146.484,62.988,0
1486824691.876,23.438,30.762,44.922,103.516,116.211,0
1486824691.880,-49.805,28.320,43.945,13.672,58.594,0
1486824691.884,-0.488,27.344,47.363,-17.090,-51.270,0
1486824691.888,95.703,28.320,41.016,68.848,-75.195,0
1486824691.892,104.980,28.320,41.016,134.277,45.410,0
1486824691.896,32.715,32.715,41.016,107.910,133.301,0
1486824691.899,-49.316,32.227,35.156,19.043,117.676,0
1486824691.903,-19.531,29.785,29.785,-37.109,-16.113,0
1486824691.907,84.961,26.855,29.297,44.434,-85.449,0
1486824691.911,113.281,27.832,37.598,130.371,0.488,0
1486824691.915,50.293,34.180,39.062,112.793,68.359,0
1486824691.919,-42.480,35.156,43.945,37.109,91.797,0
1486824691.923,-20.020,30.762,44.922,-24.902,-11.719,0
1486824691.927,94.727,31.250,39.551,40.039,-105.957,0
1486824691.931,128.906,32.715,47.363,148.438,42.480,0
1486824691.935,73.242,34.180,46.875,139.160,156.250,0
1486824691.939,-23.926,37.109,38.086,44.434,136.230,0
1486824691.942,-31.738,35.645,36.621,-19.531,56.641,0
1486824691.946,74.219,31.250,32.227,23.926,-53.223,0
1486824691.950,121.094,30.762,33.203,116.699,41.992,0
1486824691.954,69.824,30.762,38.574,123.535,142.090,0
1486824691.958,-33.203,32.715,44.434,45.898,131.348,0
1486824691.962,-53.223,30.762,53.223,-28.809,37.598,1
1486824691.966,59.082,30.762,52.246,13.184,-62.988,0
1486824691.970,122.070,31.250,38.086,114.746,0.977,0
1486824691.974,79.590,28.809,35.156,124.512,110.352,0
1486824691.978,-15.137,36.133,38.574,64.941,145.508,0
1486824691.981,-47.852,36.133,44.922,-15.137,70.312,0
1486824691.985,41.992,28.809,33.203,-8.789,-35.156,0
1486824691.989,114.258,29.297,24.414,91.797,34.668,0
1486824691.993,83.984,31.738,35.156,131.348,135.254,0
1486824691.997,-4.883,35.156,36.621,77.148,158.691,0
1486824692.001,-56.152,30.762,42.969,-10.254,69.336,0
1486824692.005,24.902,27.344,46.875,-14.160,-76.660,0
1486824692.009,109.375,30.762,39.551,89.355,-12.207,0
1486824692.013,92.285,29.297,38.574,132.812,107.910,0
1486824692.017,-1.465,30.762,44.922,80.078,134.277,0
1486824692.021,-66.895,33.691,45.898,-3.418,105.469,0
1486824692.024,10.254,30.762,45.410,-22.949,-57.617,0
1486824692.028,92.285,29.297,33.203,65.430,-65.430,0
1486824692.032,91.309,28.320,25.879,125.000,83.496,0
1486824692.036,22.949,25.879,35.645,91.309,132.324,0
1486824692.040,-56.152,30.273,41.992,6.348,80.566,0
1486824692.044,1.465,32.227,40.527,-28.320,-42.480,0
1486824692.048,99.609,30.762,32.227,50.293,-62.012,0
1486824692.052,105.469,34.668,31.738,123.047,69.336,0
1486824692.056,37.598,37.598,39.551,103.516,185.547,0
1486824692.060,-42.969,37.598,41.016,20.996,128.906,0
1486824692.064,-2.930,33.203,39.551,-26.367,-26.855,0
1486824692.067,101.562,27.344,40.039,49.805,-62.012,0
1486824692.071,123.047,29.785,34.180,131.348,52.246,0
1486824692.075,55.176,31.250,37.598,111.328,145.508,0
1486824692.079,-28.320,33.691,41.992,37.109,136.230,0
1486824692.083,-11.719,30.273,31.250,-21.973,-10.742,0
1486824692.087,78.613,25.879,29.297,38.574,-71.777,0
1486824692.091,112.305,28.320,33.203,132.324,52.734,0
1486824692.095,55.664,32.227,36.133,129.395,117.188,0
1486824692.099,-37.598,32.715,44.434,54.688,127.441,0
1486824692.103,-31.250,28.809,49.805,-12.207,9.766,0
1486824692.106,73.730,26.367,44.922,35.645,-52.734,0
1486824692.110,114.746,26.367,37.109,125.488,38.574,0
1486824692.114,62.988,30.273,31.250,118.652,121.094,0
1486824692.118,-28.320,31.250,32.227,47.363,128.418,0
1486824692.122,-42.480,25.879,35.645,-14.160,17.090,0
1486824692.126,60.059,21.484,36.133,12.695,-68.848,0
1486824692.130,121.582,26.367,31.250,111.328,-4.395,0
1486824692.134,82.520,30.273,34.180,133.789,113.281,0
1486824692.138,-8.301,30.762,44.434,66.406,132.324,0
1486824692.142,-35.156,31.738,45.410,-6.836,29.297,0
1486824692.146,60.547,30.762,42.969,12.695,-76.660,0
1486824692.149,128.906,28.809,45.898,112.793,10.742,0
1486824692.153,95.703,31.250,42.480,141.602,125.977,0
1486824692.157,-3.418,34.668,33.691,70.312,150.391,0
1486824692.161,-46.387,32.227,35.645,-10.742,71.289,0
1486824692.165,47.363,28.320,31.738,-9.277,-75.684,0
1486824692.169,126.953,28.320,37.109,95.703,-40.527,0
1486824692.173,106.445,30.762,47.852,151.367,115.234,0
1486824692.177,18.555,30.273,41.504,99.121,167.480,0
1486824692.181,-41.504,35.156,34.668,14.160,78.125,0
1486824692.185,33.691,35.156,37.598,-5.371,-64.941,0
1486824692.188,123.047,32.715,44.434,89.355,-33.691,0
1486824692.192,114.746,32.227,43.457,154.785,110.352,0
1486824692.196,36.621,31.250,39.551,107.910,148.926,0
1486824692.200,-35.645,30.273,33.203,18.555,96.680,0
1486824692.204,27.344,29.297,32.227,-14.160,-61.035,0
1486824692.208,126.953,34.180,37.109,81.055,-79.102,0
1486824692.212,125.488,32.715,44.434,154.297,75.195,0
1486824692.216,44.434,32.715,43.945,105.957,119.629,0
1486824692.220,-35.645,37.109,38.086,27.344,100.586,0
1486824692.224,-0.488,31.738,35.156,-23.438,-13.184,0
1486824692.228,102.539,31.738,35.156,47.363,-68.359,0
1486824692.231,126.953,34.668,44.434,135.254,45.410,0
1486824692.235,50.293,31.738,49.316,104.004,128.906,0
1486824692.239,-38.574,31.738,43.945,27.832,133.789,0
1486824692.243,-21.484,29.785,40.527,-20.020,-12.695,0
1486824692.247,82.031,25.391,34.180,34.180,-85.938,0
1486824692.251,122.559,29.785,32.715,128.418,42.480,0
1486824692.255,61.035,37.109,43.945,117.188,90.332,0
1486824692.259,-36.133,38.086,49.805,36.133,81.543,0
1486824692.263,-22.461,32.227,32.715,-23.438,-4.395,0
1486824692.267,86.426,27.832,30.273,29.785,-93.750,0
1486824692.271,128.906,31.250,34.668,126.953,36.621,0
1486824692.274,70.801,32.227,35.645,124.023,135.254,0
1486824692.278,-26.367,32.227,46.387,56.641,124.023,0
1486824692.282,-36.621,30.273,39.551,-8.789,52.246,0
1486824692.286,62.988,22.949,31.738,19.043,-54.688,0
1486824692.290,117.676,25.391,33.691,113.770,-3.418,0
1486824692.294,72.754,31.250,37.109,125.488,95.215,0
1486824692.298,-27.344,33.203,43.945,56.641,107.910,0
1486824692.302,-53.223,32.227,39.062,-20.508,34.180,0
1486824692.306,45.898,23.926,29.297,-4.883,-89.844,0
1486824692.310,117.188,21.973,30.762,102.051,-27.344,0
1486824692.313,85.449,24.414,44.434,129.883,130.859,0
1486824692.317,-10.742,25.391,54.199,67.383,175.781,0
1486824692.321,-52.246,27.344,47.852,-9.766,67.871,0
1486824692.325,38.574,28.320,37.109,-9.277,-59.570,0
1486824692.329,119.629,31.738,31.738,95.215,-8.301,0
1486824692.333,91.797,31.738,36.621,130.371,126.465,0
1486824692.337,-0.488,27.832,44.434,77.637,172.852,0
1486824692.341,-56.641,26.367,42.480,0.000,85.449,0
1486824692.345,20.508,24.902,29.297,-18.555,-51.270,0
1486824692.349,113.281,25.391,34.668,82.031,-30.762,0
1486824692.353,100.098,28.320,43.945,136.719,81.055,0
1486824692.356,8.789,33.691,45.410,95.215,133.301,0
1486824692.360,-59.082,31.738,53.223,14.160,100.098,0
1486824692.364,1.465,26.855,41.504,-25.391,-29.297,0
1486824692.368,94.238,26.855,31.250,66.895,-29.297,0
1486824692.372,101.074,26.855,40.039,134.766,116.699,0
1486824692.376,17.578,30.762,41.016,88.867,165.527,0
1486824692.380,-62.012,33.203,37.109,8.301,120.605,0
1486824692.384,-12.695,27.832,37.109,-30.273,-27.344,0
1486824692.388,89.355,23.438,34.180,52.734,-69.824,0
1486824692.392,103.516,25.391,32.715,124.512,53.711,0
1486824692.396,33.203,31.250,39.551,93.750,108.887,0
1486824692.399,-52.734,31.738,39.551,20.508,104.004,0
1486824692.403,-20.508,31.250,38.086,-25.879,-8.789,0
1486824692.407,88.379,29.785,44.434,49.805,-50.293,0
1486824692.411,108.887,27.832,42.480,132.812,72.266,0
1486824692.415,48.828,32.715,31.738,112.793,143.066,0
1486824692.419,-39.551,37.109,36.621,41.992,111.816,0
1486824692.423,-32.227,35.645,43.945,-21.973,26.855,0
1486824692.427,71.777,32.227,39.062,27.344,-61.035,0
1486824692.431,112.305,29.785,32.715,117.676,56.641,0
1486824692.435,58.594,30.273,35.645,106.934,130.371,0
1486824692.438,-38.086,31.250,38.086,26.367,68.359,0
1486824692.442,-40.527,28.809,40.527,-31.738,-17.578,0
1486824692.446,70.801,30.273,45.410,16.113,-85.449,0
1486824692.450,124.512,33.691,45.898,107.910,10.254,0
1486824692.454,73.730,33.691,33.691,117.188,115.234,0
1486824692.458,-22.949,33.203,40.039,57.129,144.531,0
1486824692.462,-48.828,32.227,43.945,-20.996,50.781,0
1486824692.466,50.293,28.320,35.645,5.371,-65.430,0
1486824692.470,116.211,25.391,37.598,100.586,6.836,0
1486824692.474,79.102,26.855,43.457,117.676,121.582,0
1486824692.478,-9.766,30.273,46.387,67.383,159.668,0
1486824692.481,-45.410,28.320,36.621,-15.625,83.008,0
1486824692.485,40.527,22.949,36.621,-5.371,-60.547,0
1486824692.489,120.117,22.949,45.898,93.750,-19.531,0
1486824692.493,99.121,26.367,41.992,124.023,102.051,0
1486824692.497,1.465,33.203,40.039,74.219,142.578,0
1486824692.501,-53.223,38.086,40.527,-2.930,55.176,0
1486824692.505,33.691,31.250,38.574,-5.371,-71.777,0
1486824692.509,120.117,23.926,40.039,86.914,-44.434,0
1486824692.513,106.934,30.273,40.527,143.066,54.688,0
1486824692.517,18.555,32.715,41.504,103.516,151.855,0
1486824692.520,-52.246,32.227,41.992,5.859,91.309,0
1486824692.524,25.879,28.809,39.062,-13.184,-58.105,0
1486824692.528,121.094,26.855,30.762,76.172,-34.180,0
1486824692.532,109.863,33.691,42.969,132.812,65.430,0
1486824692.536,20.996,37.109,52.246,98.145,86.426,0
1486824692.540,-54.199,32.227,39.062,12.695,69.336,1
1486824692.544,2.441,27.832,40.039,-22.461,-37.109,0
1486824692.548,101.074,26.367,43.945,62.988,-34.180,0
1486824692.552,111.816,27.832,35.645,136.719,102.539,0
1486824692.556,39.551,32.715,37.598,109.863,197.754,0
1486824692.560,-47.363,31.738,46.875,24.902,161.133,0
1486824692.563,-15.625,31.738,41.504,-22.949,6.836,0
1486824692.567,88.867,35.156,42.969,47.852,-28.320,0
1486824692.571,116.211,32.715,42.480,132.812,71.289,0
1486824692.575,55.664,31.738,51.758,121.094,142.090,0
1486824692.579,-36.621,28.809,52.734,38.086,140.625,0
1486824692.583,-20.508,25.391,27.832,-18.066,29.297,0
1486824692.587,85.938,29.785,30.762,46.875,-56.152,0
1486824692.591,123.047,32.715,41.504,136.719,57.617,0
1486824692.595,59.570,32.227,41.504,122.559,141.113,0
1486824692.599,-39.551,33.691,45.898,51.270,121.094,0
1486824692.603,-36.133,35.156,48.828,-17.090,-9.766,0
1486824692.606,71.777,32.227,42.480,14.648,-80.566,0
1486824692.610,116.211,31.738,42.480,116.699,26.367,0
1486824692.614,62.988,32.715,48.828,128.418,142.578,0
1486824692.618,-34.180,29.297,43.457,46.875,129.883,0
1486824692.622,-49.316,28.320,38.086,-22.461,-5.859,0
1486824692.626,60.059,26.367,35.156,14.648,-94.727,0
1486824692.630,120.117,24.414,31.738,116.211,-21.484,0
1486824692.634,73.730,27.344,37.598,130.859,80.078,0
1486824692.638,-20.020,31.738,44.434,64.453,96.191,0
1486824692.642,-47.852,34.180,41.992,-9.277,20.020,0
1486824692.645,44.434,30.273,33.203,3.418,-126.953,0
1486824692.649,115.723,23.926,37.109,103.516,-56.641,0
1486824692.653,92.773,26.367,45.898,145.020,102.539,0
1486824692.657,3.418,31.738,43.945,88.379,132.324,0
1486824692.661,-46.875,29.297,43.457,-1.465,15.137,0
1486824692.665,30.273,24.902,34.180,-10.254,-103.027,0
1486824692.669,106.445,22.949,31.250,96.680,-27.344,0
1486824692.673,95.703,24.902,37.598,143.555,113.281,0
1486824692.677,0.000,28.809,38.574,77.637,144.043,0
1486824692.681,-64.453,30.273,39.551,-2.441,87.402,0
1486824692.685,20.996,31.738,38.574,-15.137,-33.203,0
1486824692.688,116.699,31.738,43.457,79.590,-48.828,0
1486824692.692,104.980,28.809,47.852,144.043,77.637,0
1486824692.696,18.066,28.809,38.086,104.492,157.715,0
1486824692.700,-54.199,25.391,41.016,13.184,103.516,0
1486824692.704,1.465,24.902,40.527,-23.926,-41.504,0
1486824692.708,102.051,27.344,35.156,75.195,-29.297,0
1486824692.712,107.910,24.414,38.086,144.043,93.750,0
1486824692.716,22.949,29.297,35.156,96.191,148.438,0
1486824692.720,-56.152,30.273,41.016,11.230,130.371,0
1486824692.724,-8.789,21.484,40.527,-25.391,1.465,0
1486824692.728,96.191,23.438,31.738,58.105,-42.480,0
1486824692.731,120.605,32.227,39.062,139.648,64.453,0
1486824692.735,44.434,28.320,47.363,111.328,118.652,0
1486824692.739,-50.781,24.414,38.574,30.762,94.727,0
1486824692.743,-19.531,25.879,34.668,-19.043,-9.277,0
1486824692.747,89.355,21.973,36.621,45.898,-75.684,0
1486824692.751,120.605,23.926,38.086,136.719,32.227,0
1486824692.755,62.988,26.367,42.480,127.930,147.461,0
1486824692.759,-26.855,25.391,44.922,49.805,110.352,0
1486824692.763,-23.926,24.414,35.156,-18.066,-13.672,0
1486824692.767,78.125,21.973,30.273,25.879,-86.914,0
1486824692.770,122.559,21.973,38.574,120.117,32.227,0
1486824692.774,68.848,24.414,39.551,114.746,126.953,0
1486824692.778,-27.344,26.367,33.203,44.922,136.719,0
1486824692.782,-32.715,27.832,29.297,-9.766,29.785,0
1486824692.786,73.242,28.809,30.273,26.367,-98.145,0
1486824692.790,126.953,24.902,38.086,119.141,16.113,0
1486824692.794,75.195,23.926,38.574,134.766,136.230,0
1486824692.798,-17.578,27.344,39.551,66.895,146.973,0
1486824692.802,-37.109,26.855,41.504,-16.113,19.531,0
1486824692.806,55.176,25.391,36.133,-6.836,-91.309,0
1486824692.810,126.465,25.879,38.574,100.098,-16.113,0
1486824692.813,94.727,21.973,38.086,132.324,94.238,0
1486824692.817,-3.418,27.832,37.598,70.312,112.305,0
1486824692.821,-45.898,31.250,36.133,-5.859,37.598,0
1486824692.825,51.270,24.414,32.715,-8.301,-99.121,0
1486824692.829,129.395,25.391,36.133,87.891,-38.086,0
1486824692.833,95.215,27.344,41.504,128.418,104.980,0
1486824692.837,1.465,28.809,40.527,79.590,115.723,0
1486824692.841,-58.594,27.832,40.527,0.488,38.574,0
1486824692.845,19.043,25.391,36.621,-16.602,-84.961,0
1486824692.849,108.398,26.367,34.668,81.543,-47.852,0
1486824692.852,99.609,29.785,42.480,139.648,75.195,0
1486824692.856,15.137,31.250,38.574,96.191,122.559,0
1486824692.860,-53.223,30.273,27.832,2.930,91.797,0
1486824692.864,11.230,28.809,34.180,-21.484,-37.598,0
1486824692.868,108.887,25.879,36.621,75.684,-34.668,0
1486824692.872,111.816,29.297,38.086,141.113,105.469,0
1486824692.876,29.297,32.227,44.434,107.910,165.527,0
1486824692.880,-48.828,30.762,39.062,23.438,110.840,0
1486824692.884,-1.465,30.273,35.156,-26.367,-28.809,0
1486824692.888,104.492,31.250,49.805,54.688,-80.566,0
1486824692.892,122.559,32.715,52.734,138.672,33.203,0
1486824692.895,44.434,30.273,35.645,119.629,144.531,0
1486824692.899,-43.945,30.762,29.297,33.203,90.332,0
1486824692.903,-14.160,30.273,33.203,-26.367,-71.289,0
1486824692.907,91.309,25.879,37.598,46.387,-97.656,0
1486824692.911,119.629,24.414,34.180,136.719,45.898,0
1486824692.915,48.828,26.855,40.039,121.094,101.562,0
1486824692.919,-43.457,29.297,48.340,38.574,101.562,0
1486824692.923,-33.203,25.391,43.457,-26.367,-10.742,0
1486824692.927,82.520,27.832,47.363,39.062,-76.660,0
1486824692.931,122.070,31.250,51.758,133.789,74.219,0
1486824692.935,49.805,26.367,42.969,122.070,172.852,0
1486824692.938,-43.945,25.879,36.621,50.781,175.293,0
1486824692.942,-42.969,26.855,37.598,-27.344,38.086,0
1486824692.946,63.477,26.367,41.016,21.484,-67.871,0
1486824692.950,111.816,24.902,37.598,119.629,41.504,0
1486824692.954,65.430,26.855,35.645,116.211,149.414,0
1486824692.958,-25.879,32.227,45.410,49.316,127.441,0
1486824692.962,-43.945,30.273,45.410,-17.578,13.184,0
1486824692.966,61.035,27.344,39.062,8.789,-108.398,0
1486824692.970,122.070,30.762,41.016,108.398,-42.969,0
1486824692.974,84.473,26.367,40.527,127.441,85.449,0
1486824692.977,-10.254,26.367,40.039,66.895,108.887,0
1486824692.981,-42.969,31.738,40.039,-9.766,29.297,0
1486824692.985,47.363,32.227,44.434,1.465,-83.008,0
1486824692.989,116.699,29.297,45.898,101.074,-8.789,0
1486824692.993,102.051,26.367,43.457,131.836,126.953,0
1486824692.997,9.277,26.367,42.480,80.566,160.156,0
1486824693.001,-47.363,25.391,40.039,-3.906,84.961,0
1486824693.005,39.062,27.832,35.156,-10.742,-48.828,0
1486824693.009,117.676,29.785,39.551,93.262,-49.805,0
1486824693.013,99.121,28.320,46.875,138.672,79.102,0
1486824693.017,11.230,27.344,41.504,86.914,139.160,0
1486824693.020,-55.176,26.367,39.062,-3.418,52.246,0
1486824693.024,20.996,28.809,38.574,-31.250,-65.918,0
1486824693.028,122.559,33.691,41.504,75.195,-61.523,0
1486824693.032,116.699,35.645,42.969,137.695,43.945,0
1486824693.036,33.691,33.691,38.086,97.168,128.906,0
1486824693.040,-38.086,36.133,35.156,19.043,104.004,0
1486824693.044,5.859,38.086,30.273,-30.762,-20.020,0
1486824693.048,105.957,35.645,34.180,59.082,-41.016,0
1486824693.052,109.863,33.691,44.434,134.766,40.039,0
1486824693.056,27.344,32.227,43.457,91.309,106.934,1
1486824693.060,-46.875,35.156,45.410,9.766,88.379,0
1486824693.063,-8.789,34.180,46.875,-39.551,-57.617,0
1486824693.067,95.703,29.297,39.062,45.898,-116.699,0
1486824693.071,122.070,32.227,39.551,134.766,-0.488,0
1486824693.075,49.316,32.715,42.969,113.281,113.281,0
1486824693.079,-44.434,28.320,38.086,26.367,110.352,0
1486824693.083,-25.391,25.391,28.809,-32.715,-28.320,0
1486824693.087,80.566,27.832,34.668,30.273,-124.512,0
1486824693.091,118.164,29.297,39.551,122.559,5.371,0
1486824693.095,59.570,33.203,30.762,123.047,90.332,0
1486824693.099,-41.504,32.227,37.109,36.621,93.262,0
1486824693.102,-37.109,28.320,45.410,-30.762,22.949,0
1486824693.106,69.336,28.320,36.133,21.484,-60.059,0
1486824693.110,111.328,29.297,34.668,108.398,22.949,0
1486824693.114,57.129,33.203,37.598,119.141,127.441,0
1486824693.118,-43.945,32.227,41.992,44.922,169.434,0
1486824693.122,-53.711,28.320,44.434,-37.598,64.453,0
1486824693.126,51.270,25.391,36.621,0.000,-79.102,0
