timestamps,TP9,AF7,AF8,TP10,Right AUX,Marker
1486824881.627,-7.324,28.809,29.297,68.848,72.754,0
1486824881.631,5.859,28.809,35.156,48.828,86.426,0
1486824881.635,87.891,29.785,42.969,43.457,-31.250,0
1486824881.639,108.887,28.320,41.992,81.543,-20.996,0
1486824881.643,57.617,28.809,35.645,82.031,17.578,0
1486824881.647,4.883,32.227,38.574,74.707,96.191,0
1486824881.651,11.719,32.227,42.480,60.059,145.508,0
1486824881.655,70.312,27.832,37.598,30.762,-23.926,0
1486824881.658,99.121,26.367,37.598,61.523,-63.965,0
1486824881.662,65.918,28.320,45.898,75.684,21.973,0
1486824881.666,-1.465,28.320,35.645,62.500,65.430,0
1486824881.670,-9.766,37.109,38.086,50.293,74.707,0
1486824881.674,55.664,34.668,40.039,31.738,-22.461,0
1486824881.678,93.750,24.414,31.250,67.383,-24.414,0
1486824881.682,62.012,27.344,33.691,76.660,-20.020,0
1486824881.686,-12.207,27.832,34.668,62.988,18.066,0
1486824881.690,-26.367,26.855,32.227,57.617,126.465,0
1486824881.694,45.898,26.855,36.621,34.180,35.645,0
1486824881.698,100.586,25.879,40.527,67.383,-30.273,0
1486824881.701,87.402,25.391,39.551,94.238,24.414,0
1486824881.705,14.648,26.367,49.316,86.914,58.594,0
1486824881.709,-12.207,28.320,56.641,80.078,114.746,0
1486824881.713,55.176,28.809,43.457,46.387,24.414,0
1486824881.717,93.750,27.344,35.156,61.035,-50.781,0
1486824881.721,77.148,26.367,41.016,87.402,17.090,0
1486824881.725,16.602,25.391,42.969,76.172,39.551,0
1486824881.729,-24.902,25.391,39.062,64.941,98.633,0
1486824881.733,27.832,24.902,36.621,29.297,43.457,0
1486824881.737,81.055,21.484,37.109,47.852,-31.738,0
1486824881.740,71.289,22.949,37.598,83.008,40.527,0
1486824881.744,21.973,27.344,39.551,76.172,88.867,0
1486824881.748,-21.973,28.809,45.410,66.406,131.348,0
1486824881.752,16.602,25.391,47.852,41.504,51.758,0
1486824881.756,88.867,23.438,37.109,50.293,-55.664,0
1486824881.760,94.238,27.344,31.250,82.031,2.441,0
1486824881.764,35.156,33.691,46.387,83.008,49.316,0
1486824881.768,-15.137,31.738,51.270,80.078,111.328,0
1486824881.772,15.137,25.391,38.086,54.688,87.891,0
1486824881.776,84.961,25.879,33.203,53.223,-16.602,0
1486824881.780,92.773,25.879,35.645,85.938,35.156,0
1486824881.783,41.016,25.879,42.969,72.266,64.941,0
1486824881.787,-17.578,29.785,41.504,66.406,114.746,0
1486824881.791,2.930,28.809,38.086,42.969,110.840,0
1486824881.795,73.730,28.320,38.086,33.203,-26.367,0
1486824881.799,87.402,30.762,32.715,68.359,-28.320,0
1486824881.803,44.922,31.738,43.945,65.918,47.852,0
1486824881.807,-15.625,31.738,53.223,61.035,116.211,0
1486824881.811,-7.324,31.250,42.480,47.363,128.906,0
1486824881.815,62.500,28.320,35.156,34.180,29.297,0
1486824881.819,86.914,28.320,39.062,69.336,7.324,0
1486824881.823,52.734,28.809,42.969,81.055,26.367,0
1486824881.826,-10.742,31.250,36.621,71.777,92.285,0
1486824881.830,-14.648,30.273,30.273,48.828,115.723,0
1486824881.834,57.129,24.902,26.855,30.762,-2.930,0
1486824881.838,93.750,22.949,29.785,64.941,-6.348,0
1486824881.842,76.172,34.180,45.898,83.496,40.527,0
1486824881.846,6.836,29.785,44.922,75.684,101.074,0
1486824881.850,-22.949,15.137,36.621,52.246,125.977,0
1486824881.854,43.945,20.508,33.203,36.133,20.996,0
1486824881.858,88.379,26.367,34.668,66.895,-15.625,0
1486824881.862,63.477,24.902,42.969,84.961,41.016,0
1486824881.865,-8.789,24.902,36.621,75.684,91.797,0
1486824881.869,-34.180,26.367,31.738,56.152,126.953,0
1486824881.873,26.367,19.531,32.715,24.902,52.246,0
1486824881.877,80.078,19.043,36.133,46.387,-11.230,0
1486824881.881,66.895,23.438,34.668,68.848,27.344,0
1486824881.885,5.859,22.949,34.668,65.918,84.961,0
1486824881.889,-28.320,22.949,33.691,58.105,146.484,0
1486824881.893,20.996,23.926,35.156,31.738,57.617,0
1486824881.897,83.496,21.973,39.062,49.316,-23.926,0
1486824881.901,77.148,22.949,36.621,60.059,38.574,0
1486824881.905,15.625,24.902,39.062,58.594,80.078,0
1486824881.908,-27.344,25.879,38.574,68.848,128.418,0
1486824881.912,13.672,26.855,26.367,30.273,74.219,0
1486824881.916,81.055,28.809,29.785,43.457,20.020,0
1486824881.920,86.426,28.809,36.133,76.660,56.641,0
1486824881.924,27.832,28.809,28.320,59.082,78.125,0
1486824881.928,-23.926,29.297,29.297,59.082,139.648,0
1486824881.932,4.395,26.855,28.320,31.738,106.934,0
1486824881.936,79.102,27.832,31.738,37.109,-26.367,0
1486824881.940,92.285,28.809,38.086,75.195,15.137,0
1486824881.944,29.297,27.344,36.621,65.430,90.820,0
1486824881.947,-30.273,27.344,37.598,61.523,132.324,0
1486824881.951,-9.277,26.367,32.715,38.086,105.957,0
1486824881.955,63.477,23.926,27.344,30.762,-14.160,0
1486824881.959,90.332,27.832,27.832,71.289,26.367,0
1486824881.963,56.641,37.598,45.898,74.219,57.617,0
1486824881.967,-17.090,31.250,42.969,68.848,91.309,0
1486824881.971,-17.578,24.414,22.461,47.852,126.953,0
1486824881.975,64.453,27.832,26.367,35.156,3.418,0
1486824881.979,90.820,27.832,31.738,71.289,10.254,0
1486824881.983,46.875,26.855,38.086,70.801,79.590,0
1486824881.987,-15.137,26.367,40.039,67.871,114.258,0
1486824881.990,-9.766,29.297,31.738,54.688,115.234,0
1486824881.994,59.082,28.809,31.250,28.809,-30.762,0
1486824881.998,92.285,28.320,41.504,62.988,-18.066,0
1486824882.002,58.105,30.762,37.598,73.242,54.199,0
1486824882.006,-5.371,31.250,37.109,67.871,92.285,0
1486824882.010,-19.043,27.344,43.457,51.270,142.578,0
1486824882.014,43.457,25.879,29.785,23.926,8.301,0
1486824882.018,90.332,27.344,25.879,53.711,-15.137,0
1486824882.022,66.406,26.367,36.621,71.777,70.801,0
1486824882.026,-7.812,24.414,34.668,64.453,109.375,0
1486824882.030,-32.227,22.949,30.762,47.852,164.551,0
1486824882.033,38.574,22.461,32.715,22.461,63.477,0
1486824882.037,90.820,24.414,38.574,47.363,-18.066,0
1486824882.041,72.754,26.855,45.410,75.195,37.109,0
1486824882.045,11.230,28.320,47.852,73.730,65.918,0
1486824882.049,-25.391,28.320,42.480,67.383,129.883,0
1486824882.053,30.273,28.320,37.598,41.016,60.059,0
1486824882.057,88.379,26.367,45.410,59.570,-9.277,0
1486824882.061,70.312,23.926,43.945,81.543,28.809,0
1486824882.065,10.742,24.414,38.574,73.730,60.059,0
1486824882.069,-26.367,23.438,40.527,72.754,113.281,0
1486824882.072,21.973,23.926,34.180,35.645,55.664,0
1486824882.076,93.262,36.133,41.016,46.387,-20.020,0
1486824882.080,87.891,30.273,43.457,77.637,13.672,0
1486824882.084,25.879,23.438,43.457,68.359,79.102,0
1486824882.088,-20.020,29.297,42.480,55.176,128.906,0
1486824882.092,18.555,24.902,34.180,35.156,84.961,0
1486824882.096,89.844,20.996,37.109,43.945,-6.348,0
1486824882.100,98.633,25.879,32.715,70.801,-21.484,0
1486824882.104,47.363,33.203,31.738,73.730,1.953,0
1486824882.108,-19.043,29.785,37.109,62.012,88.379,0
1486824882.112,-2.441,25.391,38.086,30.273,61.035,0
1486824882.115,72.754,22.461,35.645,34.668,-39.062,1
1486824882.119,86.426,20.996,34.180,78.125,9.277,0
1486824882.123,35.645,23.926,41.016,78.125,61.523,0
1486824882.127,-17.090,23.926,44.434,69.336,127.930,0
1486824882.131,-6.348,24.902,38.574,46.875,102.051,0
1486824882.135,58.105,25.391,33.203,25.391,-13.184,0
1486824882.139,91.309,22.949,32.227,57.617,-9.766,0
1486824882.143,47.852,23.438,31.738,63.477,53.223,0
1486824882.147,-29.297,22.461,38.086,54.688,112.793,0
1486824882.151,-22.949,24.414,43.945,44.434,146.973,0
1486824882.155,58.105,26.855,35.645,24.414,10.254,0
1486824882.158,93.262,20.996,33.691,66.895,-45.898,0
1486824882.162,51.270,20.996,39.062,86.914,44.922,0
1486824882.166,-15.137,25.879,46.387,70.312,93.262,0
1486824882.170,-23.438,25.391,41.504,49.805,131.348,0
1486824882.174,41.016,24.414,36.621,23.438,24.902,0
1486824882.178,83.496,24.414,36.133,52.246,-29.297,0
1486824882.182,54.199,27.832,29.785,74.707,62.012,0
1486824882.186,1.953,38.086,47.363,80.078,124.512,0
1486824882.190,-19.043,31.250,48.340,60.059,148.438,0
1486824882.194,38.086,21.484,28.809,15.625,36.133,0
1486824882.197,94.727,25.391,29.785,49.316,-16.602,0
1486824882.201,68.848,24.414,30.273,71.777,35.156,0
1486824882.205,9.766,27.832,42.969,60.059,87.891,0
1486824882.209,-21.484,24.414,39.551,51.758,160.645,0
1486824882.213,20.508,20.020,21.973,18.066,74.219,0
1486824882.217,80.078,27.344,25.879,31.738,-33.203,0
1486824882.221,66.895,28.320,30.762,66.895,24.414,0
1486824882.225,-1.953,26.367,37.598,63.477,102.539,0
1486824882.229,-31.738,27.832,37.109,49.316,144.531,0
1486824882.233,19.531,26.855,31.250,14.160,48.828,0
1486824882.237,84.961,27.344,34.668,33.691,-20.020,0
1486824882.240,92.773,30.273,39.551,77.148,-13.672,0
1486824882.244,30.273,32.715,32.227,68.848,29.785,0
1486824882.248,-24.902,27.344,26.367,63.965,125.977,0
1486824882.252,24.414,25.879,31.738,36.621,93.262,0
1486824882.256,97.656,28.809,34.668,44.922,-13.184,0
1486824882.260,95.215,27.344,35.645,84.473,40.527,0
1486824882.264,46.875,27.832,44.922,79.102,81.543,0
1486824882.268,-1.953,25.391,47.363,77.148,113.770,0
1486824882.272,21.484,23.926,35.645,51.270,95.703,0
1486824882.276,88.867,22.461,35.156,45.410,-12.695,0
1486824882.279,104.004,25.391,35.645,74.707,-6.348,0
1486824882.283,53.223,26.367,35.156,67.871,19.531,0
1486824882.287,-13.672,25.879,36.133,67.383,78.613,0
1486824882.291,7.324,28.809,37.109,50.293,88.867,0
1486824882.295,81.543,23.438,38.086,47.363,11.230,0
1486824882.299,100.098,22.949,38.086,78.125,13.184,0
1486824882.303,57.129,24.414,39.062,74.219,20.996,0
1486824882.307,8.301,34.668,49.805,85.938,111.328,0
1486824882.311,3.418,34.180,45.410,61.035,105.469,0
1486824882.315,56.152,18.066,26.367,23.926,-24.414,0
1486824882.319,89.355,18.555,22.949,63.965,18.066,0
1486824882.322,50.781,23.438,30.273,71.777,80.566,0
1486824882.326,-11.230,23.926,36.621,54.688,104.492,0
1486824882.330,-13.184,23.438,32.715,40.039,107.910,0
1486824882.334,45.410,23.926,33.203,19.531,0.488,0
1486824882.338,81.543,21.973,36.621,57.129,-0.977,0
1486824882.342,62.988,23.926,31.738,75.195,49.316,0
1486824882.346,0.977,26.367,34.180,66.406,83.008,0
1486824882.350,-21.973,28.320,40.039,50.781,138.672,0
1486824882.354,48.340,25.391,41.504,27.344,16.113,0
1486824882.358,105.469,24.902,39.062,67.383,-29.785,0
1486824882.362,80.078,26.855,32.227,81.543,8.301,0
1486824882.365,19.531,27.344,36.133,74.219,33.691,0
1486824882.369,-9.277,27.832,38.086,68.359,128.418,0
1486824882.373,42.969,22.949,34.668,34.668,23.438,0
1486824882.377,93.750,23.926,38.086,62.988,-33.691,0
1486824882.381,78.125,26.855,47.852,93.750,54.688,0
1486824882.385,16.602,26.367,43.457,83.496,99.609,0
1486824882.389,-15.625,24.902,42.480,71.289,148.438,0
1486824882.393,35.645,23.926,48.340,39.062,30.762,0
1486824882.397,86.914,21.973,41.992,61.523,-48.340,0
1486824882.401,77.148,21.973,41.504,93.750,39.551,0
1486824882.404,15.137,23.926,44.922,75.684,41.992,0
1486824882.408,-26.367,23.926,37.109,72.266,122.559,0
1486824882.412,15.137,25.879,36.621,44.434,73.242,0
1486824882.416,78.613,25.391,38.086,45.898,-97.656,0
1486824882.420,79.102,23.438,35.156,78.613,-43.457,0
1486824882.424,27.832,25.879,45.410,79.102,42.969,0
1486824882.428,-25.879,25.391,45.898,65.918,93.750,0
1486824882.432,-5.371,24.414,41.504,39.551,61.035,0
1486824882.436,68.359,22.949,40.527,41.992,-38.086,0
1486824882.440,84.473,21.484,30.273,69.336,-19.043,0
1486824882.444,34.180,25.879,33.203,66.406,34.668,0
1486824882.447,-24.902,25.879,35.156,54.199,79.590,0
1486824882.451,-7.812,23.438,30.762,34.180,61.035,0
1486824882.455,62.500,21.973,29.297,23.438,-50.293,0
1486824882.459,83.496,21.484,33.203,60.547,-23.926,0
1486824882.463,39.551,21.973,37.109,65.430,20.508,0
1486824882.467,-28.809,21.484,36.133,53.711,58.105,0
1486824882.471,-26.367,22.949,34.180,36.133,87.891,0
1486824882.475,56.152,24.902,36.621,26.367,-34.180,0
1486824882.479,90.332,24.902,38.086,62.500,-62.988,0
1486824882.483,44.434,26.367,33.691,70.312,26.367,0
1486824882.487,-16.602,26.367,31.250,69.824,92.773,0
1486824882.490,-19.043,24.414,31.738,51.270,100.586,0
1486824882.494,52.246,25.391,33.203,21.484,-38.574,0
1486824882.498,96.191,26.855,32.227,57.617,-67.871,0
1486824882.502,62.500,27.344,33.691,76.660,21.973,0
1486824882.506,2.441,31.250,36.133,65.918,72.754,0
1486824882.510,-11.230,29.297,41.016,53.223,99.121,0
1486824882.514,47.852,25.879,39.062,31.738,-2.441,0
1486824882.518,93.262,25.879,34.668,63.965,-25.879,0
1486824882.522,71.777,27.344,40.527,88.379,-0.977,0
1486824882.526,2.930,24.414,38.086,74.707,46.387,0
1486824882.529,-20.996,27.832,47.852,63.965,131.348,0
1486824882.533,44.922,34.668,50.293,45.898,61.523,0
1486824882.537,89.355,20.508,23.926,55.664,-0.488,0
1486824882.541,76.172,19.043,23.926,70.801,7.812,0
1486824882.545,11.230,27.344,34.668,68.848,22.461,0
1486824882.549,-30.762,26.367,34.180,57.129,112.793,0
1486824882.553,22.461,22.949,31.250,27.832,40.039,0
1486824882.557,84.961,26.855,42.480,41.504,-26.855,0
1486824882.561,80.078,26.367,43.945,66.895,42.969,0
1486824882.565,14.160,25.879,32.715,66.895,58.105,0
1486824882.569,-27.344,31.250,35.645,50.293,91.797,0
1486824882.572,16.113,30.762,34.180,23.438,32.227,0
1486824882.576,82.031,27.832,39.551,37.598,-56.152,0
1486824882.580,83.008,25.879,44.434,69.336,-18.555,0
1486824882.584,25.391,28.809,37.109,64.453,32.227,0
1486824882.588,-22.461,24.902,38.086,48.828,93.262,0
1486824882.592,11.230,23.438,33.691,26.367,69.824,0
1486824882.596,83.984,24.902,35.645,37.598,-46.875,0
1486824882.600,94.238,26.367,41.504,79.102,-23.926,0
1486824882.604,42.969,30.273,38.086,77.148,65.430,0
1486824882.608,-13.184,29.297,40.039,62.012,123.047,0
1486824882.611,-1.465,23.926,37.109,41.016,110.840,0
1486824882.615,64.453,21.484,32.227,38.086,42.480,0
1486824882.619,89.844,22.949,37.109,76.172,35.645,0
1486824882.623,45.410,25.391,45.410,78.613,63.965,0
1486824882.627,-13.672,26.855,44.922,61.035,94.238,0
1486824882.631,-7.324,24.414,41.504,45.898,80.566,0
1486824882.635,63.477,24.414,34.668,31.738,-33.691,0
1486824882.639,97.168,26.367,29.297,63.477,-13.672,0
1486824882.643,59.570,27.832,32.227,79.590,37.109,0
1486824882.647,-8.789,28.320,35.645,65.918,99.121,0
1486824882.651,-17.578,25.879,37.109,40.527,122.070,0
1486824882.654,51.758,24.414,32.227,23.926,-34.668,0
1486824882.658,85.938,23.926,34.180,64.453,-40.527,0
1486824882.662,51.758,22.461,38.086,72.754,32.715,0
1486824882.666,-14.160,21.484,37.598,56.641,62.988,0
1486824882.670,-28.320,19.531,36.621,41.992,104.980,0
1486824882.674,45.898,21.484,38.574,21.973,-29.785,0
1486824882.678,94.727,20.508,45.410,58.105,-92.285,0
1486824882.682,73.730,28.809,43.945,83.984,-4.395,0
1486824882.686,13.184,39.551,39.551,76.172,68.848,0
1486824882.690,-26.855,21.484,26.367,47.852,108.398,0
1486824882.694,32.227,17.578,23.926,18.066,1.953,0
1486824882.697,91.797,22.949,34.668,52.246,-64.941,0
1486824882.701,76.660,19.043,40.039,81.055,30.762,0
1486824882.705,10.254,22.461,44.922,68.359,64.941,0
1486824882.709,-36.133,22.461,40.527,55.664,106.934,0
1486824882.713,17.578,18.555,37.109,31.250,61.523,0
1486824882.717,80.078,20.996,40.039,46.387,-12.207,0
1486824882.721,70.801,25.391,42.969,74.219,39.551,0
1486824882.725,13.672,28.320,46.387,64.941,62.012,0
1486824882.729,-32.227,23.926,32.227,47.852,127.930,0
1486824882.733,16.602,21.484,22.461,23.926,82.031,0
1486824882.736,87.402,24.414,27.832,36.621,-75.684,0
1486824882.740,84.473,25.879,28.809,68.848,-40.527,0
1486824882.744,33.203,24.902,34.180,65.430,51.270,0
1486824882.748,-13.672,25.391,37.109,57.617,139.648,0
1486824882.752,17.578,25.879,37.598,38.574,111.328,0
1486824882.756,83.984,22.461,36.133,38.574,-44.434,0
1486824882.760,95.703,24.902,40.039,78.125,-46.875,0
1486824882.764,36.621,25.879,50.293,71.777,14.648,0
1486824882.768,-25.879,20.996,40.527,63.965,94.238,0
1486824882.772,-6.836,22.461,27.344,41.016,85.938,0
1486824882.776,63.477,22.949,39.551,35.645,-26.367,1
1486824882.779,95.215,20.020,46.875,82.520,-29.785,0
1486824882.783,35.156,20.996,38.086,71.777,27.832,0
1486824882.787,-34.668,22.949,33.691,62.012,89.844,0
1486824882.791,-15.625,20.996,32.715,42.480,90.820,0
1486824882.795,59.082,24.414,28.809,24.414,-9.766,0
1486824882.799,93.750,28.809,33.691,67.383,-4.395,0
1486824882.803,49.805,23.926,45.410,69.824,61.035,0
1486824882.807,-12.695,23.926,41.016,62.012,114.258,0
1486824882.811,-6.348,28.809,39.551,49.805,102.539,0
1486824882.815,56.641,23.438,36.621,24.902,28.809,0
1486824882.819,97.168,30.762,37.109,74.707,28.320,0
1486824882.822,67.871,38.574,51.270,83.984,63.477,0
1486824882.826,-12.207,22.949,40.527,61.523,102.539,0
1486824882.830,-27.344,21.973,31.738,52.246,123.047,0
1486824882.834,44.434,25.391,34.180,23.926,21.484,0
1486824882.838,91.797,22.461,34.180,59.082,-7.324,0
1486824882.842,61.523,24.902,32.715,68.359,36.133,0
1486824882.846,4.395,32.227,36.133,64.941,66.895,0
1486824882.850,-12.207,28.320,41.016,63.477,104.980,0
1486824882.854,38.086,23.438,43.457,27.832,17.090,0
1486824882.858,90.820,24.414,40.039,59.570,-2.441,0
1486824882.861,73.242,24.414,36.621,84.473,22.461,0
1486824882.865,6.836,25.879,38.086,72.754,52.734,0
1486824882.869,-17.578,23.926,44.434,64.453,137.695,0
1486824882.873,31.250,23.926,44.922,32.227,53.223,0
1486824882.877,91.309,26.367,30.273,58.594,-26.367,0
1486824882.881,91.309,23.438,28.320,82.031,27.344,0
1486824882.885,24.414,22.949,35.645,66.406,68.848,0
1486824882.889,-20.508,23.926,39.062,67.383,118.652,0
1486824882.893,28.320,24.414,45.898,37.109,24.902,0
1486824882.897,88.867,26.855,36.133,43.945,-59.082,0
1486824882.901,88.867,27.344,30.273,73.730,17.090,0
1486824882.904,35.645,27.832,40.527,67.383,77.148,0
1486824882.908,-17.090,30.762,40.039,60.547,100.586,0
1486824882.912,20.020,31.250,37.598,36.133,16.602,0
1486824882.916,97.168,29.785,32.715,43.457,-61.523,0
1486824882.920,101.074,29.297,33.691,75.684,-2.930,0
1486824882.924,41.504,27.344,39.062,69.824,50.781,0
1486824882.928,-11.719,29.297,35.156,68.359,113.281,0
1486824882.932,12.207,31.738,36.621,41.016,95.215,0
1486824882.936,86.914,28.320,40.039,40.527,-28.809,0
1486824882.940,101.074,28.809,30.273,76.172,-0.488,0
1486824882.943,48.340,31.250,25.879,70.801,72.754,0
1486824882.947,-6.348,32.715,34.180,65.430,93.262,0
1486824882.951,9.277,40.039,45.410,50.293,71.777,0
1486824882.955,67.383,29.785,34.180,36.133,-12.207,0
1486824882.959,87.402,20.996,24.414,61.035,6.348,0
1486824882.963,54.688,24.414,35.156,67.383,26.855,0
1486824882.967,-8.789,26.367,36.621,63.477,69.336,0
1486824882.971,-11.719,27.344,43.457,49.805,108.398,0
1486824882.975,58.594,26.855,42.480,40.039,-20.996,0
1486824882.979,97.656,28.809,32.227,77.637,-17.578,0
1486824882.983,64.453,32.227,40.039,85.449,60.059,0
1486824882.986,-1.465,30.273,41.992,70.801,102.539,0
1486824882.990,-6.836,27.344,35.156,46.387,100.586,0
1486824882.994,60.059,29.785,31.250,24.414,-27.832,0
1486824882.998,96.191,28.809,27.832,62.988,-12.207,0
1486824883.002,64.453,30.273,35.156,79.590,29.297,0
1486824883.006,0.977,28.809,41.504,71.289,57.617,0
1486824883.010,-17.578,26.367,42.969,60.547,126.465,0
1486824883.014,42.969,24.414,47.363,31.738,5.371,0
1486824883.018,92.773,23.438,40.527,61.523,-39.551,0
1486824883.022,74.707,27.344,35.156,87.402,40.039,0
1486824883.026,15.625,29.297,37.598,80.566,73.242,0
1486824883.029,-8.301,29.785,35.156,68.848,105.469,0
1486824883.033,42.969,29.297,39.551,34.668,8.301,0
1486824883.037,96.191,28.320,40.039,54.199,-18.066,0
1486824883.041,83.008,26.855,34.668,74.707,15.625,0
1486824883.045,13.184,26.367,34.180,71.289,33.203,0
1486824883.049,-23.926,28.809,37.598,69.336,135.254,0
1486824883.053,26.855,27.832,46.387,39.551,77.637,0
1486824883.057,85.938,24.414,36.621,52.734,-41.504,0
1486824883.061,77.637,25.391,27.344,80.566,-5.371,0
1486824883.065,19.043,25.391,34.180,79.590,92.773,0
1486824883.068,-7.812,36.133,52.246,83.008,149.414,0
1486824883.072,30.762,31.738,43.945,42.969,77.637,0
1486824883.076,81.543,17.578,24.414,34.180,-0.977,0
1486824883.080,88.867,26.367,28.320,70.312,26.855,0
1486824883.084,36.133,28.809,29.785,68.359,40.039,0
1486824883.088,-15.137,25.879,33.203,64.941,93.262,0
1486824883.092,11.719,24.902,28.320,36.621,94.238,0
1486824883.096,83.984,30.273,32.715,36.621,9.766,0
1486824883.100,90.332,31.250,29.785,72.266,3.418,0
1486824883.104,40.527,28.809,26.855,68.848,34.180,0
1486824883.108,-18.555,24.902,34.668,66.406,111.328,0
1486824883.111,-9.277,24.414,32.227,49.316,86.914,0
1486824883.115,59.570,26.855,33.203,28.809,-53.223,0
1486824883.119,88.867,26.367,34.668,64.941,-29.785,0
1486824883.123,54.688,29.297,38.574,81.543,40.527,0
1486824883.127,-3.906,29.297,48.828,72.266,83.984,0
1486824883.131,-1.953,28.320,45.898,49.805,104.492,0
1486824883.135,67.383,26.855,35.156,34.180,-18.555,0
1486824883.139,91.309,24.902,34.180,68.848,-44.922,0
1486824883.143,49.805,25.391,33.691,76.660,30.273,0
1486824883.147,-3.906,28.809,34.668,68.848,96.191,0
1486824883.151,-7.324,29.297,39.062,52.246,102.051,0
1486824883.154,51.758,22.949,32.227,29.297,-17.090,0
1486824883.158,86.914,23.438,26.855,62.988,-61.523,0
1486824883.162,63.477,26.367,30.762,75.195,-8.301,0
1486824883.166,-0.488,24.902,41.504,69.336,49.316,0
1486824883.170,-22.949,21.973,36.133,53.711,87.402,0
1486824883.174,43.945,18.555,28.809,23.438,-13.184,0
1486824883.178,93.750,20.020,28.320,54.199,-46.875,0
1486824883.182,74.219,24.902,33.203,80.566,13.672,0
1486824883.186,2.930,20.996,41.016,72.754,73.242,0
1486824883.190,-20.020,33.691,46.875,58.594,103.516,0
1486824883.193,41.504,32.715,37.598,22.461,24.902,0
1486824883.197,79.102,13.672,27.832,39.062,-6.836,0
1486824883.201,73.730,19.531,30.762,77.637,38.086,0
1486824883.205,18.555,23.926,34.668,72.266,81.055,0
1486824883.209,-23.438,20.996,36.621,54.199,112.793,0
1486824883.213,22.461,18.555,30.273,24.902,19.531,0
1486824883.217,85.449,20.508,33.203,45.898,-47.852,0
1486824883.221,83.496,25.391,36.621,76.660,-16.602,0
1486824883.225,26.367,26.855,43.945,75.195,73.242,0
1486824883.229,-20.020,24.414,44.922,68.359,153.320,0
1486824883.233,19.531,23.926,38.574,31.738,62.988,0
1486824883.236,81.543,24.414,36.621,37.598,-46.387,0
1486824883.240,81.543,26.855,35.156,78.125,-7.812,0
1486824883.244,27.832,28.809,45.410,75.684,42.480,0
1486824883.248,-24.902,25.391,49.805,68.848,124.512,0
1486824883.252,13.672,22.949,34.668,40.527,105.957,0
1486824883.256,84.961,23.926,29.297,41.016,-7.812,0
1486824883.260,89.355,21.973,32.715,71.289,16.602,0
1486824883.264,52.734,36.133,43.945,82.031,56.152,0
1486824883.268,-13.184,36.133,41.992,83.984,130.371,0
1486824883.272,-21.973,16.113,29.785,42.969,132.812,0
1486824883.275,57.617,19.043,33.691,28.809,6.836,0
1486824883.279,82.031,22.949,32.227,69.336,-12.695,0
1486824883.283,37.109,22.949,30.762,68.359,17.578,0
1486824883.287,-21.484,25.391,40.039,60.059,92.773,0
1486824883.291,-14.648,28.809,41.504,41.016,132.324,0
1486824883.295,57.129,24.902,29.785,14.160,-4.395,0
1486824883.299,83.496,22.949,27.344,55.176,-40.039,1
1486824883.303,44.922,24.414,38.574,77.637,20.996,0
1486824883.307,-16.113,25.879,45.410,70.312,94.727,0
1486824883.311,-19.043,28.320,39.062,51.758,125.488,0
1486824883.315,48.828,27.344,36.133,21.973,29.785,0
1486824883.318,81.055,27.344,31.738,53.711,-11.719,0
1486824883.322,54.199,28.320,38.574,75.195,30.273,0
1486824883.326,-6.836,26.855,43.457,62.500,84.961,0
1486824883.330,-23.438,27.832,35.156,42.969,88.379,0
1486824883.334,45.410,24.902,37.109,16.113,7.324,0
1486824883.338,84.961,22.461,36.621,49.805,2.930,0
1486824883.342,52.734,26.367,38.086,73.242,6.348,0
1486824883.346,-7.812,30.762,36.133,62.988,43.945,0
1486824883.350,-26.367,27.832,32.715,51.758,103.027,0
1486824883.354,40.039,26.855,33.203,24.902,-9.766,0
1486824883.358,94.238,27.832,37.109,56.641,-79.102,0
1486824883.361,75.195,28.320,47.852,88.379,-12.695,0
1486824883.365,23.926,35.645,44.922,78.613,51.758,0
1486824883.369,-1.953,39.551,36.133,69.824,116.699,0
1486824883.373,24.902,23.438,25.391,22.461,70.312,0
1486824883.377,71.777,22.461,27.344,29.785,-33.203,0
1486824883.381,74.707,30.273,31.250,65.430,20.020,0
1486824883.385,15.625,30.762,27.832,59.082,110.840,0
1486824883.389,-27.832,28.320,28.320,55.664,144.531,0
1486824883.393,23.926,23.438,33.691,20.996,79.102,0
1486824883.397,93.262,26.367,38.086,27.832,-6.836,0
1486824883.400,94.238,29.297,38.574,72.266,6.836,0
1486824883.404,41.504,31.738,40.527,69.336,46.875,0
1486824883.408,-17.578,33.203,39.551,64.453,115.234,0
1486824883.412,9.277,29.297,32.715,29.297,82.520,0
1486824883.416,67.383,23.926,33.691,35.645,20.020,0
1486824883.420,74.219,22.461,39.062,81.055,49.805,0
1486824883.424,29.297,24.902,32.715,71.289,59.082,0
1486824883.428,-24.414,23.926,31.738,65.918,116.699,0
1486824883.432,-2.930,23.438,33.691,38.574,139.160,0
1486824883.436,69.824,25.879,36.621,29.785,-16.602,0
1486824883.440,94.727,28.320,42.969,79.102,-59.570,0
1486824883.443,46.387,28.320,41.992,82.031,-12.207,0
1486824883.447,-12.695,30.762,41.016,70.801,65.918,0
1486824883.451,-2.441,34.180,42.969,48.828,75.684,0
1486824883.455,55.664,21.973,35.645,30.273,-8.789,0
1486824883.459,88.379,19.043,36.133,69.824,-19.531,0
1486824883.463,53.711,26.367,37.598,73.242,15.137,0
1486824883.467,-12.207,24.902,36.133,70.312,100.586,0
1486824883.471,-17.090,22.461,40.039,51.758,103.027,0
1486824883.475,50.293,19.531,37.109,29.297,-9.277,0
1486824883.479,95.703,20.508,42.969,76.172,-6.348,0
1486824883.483,66.406,26.367,45.898,86.426,35.156,0
1486824883.486,-5.859,26.855,34.668,76.172,83.496,0
1486824883.490,-23.438,23.926,35.645,46.387,117.188,0
1486824883.494,44.922,24.414,32.715,12.207,-24.902,0
1486824883.498,86.914,21.973,29.785,57.129,-56.152,0
1486824883.502,63.965,23.438,34.668,79.102,-3.906,0
1486824883.506,1.465,25.391,35.645,70.312,32.715,0
1486824883.510,-20.996,22.949,31.738,50.781,85.449,0
1486824883.514,39.062,23.438,33.203,20.996,-17.578,0
1486824883.518,90.820,23.926,43.945,58.594,-32.715,0
1486824883.522,78.125,29.785,47.852,79.590,27.344,0
1486824883.525,14.160,31.738,35.156,72.754,90.332,0
1486824883.529,-15.625,26.367,26.367,62.012,138.672,0
1486824883.533,39.551,27.832,28.320,30.762,22.461,0
1486824883.537,98.633,25.879,33.203,54.688,-23.926,0
1486824883.541,90.332,21.973,34.668,83.496,25.879,0
1486824883.545,34.180,27.344,36.621,82.031,37.598,0
1486824883.549,-8.789,25.879,37.598,65.430,76.172,0
1486824883.553,33.691,24.414,36.621,31.738,17.090,0
1486824883.557,97.168,25.391,32.715,52.734,-39.551,0
1486824883.561,95.703,27.344,41.504,85.449,9.277,0
1486824883.565,39.551,28.320,48.340,77.637,56.152,0
1486824883.568,-14.648,29.785,36.133,71.777,142.578,0
1486824883.572,19.531,29.297,34.668,43.457,103.516,0
1486824883.576,83.496,27.344,32.227,46.875,-19.043,0
1486824883.580,89.844,29.297,31.738,83.008,-4.395,0
1486824883.584,45.898,29.785,40.527,76.660,43.457,0
1486824883.588,-10.254,31.250,37.109,57.617,94.238,0
1486824883.592,7.324,29.297,33.203,46.387,93.262,0
1486824883.596,77.148,26.367,33.691,47.363,22.949,0
1486824883.600,103.516,32.715,44.922,73.730,31.250,0
1486824883.604,62.500,33.203,54.199,79.102,59.570,0
1486824883.607,-4.395,30.762,39.551,68.359,113.770,0
1486824883.611,-0.977,27.344,28.809,42.969,100.098,0
1486824883.615,79.590,36.133,39.551,49.316,-0.488,0
1486824883.619,111.328,37.598,45.898,83.496,-1.953,0
1486824883.623,56.152,24.902,33.203,70.312,20.996,0
1486824883.627,-8.789,28.809,33.691,60.547,44.922,0
1486824883.631,-3.906,28.809,34.180,46.875,72.266,0
1486824883.635,67.871,26.367,31.738,31.738,-0.488,0
1486824883.639,104.980,30.273,31.738,64.941,-16.602,0
1486824883.643,62.988,32.227,35.645,83.496,14.160,0
1486824883.647,-2.930,28.320,39.551,72.266,72.266,0
1486824883.650,-12.207,25.391,35.156,48.340,126.953,0
1486824883.654,56.152,28.320,27.344,29.297,14.160,0
1486824883.658,100.098,30.273,30.273,70.312,-34.668,0
1486824883.662,76.172,31.250,35.156,82.520,31.738,0
1486824883.666,10.254,33.203,35.156,69.336,93.750,0
1486824883.670,-16.602,31.738,35.156,56.152,136.230,0
1486824883.674,48.828,28.320,49.316,36.133,25.879,0
1486824883.678,102.539,27.344,44.922,62.012,-9.277,0
1486824883.682,81.543,30.762,24.414,82.031,60.059,0
1486824883.686,9.766,29.297,31.738,77.148,85.938,0
1486824883.690,-28.809,26.367,40.039,59.082,111.328,0
1486824883.693,24.414,23.438,34.668,26.855,20.508,0
1486824883.697,84.961,23.926,31.250,49.316,-76.172,0
1486824883.701,76.172,24.414,35.156,80.566,-16.602,0
1486824883.705,16.113,25.391,36.621,73.242,68.848,0
1486824883.709,-22.949,27.344,36.133,61.523,82.031,0
1486824883.713,22.949,27.344,36.133,38.574,44.922,0
1486824883.717,83.008,27.832,32.715,47.363,-47.363,0
1486824883.721,84.473,27.344,41.992,78.125,-34.668,0
1486824883.725,22.461,25.879,48.828,73.730,60.059,0
1486824883.729,-16.113,37.598,46.875,78.125,111.816,0
1486824883.732,18.555,33.691,38.574,48.340,31.250,0
1486824883.736,73.242,19.043,30.762,42.969,-54.688,0
1486824883.740,83.008,21.973,30.762,77.148,-29.785,0
1486824883.744,22.461,22.461,30.273,66.406,25.879,0
1486824883.748,-31.250,24.902,36.621,62.012,128.906,0
1486824883.752,5.371,27.832,35.645,46.875,87.891,0
1486824883.756,83.008,29.785,36.133,47.852,-8.301,0
1486824883.760,88.867,29.297,42.480,81.543,65.430,0
1486824883.764,31.738,28.320,39.062,77.148,70.312,0
1486824883.768,-16.602,29.297,30.273,66.895,88.867,0
1486824883.772,-0.488,29.785,31.738,43.457,108.887,0
1486824883.775,59.570,24.902,41.016,35.645,-1.465,0
1486824883.779,86.426,21.973,38.574,71.289,15.137,0
1486824883.783,43.945,26.855,33.203,65.430,46.387,0
1486824883.787,-22.949,28.809,34.668,58.105,67.871,0
1486824883.791,-14.648,25.879,31.738,48.340,92.285,0
1486824883.795,58.105,26.855,33.203,28.809,-11.719,0
1486824883.799,88.867,28.320,44.922,69.336,-41.504,0
1486824883.803,47.852,25.391,42.480,78.613,16.113,0
1486824883.807,-15.137,25.391,40.039,62.500,102.539,0
1486824883.811,-21.973,20.508,42.480,48.828,145.996,0
1486824883.814,46.387,18.555,30.762,21.484,9.766,0
1486824883.818,83.984,23.926,38.574,63.477,-41.016,0
1486824883.822,54.199,27.344,42.480,85.449,17.578,0
1486824883.826,-4.883,32.227,35.156,68.848,87.402,0
1486824883.830,-25.879,26.855,32.715,53.223,89.844,0
1486824883.834,45.410,32.227,38.086,29.785,-38.574,0
1486824883.838,102.539,33.691,43.945,62.012,-45.898,0
1486824883.842,51.758,16.113,31.738,71.289,23.926,0
1486824883.846,-13.672,19.043,37.598,64.453,86.426,0
1486824883.850,-24.414,25.391,40.527,62.012,147.461,0
1486824883.854,29.297,25.391,39.551,24.902,69.824,0
1486824883.857,80.078,24.902,35.156,41.992,-27.832,0
1486824883.861,72.266,26.367,35.156,78.125,-8.789,0
1486824883.865,13.184,28.320,41.992,70.801,34.180,0
1486824883.869,-21.484,28.320,42.969,66.406,97.656,2
1486824883.873,23.926,26.367,32.227,33.691,60.547,0
1486824883.877,82.520,24.414,31.738,44.434,-28.320,0
1486824883.881,89.844,26.367,40.527,82.031,3.906,0
1486824883.885,35.156,30.762,40.039,71.777,50.293,0
1486824883.889,-18.555,29.297,40.039,66.895,104.980,0
1486824883.893,13.672,24.414,39.551,32.715,31.250,0
1486824883.897,83.984,26.855,39.551,40.039,-81.055,0
1486824883.900,86.426,26.855,31.738,76.660,-46.387,0
1486824883.904,42.969,38.086,42.480,73.730,-3.906,0
1486824883.908,-3.418,42.969,47.852,73.730,51.270,0
1486824883.912,5.859,27.832,28.809,37.109,65.430,0
1486824883.916,78.125,27.832,29.297,30.762,-42.969,0
1486824883.920,91.797,25.879,28.809,68.359,-13.184,0
1486824883.924,40.527,25.879,33.203,69.336,56.641,0
1486824883.928,-17.090,28.320,42.480,62.012,93.262,0
1486824883.932,-5.371,26.855,40.527,39.551,127.441,0
1486824883.936,61.035,25.391,34.180,32.715,4.883,0
1486824883.939,83.984,25.879,34.668,75.684,6.348,0
1486824883.943,47.363,30.273,41.504,71.777,43.457,0
1486824883.947,-14.160,30.762,48.828,62.988,87.891,0
1486824883.951,-12.695,24.414,38.086,44.922,107.910,0
1486824883.955,54.199,23.438,23.926,22.949,-32.715,0
1486824883.959,83.008,25.391,29.297,61.035,-64.941,0
1486824883.963,50.293,27.344,32.715,73.242,27.344,0
1486824883.967,-10.742,28.320,34.180,64.453,106.934,0
1486824883.971,-17.090,27.344,37.109,41.504,110.352,0
1486824883.975,51.758,25.879,41.992,23.438,13.672,0
1486824883.979,86.426,21.973,38.574,55.176,-27.344,0
1486824883.982,69.824,35.156,44.434,74.707,-12.695,0
1486824883.986,19.531,38.086,51.270,81.055,63.477,0
1486824883.990,-17.090,22.461,39.062,50.293,99.609,0
1486824883.994,36.621,21.973,33.203,20.996,-29.297,0
1486824883.998,85.449,21.484,23.926,50.293,-26.855,0
1486824884.002,61.035,24.414,28.320,63.965,50.293,0
1486824884.006,1.465,26.855,37.109,65.918,79.590,0
1486824884.010,-25.879,23.926,33.691,55.176,130.371,0
1486824884.014,29.785,21.484,29.297,18.555,25.391,0
1486824884.018,88.379,22.949,39.551,57.129,-38.574,0
1486824884.022,78.613,25.391,46.875,76.660,35.156,0
1486824884.025,16.602,25.391,40.039,63.477,117.188,0
1486824884.029,-20.020,24.902,35.645,60.059,173.828,0
1486824884.033,34.180,25.879,38.574,25.391,66.406,0
1486824884.037,91.797,23.438,38.086,48.340,-26.367,0
1486824884.041,91.797,25.391,37.109,79.102,41.992,0
1486824884.045,36.133,29.785,37.109,69.824,75.684,0
1486824884.049,-12.207,27.832,35.645,62.500,136.230,0
1486824884.053,30.762,28.809,40.039,33.203,44.434,0
1486824884.057,92.285,27.344,38.086,42.480,-50.781,0
1486824884.061,87.402,26.367,31.738,67.871,57.617,0
1486824884.064,28.320,26.367,32.227,56.152,89.355,0
1486824884.068,-29.297,24.902,33.203,59.082,113.281,0
1486824884.072,1.953,33.691,40.039,40.039,75.684,0
1486824884.076,83.496,39.062,50.293,42.969,-23.926,0
1486824884.080,83.008,23.926,40.527,69.824,19.531,0
1486824884.084,31.738,23.438,33.691,68.359,66.406,0
1486824884.088,-19.531,25.879,35.645,65.430,125.488,0
1486824884.092,1.465,27.344,39.062,43.945,91.309,0
1486824884.096,75.684,27.344,39.062,41.504,-30.273,0
1486824884.100,91.797,26.855,28.809,68.848,29.785,0
1486824884.104,47.363,30.273,26.855,69.824,89.844,0
1486824884.107,-9.766,31.250,33.691,69.336,138.672,0
1486824884.111,-2.930,27.832,36.621,49.316,152.344,0
1486824884.115,69.824,29.297,33.691,41.016,34.668,0
1486824884.119,98.633,29.785,34.668,71.289,17.090,0
1486824884.123,59.082,25.879,34.180,74.707,53.223,0
1486824884.127,-3.418,27.832,32.715,77.148,91.309,0
1486824884.131,-7.812,27.832,30.762,55.664,114.746,0
1486824884.135,65.918,23.926,36.621,35.156,-7.812,0
1486824884.139,97.168,24.414,39.062,72.754,-17.090,0
1486824884.143,56.641,26.855,33.691,80.566,41.016,0
1486824884.146,-3.418,28.809,38.574,74.707,96.191,0
1486824884.150,-15.137,25.879,40.527,61.035,145.996,0
1486824884.154,51.758,26.367,35.645,37.598,30.762,0
1486824884.158,104.004,27.344,35.645,69.824,-18.066,0
1486824884.162,80.566,31.250,43.945,84.473,21.973,0
1486824884.166,7.812,24.902,40.527,71.777,65.430,0
1486824884.170,-14.648,21.973,36.133,61.523,112.305,0
1486824884.174,41.504,25.879,29.297,28.809,15.625,0
1486824884.178,90.820,25.391,22.949,47.363,-25.879,0
1486824884.182,77.148,23.438,28.809,70.312,32.715,0
1486824884.186,12.695,23.438,34.668,63.965,50.781,0
1486824884.189,-22.949,24.902,39.062,56.641,83.984,0
1486824884.193,22.461,24.902,33.691,26.367,1.953,0
1486824884.197,91.309,25.391,27.832,40.039,-73.730,0
1486824884.201,89.844,27.344,38.086,71.777,-23.438,0
1486824884.205,26.367,26.855,41.992,68.359,40.039,0
1486824884.209,-19.043,25.391,38.086,59.082,128.906,0
1486824884.213,26.367,22.461,33.203,34.180,66.895,0
1486824884.217,90.332,20.508,25.391,37.598,-43.457,0
1486824884.221,82.031,24.414,27.344,69.336,-32.227,0
1486824884.225,24.902,26.367,33.691,74.707,15.137,0
1486824884.229,-14.648,25.879,30.762,63.965,116.211,0
1486824884.232,18.066,24.414,26.367,41.016,110.352,0
1486824884.236,81.055,22.949,30.762,41.016,-11.230,0
1486824884.240,97.168,25.391,33.691,77.637,20.020,0
1486824884.244,41.504,29.785,34.180,74.707,40.527,0
1486824884.248,-18.555,29.785,46.875,69.824,101.562,0
1486824884.252,2.441,24.414,46.875,54.199,149.902,0
1486824884.256,81.543,35.156,39.551,41.992,56.152,0
1486824884.260,101.074,32.715,35.645,63.477,47.852,0
1486824884.264,36.621,20.020,31.738,57.129,67.383,0
1486824884.268,-18.555,27.344,38.574,57.129,127.441,0
1486824884.271,-0.977,24.414,37.109,41.504,146.973,0
1486824884.275,60.547,19.043,38.086,25.879,48.828,0
1486824884.279,81.055,21.484,39.062,61.523,20.996,0
1486824884.283,49.805,25.391,44.434,78.125,65.430,0
1486824884.287,-9.277,28.320,45.898,69.824,122.070,0
1486824884.291,-7.812,28.320,40.527,49.805,98.633,0
1486824884.295,56.152,24.902,39.551,29.297,-12.207,0
1486824884.299,87.402,25.391,31.738,63.965,-17.578,0
1486824884.303,60.059,26.855,33.203,85.938,29.785,0
1486824884.307,-6.348,28.320,39.062,77.637,88.867,0
1486824884.311,-22.461,28.809,41.016,57.617,134.277,0
1486824884.314,49.805,27.832,41.016,31.250,37.598,0
1486824884.318,105.469,29.785,39.551,65.918,-23.438,0
1486824884.322,70.312,28.320,43.945,84.961,5.371,0
1486824884.326,-1.465,25.391,46.875,77.148,53.711,0
1486824884.330,-21.484,26.367,39.551,64.941,118.652,0
1486824884.334,37.109,29.297,37.598,25.391,6.348,0
1486824884.338,89.844,22.949,28.320,44.922,-66.895,0
1486824884.342,79.590,30.762,40.039,90.820,9.277,0
1486824884.346,12.695,35.645,51.270,86.914,74.707,0
1486824884.350,-31.738,20.020,28.809,58.594,132.812,0
1486824884.354,27.832,21.484,30.762,30.273,59.570,0
1486824884.357,90.820,22.949,35.156,49.316,-10.254,0
1486824884.361,83.008,27.344,39.062,82.520,40.527,0
1486824884.365,22.949,28.809,41.504,76.660,71.777,0
1486824884.369,-17.578,25.879,40.039,65.430,113.281,0
1486824884.373,29.297,26.367,40.527,35.645,49.316,0
1486824884.377,86.426,27.832,41.504,44.922,-56.152,0
1486824884.381,81.055,27.344,41.504,79.102,-31.738,0
1486824884.385,31.250,30.762,34.668,76.172,20.996,0
1486824884.389,-16.602,32.227,37.598,62.500,90.332,0
1486824884.393,13.184,25.879,41.992,37.598,51.758,0
1486824884.396,81.543,26.855,38.574,40.527,-30.762,0
1486824884.400,93.262,29.785,39.551,72.266,37.598,0
1486824884.404,39.551,28.809,44.922,69.824,73.730,0
1486824884.408,-14.648,28.320,40.527,64.453,121.582,0
1486824884.412,4.883,27.832,38.086,40.527,98.633,0
1486824884.416,69.824,28.809,39.551,31.738,-28.809,0
1486824884.420,86.914,24.414,41.016,63.965,-4.883,0
1486824884.424,44.922,24.902,41.992,66.895,46.875,0
1486824884.428,-7.324,28.320,46.387,66.406,97.168,0
1486824884.432,-4.395,22.949,43.457,44.434,118.164,0
1486824884.436,58.594,23.926,37.109,35.156,14.648,0
1486824884.439,90.332,25.879,38.086,77.148,7.812,0
1486824884.443,47.852,26.855,37.109,75.684,25.879,0
1486824884.447,-15.625,29.297,35.156,63.965,61.035,0
1486824884.451,-6.836,29.785,39.062,49.805,105.957,0
1486824884.455,64.453,27.344,44.922,35.156,9.766,0
1486824884.459,102.539,26.855,37.598,69.336,-5.859,0
1486824884.463,60.547,27.344,34.668,78.125,50.781,0
1486824884.467,-10.254,27.344,39.062,68.848,75.684,0
1486824884.471,-16.113,26.855,40.039,53.223,109.375,0
1486824884.475,52.734,24.902,35.156,29.297,18.555,0
1486824884.478,100.098,25.879,35.645,65.430,-48.828,0
1486824884.482,71.777,27.832,42.969,79.590,-13.672,0
1486824884.486,0.977,26.855,38.574,67.871,46.387,0
1486824884.490,-17.578,24.902,32.227,51.758,93.262,0
1486824884.494,42.969,23.438,32.715,16.113,-18.555,0
1486824884.498,98.145,35.156,55.176,63.965,-69.336,0
1486824884.502,71.777,30.762,49.316,81.055,12.207,0
1486824884.506,-4.883,20.020,26.855,49.805,66.406,0
1486824884.510,-38.574,24.414,32.715,42.969,127.930,0
1486824884.514,10.742,22.461,37.109,16.113,52.246,0
1486824884.518,78.125,22.461,40.039,41.016,-46.875,0
1486824884.521,68.359,23.438,36.621,66.895,0.488,0
1486824884.525,2.930,21.484,32.227,56.152,64.453,1
1486824884.529,-32.715,20.996,37.109,54.688,120.117,0
1486824884.533,14.160,21.484,38.574,22.949,85.449,0
1486824884.537,82.520,22.461,32.227,29.785,-10.254,0
1486824884.541,82.520,28.809,31.738,73.242,-11.230,0
1486824884.545,22.949,31.250,36.621,75.684,39.062,0
1486824884.549,-23.438,29.297,44.922,65.918,133.301,0
1486824884.553,14.648,28.809,41.016,40.527,102.539,0
1486824884.557,78.613,29.785,37.598,44.922,-9.766,0
1486824884.561,83.984,32.715,44.922,75.684,10.742,0
1486824884.564,29.297,28.320,35.156,65.918,37.598,0
1486824884.568,-17.090,30.762,42.480,64.453,100.098,0
1486824884.572,14.160,36.133,52.246,41.992,67.871,0
1486824884.576,70.801,22.461,28.320,28.320,-29.785,0
1486824884.580,84.961,20.020,26.855,71.289,32.715,0
1486824884.584,45.898,26.855,39.062,72.754,65.430,0
1486824884.588,-14.160,24.902,43.457,61.523,100.098,0
1486824884.592,-1.465,25.391,51.270,46.387,74.219,0
1486824884.596,70.801,24.902,49.805,46.875,-39.062,0
1486824884.600,94.238,22.461,46.875,83.984,-40.527,0
1486824884.603,58.105,27.832,51.270,85.449,39.062,0
1486824884.607,-5.371,27.832,45.410,82.031,99.609,0
1486824884.611,0.977,27.344,38.574,62.012,91.309,0
1486824884.615,70.312,28.809,41.992,38.086,-6.348,0
1486824884.619,102.051,25.879,40.527,71.777,-21.484,0
1486824884.623,64.453,29.297,37.598,77.148,21.484,0
1486824884.627,1.465,31.250,42.969,67.871,82.520,0
1486824884.631,-9.766,24.902,39.551,51.270,132.324,0
1486824884.635,51.270,23.926,40.527,36.133,18.555,0
1486824884.639,88.379,24.902,48.828,70.312,-0.488,0
1486824884.643,59.082,28.320,50.293,83.984,27.832,0
1486824884.646,-2.441,31.738,57.617,77.637,69.336,0
1486824884.650,-24.902,26.367,42.969,47.852,133.301,0
1486824884.654,55.176,33.691,37.109,30.762,25.879,0
1486824884.658,114.258,37.598,42.480,68.848,-30.273,0
1486824884.662,71.289,22.949,28.320,73.242,24.902,0
1486824884.666,3.418,23.438,32.715,65.430,95.703,0
1486824884.670,-18.555,26.855,36.621,54.688,130.859,0
1486824884.674,39.551,29.297,37.109,29.785,33.203,0
1486824884.678,96.680,30.762,40.527,54.688,-13.672,0
1486824884.682,90.820,31.250,46.875,83.008,30.273,0
1486824884.686,25.879,32.715,45.898,75.684,61.523,0
1486824884.689,-13.672,31.250,40.527,65.918,116.211,0
1486824884.693,37.598,28.809,42.969,38.574,69.824,0
1486824884.697,101.562,31.738,43.945,52.734,-30.273,0
1486824884.701,96.191,31.250,44.434,84.961,-4.395,0
1486824884.705,37.598,29.297,41.504,82.031,66.406,0
1486824884.709,-13.672,27.832,34.180,67.871,115.234,0
1486824884.713,24.902,27.344,38.574,39.062,41.992,0
1486824884.717,90.332,24.414,36.621,46.875,-51.758,0
1486824884.721,94.238,29.297,36.133,79.590,-9.766,0
1486824884.725,44.434,39.551,48.828,88.379,49.805,0
1486824884.728,-27.344,25.879,41.016,66.406,130.371,0
1486824884.732,-2.930,18.555,31.250,32.715,87.402,0
1486824884.736,69.824,24.902,36.133,47.363,-23.438,0
1486824884.740,77.637,26.367,46.875,81.543,13.184,0
1486824884.744,38.086,27.832,40.039,80.078,58.594,0
1486824884.748,-11.719,27.832,38.574,70.312,141.602,0
1486824884.752,3.418,26.367,38.086,46.387,149.902,0
1486824884.756,63.965,27.344,26.855,38.086,-6.348,0
1486824884.760,87.402,28.320,35.645,70.312,2.441,0
1486824884.764,54.199,31.738,43.945,80.566,66.895,0
1486824884.768,-8.789,33.203,33.691,72.266,122.070,0
1486824884.771,-2.441,32.715,35.156,53.223,129.883,0
1486824884.775,72.754,30.273,39.551,47.852,13.184,0
1486824884.779,110.840,30.762,45.898,86.426,-4.395,0
1486824884.783,72.266,33.691,56.641,92.773,22.949,0
1486824884.787,-2.441,32.227,43.457,71.289,112.305,0
1486824884.791,-14.160,30.273,33.203,42.969,150.879,0
1486824884.795,56.152,33.203,42.969,27.344,-16.113,0
1486824884.799,92.285,25.391,34.180,55.664,-50.293,0
1486824884.803,53.223,20.996,33.691,64.453,30.273,0
1486824884.807,-18.066,26.855,42.480,49.316,85.449,0
1486824884.810,-31.738,23.926,38.086,38.574,117.676,0
1486824884.814,35.156,23.438,34.180,20.508,14.648,0
1486824884.818,83.008,26.367,37.598,54.199,-53.711,0
1486824884.822,62.988,28.320,40.527,81.543,2.441,0
1486824884.826,-0.977,28.809,36.133,61.523,80.566,0
1486824884.830,-28.320,27.344,33.203,48.828,127.441,0
1486824884.834,23.438,23.926,34.668,23.926,33.691,0
1486824884.838,81.543,21.973,35.645,46.387,-46.387,0
1486824884.842,69.824,23.926,35.156,79.590,8.789,0
1486824884.846,4.883,27.344,44.434,63.477,59.570,0
1486824884.850,-20.996,28.809,49.316,50.293,92.285,0
1486824884.853,33.203,27.832,38.086,25.391,26.367,0
1486824884.857,89.355,27.344,39.062,44.922,-24.414,0
1486824884.861,79.102,25.391,45.898,83.496,49.316,0
1486824884.865,18.066,22.949,40.039,72.266,70.312,0
1486824884.869,-21.484,22.461,38.086,64.941,120.605,0
1486824884.873,22.461,24.902,43.945,44.434,75.684,0
1486824884.877,83.984,26.367,37.109,46.875,-34.668,0
1486824884.881,93.262,25.879,37.598,82.031,-0.488,0
1486824884.885,38.086,27.832,42.969,71.289,74.219,0
1486824884.889,-14.648,33.203,42.969,53.223,112.793,0
1486824884.893,13.672,29.785,46.875,34.668,47.363,0
1486824884.896,75.684,25.879,38.086,35.645,-7.324,0
1486824884.900,84.961,27.344,33.691,78.613,33.203,0
1486824884.904,39.551,27.832,39.062,74.219,35.156,0
1486824884.908,-11.719,26.367,42.480,64.941,91.797,0
1486824884.912,6.836,25.391,45.410,58.105,95.215,0
1486824884.916,75.684,23.926,40.039,46.387,6.836,0
1486824884.920,105.957,35.645,42.969,78.125,22.949,0
1486824884.924,58.105,35.645,45.898,74.219,44.434,0
1486824884.928,-22.461,20.996,36.621,56.152,81.055,0
1486824884.932,-15.137,24.414,39.062,43.945,123.535,0
1486824884.935,57.617,24.902,36.133,28.320,12.695,0
1486824884.939,89.844,27.832,37.598,63.477,-29.785,0
1486824884.943,54.688,28.320,40.039,73.730,17.090,0
1486824884.947,-8.789,29.785,35.645,64.453,71.777,0
1486824884.951,-17.578,28.809,31.738,44.922,95.215,0
1486824884.955,52.734,27.832,38.086,23.926,13.184,0
1486824884.959,99.121,29.785,43.945,62.500,9.766,0
1486824884.963,64.941,27.832,38.574,74.219,55.664,0
1486824884.967,-12.207,27.832,35.645,64.453,100.586,0
1486824884.971,-26.855,28.320,36.133,59.082,117.188,0
1486824884.975,43.457,23.438,36.621,35.156,-8.301,0
1486824884.978,95.215,24.902,33.203,62.012,-30.273,0
1486824884.982,75.195,31.738,38.086,79.590,48.340,0
1486824884.986,2.441,32.227,40.039,71.289,86.426,0
1486824884.990,-26.855,29.297,32.227,65.430,135.254,0
1486824884.994,33.203,26.367,42.969,33.203,45.898,0
1486824884.998,97.656,33.691,45.898,59.082,1.465,0
1486824885.002,71.289,26.855,27.832,66.895,54.688,0
1486824885.006,-3.906,19.043,28.320,44.922,97.168,0
1486824885.010,-27.344,25.391,42.480,52.734,128.906,0
1486824885.014,25.391,23.438,41.992,23.926,63.965,0
1486824885.018,78.613,24.414,36.621,41.504,-15.137,0
1486824885.021,68.848,26.855,41.016,79.102,27.344,0
1486824885.025,16.113,30.273,41.016,74.219,120.117,0
1486824885.029,-28.320,29.297,38.574,67.383,135.254,0
1486824885.033,11.719,22.949,37.109,30.762,51.758,0
1486824885.037,85.938,23.926,29.785,37.109,-40.039,0
1486824885.041,81.055,27.344,29.297,74.219,16.602,0
1486824885.045,18.555,27.344,36.621,70.312,89.355,0
1486824885.049,-23.926,23.926,35.645,64.453,164.551,0
1486824885.053,8.301,22.461,38.574,33.203,105.957,0
1486824885.057,77.148,24.902,43.457,35.156,-20.996,0
1486824885.060,83.984,25.391,40.039,73.730,39.551,0
1486824885.064,27.832,23.926,39.062,66.406,64.941,0
1486824885.068,-16.113,38.086,50.781,69.824,104.980,0
1486824885.072,-2.930,32.227,42.480,49.316,102.539,0
1486824885.076,53.223,14.648,20.996,28.809,-21.973,0
1486824885.080,83.008,20.508,32.227,59.570,-12.695,0
1486824885.084,38.574,24.414,36.133,64.453,0.000,0
1486824885.088,-23.438,27.832,35.645,68.848,76.660,0
1486824885.092,-14.160,26.367,37.598,50.781,101.562,0
1486824885.096,59.570,22.949,32.715,36.133,-20.020,0
1486824885.100,95.215,24.902,40.039,72.754,-19.043,0
1486824885.103,58.594,28.809,50.293,78.613,33.203,0
1486824885.107,-7.812,29.297,42.480,67.383,73.242,0
1486824885.111,-12.695,24.902,30.762,44.922,78.613,0
1486824885.115,55.664,20.020,33.691,21.973,-34.180,0
1486824885.119,95.703,23.926,38.086,59.082,-49.805,0
1486824885.123,57.617,25.879,35.156,74.219,-14.160,0
1486824885.127,-5.371,22.949,43.457,69.824,16.113,0
1486824885.131,-12.207,21.973,46.387,51.758,83.496,0
1486824885.135,48.828,24.414,35.645,15.625,-48.340,0
1486824885.139,94.238,25.391,33.203,45.410,-101.562,0
1486824885.142,75.684,28.320,39.062,73.242,-48.828,0
1486824885.146,1.953,29.785,42.969,67.871,7.324,0
1486824885.150,-23.926,27.344,44.434,56.152,84.473,0
1486824885.154,37.598,24.902,32.715,27.832,-19.531,0
1486824885.158,92.773,23.926,33.203,57.617,-60.547,1
1486824885.162,83.496,27.832,43.457,89.355,1.953,0
1486824885.166,23.438,30.273,46.875,90.332,55.664,0
1486824885.170,-9.277,26.367,51.758,77.148,104.980,0
1486824885.174,40.039,22.949,47.852,40.039,11.230,0
1486824885.178,88.867,22.461,36.621,57.617,-43.457,0
1486824885.182,77.148,27.832,38.574,89.355,0.488,0
1486824885.185,30.273,34.668,52.246,96.191,28.809,0
1486824885.189,-20.020,21.973,42.480,74.707,95.703,0
1486824885.193,13.672,15.137,36.621,33.691,5.371,0
1486824885.197,85.449,20.508,34.668,53.711,-58.594,0
1486824885.201,87.891,23.926,35.645,84.961,27.344,0
1486824885.205,32.227,25.879,42.969,76.172,39.551,0
1486824885.209,-13.672,24.902,44.922,70.312,105.957,0
1486824885.213,12.695,22.949,37.109,37.598,71.777,0
1486824885.217,80.078,23.438,36.133,33.691,-35.645,0
1486824885.221,92.285,27.344,43.945,75.195,1.953,0
1486824885.225,38.086,27.344,40.527,72.266,36.133,0
1486824885.228,-18.555,25.879,38.086,65.430,135.254,0
1486824885.232,6.348,24.902,41.992,45.410,123.047,0
1486824885.236,77.148,22.949,44.434,41.016,-6.348,0
1486824885.240,94.238,24.902,35.156,78.125,21.973,0
1486824885.244,48.340,29.297,32.715,74.707,54.688,0
1486824885.248,-13.672,26.367,36.621,65.430,98.633,0
1486824885.252,-17.578,23.438,33.203,41.016,88.379,0
1486824885.256,53.711,25.879,35.645,32.715,-10.742,0
1486824885.260,82.031,25.391,36.133,71.289,-8.301,0
1486824885.264,46.387,38.086,45.410,84.473,36.621,0
1486824885.267,-6.348,41.504,52.734,78.613,95.703,0
1486824885.271,-21.973,20.508,30.273,37.109,106.445,0
1486824885.275,51.758,19.043,30.762,18.066,-9.277,0
1486824885.279,87.402,23.438,50.781,59.082,-36.621,0
1486824885.283,51.270,27.832,46.875,68.848,34.180,0
1486824885.287,-7.324,31.250,26.367,54.199,118.164,0
1486824885.291,-18.555,29.297,19.531,39.551,129.883,0
1486824885.295,40.527,26.367,26.855,23.438,32.227,0
1486824885.299,88.867,28.809,32.227,58.594,0.977,0
1486824885.303,67.871,32.227,34.180,79.590,53.711,0
1486824885.307,-2.441,29.785,37.598,74.219,112.305,0
1486824885.310,-25.879,27.832,34.668,61.035,134.766,0
1486824885.314,38.574,24.902,29.297,26.855,47.363,0
1486824885.318,100.098,27.832,40.039,53.711,-11.719,0
1486824885.322,84.961,30.273,45.410,84.473,6.836,0
1486824885.326,8.789,25.879,37.109,77.148,60.547,0
1486824885.330,-27.344,25.879,32.227,61.523,112.793,0
1486824885.334,29.297,26.855,26.855,26.855,44.922,0
1486824885.338,85.938,23.926,24.902,49.805,-12.695,0
1486824885.342,73.242,22.949,28.320,83.496,19.043,0
1486824885.346,13.184,24.414,30.273,73.730,39.551,0
1486824885.350,-21.484,23.438,33.691,65.430,125.977,0
1486824885.353,26.367,23.926,35.156,36.621,89.355,0
1486824885.357,86.914,22.949,36.133,40.527,-14.648,0
1486824885.361,89.355,24.414,40.039,80.078,5.859,0
1486824885.365,38.574,30.762,39.551,84.473,26.367,0
1486824885.369,-6.836,29.297,36.621,75.195,86.426,0
1486824885.373,22.461,22.949,34.180,43.457,53.223,0
1486824885.377,98.145,25.879,36.133,46.875,-50.293,0
1486824885.381,104.492,23.438,33.691,81.055,-32.227,0
1486824885.385,49.316,32.715,37.598,84.961,4.883,0
1486824885.389,-2.441,39.551,49.805,86.914,71.777,0
1486824885.392,2.930,20.996,38.574,46.387,47.363,0
1486824885.396,74.219,22.461,34.668,39.062,-13.184,0
1486824885.400,91.797,27.832,35.156,82.520,33.691,0
1486824885.404,44.922,27.344,35.645,83.496,42.480,0
1486824885.408,-12.207,25.879,41.992,74.707,103.516,0
1486824885.412,-1.465,24.414,39.062,50.293,83.496,0
1486824885.416,71.289,25.879,30.762,31.738,-52.734,0
1486824885.420,93.750,25.391,34.180,64.941,-16.113,0
1486824885.424,48.340,23.926,40.039,77.637,49.316,0
1486824885.428,-15.625,27.344,37.598,68.848,100.586,0
1486824885.432,-13.672,27.832,37.109,49.805,105.469,0
1486824885.435,59.082,23.926,41.504,31.250,-6.836,0
1486824885.439,89.844,22.949,33.691,60.547,9.766,0
1486824885.443,52.246,23.926,29.297,73.730,41.504,0
1486824885.447,-5.371,28.809,42.969,67.383,71.289,0
1486824885.451,-9.766,28.320,42.480,54.199,125.488,0
1486824885.455,57.129,24.414,38.086,20.020,20.020,0
1486824885.459,98.633,26.367,33.691,48.828,-56.152,0
1486824885.463,65.430,27.832,30.273,75.684,23.926,0
1486824885.467,0.000,26.855,34.668,70.312,122.559,0
1486824885.471,-17.578,27.832,34.668,57.129,123.535,0
1486824885.474,41.992,27.832,32.227,19.531,1.953,0
1486824885.478,88.379,27.344,37.109,51.758,-22.461,0
1486824885.482,76.660,31.250,41.504,83.008,29.297,0
1486824885.486,12.207,32.227,35.645,71.289,70.312,0
1486824885.490,-24.902,24.902,33.691,60.059,117.188,0
1486824885.494,38.574,34.180,58.594,38.574,46.387,0
1486824885.498,90.820,32.715,48.340,63.965,-9.766,0
1486824885.502,62.988,15.137,18.066,80.078,57.617,0
1486824885.506,3.906,22.461,28.809,70.801,106.934,0
1486824885.510,-28.809,27.832,34.668,57.617,145.508,0
1486824885.514,24.902,27.344,34.180,18.066,66.895,0
1486824885.517,89.355,26.367,31.250,37.109,-6.836,0
1486824885.521,76.172,25.879,34.180,69.336,32.227,0
1486824885.525,21.484,28.320,36.133,60.547,63.965,0
1486824885.529,-15.625,30.762,34.668,58.105,86.426,0
1486824885.533,27.832,31.250,41.992,33.203,42.969,0
1486824885.537,92.285,29.785,39.062,41.992,-6.836,0
1486824885.541,87.402,27.832,28.809,80.078,21.484,0
1486824885.545,34.668,29.785,32.715,67.383,46.387,0
1486824885.549,-13.672,29.785,27.344,56.152,128.906,0
1486824885.553,10.742,26.855,27.832,27.832,125.488,0
1486824885.557,83.008,24.414,37.109,31.738,7.812,0
1486824885.560,93.262,25.391,32.715,75.195,-2.441,0
1486824885.564,40.039,25.391,32.715,70.312,36.621,0
1486824885.568,-21.973,26.367,38.574,66.406,82.520,0
1486824885.572,-11.230,26.367,38.574,44.922,96.680,0
1486824885.576,75.195,26.855,41.016,44.434,3.906,0
1486824885.580,105.957,33.203,42.969,88.867,-3.418,0
1486824885.584,44.922,24.902,27.832,74.707,57.617,0
1486824885.588,-8.301,21.484,24.902,62.012,117.188,0
1486824885.592,-1.465,24.902,35.645,49.316,112.305,0
1486824885.596,58.105,23.438,38.574,34.668,-22.461,0
1486824885.599,90.820,23.438,38.574,68.848,-44.434,0
1486824885.603,50.781,25.879,38.086,76.660,8.789,0
1486824885.607,-17.578,28.320,40.527,69.336,63.965,0
1486824885.611,-21.973,27.344,40.039,46.875,125.488,0
1486824885.615,52.246,23.438,41.504,22.949,28.320,0
1486824885.619,98.633,25.879,50.781,71.289,-31.250,0
1486824885.623,68.359,30.273,45.410,86.426,-14.160,0
1486824885.627,-1.465,30.762,37.598,75.684,44.434,0
1486824885.631,-24.414,26.855,42.480,59.570,53.711,0
1486824885.635,44.922,25.879,47.363,33.691,-57.129,0
1486824885.639,89.844,26.367,39.062,58.594,-71.777,0
1486824885.642,68.848,27.344,34.180,75.195,-10.254,0
1486824885.646,11.719,32.227,41.992,76.172,66.406,0
1486824885.650,-20.508,31.250,44.434,59.082,116.211,0
1486824885.654,40.039,29.785,45.898,33.203,26.855,0
1486824885.658,105.957,31.738,49.805,68.848,-37.109,0
1486824885.662,82.520,22.949,37.598,81.543,-14.160,0
1486824885.666,16.113,24.902,36.621,74.707,34.668,0
1486824885.670,-19.043,28.809,36.621,61.035,77.148,0
1486824885.674,24.902,22.949,33.203,25.391,14.648,0
1486824885.678,91.797,22.949,33.691,48.828,-45.410,0
1486824885.682,86.426,29.785,35.156,77.637,-3.906,0
1486824885.685,22.461,32.227,40.527,73.730,52.246,0
1486824885.689,-22.461,29.785,42.969,60.547,130.859,0
1486824885.693,13.672,28.809,43.457,25.879,54.199,0
1486824885.697,85.449,28.809,42.480,33.691,-78.613,0
1486824885.701,85.449,28.809,37.109,64.941,-44.434,0
1486824885.705,20.996,29.785,44.922,60.547,11.230,0
1486824885.709,-29.297,29.785,48.340,50.781,112.793,0
1486824885.713,-5.371,27.344,34.180,20.996,84.473,0
1486824885.717,60.547,27.344,27.832,21.484,-39.062,0
1486824885.721,78.613,28.809,32.227,56.641,-37.598,0
1486824885.724,31.250,28.320,38.574,62.500,33.691,0
1486824885.728,-24.902,27.344,41.016,55.664,100.586,0
1486824885.732,-9.277,28.320,33.691,27.832,62.012,0
1486824885.736,62.988,27.832,40.039,29.785,-54.199,0
1486824885.740,87.891,26.855,42.969,69.336,-29.297,0
1486824885.744,51.270,36.621,45.410,82.031,21.484,0
1486824885.748,-13.184,29.297,46.875,75.195,87.891,0
1486824885.752,-14.160,18.555,27.832,46.875,106.445,0
1486824885.756,62.012,21.973,21.973,34.668,16.113,0
1486824885.760,99.609,25.391,31.250,74.219,7.324,0
1486824885.764,63.477,28.320,37.598,80.566,38.574,0
1486824885.767,0.488,28.320,39.062,69.824,97.168,0
1486824885.771,-8.789,28.809,42.969,53.711,137.695,0
1486824885.775,57.617,29.785,42.969,34.180,9.766,0
1486824885.779,99.609,31.250,41.504,61.523,-55.176,0
1486824885.783,60.059,29.297,43.457,73.242,21.484,0
1486824885.787,-14.160,27.344,47.363,65.430,86.426,0
1486824885.791,-22.949,27.832,41.016,48.340,121.094,0
1486824885.795,40.527,28.809,29.785,15.625,35.156,0
1486824885.799,84.961,28.320,29.785,43.945,-16.602,0
1486824885.803,70.312,26.855,37.109,72.754,33.691,0
1486824885.806,13.672,27.832,40.527,65.918,78.613,0
1486824885.810,-14.160,30.762,41.016,50.293,88.867,0
1486824885.814,43.457,32.227,43.945,30.762,24.902,0
1486824885.818,99.121,31.250,41.992,61.035,-4.883,0
1486824885.822,79.102,32.227,39.062,83.496,34.180,0
1486824885.826,20.020,31.250,43.945,75.195,67.871,0
1486824885.830,-11.230,32.715,45.410,74.707,130.859,0
1486824885.834,45.410,36.621,45.410,49.805,65.430,0
1486824885.838,96.680,23.438,36.621,52.246,-43.945,0
1486824885.842,78.125,21.973,27.344,82.520,18.555,0
1486824885.846,19.531,29.785,35.645,85.938,89.355,0
1486824885.849,-25.879,28.320,36.133,73.242,174.316,0
1486824885.853,23.926,29.297,38.086,35.156,119.629,0
1486824885.857,89.844,28.320,40.039,43.945,20.020,0
1486824885.861,82.520,27.344,36.621,79.102,49.316,1
1486824885.865,27.832,29.785,42.969,72.754,82.031,0
1486824885.869,-25.391,28.320,36.621,57.617,147.461,0
1486824885.873,-1.953,27.344,33.203,29.297,119.629,0
1486824885.877,63.965,26.855,38.086,34.180,-8.789,0
1486824885.881,79.590,27.344,26.367,64.941,9.277,0
1486824885.885,28.809,30.273,22.949,57.129,45.898,0
1486824885.889,-24.414,31.250,35.156,60.547,88.379,0
1486824885.892,2.441,30.273,40.527,45.410,102.051,0
1486824885.896,68.848,26.367,32.715,36.621,21.973,0
1486824885.900,102.051,36.621,40.039,87.402,28.809,0
1486824885.904,58.594,41.504,43.457,90.332,90.332,0
1486824885.908,-15.137,27.832,25.879,66.895,157.227,0
1486824885.912,-4.883,25.879,33.691,47.363,148.438,0
1486824885.916,57.617,24.414,41.992,30.273,24.902,0
1486824885.920,89.844,22.461,37.598,73.730,20.996,0
1486824885.924,60.547,26.855,32.715,81.055,68.359,0
1486824885.928,-8.301,29.785,35.156,70.312,104.004,0
1486824885.931,-3.906,26.367,47.852,62.988,112.305,0
1486824885.935,67.383,26.855,42.969,40.527,12.207,0
1486824885.939,95.215,27.832,32.227,69.824,-2.930,0
1486824885.943,63.477,27.832,35.645,83.008,67.871,0
1486824885.947,-0.977,29.297,38.086,66.895,128.906,0
1486824885.951,-18.066,28.809,37.109,43.457,123.047,0
1486824885.955,41.992,26.367,41.992,17.578,8.789,0
1486824885.959,88.867,26.855,42.480,55.664,3.418,0
1486824885.963,61.523,28.320,36.133,75.195,69.336,0
1486824885.967,-12.207,28.809,44.922,66.895,74.219,0
1486824885.971,-34.180,27.832,47.852,58.105,96.191,0
1486824885.974,32.715,26.855,33.203,20.020,16.602,0
1486824885.978,86.426,25.391,28.320,46.875,-24.414,0
1486824885.982,66.895,28.320,30.762,81.055,37.109,0
1486824885.986,12.207,28.320,36.621,77.148,70.312,0
1486824885.990,-11.719,34.668,42.480,77.637,118.652,0
1486824885.994,41.992,36.621,46.387,50.781,40.527,0
1486824885.998,82.031,20.020,41.016,58.105,-41.016,0
1486824886.002,72.266,22.949,44.922,91.309,0.000,0
1486824886.006,17.578,29.785,40.039,85.449,57.129,0
1486824886.010,-24.414,27.344,32.715,74.219,112.793,0
1486824886.014,26.855,27.832,31.738,45.410,59.082,0
1486824886.017,88.379,29.785,34.180,56.641,-44.434,0
1486824886.021,85.449,32.715,40.527,82.031,-22.949,0
1486824886.025,35.645,33.203,43.945,71.289,58.594,0
1486824886.029,-22.949,29.785,41.016,66.895,149.902,0
1486824886.033,2.441,25.391,36.621,37.598,90.820,0
1486824886.037,86.426,25.879,42.969,46.387,-40.527,0
1486824886.041,96.191,29.785,52.246,82.031,-15.625,0
1486824886.045,40.039,29.297,41.016,64.941,21.484,0
1486824886.049,-13.672,29.785,31.250,58.105,83.496,0
1486824886.053,3.418,26.855,28.320,33.691,79.590,0
1486824886.056,86.426,32.227,40.527,35.156,-5.859,0
1486824886.060,113.770,37.598,49.805,79.590,36.621,0
1486824886.064,56.152,23.926,33.691,62.012,69.824,0
1486824886.068,0.977,24.414,41.016,61.035,111.816,0
1486824886.072,12.695,27.344,46.387,50.781,122.559,0
1486824886.076,72.266,25.391,37.598,37.109,6.836,0
1486824886.080,100.098,22.461,38.574,78.125,14.648,0
1486824886.084,63.965,25.391,41.992,78.125,39.551,0
1486824886.088,-1.465,31.738,42.969,72.754,91.309,0
1486824886.092,-1.465,31.250,39.551,62.988,140.625,0
1486824886.096,62.988,27.832,36.621,40.039,12.695,0
1486824886.099,102.051,26.855,40.039,78.125,-21.484,0
1486824886.103,67.383,28.320,41.992,90.820,78.613,0
1486824886.107,-0.977,30.273,44.922,76.172,126.465,0
1486824886.111,-17.578,28.320,43.945,58.105,124.023,0
1486824886.115,45.410,26.367,36.621,25.879,-11.230,0
1486824886.119,97.168,25.879,32.227,52.246,-90.820,0
1486824886.123,67.871,26.855,34.668,66.406,-36.133,0
1486824886.127,2.441,30.273,43.457,61.523,39.062,0
1486824886.131,-14.648,30.273,40.039,63.965,104.004,0
1486824886.135,48.828,30.762,32.227,30.762,0.000,0
1486824886.138,104.004,30.273,34.180,58.594,-66.406,0
1486824886.142,77.148,29.785,33.691,85.449,-18.066,0
1486824886.146,20.508,34.668,43.457,75.684,21.484,0
1486824886.150,1.953,37.109,60.547,82.520,93.750,0
1486824886.154,16.113,20.996,38.574,54.688,91.309,0
1486824886.158,66.406,18.066,22.949,42.480,-11.719,0
1486824886.162,76.660,24.902,32.227,56.641,4.395,0
1486824886.166,17.090,24.902,36.621,62.988,32.715,0
1486824886.170,-19.531,30.273,40.039,53.711,48.340,0
1486824886.174,13.672,28.320,40.527,50.781,70.312,0
1486824886.178,73.730,26.367,36.133,56.152,0.977,0
1486824886.181,86.426,32.227,35.156,54.688,-32.715,0
1486824886.185,23.438,29.785,39.551,59.082,8.789,0
1486824886.189,-32.227,29.785,47.363,62.988,93.750,0
1486824886.193,4.883,30.762,42.969,34.668,67.383,0
1486824886.197,73.242,27.344,34.180,35.156,-38.086,0
1486824886.201,88.379,28.809,33.203,65.430,5.859,0
1486824886.205,34.180,32.715,35.156,61.035,39.062,0
1486824886.209,-23.926,33.691,37.598,63.965,109.375,0
1486824886.213,1.953,33.203,41.016,36.133,70.801,0
1486824886.217,76.172,29.297,42.480,28.809,-87.891,0
1486824886.221,105.957,37.598,51.758,75.684,-30.273,0
1486824886.224,47.852,36.133,45.410,75.684,15.137,0
1486824886.228,-24.414,25.879,37.109,60.547,87.891,0
1486824886.232,-7.324,26.367,36.621,47.363,117.188,0
1486824886.236,67.383,24.902,28.320,40.039,-10.254,0
1486824886.240,103.516,30.273,36.133,69.336,16.602,0
1486824886.244,59.570,32.227,39.062,73.730,87.402,0
1486824886.248,-6.348,29.785,35.645,58.105,99.121,0
1486824886.252,-1.953,30.273,37.109,48.828,107.422,0
1486824886.256,64.941,27.832,32.715,30.273,5.371,0
1486824886.260,103.516,28.320,36.133,46.875,-30.762,0
1486824886.263,62.988,33.203,45.898,69.336,26.855,0
1486824886.267,0.488,32.227,39.062,71.777,54.688,0
1486824886.271,-5.859,33.203,38.574,55.664,78.613,0
1486824886.275,57.129,32.227,41.016,28.809,-26.855,0
1486824886.279,105.469,27.832,37.109,52.734,-53.223,0
1486824886.283,79.590,30.762,38.086,71.289,-2.441,0
1486824886.287,8.789,32.227,38.574,73.242,60.059,0
1486824886.291,-18.066,26.855,32.715,60.059,117.188,0
1486824886.295,53.223,36.133,41.992,44.922,15.625,0
1486824886.299,103.027,38.086,47.852,65.430,-61.035,0
1486824886.303,70.312,24.414,38.086,74.707,-19.043,0
1486824886.306,8.301,27.832,37.109,76.172,37.598,0
1486824886.310,-27.832,29.785,33.203,59.082,77.637,0
1486824886.314,31.738,27.832,30.762,31.250,31.250,0
1486824886.318,103.027,28.809,39.551,51.270,-36.621,0
1486824886.322,92.285,30.762,45.898,87.891,-20.020,0
1486824886.326,21.484,33.203,34.180,88.379,64.941,0
1486824886.330,-28.320,32.227,31.250,58.594,125.000,0
1486824886.334,13.672,30.762,37.598,26.367,75.195,0
1486824886.338,88.379,29.785,42.480,44.922,0.977,0
1486824886.342,93.262,29.785,41.016,84.473,10.254,0
1486824886.346,32.227,30.273,34.668,82.031,25.879,0
1486824886.349,-11.719,32.227,38.086,66.895,82.520,0
1486824886.353,23.438,31.250,45.898,46.387,58.105,0
1486824886.357,83.496,27.344,39.062,43.457,-13.184,0
1486824886.361,97.168,35.645,39.551,83.008,5.371,0
1486824886.365,34.668,33.691,37.598,78.613,40.527,0
1486824886.369,-30.762,23.926,30.273,55.176,92.773,0
1486824886.373,0.000,26.367,35.156,45.410,83.496,0
1486824886.377,77.637,25.879,34.668,43.945,-3.906,0
1486824886.381,91.797,23.438,42.969,75.195,10.742,0
1486824886.385,41.504,22.949,41.504,76.172,31.738,0
1486824886.388,-11.719,26.367,32.715,69.336,56.152,0
1486824886.392,-0.488,23.926,36.621,58.105,74.219,0
1486824886.396,65.430,20.020,36.621,41.504,-24.414,0
1486824886.400,95.215,22.949,37.598,70.312,-38.574,0
1486824886.404,52.734,26.855,37.598,81.543,14.160,0
1486824886.408,-11.719,28.809,38.086,69.336,83.008,0
1486824886.412,-7.324,28.320,40.527,52.246,109.863,0
1486824886.416,66.895,28.809,42.480,35.156,-15.137,0
1486824886.420,100.098,26.855,35.156,64.941,-33.203,0
1486824886.424,61.035,29.297,31.250,77.148,19.531,0
1486824886.428,-7.324,32.715,41.992,77.148,92.285,0
1486824886.431,-11.719,29.297,44.922,58.594,119.141,0
1486824886.435,52.734,25.879,38.086,25.879,-3.906,0
1486824886.439,88.379,26.855,36.621,59.082,-27.344,0
1486824886.443,66.895,33.691,46.875,85.938,-2.441,0
1486824886.447,-6.348,23.438,40.527,67.383,65.430,0
1486824886.451,-24.902,18.066,32.227,53.711,107.422,0
1486824886.455,46.875,23.438,34.180,33.203,9.766,0
1486824886.459,101.074,26.367,41.016,69.824,-17.578,0
1486824886.463,79.590,29.785,40.527,91.309,-12.695,0
1486824886.467,15.625,28.809,40.039,82.031,32.715,0
1486824886.470,-17.090,26.367,47.852,69.336,121.582,0
1486824886.474,34.180,25.879,38.574,27.832,52.246,0
1486824886.478,91.797,25.391,37.109,51.758,15.625,0
1486824886.482,79.102,24.902,42.480,88.379,54.688,0
1486824886.486,12.695,27.832,36.621,74.219,65.918,0
1486824886.490,-22.949,27.832,39.551,64.453,134.277,0
1486824886.494,30.273,25.391,39.062,33.203,57.617,0
1486824886.498,91.309,25.879,34.180,40.039,-25.391,0
1486824886.502,81.543,24.902,37.109,74.219,5.859,0
1486824886.506,27.832,26.855,39.551,75.684,60.059,0
1486824886.510,-15.625,26.367,41.504,66.406,112.305,0
1486824886.513,31.738,35.645,48.828,45.410,55.176,0
1486824886.517,93.750,32.715,45.898,60.059,-14.160,0
1486824886.521,81.543,20.996,31.738,82.520,44.922,0
1486824886.525,32.715,29.297,42.480,74.219,117.676,0
1486824886.529,-12.207,30.273,47.852,67.871,120.605,0
1486824886.533,20.020,27.344,34.180,49.316,69.824,0
1486824886.537,80.078,25.391,30.762,40.527,-8.301,0
1486824886.541,89.355,28.809,39.062,73.242,15.625,0
1486824886.545,42.480,29.785,41.016,78.125,42.969,1
1486824886.549,-15.137,26.855,34.180,69.824,119.141,0
1486824886.553,2.441,24.902,31.738,37.109,117.676,0
1486824886.556,68.848,24.902,37.109,25.879,7.324,0
1486824886.560,89.844,28.320,37.109,66.895,4.883,0
1486824886.564,45.898,29.785,33.691,65.918,6.348,0
1486824886.568,-15.137,27.832,40.527,58.105,87.402,0
1486824886.572,-3.906,30.762,47.363,43.457,136.230,0
1486824886.576,67.871,31.250,39.062,29.785,5.371,0
1486824886.580,97.656,22.949,27.832,65.430,-35.645,0
1486824886.584,56.152,23.438,22.949,70.801,-6.348,0
1486824886.588,-8.301,26.855,32.227,67.871,83.984,0
1486824886.592,-5.859,26.855,36.133,50.781,130.371,0
1486824886.595,60.059,25.879,31.738,28.809,-2.930,0
1486824886.599,92.285,26.855,37.109,68.848,-15.137,0
1486824886.603,74.219,32.227,48.828,93.262,35.645,0
1486824886.607,5.859,26.367,34.668,75.684,100.098,0
1486824886.611,-17.578,23.438,36.133,52.246,131.348,0
1486824886.615,50.293,23.926,44.434,28.809,-19.531,0
1486824886.619,97.168,24.414,31.738,60.547,-52.734,0
1486824886.623,77.148,30.762,37.598,80.078,-17.090,0
1486824886.627,10.254,31.250,44.434,74.707,36.621,0
1486824886.631,-16.113,29.297,33.691,63.965,134.766,0
1486824886.635,42.480,27.832,32.227,29.785,15.137,0
1486824886.638,95.215,27.344,38.574,58.105,-44.922,0
1486824886.642,77.148,26.367,42.969,83.984,-0.977,0
1486824886.646,12.207,29.297,48.340,76.660,64.453,0
1486824886.650,-22.949,28.320,47.363,58.594,122.070,0
1486824886.654,26.367,25.391,36.621,22.461,7.812,0
1486824886.658,90.820,28.320,38.086,48.340,-59.082,0
1486824886.662,81.543,28.809,49.316,77.637,-2.930,0
1486824886.666,20.508,31.738,49.316,76.660,50.781,0
1486824886.670,-26.855,26.855,37.109,69.824,111.816,0
1486824886.674,17.578,26.367,37.109,39.551,45.898,0
1486824886.678,91.797,35.156,48.828,60.547,-51.270,0
1486824886.681,85.449,22.949,34.668,90.820,7.324,0
1486824886.685,36.133,23.438,29.785,82.520,70.801,0
1486824886.689,-11.230,30.273,42.969,76.172,138.184,0
1486824886.693,17.578,24.414,34.180,45.898,79.590,0
1486824886.697,82.520,24.902,27.344,52.246,-9.766,0
1486824886.701,85.938,29.297,35.645,89.355,14.160,0
1486824886.705,32.227,27.344,40.039,79.102,10.254,0
1486824886.709,-26.855,25.879,37.109,66.895,78.613,0
1486824886.713,-4.395,27.344,37.109,36.133,90.820,0
1486824886.717,69.336,27.832,42.969,29.785,-42.969,0
1486824886.720,82.520,27.344,40.527,72.754,-40.527,0
1486824886.724,42.480,28.809,37.598,75.195,13.672,0
1486824886.728,-10.254,29.297,41.016,70.801,79.590,0
1486824886.732,-4.395,27.344,32.227,43.457,90.332,0
1486824886.736,65.918,28.320,29.785,26.367,-23.438,0
1486824886.740,93.750,27.832,35.156,71.777,11.230,0
1486824886.744,59.082,29.297,44.922,85.449,65.430,0
1486824886.748,7.324,37.598,56.152,90.332,76.172,0
1486824886.752,-11.230,26.367,43.945,56.152,116.211,0
1486824886.756,56.152,18.555,36.133,27.832,14.160,0
1486824886.760,107.910,27.832,40.527,73.242,-27.344,0
1486824886.763,80.078,30.273,44.434,84.473,39.062,0
1486824886.767,11.230,26.855,33.691,72.266,130.859,0
1486824886.771,-9.277,23.926,26.855,52.734,149.902,0
1486824886.775,62.988,22.949,30.273,28.320,7.324,0
1486824886.779,115.234,24.902,35.645,67.871,-38.086,0
1486824886.783,88.867,27.344,40.527,90.332,-9.766,0
1486824886.787,20.996,26.367,43.945,83.008,64.941,0
1486824886.791,-7.324,23.926,43.945,72.754,153.809,0
1486824886.795,44.922,22.949,36.133,42.480,79.590,0
1486824886.799,91.797,23.438,41.504,70.312,1.953,0
1486824886.802,79.590,25.879,47.363,88.867,-5.859,0
1486824886.806,14.648,25.879,39.062,74.707,45.410,0
1486824886.810,-29.297,27.344,31.250,58.594,112.305,0
1486824886.814,13.672,20.020,29.785,23.438,37.109,0
1486824886.818,89.844,29.297,44.434,53.223,-32.715,0
1486824886.822,83.496,32.227,46.387,81.543,8.789,0
1486824886.826,2.441,15.625,32.227,58.594,84.473,0
1486824886.830,-34.668,20.508,41.504,62.500,139.648,0
1486824886.834,17.090,20.996,50.293,36.621,66.895,0
1486824886.838,71.777,20.020,37.109,38.086,-14.648,0
1486824886.842,68.848,24.902,31.250,75.684,10.254,0
1486824886.845,21.973,25.391,36.621,77.637,82.031,0
1486824886.849,-26.855,24.414,34.668,65.430,141.602,0
1486824886.853,4.883,21.484,38.574,34.180,82.520,0
1486824886.857,69.336,20.508,40.527,40.039,-48.340,0
1486824886.861,80.566,25.391,35.156,79.102,-32.715,0
1486824886.865,29.785,24.902,33.691,74.707,43.945,0
1486824886.869,-33.203,22.461,34.668,58.594,120.605,0
1486824886.873,-11.719,22.461,32.715,33.203,108.887,0
1486824886.877,62.500,24.902,32.227,29.297,13.672,0
1486824886.881,87.891,26.855,39.062,68.359,-19.043,0
1486824886.885,35.156,30.273,36.133,75.195,16.113,0
1486824886.888,-31.738,29.785,29.297,62.500,117.676,0
1486824886.892,-20.020,27.832,33.691,38.574,142.578,0
1486824886.896,55.176,24.902,35.156,26.367,34.180,0
1486824886.900,100.586,35.645,41.992,70.801,-0.488,0
1486824886.904,47.852,35.156,41.992,77.637,34.668,0
1486824886.908,-24.902,20.020,28.809,50.293,101.074,0
1486824886.912,-13.672,21.973,30.273,41.016,137.207,0
1486824886.916,53.223,23.438,31.738,28.320,-4.883,0
1486824886.920,91.797,26.855,40.039,64.941,-24.902,0
1486824886.924,63.965,29.785,46.875,83.984,63.965,0
1486824886.927,-4.883,30.762,43.457,68.359,124.023,0
1486824886.931,-17.090,32.715,36.621,51.270,133.789,0
1486824886.935,51.270,32.715,34.668,31.738,11.230,0
1486824886.939,92.773,28.320,34.668,58.594,-20.508,0
1486824886.943,70.801,32.715,30.762,76.172,27.832,0
1486824886.947,12.695,34.668,33.691,65.430,94.727,0
1486824886.951,-5.859,28.320,41.016,57.129,140.625,0
1486824886.955,57.617,30.273,37.598,33.691,22.461,0
1486824886.959,104.004,30.273,34.668,50.781,-48.340,0
1486824886.963,81.055,28.320,33.203,77.148,26.367,0
1486824886.967,22.461,31.250,34.668,71.777,85.938,0
1486824886.970,-13.672,28.809,35.645,63.477,135.742,0
1486824886.974,46.875,36.621,46.387,41.016,47.852,0
1486824886.978,111.816,38.574,50.781,59.570,-52.734,0
1486824886.982,79.102,19.531,33.203,73.242,-1.953,0
1486824886.986,13.672,22.949,37.598,62.012,89.355,0
1486824886.990,-19.531,27.832,41.504,63.477,157.715,0
1486824886.994,31.738,26.367,43.457,36.133,61.035,0
1486824886.998,102.051,28.320,48.828,51.758,-53.711,0
1486824887.002,92.773,33.691,33.203,85.449,12.207,0
1486824887.006,20.508,32.715,27.832,66.406,51.270,0
1486824887.010,-25.391,26.367,39.551,59.082,76.172,0
1486824887.013,8.789,25.879,43.945,42.480,40.039,0
1486824887.017,72.754,24.902,38.574,40.527,-54.199,0
1486824887.021,79.590,26.367,33.203,70.801,-4.883,0
1486824887.025,23.438,24.414,39.062,56.641,16.602,0
1486824887.029,-30.273,23.926,38.086,46.875,66.895,0
1486824887.033,-9.277,23.438,34.668,33.203,94.727,0
1486824887.037,73.730,32.715,47.363,42.969,-11.719,0
1486824887.041,84.473,28.809,45.410,77.637,-7.324,0
1486824887.045,24.414,15.137,33.691,62.500,17.090,0
1486824887.049,-29.297,19.531,32.227,61.523,55.176,0
1486824887.052,-25.391,21.973,27.832,43.457,79.102,0
1486824887.056,55.664,22.461,39.551,27.832,-41.016,0
1486824887.060,93.750,25.879,44.922,74.219,-30.762,0
1486824887.064,49.316,28.809,39.551,73.730,24.414,0
1486824887.068,-11.719,29.297,43.457,61.523,65.430,0
1486824887.072,-7.324,31.738,37.598,55.176,63.477,0
1486824887.076,59.082,28.320,34.180,32.715,-62.012,0
1486824887.080,88.867,27.344,43.945,61.035,-73.730,0
1486824887.084,53.223,29.785,39.551,63.965,0.000,0
1486824887.088,-0.488,31.738,32.227,56.152,87.402,0
1486824887.092,-4.883,33.203,41.016,47.852,87.402,0
1486824887.095,51.270,26.367,37.109,16.602,-28.320,0
1486824887.099,89.355,26.367,24.414,46.875,-29.785,0
1486824887.103,57.129,26.855,29.297,67.383,16.113,0
1486824887.107,3.418,34.668,48.828,73.730,39.551,0
1486824887.111,-12.695,34.180,44.922,63.477,92.773,0
1486824887.115,30.762,20.508,24.414,13.184,1.465,0
1486824887.119,84.961,23.926,37.109,56.152,-54.199,0
1486824887.123,72.754,26.855,44.922,75.195,-17.090,0
1486824887.127,3.906,26.367,41.016,60.059,42.969,0
1486824887.131,-27.344,29.785,42.480,63.965,126.953,0
1486824887.134,31.738,29.297,41.016,18.555,-0.488,0
1486824887.138,75.195,23.926,38.086,36.621,-75.195,0
1486824887.142,63.477,23.438,34.180,68.359,1.953,0
1486824887.146,12.207,23.926,33.691,60.059,67.871,0
1486824887.150,-22.461,27.344,37.109,62.500,136.719,0
1486824887.154,20.508,25.391,40.039,28.809,74.707,1
1486824887.158,83.984,24.414,33.691,40.527,0.488,0
1486824887.162,85.938,27.344,34.668,75.195,-7.324,0
1486824887.166,31.738,26.855,36.133,69.336,33.691,0
1486824887.170,-18.066,25.879,29.785,69.336,101.562,0
1486824887.174,20.996,27.344,32.227,41.016,24.414,0
1486824887.177,92.285,28.809,41.016,50.293,-33.691,0
1486824887.181,93.750,28.320,36.621,82.031,21.973,0
1486824887.185,43.457,30.273,35.156,71.289,42.480,0
1486824887.189,-12.695,29.785,36.621,71.289,83.496,0
1486824887.193,4.883,28.320,35.645,48.340,39.062,0
1486824887.197,71.289,23.438,36.133,37.109,-57.617,0
1486824887.201,103.516,33.691,49.316,81.055,-20.508,0
1486824887.205,60.547,41.992,47.363,81.543,18.066,0
1486824887.209,-21.484,24.414,25.391,53.223,109.863,0
1486824887.213,-12.695,21.484,28.809,29.785,117.676,0
1486824887.217,62.012,25.879,35.156,16.113,-32.227,0
1486824887.220,86.426,27.832,32.715,49.805,-32.227,0
1486824887.224,42.480,28.320,34.668,56.641,35.645,0
1486824887.228,-21.484,26.367,36.621,56.641,126.465,0
1486824887.232,-15.137,28.320,36.133,38.574,129.883,0
1486824887.236,57.129,29.297,38.086,12.207,-32.715,0
1486824887.240,98.633,28.320,41.016,55.176,-26.367,0
1486824887.244,66.895,29.297,38.086,74.219,27.832,0
1486824887.248,-2.441,30.273,35.156,76.172,60.059,0
1486824887.252,-3.906,32.715,38.086,69.824,108.398,0
1486824887.256,69.824,33.203,44.922,47.852,17.578,0
1486824887.259,112.305,30.762,47.852,86.426,-22.461,0
1486824887.263,79.102,32.227,37.598,103.027,4.883,0
1486824887.267,5.371,31.738,38.086,89.355,99.609,0
1486824887.271,-12.207,32.227,38.086,62.988,159.180,0
1486824887.275,47.363,30.762,35.645,26.855,41.992,0
1486824887.279,91.309,29.297,42.969,61.035,9.277,0
1486824887.283,73.242,33.203,39.062,85.938,88.867,0
1486824887.287,11.230,33.203,35.156,72.266,147.461,0
1486824887.291,-15.625,32.227,45.898,66.895,169.434,0
1486824887.295,36.621,29.785,46.875,36.133,63.965,0
1486824887.299,92.773,31.738,40.039,58.105,4.883,0
1486824887.302,84.961,38.574,43.945,92.285,38.574,0
1486824887.306,13.184,28.320,38.574,78.125,64.941,0
1486824887.310,-25.879,23.438,32.715,62.500,113.281,0
1486824887.314,27.832,26.855,40.527,26.367,52.734,0
1486824887.318,90.820,26.367,41.016,42.969,0.488,0
1486824887.322,87.891,30.273,38.574,82.031,40.039,0
1486824887.326,26.367,33.203,36.621,76.172,71.289,0
1486824887.330,-16.602,33.691,33.203,73.242,140.625,0
1486824887.334,15.137,30.273,41.504,44.434,96.680,0
1486824887.338,78.613,27.344,42.480,48.340,1.953,0
1486824887.342,89.355,29.785,32.715,85.938,35.156,0
1486824887.345,37.598,33.691,33.691,79.102,74.219,0
1486824887.349,-13.672,37.598,42.480,75.195,123.535,0
1486824887.353,18.066,34.180,45.410,55.664,96.680,0
1486824887.357,87.402,31.738,37.109,47.852,-16.602,0
1486824887.361,101.562,30.273,34.180,84.473,-17.578,0
1486824887.365,43.945,27.344,41.992,82.520,27.344,0
1486824887.369,-2.930,39.062,51.270,84.473,88.867,0
1486824887.373,8.789,33.691,38.574,55.176,110.840,0
1486824887.377,63.477,18.555,20.996,30.273,27.832,0
1486824887.381,95.215,24.414,29.785,76.172,29.297,0
1486824887.384,49.316,26.855,36.621,76.660,65.918,0
1486824887.388,-1.465,30.762,37.598,72.266,104.980,0
1486824887.392,8.301,34.180,42.969,66.406,110.840,0
1486824887.396,68.359,31.250,43.457,45.410,0.977,0
1486824887.400,95.703,29.297,34.180,71.777,-6.836,0
1486824887.404,65.918,31.738,35.645,84.473,38.574,0
1486824887.408,4.395,33.691,38.086,76.660,107.422,0
1486824887.412,-9.277,29.297,34.180,53.711,140.137,0
1486824887.416,61.523,27.832,28.809,28.320,-1.953,0
1486824887.420,100.586,30.273,29.785,55.664,-29.297,0
1486824887.424,62.988,30.273,41.992,76.172,53.711,0
1486824887.427,-4.395,30.273,39.062,74.219,101.074,0
1486824887.431,-22.949,27.344,29.785,54.688,177.734,0
1486824887.435,46.387,22.461,36.621,22.461,77.637,0
1486824887.439,94.238,20.996,33.203,48.828,-1.953,0
1486824887.443,62.500,26.367,36.621,73.730,52.734,0
1486824887.447,-8.789,23.926,37.598,60.547,114.258,0
1486824887.451,-20.996,29.297,33.203,54.199,125.000,0
1486824887.455,43.945,36.621,36.621,32.715,4.883,0
1486824887.459,75.684,21.973,28.809,41.992,-32.715,0
1486824887.463,59.570,23.438,36.133,75.684,22.949,0
1486824887.466,5.371,29.785,45.898,75.684,82.520,0
1486824887.470,-26.855,25.391,40.039,57.129,149.902,0
1486824887.474,28.320,25.391,32.227,17.090,67.871,0
1486824887.478,93.262,28.320,36.133,32.715,-11.719,0
1486824887.482,89.844,27.832,48.340,73.242,30.273,0
1486824887.486,26.855,31.738,45.898,69.824,76.660,0
1486824887.490,-20.020,32.227,31.250,57.617,152.832,0
1486824887.494,20.508,28.809,32.715,31.250,92.773,0
1486824887.498,89.355,27.344,39.062,45.410,-10.742,0
1486824887.502,89.844,27.832,38.086,80.078,9.277,0
1486824887.506,30.762,30.762,46.387,73.242,63.477,0
1486824887.509,-23.438,26.855,54.199,64.941,123.047,0
1486824887.513,-6.348,24.414,40.039,37.109,67.383,0
1486824887.517,63.965,25.391,34.180,34.668,-7.812,0
1486824887.521,86.426,27.832,37.109,76.172,48.828,0
1486824887.525,42.969,29.785,36.133,74.219,73.242,0
1486824887.529,-20.020,27.344,33.691,67.871,124.512,0
1486824887.533,1.953,32.227,41.992,62.012,136.230,0
1486824887.537,78.613,35.645,50.781,49.316,34.668,0
1486824887.541,87.402,24.902,41.992,69.336,27.344,0
1486824887.545,40.039,26.367,40.527,73.242,35.645,0
1486824887.549,-22.461,27.832,40.039,65.430,127.930,0
1486824887.552,-17.090,24.414,42.969,41.504,170.410,0
1486824887.556,57.617,24.902,37.598,20.020,23.438,0
1486824887.560,87.891,28.809,31.250,58.594,-31.250,0
1486824887.564,51.270,29.297,29.785,70.801,-5.859,0
1486824887.568,-11.719,31.250,33.203,66.406,66.406,0
1486824887.572,-18.066,31.250,37.109,51.758,102.051,0
1486824887.576,47.363,25.879,35.156,20.508,27.344,0
1486824887.580,86.426,27.344,38.086,54.199,18.066,0
1486824887.584,54.199,31.738,41.504,75.684,40.527,0
1486824887.588,-7.324,29.785,44.434,71.289,87.891,0
1486824887.591,-20.508,28.320,43.945,53.223,83.008,0
1486824887.595,41.016,24.902,38.574,14.160,-44.434,0
1486824887.599,88.379,24.902,34.668,52.246,-55.664,0
1486824887.603,59.570,23.926,36.621,77.148,29.785,0
1486824887.607,0.977,27.344,40.039,63.965,65.918,0
1486824887.611,-24.902,30.273,35.156,52.734,112.305,0
1486824887.615,30.762,27.832,37.598,19.531,-6.348,0
1486824887.619,91.309,30.273,41.016,52.734,-71.777,0
1486824887.623,75.195,29.297,37.109,86.914,-5.371,0
1486824887.627,20.508,31.250,49.316,82.520,50.781,0
1486824887.631,-17.090,30.762,52.246,74.219,113.281,0
1486824887.634,35.645,36.621,52.246,42.969,40.527,0
1486824887.638,96.191,34.668,47.363,53.711,-12.695,0
1486824887.642,73.730,20.996,19.531,65.430,12.695,0
1486824887.646,25.879,26.367,27.344,60.059,57.617,0
1486824887.650,-10.742,29.785,35.645,59.570,151.855,0
1486824887.654,29.785,28.809,36.621,26.367,86.426,0
1486824887.658,97.168,27.344,36.133,40.527,-4.883,0
1486824887.662,97.168,29.297,39.062,81.543,59.570,0
1486824887.666,34.668,29.297,43.457,76.172,80.566,0
1486824887.670,-15.625,28.320,44.434,75.684,116.211,0
1486824887.674,17.090,27.832,44.434,41.016,102.051,0
1486824887.677,86.914,25.879,41.992,46.387,-4.883,0
1486824887.681,95.215,25.391,37.598,86.426,-20.020,0
1486824887.685,42.480,25.879,38.574,73.730,22.949,0
1486824887.689,-14.160,26.855,45.898,73.730,87.891,0
1486824887.693,10.742,26.367,44.922,55.664,87.402,0
1486824887.697,84.473,24.414,41.504,39.551,-32.715,0
1486824887.701,98.145,24.902,37.598,77.637,-34.180,0
1486824887.705,51.758,30.762,35.645,79.590,2.441,0
1486824887.709,-3.906,31.250,43.945,77.637,66.895,0
1486824887.713,6.348,29.297,43.457,52.734,126.465,0
1486824887.716,76.172,26.367,37.598,32.715,32.715,0
1486824887.720,103.027,23.438,38.574,76.172,13.184,0
1486824887.724,57.617,26.855,33.203,74.219,84.473,0
1486824887.728,9.277,40.527,51.758,79.102,134.766,0
1486824887.732,1.465,35.156,52.734,54.688,139.160,0
1486824887.736,46.875,21.484,29.785,15.137,41.016,0
1486824887.740,87.891,25.391,34.668,58.594,24.414,2
1486824887.744,56.152,29.785,40.527,72.754,49.316,0
1486824887.748,-6.836,30.273,50.781,78.613,82.520,0
1486824887.752,-14.648,29.297,48.340,61.523,155.273,0
1486824887.756,45.898,30.762,40.039,21.973,23.926,0
1486824887.759,89.355,30.762,41.016,56.152,-51.758,0
1486824887.763,59.570,30.273,34.668,66.895,5.371,0
1486824887.767,-4.883,30.762,29.297,56.641,62.012,0
1486824887.771,-20.020,31.738,36.133,48.828,111.816,0
1486824887.775,41.992,32.715,40.527,26.367,38.574,0
1486824887.779,95.703,32.227,36.621,59.082,17.578,0
1486824887.783,87.891,31.738,41.504,75.195,52.246,0
1486824887.787,21.484,30.273,43.945,68.848,98.633,0
1486824887.791,-30.762,29.785,37.109,56.641,140.625,0
1486824887.795,30.762,31.250,37.598,20.508,28.320,0
1486824887.798,96.191,26.855,39.062,43.945,-33.691,0
1486824887.802,85.449,27.832,37.109,70.801,34.180,0
1486824887.806,26.367,29.297,39.551,62.988,93.262,0
1486824887.810,-20.508,28.809,39.062,58.594,153.320,0
1486824887.814,18.555,28.320,38.574,26.855,70.312,0
1486824887.818,82.031,24.902,39.551,42.969,-10.742,0
1486824887.822,88.867,27.832,29.297,80.566,50.293,0
1486824887.826,41.992,37.598,41.992,83.008,66.406,0
1486824887.830,-19.043,29.785,42.969,61.035,110.352,0
1486824887.834,0.977,18.555,27.832,20.020,71.289,0
1486824887.838,70.312,19.531,31.738,30.762,-19.531,0
1486824887.841,79.590,21.973,32.227,74.219,-2.930,0
1486824887.845,30.273,25.879,32.715,76.172,12.207,0
1486824887.849,-12.207,26.855,38.574,66.895,79.102,0
1486824887.853,10.742,24.902,39.551,40.039,46.875,0
1486824887.857,76.660,26.855,38.574,39.551,-54.688,0
1486824887.861,99.121,29.785,40.527,83.496,-24.414,0
1486824887.865,47.852,30.273,33.203,78.125,-13.672,0
1486824887.869,-12.207,31.250,41.504,70.312,45.410,0
1486824887.873,9.766,29.297,48.340,54.199,68.359,0
1486824887.877,83.984,28.320,39.551,43.457,-33.203,0
1486824887.881,105.469,29.297,34.668,77.637,-29.297,0
1486824887.884,62.988,31.250,39.551,85.938,35.645,0
1486824887.888,-1.953,31.250,46.387,82.520,113.281,0
1486824887.892,-7.324,29.297,36.621,57.617,127.441,0
1486824887.896,61.035,27.344,29.785,37.598,-20.508,0
1486824887.900,93.750,25.391,32.715,77.637,-34.668,0
1486824887.904,59.082,26.855,34.180,84.961,25.391,0
1486824887.908,3.906,37.109,45.410,79.102,56.152,0
1486824887.912,-14.160,27.344,48.340,60.547,86.426,0
1486824887.916,47.852,22.461,39.062,24.902,-33.691,0
1486824887.920,99.609,27.832,43.457,65.918,-68.359,0
1486824887.923,65.918,25.391,39.062,84.961,15.137,0
1486824887.927,-6.348,30.762,29.785,78.125,98.633,0
1486824887.931,-20.508,27.344,35.645,63.965,143.066,0
1486824887.935,42.480,24.414,36.133,35.156,22.461,0
1486824887.939,98.145,28.320,36.621,66.895,-6.348,0
1486824887.943,80.566,25.391,37.109,90.820,29.785,0
1486824887.947,17.090,25.879,38.574,83.008,70.801,0
1486824887.951,-18.066,30.273,48.340,72.754,140.625,0
1486824887.955,33.203,29.297,46.387,35.156,31.738,0
1486824887.959,92.285,28.320,33.203,51.758,-41.504,0
1486824887.963,83.496,27.832,33.691,82.520,-5.859,0
1486824887.966,24.414,28.809,33.691,73.730,47.363,0
1486824887.970,-18.066,29.297,28.809,65.918,120.117,0
1486824887.974,28.809,28.320,28.809,37.598,53.711,0
1486824887.978,90.820,27.344,37.109,51.270,-30.273,0
1486824887.982,88.867,26.855,40.527,89.844,22.949,0
1486824887.986,30.273,28.320,41.992,81.055,70.801,0
1486824887.990,-18.066,26.367,42.969,65.918,129.883,0
1486824887.994,26.367,37.598,50.781,50.293,98.145,0
1486824887.998,89.844,31.738,44.922,49.316,-25.391,0
1486824888.002,84.473,20.508,33.203,73.242,-17.578,0
1486824888.006,34.180,24.902,34.180,77.148,47.363,0
1486824888.009,-20.508,27.832,28.809,69.824,104.492,0
1486824888.013,4.395,31.250,31.250,41.016,103.027,0
1486824888.017,78.613,30.762,33.691,39.062,13.184,0
1486824888.021,88.379,30.273,39.062,78.613,-1.953,0
1486824888.025,34.668,27.832,38.086,69.824,18.066,0
1486824888.029,-24.902,26.367,31.250,54.688,117.188,0
1486824888.033,-10.254,26.855,32.715,38.574,110.840,0
1486824888.037,62.500,25.391,31.738,25.879,-37.109,0
1486824888.041,85.449,25.391,36.133,66.406,-6.348,0
1486824888.045,44.434,29.297,43.945,67.871,30.273,0
1486824888.048,-20.996,28.320,40.039,51.758,83.984,0
1486824888.052,-23.926,26.855,37.598,37.598,121.094,0
1486824888.056,44.922,24.414,35.156,31.738,11.230,0
1486824888.060,81.055,24.414,39.062,66.895,-36.133,0
1486824888.064,45.898,26.367,39.551,63.477,-21.973,0
1486824888.068,-17.090,25.879,35.156,55.664,70.312,0
1486824888.072,-32.227,22.949,37.598,45.898,87.402,0
1486824888.076,27.344,20.020,35.645,14.648,-70.801,0
1486824888.080,79.102,21.484,38.086,49.805,-42.480,0
1486824888.084,58.594,25.391,42.480,74.707,33.691,0
1486824888.088,-9.277,26.367,37.109,63.477,65.918,0
1486824888.091,-40.039,22.949,33.691,44.434,115.723,0
1486824888.095,44.434,35.645,51.270,41.504,-4.395,0
1486824888.099,101.074,34.668,45.898,75.195,-39.551,0
1486824888.103,54.688,21.484,25.391,70.801,15.625,0
1486824888.107,-2.441,29.785,37.109,68.359,62.500,0
1486824888.111,-24.414,27.832,42.480,62.988,123.047,0
1486824888.115,31.738,26.855,37.598,31.250,63.965,0
1486824888.119,94.727,30.762,33.691,52.734,-6.348,0
1486824888.123,83.008,30.762,37.598,80.078,1.953,0
1486824888.127,17.578,32.227,47.852,75.684,35.156,0
1486824888.130,-15.625,30.762,49.316,75.684,114.258,0
1486824888.134,28.809,30.273,33.691,36.133,60.547,0
1486824888.138,84.473,28.809,26.855,41.016,-24.902,0
1486824888.142,81.543,31.738,33.203,77.148,10.254,0
1486824888.146,20.996,33.203,37.598,73.730,62.012,0
1486824888.150,-24.902,30.273,41.992,74.219,129.395,0
1486824888.154,14.648,28.809,39.551,44.922,115.723,0
1486824888.158,82.520,27.344,40.039,45.898,20.996,0
1486824888.162,84.961,27.832,43.945,80.566,-12.695,0
1486824888.166,24.414,31.738,42.480,68.848,61.523,0
1486824888.170,-20.996,32.227,44.434,69.824,164.062,0
1486824888.173,4.395,26.367,46.387,52.734,115.723,0
1486824888.177,72.754,23.438,32.715,41.504,-5.859,0
1486824888.181,94.238,27.344,31.738,75.195,12.207,0
1486824888.185,44.434,29.297,40.527,73.242,52.734,0
1486824888.189,-19.531,25.879,35.645,62.500,88.379,0
1486824888.193,5.859,36.133,41.016,56.641,65.430,0
1486824888.197,82.031,29.297,37.109,45.898,-0.488,0
1486824888.201,89.355,18.555,23.438,66.406,7.812,0
1486824888.205,43.945,29.297,36.133,69.336,17.578,0
1486824888.209,-10.742,29.297,46.875,67.383,75.684,0
1486824888.213,-5.371,28.809,35.156,49.805,102.051,0
1486824888.216,61.035,29.297,26.367,28.320,-20.996,0
1486824888.220,93.750,28.809,34.668,66.895,-11.230,0
1486824888.224,64.453,30.273,35.156,75.195,39.062,0
1486824888.228,-0.977,31.738,40.039,67.383,86.426,0
1486824888.232,-9.766,30.762,42.969,56.152,100.586,0
1486824888.236,58.105,30.762,33.203,34.180,-54.688,0
1486824888.240,92.285,32.715,33.203,66.895,-42.969,0
1486824888.244,59.082,31.250,38.086,68.359,45.410,0
1486824888.248,-10.254,31.250,37.109,61.523,104.492,0
1486824888.252,-27.832,34.180,41.992,57.129,109.863,0
1486824888.255,34.668,28.809,44.434,20.996,-7.812,0
1486824888.259,79.590,27.832,42.969,52.246,-14.160,0
1486824888.263,47.852,28.320,38.086,66.895,41.016,0
1486824888.267,-15.625,23.926,32.227,55.176,56.641,0
1486824888.271,-35.645,23.926,37.109,54.199,102.051,0
1486824888.275,22.949,22.949,33.203,15.137,28.809,0
1486824888.279,84.961,23.438,39.062,42.480,-48.828,0
1486824888.283,71.289,27.344,44.434,77.637,1.953,0
1486824888.287,6.348,29.297,36.621,64.453,73.242,0
1486824888.291,-25.879,29.785,32.227,59.570,132.812,0
1486824888.295,22.461,27.344,30.762,28.320,62.500,0
1486824888.298,79.590,21.484,33.203,38.574,-12.207,0
1486824888.302,74.707,27.832,47.363,75.684,48.828,0
1486824888.306,16.602,32.715,51.270,70.801,79.102,0
1486824888.310,-41.504,18.555,31.738,52.246,135.254,0
1486824888.314,0.488,19.043,33.203,19.043,91.309,0
1486824888.318,82.031,25.391,33.691,32.715,-28.320,0
1486824888.322,83.984,27.344,26.367,61.035,20.020,0
1486824888.326,32.227,31.250,38.574,56.152,71.289,0
1486824888.330,-10.742,30.762,41.504,60.547,127.441,0
1486824888.334,14.160,26.367,28.320,30.273,85.449,0
1486824888.338,80.078,22.949,30.273,35.645,-20.996,0
1486824888.341,94.238,25.879,41.016,73.730,-4.883,0
1486824888.345,48.340,30.762,37.598,64.941,7.812,0
1486824888.349,-1.465,31.738,34.668,67.871,73.242,0
1486824888.353,11.719,30.273,37.109,45.898,94.238,0
1486824888.357,81.543,30.273,34.668,36.133,-54.199,0
1486824888.361,111.816,34.180,39.062,71.289,-81.543,0
1486824888.365,64.453,34.180,46.387,71.289,-25.391,0
1486824888.369,-3.418,31.738,41.016,72.754,45.410,0
1486824888.373,3.906,30.273,33.203,48.340,35.645,0
1486824888.377,65.918,26.367,33.691,30.273,-103.027,0
1486824888.380,94.238,24.902,43.457,69.336,-98.145,0
1486824888.384,58.105,31.738,46.387,75.195,-32.227,0
1486824888.388,7.812,42.480,46.875,81.543,67.871,0
1486824888.392,4.395,30.762,38.086,55.664,107.422,0
1486824888.396,62.012,21.484,28.320,25.879,-8.789,0
1486824888.400,102.539,25.879,28.320,63.477,-21.973,0
1486824888.404,72.266,28.320,41.504,79.102,5.371,1
1486824888.408,15.625,32.715,55.664,89.355,95.215,0
1486824888.412,0.488,31.250,44.434,73.730,157.227,0
1486824888.416,59.082,27.832,39.062,34.180,-1.465,0
1486824888.420,103.027,24.902,37.598,69.824,-62.988,0
1486824888.423,76.172,27.344,45.898,92.773,16.113,0
1486824888.427,12.207,27.832,51.270,79.102,69.824,0
1486824888.431,-16.113,27.832,31.250,62.012,107.910,0
1486824888.435,40.527,26.855,31.738,29.297,10.742,0
1486824888.439,91.309,22.949,37.598,48.828,-27.832,0
1486824888.443,75.684,28.320,39.062,66.895,20.996,0
1486824888.447,16.602,30.273,43.945,63.965,86.914,0
1486824888.451,-24.902,29.297,48.340,51.758,152.832,0
1486824888.455,20.508,30.273,42.969,13.184,17.578,0
1486824888.459,83.008,24.414,33.203,34.180,-55.664,0
1486824888.462,69.336,21.484,34.180,67.871,19.531,0
1486824888.466,15.137,27.344,41.504,60.547,51.758,0
1486824888.470,-21.973,27.832,44.434,50.293,87.891,0
1486824888.474,18.066,23.438,40.527,29.297,30.762,0
1486824888.478,88.867,31.250,45.410,47.852,-22.949,0
1486824888.482,80.566,29.785,49.316,77.637,27.832,0
1486824888.486,17.578,22.949,40.039,72.266,63.965,0
1486824888.490,-31.738,26.855,30.762,70.312,119.629,0
1486824888.494,-5.371,22.949,30.762,38.574,88.867,0
1486824888.498,66.406,20.508,33.203,32.227,-33.203,0
1486824888.502,83.496,28.809,40.039,71.289,-7.812,0
1486824888.505,32.227,28.809,37.109,70.801,53.223,0
1486824888.509,-24.902,25.879,47.363,69.336,116.699,0
1486824888.513,-13.184,27.344,47.363,41.016,104.492,0
1486824888.517,58.594,24.414,23.926,21.484,-33.691,0
1486824888.521,83.496,25.879,23.926,62.988,-20.996,0
1486824888.525,39.551,28.809,34.180,67.871,41.504,0
1486824888.529,-12.207,29.785,41.016,64.941,106.934,0
1486824888.533,-12.207,27.344,36.133,44.922,80.078,0
1486824888.537,54.688,28.320,30.273,26.855,-32.715,0
1486824888.541,91.797,31.250,38.086,68.359,26.367,0
1486824888.545,57.617,30.762,40.527,77.637,74.219,0
1486824888.548,-3.418,31.738,37.109,65.918,133.301,0
1486824888.552,-9.766,29.785,48.828,59.082,149.902,0
1486824888.556,55.664,27.344,49.805,37.598,20.508,0
1486824888.560,92.285,29.297,34.668,63.965,-0.977,0
1486824888.564,64.453,30.273,33.691,80.566,6.836,0
1486824888.568,-5.371,29.785,36.133,68.359,85.449,0
1486824888.572,-22.461,29.785,39.551,55.664,120.605,0
1486824888.576,48.340,28.320,44.922,32.715,7.812,0
1486824888.580,106.934,37.598,45.898,72.266,8.789,0
1486824888.584,79.590,40.527,44.922,92.285,66.895,0
1486824888.587,2.441,24.902,34.668,69.336,106.445,0
1486824888.591,-13.184,23.926,39.551,60.547,173.828,0
1486824888.595,46.875,24.414,44.922,27.832,49.316,0
1486824888.599,92.285,23.926,36.133,53.223,-56.152,0
1486824888.603,71.289,27.832,38.574,85.449,0.000,0
1486824888.607,12.207,30.273,40.527,82.031,73.242,0
1486824888.611,-18.555,28.809,36.133,70.801,111.328,0
1486824888.615,32.227,27.832,39.551,33.691,35.645,0
1486824888.619,92.285,28.320,41.016,55.664,-15.137,0
1486824888.623,86.426,27.832,37.109,85.938,-7.812,0
1486824888.627,26.855,25.879,37.109,74.707,30.762,0
1486824888.630,-12.695,26.367,42.969,72.754,122.559,0
1486824888.634,30.273,25.391,46.875,37.598,32.715,0
1486824888.638,92.285,22.949,35.645,42.969,-58.594,0
1486824888.642,93.750,25.391,33.691,82.031,15.137,0
1486824888.646,41.504,28.320,38.574,74.707,65.430,0
1486824888.650,-9.766,29.297,38.574,72.266,111.328,0
1486824888.654,15.137,27.832,41.016,47.852,87.891,0
1486824888.658,88.379,27.832,43.945,51.758,-13.184,0
1486824888.662,103.516,30.762,48.828,89.355,1.953,0
1486824888.666,53.223,37.598,57.129,93.750,83.496,0
1486824888.670,-8.301,29.785,45.898,75.195,127.441,0
1486824888.673,6.348,25.879,35.645,51.270,104.004,0
1486824888.677,76.660,28.320,42.480,45.898,10.742,0
1486824888.681,97.168,30.273,41.016,69.336,-4.883,0
1486824888.685,46.875,29.297,30.273,72.266,35.156,0
1486824888.689,-14.648,27.832,35.645,68.359,111.816,0
1486824888.693,-7.812,25.879,36.133,51.758,133.301,0
1486824888.697,61.035,29.297,38.574,42.480,36.133,0
1486824888.701,93.750,31.738,46.387,73.242,21.973,0
1486824888.705,46.875,28.320,47.852,75.195,41.992,0
1486824888.709,-18.555,30.762,50.781,73.730,80.078,0
1486824888.712,-20.020,28.809,51.758,53.223,128.906,0
1486824888.716,54.688,26.367,42.480,31.250,30.273,0
1486824888.720,90.820,25.879,30.762,63.965,-63.965,0
1486824888.724,66.895,36.133,40.527,84.961,-16.113,0
1486824888.728,-3.906,33.203,45.898,76.172,64.941,0
1486824888.732,-29.297,20.508,34.668,45.410,105.469,0
1486824888.736,49.805,22.461,33.691,24.902,-3.418,0
1486824888.740,96.191,23.926,34.668,56.641,-66.406,0
1486824888.744,66.895,29.297,43.945,78.125,17.578,0
1486824888.748,-2.441,29.785,43.457,65.430,77.148,0
1486824888.752,-27.344,24.902,39.551,48.828,86.426,0
1486824888.755,34.180,21.973,36.621,18.066,-11.719,0
1486824888.759,80.566,26.367,30.762,45.410,-45.410,0
1486824888.763,57.617,30.273,32.227,72.266,21.973,0
1486824888.767,-0.977,30.273,38.574,62.012,78.125,0
1486824888.771,-30.273,30.273,38.574,53.223,124.512,0
1486824888.775,20.508,28.320,30.273,19.531,37.598,0
1486824888.779,79.590,27.832,33.691,41.504,-72.266,0
1486824888.783,78.125,28.809,42.969,84.473,-30.273,0
1486824888.787,17.090,25.391,38.574,71.289,16.113,0
1486824888.791,-15.625,35.645,53.223,74.707,114.258,0
1486824888.794,32.227,33.203,52.734,47.363,74.219,0
1486824888.798,84.473,21.484,25.879,42.480,-51.758,0
1486824888.802,82.031,27.832,27.832,81.543,-21.484,0
1486824888.806,26.367,28.809,32.227,71.777,21.484,0
1486824888.810,-20.508,28.320,35.645,68.359,102.539,0
1486824888.814,10.742,27.344,37.109,48.340,84.961,0
1486824888.818,82.031,25.879,39.062,46.875,-10.254,0
1486824888.822,97.168,27.832,40.527,80.078,11.719,0
1486824888.826,41.992,32.227,32.227,70.801,63.965,0
1486824888.830,-18.066,33.691,34.180,59.570,133.301,0
1486824888.834,-3.418,32.715,33.691,41.016,132.812,0
1486824888.837,61.035,28.809,30.762,29.785,41.016,0
1486824888.841,80.078,27.832,38.086,68.848,2.930,0
1486824888.845,33.203,29.785,32.715,73.242,25.879,0
1486824888.849,-7.324,41.016,43.945,74.707,117.676,0
1486824888.853,4.883,36.133,47.852,56.152,136.230,0
1486824888.857,54.199,19.043,23.438,27.832,15.625,0
1486824888.861,89.844,24.414,25.879,69.336,-35.156,0
1486824888.865,62.988,28.809,35.645,81.543,19.043,0
1486824888.869,-5.371,27.832,49.316,74.707,90.332,0
1486824888.873,-14.160,26.855,40.039,53.223,84.473,0
1486824888.877,58.105,24.902,28.809,36.133,-9.277,0
1486824888.880,97.656,23.926,39.062,74.219,6.348,0
1486824888.884,66.406,27.344,39.551,83.984,49.316,0
1486824888.888,0.977,27.344,39.551,73.242,118.652,0
1486824888.892,-20.508,22.461,36.133,49.316,145.508,0
1486824888.896,47.363,27.344,30.762,23.438,23.926,0
1486824888.900,101.074,29.297,34.180,59.570,-2.930,0
1486824888.904,74.707,22.461,32.715,77.637,19.531,0
1486824888.908,-4.883,20.996,38.574,68.359,86.914,0
1486824888.912,-32.227,21.484,48.828,53.711,167.480,0
1486824888.916,34.180,19.043,44.922,27.344,43.457,0
1486824888.919,97.168,28.809,43.945,69.336,-21.973,0
1486824888.923,74.707,29.785,34.180,84.961,31.250,0
1486824888.927,-1.953,19.043,24.902,64.453,65.430,0
1486824888.931,-24.902,25.391,28.809,54.688,118.652,0
1486824888.935,33.203,23.926,31.738,21.973,44.434,0
1486824888.939,93.750,20.996,39.551,45.410,-29.297,0
1486824888.943,80.566,24.902,33.203,65.430,-10.254,0
1486824888.947,17.090,27.344,28.809,61.523,65.430,0
1486824888.951,-22.461,30.273,35.156,55.664,125.000,0
1486824888.955,24.902,28.320,33.691,19.043,32.227,0
1486824888.959,90.332,25.879,29.297,39.062,-41.504,0
1486824888.962,86.426,31.250,32.715,73.730,15.625,0
1486824888.966,27.344,31.738,42.969,64.453,43.457,0
1486824888.970,-13.184,30.273,41.504,53.711,121.582,0
1486824888.974,23.926,30.762,35.645,25.879,80.566,0
1486824888.978,90.820,29.297,34.180,37.598,8.301,0
1486824888.982,100.586,29.785,27.832,72.754,73.242,0
1486824888.986,38.574,30.762,31.250,65.430,77.148,0
1486824888.990,-25.879,29.785,31.250,51.270,116.211,0
1486824888.994,-1.465,29.297,29.785,30.762,115.723,0
1486824888.998,65.430,27.832,32.227,38.086,16.602,0
1486824889.001,79.102,31.250,35.645,69.824,1.953,0
1486824889.005,26.367,30.762,38.574,61.035,15.137,0
1486824889.009,-26.855,31.250,42.480,51.270,134.766,0
1486824889.013,3.418,40.527,59.082,44.434,152.344,0
1486824889.017,64.941,28.809,42.969,36.621,32.227,0
1486824889.021,80.078,24.902,24.414,61.035,22.461,0
1486824889.025,41.992,31.250,38.574,65.430,16.113,0
1486824889.029,-13.184,29.785,37.598,52.734,81.543,0
1486824889.033,-9.277,31.738,30.762,32.715,76.172,0
1486824889.037,60.547,31.738,35.156,27.832,0.000,0
1486824889.041,98.145,31.738,41.992,69.336,13.672,0
1486824889.044,60.547,33.203,40.527,77.637,19.043,0
1486824889.048,-8.301,31.738,43.945,64.453,68.359,0
1486824889.052,-18.555,26.855,48.828,52.246,118.164,0
1486824889.056,53.711,22.461,44.922,30.762,-16.113,0
1486824889.060,91.309,23.438,47.363,64.453,-25.879,0
1486824889.064,55.176,27.344,41.992,90.820,73.242,0
1486824889.068,-4.883,27.344,31.250,70.801,115.723,0
1486824889.072,-20.996,26.367,35.156,55.664,125.000,0
1486824889.076,34.668,23.438,38.086,36.621,1.465,0
1486824889.080,89.355,37.598,43.945,71.289,-32.227,0
1486824889.084,66.406,32.227,41.992,89.355,20.508,0
1486824889.087,-5.859,18.555,30.273,58.105,67.383,0
1486824889.091,-27.344,24.902,34.668,44.922,83.496,1
1486824889.095,30.762,23.438,37.598,29.297,-16.602,0
1486824889.099,91.309,26.855,44.922,60.059,-67.871,0
1486824889.103,77.148,27.344,49.805,83.984,-8.789,0
1486824889.107,21.484,30.762,47.363,73.242,45.410,0
1486824889.111,-7.812,31.738,47.852,69.336,107.910,0
1486824889.115,39.062,28.809,37.109,37.598,56.641,0
1486824889.119,93.262,29.297,27.344,44.922,10.254,0
1486824889.123,87.891,32.227,33.203,85.449,45.898,0
1486824889.126,39.062,35.645,37.598,85.449,78.125,0
1486824889.130,-9.277,35.156,40.039,78.613,144.531,0
1486824889.134,27.832,32.227,41.992,49.805,48.828,0
1486824889.138,98.145,32.227,40.527,59.570,-21.973,0
1486824889.142,101.074,30.273,44.922,91.309,13.184,0
1486824889.146,53.223,42.480,57.617,86.914,64.453,0
1486824889.150,-6.348,38.574,42.480,78.125,168.945,0
1486824889.154,6.348,18.555,24.414,36.621,143.555,0
1486824889.158,77.637,22.949,34.180,29.785,24.902,0
1486824889.162,90.332,23.438,36.621,70.801,53.711,0
1486824889.166,41.016,23.438,39.551,68.848,79.590,0
1486824889.169,-22.461,24.902,43.945,56.152,126.953,0
1486824889.173,1.953,27.832,40.527,39.062,145.020,0
1486824889.177,77.637,28.320,31.738,35.156,39.551,0
1486824889.181,99.121,27.344,33.691,69.824,-0.488,0
1486824889.185,55.176,29.297,42.480,61.523,-1.953,0
1486824889.189,-6.348,29.297,41.504,55.664,90.820,0
1486824889.193,2.441,29.785,30.762,45.410,98.145,0
1486824889.197,71.777,27.832,24.902,21.973,-35.156,0
1486824889.201,104.980,27.344,30.273,67.871,-20.996,0
1486824889.205,71.289,31.250,37.598,74.707,45.410,0
1486824889.209,4.883,30.762,42.480,66.406,94.238,0
1486824889.212,-2.930,29.785,37.598,63.965,92.285,0
1486824889.216,60.547,30.273,30.762,38.574,2.930,0
1486824889.220,102.051,29.785,44.434,82.031,5.371,0
1486824889.224,73.242,29.785,52.246,92.773,21.973,0
1486824889.228,6.836,40.527,42.480,81.543,52.734,0
1486824889.232,-19.043,31.250,34.668,67.383,116.699,0
1486824889.236,34.180,15.625,29.297,26.367,32.227,0
1486824889.240,79.102,21.484,26.855,51.758,-19.531,0
1486824889.244,60.059,25.391,30.762,65.430,3.418,0
1486824889.248,0.977,27.832,41.992,63.477,50.781,0
1486824889.251,-18.066,28.809,40.527,59.570,141.113,0
1486824889.255,50.293,33.203,41.504,30.762,22.461,0
1486824889.259,104.492,29.297,41.504,63.477,-50.781,0
1486824889.263,82.031,26.367,41.992,92.285,22.461,0
1486824889.267,9.766,30.762,44.922,76.660,30.762,0
1486824889.271,-23.926,27.832,45.898,66.406,83.984,0
1486824889.275,30.273,24.414,42.480,35.156,39.551,0
1486824889.279,82.031,27.344,36.621,50.781,-33.203,0
1486824889.283,74.707,30.273,37.109,78.613,-19.043,0
1486824889.287,28.809,35.156,44.922,75.195,26.367,0
1486824889.291,-18.066,33.203,45.410,68.359,133.789,0
1486824889.294,24.902,37.598,47.363,40.527,66.895,0
1486824889.298,95.215,38.574,43.945,52.246,-44.434,0
1486824889.302,78.125,22.949,28.809,69.336,11.719,0
1486824889.306,27.832,25.879,39.551,73.242,78.125,0
1486824889.310,-12.695,27.344,41.016,73.730,130.371,0
1486824889.314,14.648,24.902,32.227,39.062,71.777,0
1486824889.318,87.891,27.832,40.527,44.922,-22.949,0
1486824889.322,103.027,33.203,45.898,85.449,2.930,0
1486824889.326,42.969,34.180,39.551,77.148,40.527,0
1486824889.330,-17.578,29.297,34.668,73.242,133.789,0
1486824889.333,-2.930,25.879,31.250,48.340,104.980,0
1486824889.337,65.430,26.367,31.250,38.086,20.020,0
1486824889.341,95.215,28.809,36.133,77.637,55.664,0
1486824889.345,42.969,27.344,41.504,72.754,52.734,0
1486824889.349,-19.531,26.367,38.086,67.383,111.328,0
1486824889.353,-0.488,27.832,37.109,48.828,110.840,0
1486824889.357,64.453,26.367,41.016,34.180,-7.812,0
1486824889.361,91.797,28.809,33.203,75.195,-19.043,0
1486824889.365,60.547,34.180,32.715,77.148,21.973,0
1486824889.369,-3.418,37.598,50.293,75.684,61.523,0
1486824889.373,-18.555,27.832,40.527,50.781,103.027,0
1486824889.376,44.922,20.508,27.344,13.184,11.230,0
1486824889.380,87.891,23.926,35.156,59.570,-18.066,0
1486824889.384,52.246,26.367,37.598,71.289,47.852,0
1486824889.388,-9.766,26.367,46.875,62.988,84.961,0
1486824889.392,-21.484,26.367,52.734,54.199,94.727,0
1486824889.396,47.363,27.832,46.875,27.832,-16.113,0
1486824889.400,96.680,26.367,41.016,58.594,-60.547,0
1486824889.404,71.777,28.809,45.410,81.543,-10.742,0
1486824889.408,8.789,32.227,50.781,79.102,45.898,0
1486824889.412,-19.531,29.297,45.410,64.941,99.121,0
1486824889.416,37.598,29.297,38.086,35.156,10.742,0
1486824889.419,84.473,30.273,33.203,56.152,-30.762,0
1486824889.423,71.289,29.785,41.016,78.125,-19.531,0
1486824889.427,7.812,26.367,39.551,70.801,23.926,0
1486824889.431,-21.973,34.180,41.992,63.477,132.812,0
1486824889.435,36.133,37.109,43.945,32.715,40.039,0
1486824889.439,83.984,22.949,32.715,37.598,-30.273,0
1486824889.443,68.359,26.855,40.039,71.289,40.039,0
1486824889.447,8.301,28.809,35.645,66.895,50.293,0
1486824889.451,-33.203,26.367,35.645,56.641,82.520,0
1486824889.455,9.766,24.902,34.180,23.438,64.941,0
1486824889.458,80.566,25.391,29.297,38.574,28.809,0
1486824889.462,78.613,28.320,36.133,80.566,36.621,0
1486824889.466,21.973,29.785,41.016,77.637,49.316,0
1486824889.470,-24.414,27.344,41.504,70.801,113.281,0
1486824889.474,12.695,28.320,40.039,43.945,61.035,0
1486824889.478,80.078,29.297,39.062,46.387,-43.945,0
1486824889.482,83.496,27.344,40.039,78.613,-0.488,0
1486824889.486,30.762,27.344,40.039,70.801,33.691,0
1486824889.490,-25.879,27.832,39.062,67.871,105.957,0
1486824889.494,-10.254,24.414,34.668,47.363,92.285,0
1486824889.498,53.223,22.461,32.227,37.598,-12.207,0
1486824889.501,84.473,24.902,40.527,72.754,0.000,0
1486824889.505,49.805,28.320,44.922,80.566,20.020,0
1486824889.509,-13.672,30.762,43.945,68.359,80.078,0
1486824889.513,-5.859,29.785,39.062,43.945,88.379,0
1486824889.517,74.707,31.250,40.039,37.109,-32.715,0
1486824889.521,102.051,28.809,39.551,66.895,-27.344,0
1486824889.525,59.570,30.762,34.180,72.754,44.922,0
1486824889.529,-8.301,29.297,38.574,64.453,102.539,0
1486824889.533,-9.766,33.203,45.898,49.805,102.539,0
1486824889.537,66.895,41.016,46.387,43.457,-52.246,0
1486824889.541,83.008,23.926,32.227,60.547,-59.082,0
1486824889.544,46.387,20.508,33.691,72.266,48.828,0
1486824889.548,-6.348,28.320,37.109,75.684,104.004,0
1486824889.552,-13.184,27.344,39.551,56.152,117.676,0
1486824889.556,57.617,23.438,35.156,24.902,32.715,0
1486824889.560,102.539,23.926,31.738,61.523,11.230,0
1486824889.564,66.406,25.879,32.715,78.613,20.508,0
1486824889.568,-0.488,27.344,35.156,70.801,88.867,0
1486824889.572,-20.020,27.832,32.227,64.941,169.922,0
1486824889.576,36.133,31.250,29.785,31.738,42.969,0
1486824889.580,88.867,28.809,41.016,57.617,-24.902,0
1486824889.583,74.219,27.832,40.527,82.520,31.250,0
1486824889.587,16.602,32.715,38.574,80.078,91.309,0
1486824889.591,-9.277,33.691,44.434,79.590,122.070,0
1486824889.595,41.504,31.738,35.156,39.062,34.668,0
1486824889.599,95.703,28.809,29.785,54.688,-27.832,0
1486824889.603,90.332,27.832,31.738,85.449,11.230,0
1486824889.607,32.227,30.762,32.227,71.289,68.359,0
1486824889.611,-11.719,29.785,32.715,64.453,110.840,0
1486824889.615,42.480,36.621,41.992,49.805,46.387,0
1486824889.619,96.680,29.785,42.969,52.734,-33.691,0
1486824889.623,83.496,20.020,38.574,74.707,8.301,0
1486824889.626,30.762,24.414,36.133,75.195,79.102,0
1486824889.630,-22.949,24.414,30.273,63.965,118.164,0
1486824889.634,10.254,22.461,26.855,25.879,56.641,0
1486824889.638,83.984,25.391,26.367,27.832,-1.953,0
1486824889.642,95.215,27.344,30.273,71.777,18.066,0
1486824889.646,36.133,29.785,30.273,62.988,23.438,0
1486824889.650,-23.438,28.809,32.715,60.059,100.586,0
1486824889.654,0.488,23.438,31.250,40.527,95.703,0
1486824889.658,80.078,23.926,35.645,31.250,-21.973,0
1486824889.662,93.750,23.438,45.898,71.289,-41.992,0
1486824889.665,39.062,27.344,46.875,78.613,29.785,0
1486824889.669,-10.742,30.273,43.457,75.684,126.953,0
1486824889.673,-3.418,26.367,36.133,50.781,128.418,0
1486824889.677,65.430,28.809,30.762,30.762,33.203,0
1486824889.681,97.168,33.203,36.133,69.824,33.203,0
1486824889.685,50.293,30.273,41.016,78.125,62.500,0
1486824889.689,-20.020,28.320,34.668,68.848,132.324,0
1486824889.693,-14.648,27.344,36.621,48.340,104.004,0
1486824889.697,46.875,20.996,34.668,19.531,-19.531,0
1486824889.701,92.773,34.180,50.293,67.383,4.395,0
1486824889.705,57.129,32.715,49.805,84.473,14.648,0
1486824889.708,-36.133,17.090,30.273,54.199,57.617,0
1486824889.712,-32.227,21.484,38.086,41.992,82.520,1
1486824889.716,52.734,25.879,32.227,16.113,-26.855,0
1486824889.720,100.586,30.273,27.832,43.457,-37.109,0
1486824889.724,77.148,27.344,33.203,66.895,20.508,0
1486824889.728,7.324,22.949,38.086,68.848,71.289,0
1486824889.732,-17.578,28.320,39.062,62.988,137.695,0
1486824889.736,47.363,28.809,36.621,24.902,29.297,0
1486824889.740,102.539,29.297,40.039,54.688,-41.504,0
1486824889.744,78.125,32.227,41.016,84.961,0.000,0
1486824889.748,6.348,28.320,36.621,73.730,60.547,0
1486824889.751,-31.250,27.344,32.715,61.523,134.277,0
1486824889.755,25.391,30.762,35.156,28.809,57.129,0
1486824889.759,82.520,31.250,35.645,51.270,-50.781,0
1486824889.763,66.406,27.832,29.785,79.102,-35.156,0
1486824889.767,8.301,27.344,31.250,67.871,52.734,0
1486824889.771,-29.785,28.809,34.180,63.965,109.863,0
1486824889.775,14.160,26.367,40.039,18.066,40.039,0
1486824889.779,82.031,26.367,41.504,25.391,-18.066,0
1486824889.783,87.891,34.668,45.898,84.473,34.668,0
1486824889.787,17.578,27.344,36.621,71.777,80.078,0
1486824889.790,-28.320,20.508,29.785,56.152,121.094,0
1486824889.794,17.090,25.879,36.621,32.715,89.355,0
1486824889.798,81.055,24.414,27.832,40.039,-15.625,0
1486824889.802,92.285,23.926,24.414,81.055,-27.832,0
1486824889.806,35.645,26.855,30.762,71.289,5.371,0
1486824889.810,-27.832,29.785,32.715,66.895,102.051,0
1486824889.814,-1.953,27.832,33.691,31.250,119.629,0
1486824889.818,77.148,29.297,31.250,26.367,-9.766,0
1486824889.822,96.680,32.227,35.645,75.195,-2.441,0
1486824889.826,47.852,31.250,43.457,69.824,55.176,0
1486824889.830,-15.137,28.809,34.180,68.359,118.164,0
1486824889.833,-4.395,30.273,38.574,46.387,104.492,0
1486824889.837,67.383,30.273,48.340,31.250,-0.488,0
1486824889.841,85.449,30.273,36.621,70.801,-15.137,0
1486824889.845,39.062,33.203,31.250,70.312,6.836,0
1486824889.849,-20.508,33.203,36.621,63.965,56.641,0
1486824889.853,-14.648,29.785,41.992,41.504,88.867,0
1486824889.857,59.082,27.344,41.992,20.996,11.230,0
1486824889.861,100.586,34.668,43.945,78.125,-11.719,0
1486824889.865,56.641,23.926,43.457,75.684,11.230,0
1486824889.869,-15.137,17.090,41.016,62.988,92.773,0
1486824889.873,-9.766,28.809,38.086,54.199,141.602,0
1486824889.876,60.547,28.320,32.715,26.367,4.395,0
1486824889.880,95.703,25.879,33.691,67.383,-45.410,0
1486824889.884,73.242,31.738,35.645,85.938,24.414,0
1486824889.888,9.277,36.621,43.945,82.520,89.844,0
1486824889.892,-12.207,31.738,37.598,60.059,147.461,0
1486824889.896,55.176,29.785,28.809,27.832,76.660,0
1486824889.900,109.375,33.203,35.645,69.336,24.902,0
1486824889.904,79.102,31.250,43.945,88.379,40.527,0
1486824889.908,9.277,29.785,42.480,75.195,61.523,0
1486824889.912,-17.578,31.250,44.434,71.777,148.438,0
1486824889.915,33.203,29.785,43.457,33.203,20.508,0
1486824889.919,86.426,30.273,33.691,46.387,-78.125,0
1486824889.923,78.613,31.738,38.574,76.172,-5.859,0
1486824889.927,22.461,32.715,46.387,77.637,32.227,0
1486824889.931,-14.648,31.738,39.062,64.453,88.867,0
1486824889.935,31.738,30.762,29.297,23.438,53.223,0
1486824889.939,91.797,30.273,32.715,44.922,-22.949,0
1486824889.943,91.797,30.762,37.598,79.590,-9.766,0
1486824889.947,37.598,32.715,46.875,78.125,73.242,0
1486824889.951,-9.277,32.715,43.457,70.312,147.949,0
1486824889.955,25.879,30.273,26.855,26.367,59.570,0
1486824889.958,104.492,38.086,39.551,51.758,-18.066,0
1486824889.962,108.398,32.227,41.016,94.238,22.461,0
1486824889.966,43.945,22.949,34.668,78.125,63.965,0
1486824889.970,-4.883,27.344,41.992,71.777,119.141,0
1486824889.974,18.066,27.344,39.062,64.941,130.859,0
1486824889.978,82.031,25.391,37.598,61.035,39.551,0
1486824889.982,93.750,25.391,41.016,72.266,-4.395,0
1486824889.986,41.992,26.367,49.805,87.402,59.082,0
1486824889.990,-12.695,29.297,42.969,68.359,106.445,0
1486824889.994,-6.836,24.902,32.715,49.805,101.074,0
1486824889.997,58.594,20.996,27.344,50.293,18.555,0
1486824890.001,92.285,27.832,29.297,69.336,-2.441,0
1486824890.005,40.039,23.926,36.133,76.660,37.109,0
1486824890.009,-22.949,22.461,40.039,62.012,82.520,0
1486824890.013,-20.020,26.367,42.969,51.758,110.840,0
1486824890.017,51.270,24.902,41.016,41.992,6.348,0
1486824890.021,99.121,29.785,41.504,61.035,-30.273,0
1486824890.025,60.059,27.832,36.621,69.336,17.090,0
1486824890.029,0.000,32.715,53.711,69.336,67.383,0
1486824890.033,-11.719,34.180,56.152,61.035,118.652,0
1486824890.037,36.133,16.602,21.973,25.391,58.105,0
1486824890.040,81.543,17.578,18.555,36.621,13.672,0
1486824890.044,52.246,22.949,26.367,54.199,18.066,0
1486824890.048,-6.348,26.855,30.762,56.641,83.984,0
1486824890.052,-16.602,29.297,30.273,46.875,120.117,0
1486824890.056,47.852,28.809,30.762,22.949,3.418,0
1486824890.060,101.074,28.809,39.062,54.688,-9.766,0
1486824890.064,75.684,30.762,39.062,89.844,17.578,0
1486824890.068,5.371,29.297,37.109,80.566,44.434,0
1486824890.072,-14.160,24.902,34.668,66.406,98.633,0
1486824890.076,37.598,22.949,25.879,58.594,43.945,0
1486824890.080,97.656,23.438,29.785,65.918,-26.855,0
1486824890.083,91.309,27.344,37.109,79.102,-28.809,0
1486824890.087,19.531,26.855,38.574,75.684,35.645,0
1486824890.091,-14.160,25.391,42.480,55.664,117.188,0
1486824890.095,25.391,28.320,42.969,53.223,94.727,0
1486824890.099,82.031,25.391,42.969,63.477,15.137,0
1486824890.103,77.637,23.926,45.410,63.965,18.555,0
1486824890.107,17.090,33.691,47.852,63.965,37.598,0
1486824890.111,-33.203,24.414,37.109,55.176,40.527,0
1486824890.115,-0.488,13.672,28.809,16.602,-10.742,0
1486824890.119,73.730,21.484,29.297,25.879,-72.266,0
1486824890.122,83.496,25.391,30.762,70.312,-32.715,0
1486824890.126,23.926,29.297,38.574,67.383,-0.977,0
1486824890.130,-34.180,31.250,40.039,63.477,75.684,0
1486824890.134,0.000,26.855,38.086,32.227,40.039,0
1486824890.138,77.148,29.297,38.574,31.250,-80.078,0
1486824890.142,90.332,34.180,44.922,68.359,-58.105,0
1486824890.146,37.598,34.180,44.922,66.895,-10.254,0
1486824890.150,-18.555,33.203,34.180,62.012,71.289,0
1486824890.154,-0.977,30.273,32.715,47.363,77.637,0
1486824890.158,70.312,27.832,36.621,49.316,-25.391,0
1486824890.162,99.609,31.250,37.109,76.660,-49.316,0
1486824890.165,56.152,33.691,36.133,75.684,10.742,0
1486824890.169,0.977,33.691,36.133,65.918,111.816,0
1486824890.173,1.465,31.738,33.691,45.410,107.910,0
1486824890.177,68.359,30.273,41.016,38.574,-10.742,0
1486824890.181,109.375,32.715,46.387,75.684,-47.852,0
1486824890.185,65.918,33.203,40.039,83.984,-13.672,0
1486824890.189,3.418,31.738,39.551,76.660,54.199,0
1486824890.193,2.441,33.203,35.156,58.594,84.961,0
1486824890.197,66.895,29.785,34.180,31.738,-36.133,0
1486824890.201,104.492,28.320,42.480,69.336,-41.504,0
1486824890.205,71.289,29.785,41.992,86.426,-6.348,0
1486824890.208,0.000,28.809,38.086,71.777,57.129,0
1486824890.212,-12.695,25.391,41.504,56.641,116.699,0
1486824890.216,50.781,23.438,38.574,24.902,8.789,0
1486824890.220,96.680,28.809,47.363,63.477,-30.273,0
1486824890.224,69.824,31.250,50.293,92.773,38.574,0
1486824890.228,-11.719,20.020,29.785,60.059,109.863,0
1486824890.232,-32.715,19.043,25.391,42.969,141.602,0
1486824890.236,40.039,24.414,29.785,20.996,42.969,0
1486824890.240,86.914,22.949,34.668,48.340,15.137,0
1486824890.244,76.660,22.461,42.969,78.613,83.008,0
1486824890.247,9.766,25.391,40.527,69.824,84.473,0
1486824890.251,-37.598,23.438,38.574,62.012,108.887,0
1486824890.255,18.066,20.996,34.180,28.320,50.293,0
1486824890.259,78.613,21.484,28.809,41.992,-37.598,0
1486824890.263,74.707,22.949,37.109,81.055,-1.953,0
1486824890.267,11.230,25.879,43.457,71.289,67.383,0
1486824890.271,-34.180,25.879,37.109,57.129,105.957,0
1486824890.275,12.207,23.438,31.250,33.691,51.270,0
1486824890.279,82.520,23.438,36.133,46.387,-30.762,0
1486824890.283,85.938,24.414,42.969,76.660,6.348,0
1486824890.287,27.344,25.391,42.969,68.848,43.945,0
1486824890.290,-20.996,24.902,42.969,72.266,115.234,0
1486824890.294,12.695,22.949,44.434,49.316,98.633,1
1486824890.298,78.125,22.949,44.434,50.293,31.250,0
1486824890.302,89.355,25.879,45.410,81.543,22.461,0
1486824890.306,33.691,23.926,43.457,69.336,28.320,0
1486824890.310,-17.090,32.227,44.922,76.172,99.121,0
1486824890.314,4.395,35.645,40.039,55.176,120.117,0
1486824890.318,63.477,17.578,26.367,38.574,57.617,0
1486824890.322,85.938,19.043,28.320,68.359,40.527,0
1486824890.326,40.527,24.902,30.273,62.988,78.125,0
1486824890.329,-12.207,25.879,38.086,67.871,148.926,0
1486824890.333,-0.488,27.832,46.875,46.387,91.309,0
1486824890.337,66.895,26.855,36.133,30.762,-39.062,0
1486824890.341,98.145,27.832,33.203,74.219,8.301,0
1486824890.345,64.453,28.809,40.039,77.148,27.344,0
1486824890.349,-10.254,27.344,29.785,65.918,88.379,0
1486824890.353,-20.020,25.391,23.926,47.363,135.254,0
1486824890.357,52.734,24.414,32.715,27.832,22.949,0
1486824890.361,89.355,26.367,34.180,66.406,-6.836,0
1486824890.365,54.199,27.344,35.156,72.266,43.945,0
1486824890.369,-14.160,25.879,41.504,67.871,128.418,0
1486824890.372,-27.344,22.461,40.039,59.570,136.230,0
1486824890.376,42.480,27.344,43.457,19.531,-11.719,0
1486824890.380,83.496,25.879,41.504,52.246,-45.410,0
1486824890.384,70.312,33.691,35.645,90.820,15.625,0
1486824890.388,9.277,39.551,39.062,83.496,70.801,0
1486824890.392,-31.738,21.484,26.855,52.734,149.902,0
1486824890.396,30.273,22.461,29.785,20.996,40.527,0
1486824890.400,84.961,25.879,34.180,59.082,-26.855,0
1486824890.404,66.895,26.367,39.062,75.195,25.391,0
1486824890.408,1.953,28.809,45.898,66.895,79.102,0
1486824890.412,-37.109,26.367,35.156,63.477,136.719,0
1486824890.415,16.602,25.391,34.180,23.926,23.926,0
1486824890.419,82.031,30.273,41.016,45.410,-62.500,0
1486824890.423,71.777,31.250,34.668,68.359,12.695,0
1486824890.427,16.602,29.785,37.109,60.059,31.738,0
1486824890.431,-26.367,32.715,39.551,60.547,73.242,0
1486824890.435,14.160,28.809,36.133,25.391,46.387,0
1486824890.439,81.055,27.344,32.227,32.715,-41.504,0
1486824890.443,81.543,30.273,41.016,66.895,-13.672,0
1486824890.447,21.484,27.344,43.945,63.477,46.387,0
1486824890.451,-24.414,27.344,42.480,63.965,110.352,0
1486824890.454,8.789,30.762,36.133,30.273,96.191,0
1486824890.458,77.148,29.297,29.785,32.227,33.203,0
1486824890.462,89.844,28.320,37.109,65.918,15.625,0
1486824890.466,43.457,31.250,33.203,54.688,59.570,0
1486824890.470,1.465,41.016,44.434,67.383,123.535,0
1486824890.474,7.812,30.762,36.621,34.180,60.059,0
1486824890.478,62.012,16.113,20.996,19.043,-25.391,0
1486824890.482,85.938,24.414,35.645,68.848,-13.184,0
1486824890.486,37.598,27.344,36.621,66.406,8.301,0
1486824890.490,-17.090,26.367,33.691,62.988,82.520,0
1486824890.494,-7.324,27.832,38.086,40.527,80.566,0
1486824890.497,57.617,27.832,33.691,33.691,-10.742,0
1486824890.501,83.008,30.273,30.762,66.406,-5.371,0
1486824890.505,42.969,31.250,36.133,62.500,28.320,0
1486824890.509,-16.113,26.367,34.180,70.312,83.984,0
1486824890.513,-14.648,23.438,40.039,51.270,103.027,0
1486824890.517,57.129,25.879,36.133,27.832,-24.902,0
1486824890.521,89.844,26.855,26.367,64.453,-21.973,0
1486824890.525,50.781,26.367,33.203,74.707,29.785,0
1486824890.529,-6.348,23.926,38.574,73.242,60.059,0
1486824890.533,-12.207,26.855,38.574,61.523,113.770,0
1486824890.537,57.617,28.320,31.250,36.133,30.762,0
1486824890.540,106.445,23.926,30.273,63.477,-8.301,0
1486824890.544,77.637,24.414,34.668,76.660,22.461,0
