timestamps,TP9,AF7,AF8,TP10,Right AUX,Marker
1486824485.056,8.789,46.875,55.176,96.191,122.559,0
1486824485.060,-50.293,28.320,41.016,-20.020,35.156,0
1486824485.064,43.457,25.879,33.691,-11.719,-55.176,0
1486824485.068,120.605,28.809,28.320,108.398,-6.836,0
1486824485.072,98.145,31.738,33.691,152.832,74.219,0
1486824485.076,2.441,36.621,41.016,86.426,120.117,0
1486824485.080,-64.941,34.668,36.133,-14.160,81.055,0
1486824485.083,21.484,28.809,31.738,-22.949,-18.555,0
1486824485.087,117.676,27.832,37.598,96.191,22.949,0
1486824485.091,101.074,27.344,35.645,154.785,105.469,0
1486824485.095,5.859,28.809,33.203,88.379,143.066,0
1486824485.099,-60.547,29.785,33.691,-7.324,104.980,0
1486824485.103,8.789,22.461,29.785,-32.715,-30.762,0
1486824485.107,106.934,23.438,34.180,72.754,-49.805,0
1486824485.111,104.980,23.926,39.551,150.879,88.867,0
1486824485.115,18.555,25.879,36.621,99.121,168.457,0
1486824485.119,-60.059,31.738,38.574,1.465,106.934,0
1486824485.122,-7.812,31.250,34.180,-37.109,-6.836,0
1486824485.126,100.586,33.203,28.320,59.082,-7.812,0
1486824485.130,115.723,30.273,38.574,151.367,82.520,0
1486824485.134,37.598,32.715,41.504,116.211,119.141,0
1486824485.138,-51.270,39.551,39.062,17.578,72.266,0
1486824485.142,-19.043,29.297,35.645,-37.598,-60.547,0
1486824485.146,88.867,23.438,31.738,51.270,-97.168,0
1486824485.150,116.699,27.344,40.039,155.762,35.645,0
1486824485.154,48.828,27.832,40.527,125.977,117.188,0
1486824485.158,-44.434,31.250,36.621,32.227,81.543,0
1486824485.162,-35.156,29.297,31.738,-41.504,-37.598,0
1486824485.165,87.891,35.645,33.691,32.227,-72.754,0
1486824485.169,130.371,38.574,43.945,154.297,33.203,0
1486824485.173,46.387,20.020,31.250,125.000,105.957,0
1486824485.177,-55.176,20.020,28.809,23.926,120.605,0
1486824485.181,-54.688,21.973,26.855,-44.434,31.250,0
1486824485.185,53.223,22.461,25.879,12.207,-54.199,0
1486824485.189,111.816,23.438,31.738,129.395,55.176,0
1486824485.193,69.336,23.926,35.156,136.230,146.484,0
1486824485.197,-29.785,27.832,36.621,55.176,146.973,0
1486824485.201,-53.223,31.250,41.504,-27.344,68.359,0
1486824485.205,51.270,27.832,37.598,1.465,-17.090,0
1486824485.208,122.070,25.879,29.297,115.723,26.367,0
1486824485.212,78.125,30.273,40.039,141.113,127.441,0
1486824485.216,-25.391,34.180,46.387,60.059,168.457,0
1486824485.220,-58.594,32.227,36.621,-35.156,63.477,0
1486824485.224,31.738,28.809,31.738,-16.602,-36.621,0
1486824485.228,111.328,28.320,37.109,106.445,45.898,0
1486824485.232,89.844,31.738,37.109,139.648,117.188,0
1486824485.236,-15.625,30.762,36.133,62.988,132.324,0
1486824485.240,-55.664,40.039,49.805,-16.602,78.125,0
1486824485.244,27.344,28.809,44.922,-27.832,-71.777,0
1486824485.247,95.703,17.090,33.691,75.684,-36.621,0
1486824485.251,84.473,28.320,40.527,141.113,104.492,0
1486824485.255,-5.371,29.785,41.992,77.637,164.062,0
1486824485.259,-67.871,30.762,35.645,-24.902,92.285,0
1486824485.263,8.789,27.344,32.227,-41.504,-60.547,0
1486824485.267,100.586,23.926,31.250,74.219,-27.832,0
1486824485.271,96.191,26.367,34.668,147.949,58.105,0
1486824485.275,11.230,27.344,37.109,95.215,92.773,0
1486824485.279,-65.430,28.320,38.574,-5.859,57.617,0
1486824485.283,0.977,25.879,40.039,-36.621,-64.453,0
1486824485.287,108.398,21.973,41.016,66.406,-75.195,0
1486824485.290,114.258,28.320,41.504,147.461,40.039,0
1486824485.294,33.203,31.250,43.457,110.352,98.633,0
1486824485.298,-53.223,25.391,43.457,8.789,54.688,0
1486824485.302,-16.602,24.902,30.273,-37.598,-40.527,0
1486824485.306,89.844,25.879,25.391,55.176,-52.246,0
1486824485.310,113.281,25.879,32.227,143.066,50.293,0
1486824485.314,45.410,32.227,38.086,117.188,97.656,0
1486824485.318,-40.527,31.250,44.922,21.484,105.957,0
1486824485.322,-21.973,25.391,41.504,-41.992,38.574,0
1486824485.326,88.867,28.809,33.691,35.645,-68.848,0
1486824485.330,125.488,30.762,41.016,140.625,10.742,0
1486824485.333,58.594,31.738,41.992,133.301,104.492,0
1486824485.337,-35.645,37.598,38.086,46.875,87.402,0
1486824485.341,-30.762,35.645,41.504,-24.414,9.277,0
1486824485.345,76.172,30.273,35.645,22.461,-76.660,0
1486824485.349,122.070,28.320,32.227,125.977,-2.930,0
1486824485.353,66.406,31.250,35.156,134.766,87.891,0
1486824485.357,-30.762,33.691,37.109,51.270,84.961,0
1486824485.361,-50.293,26.855,33.203,-40.039,13.672,0
1486824485.365,66.895,28.320,38.086,8.301,-46.387,0
1486824485.369,133.789,37.109,48.340,129.395,-4.883,0
1486824485.372,67.383,30.273,38.086,132.324,27.832,0
1486824485.376,-33.691,31.738,36.621,48.340,63.965,0
1486824485.380,-58.105,28.320,35.156,-42.480,4.395,0
1486824485.384,41.504,25.391,33.691,-18.066,-97.168,0
1486824485.388,108.398,27.832,37.598,97.656,5.371,0
1486824485.392,77.637,27.832,37.598,130.859,107.910,0
1486824485.396,-18.066,30.762,37.109,64.453,107.422,0
1486824485.400,-64.453,30.273,31.738,-34.180,50.293,0
1486824485.404,38.086,28.809,30.762,-25.879,-94.727,0
1486824485.408,129.883,33.203,36.621,99.609,-50.293,0
1486824485.412,112.305,36.133,37.109,145.508,64.453,0
1486824485.415,12.207,34.668,39.551,74.219,84.961,0
1486824485.419,-52.246,34.668,42.969,-24.414,48.828,0
1486824485.423,30.762,31.250,35.645,-32.227,-76.660,0
1486824485.427,120.117,31.738,28.320,78.125,-42.969,0
1486824485.431,102.051,32.715,35.156,139.160,71.777,0
1486824485.435,5.371,28.320,41.992,92.773,139.160,0
1486824485.439,-62.012,25.391,39.062,-3.906,96.680,0
1486824485.443,7.812,25.391,32.227,-27.832,-27.832,0
1486824485.447,107.422,27.832,30.273,80.566,-20.996,0
1486824485.451,106.934,28.809,38.086,160.645,76.172,0
1486824485.454,27.832,32.227,42.969,121.582,113.770,0
1486824485.458,-51.270,33.203,41.504,14.648,77.148,0
1486824485.462,-9.766,30.762,35.156,-29.297,-47.363,0
1486824485.466,96.191,27.344,35.156,59.570,-52.246,0
1486824485.470,111.816,28.320,39.551,144.043,80.566,0
1486824485.474,41.504,31.250,41.992,118.652,111.328,0
1486824485.478,-48.828,31.738,37.109,13.672,82.031,1
1486824485.482,-23.926,27.832,32.227,-47.363,-26.367,0
1486824485.486,90.820,25.879,36.133,34.668,-67.383,0
1486824485.490,118.652,31.250,37.598,136.230,20.020,0
1486824485.494,48.340,32.227,41.504,125.977,93.750,0
1486824485.497,-40.039,34.668,46.875,30.273,112.793,0
1486824485.501,-29.785,34.180,39.551,-39.551,36.133,0
1486824485.505,79.102,30.762,36.621,19.531,-32.715,0
1486824485.509,127.930,30.762,41.992,138.184,50.293,0
1486824485.513,72.266,31.250,44.434,136.230,120.117,0
1486824485.517,-38.574,30.273,45.410,32.715,124.512,0
1486824485.521,-40.527,41.504,56.152,-28.809,41.504,0
1486824485.525,71.777,36.621,41.016,14.648,-55.664,0
1486824485.529,111.816,19.043,19.531,115.723,40.527,0
1486824485.533,69.824,24.902,31.738,138.672,155.273,0
1486824485.537,-12.207,30.273,42.969,56.152,154.297,0
1486824485.540,-39.551,25.879,42.480,-36.133,45.898,0
1486824485.544,61.035,23.926,34.180,-7.324,-85.449,0
1486824485.548,138.184,29.785,39.551,127.441,12.207,0
1486824485.552,101.074,30.762,45.410,163.574,120.117,0
1486824485.556,-2.930,27.832,44.434,81.543,85.449,0
1486824485.560,-38.086,28.809,39.551,-8.301,47.852,0
1486824485.564,61.523,32.227,35.645,-8.789,-55.664,0
1486824485.568,135.742,31.738,43.945,109.863,-12.207,0
1486824485.572,114.258,33.691,47.363,168.945,104.492,0
1486824485.576,16.113,35.156,41.016,95.215,137.207,0
1486824485.579,-52.734,30.762,42.480,-3.418,80.566,0
1486824485.583,28.809,24.902,38.086,-21.484,-35.645,0
1486824485.587,115.234,25.879,33.691,94.238,-4.883,0
1486824485.591,100.098,28.320,37.598,160.645,113.770,0
1486824485.595,9.766,31.738,37.598,87.402,167.480,0
1486824485.599,-64.453,30.762,36.621,-16.602,125.488,0
1486824485.603,12.207,28.809,33.691,-45.898,-20.020,0
1486824485.607,114.746,29.297,34.668,69.824,6.836,0
1486824485.611,112.305,34.180,41.504,149.902,140.137,0
1486824485.615,27.832,38.574,41.992,100.098,160.645,0
1486824485.619,-46.387,35.156,45.898,6.836,130.859,0
1486824485.622,7.324,31.250,43.457,-40.527,16.602,0
1486824485.626,105.957,29.785,30.273,58.594,-16.602,0
1486824485.630,122.070,27.832,35.645,157.227,99.121,0
1486824485.634,51.758,28.809,48.340,122.070,153.809,0
1486824485.638,-46.387,31.250,48.340,20.996,120.605,0
1486824485.642,-17.578,30.762,38.086,-39.062,14.160,0
1486824485.646,97.656,29.785,39.062,51.270,-28.320,0
1486824485.650,120.605,31.250,44.434,161.133,66.895,0
1486824485.654,50.293,31.738,50.293,137.207,107.422,0
1486824485.658,-43.457,26.367,51.270,38.086,111.328,0
1486824485.662,-25.391,23.438,41.992,-33.691,13.672,0
1486824485.665,92.773,26.367,41.016,36.621,-67.871,0
1486824485.669,132.812,28.320,44.434,160.156,26.367,0
1486824485.673,73.730,28.809,45.410,140.625,101.562,0
1486824485.677,-22.949,34.180,48.340,40.039,123.047,0
1486824485.681,-30.273,31.250,44.434,-36.621,34.668,0
1486824485.685,77.148,25.879,37.109,13.672,-90.332,0
1486824485.689,127.930,28.320,41.992,137.207,6.836,0
1486824485.693,82.520,31.250,49.316,143.066,115.723,0
1486824485.697,-11.719,35.645,51.270,62.012,94.238,0
1486824485.701,-40.039,27.832,41.016,-31.738,0.488,0
1486824485.704,62.988,19.531,30.762,-3.418,-79.590,0
1486824485.708,130.371,23.926,37.109,134.766,14.160,0
1486824485.712,93.262,30.762,42.480,157.715,119.629,0
1486824485.716,-1.465,33.691,41.504,68.359,146.484,0
1486824485.720,-39.551,29.785,42.480,-17.090,61.035,0
1486824485.724,60.059,23.926,41.016,-3.906,-73.242,0
1486824485.728,134.766,26.367,41.992,120.605,-22.461,0
1486824485.732,102.539,29.785,43.457,160.156,76.660,0
1486824485.736,3.418,30.273,45.410,77.148,105.957,0
1486824485.740,-47.363,32.715,43.945,-20.020,83.008,0
1486824485.744,34.180,31.738,46.387,-15.625,-9.277,0
1486824485.747,117.188,28.809,49.316,104.492,29.785,0
1486824485.751,102.051,28.809,40.039,159.668,129.395,0
1486824485.755,6.836,25.391,41.504,90.332,155.273,0
1486824485.759,-55.176,25.391,53.711,-12.695,73.730,0
1486824485.763,21.973,29.785,45.898,-28.809,-43.945,0
1486824485.767,120.605,30.273,40.527,83.496,-21.484,0
1486824485.771,111.328,24.414,44.922,159.180,85.449,0
1486824485.775,18.066,24.414,40.039,101.074,187.988,0
1486824485.779,-54.688,24.902,37.109,-3.906,135.742,0
1486824485.783,0.000,22.461,37.109,-33.203,-20.996,0
1486824485.786,103.516,23.926,38.574,74.707,0.977,0
1486824485.790,116.211,28.320,44.434,163.086,108.398,0
1486824485.794,30.762,30.273,45.410,108.887,129.883,0
1486824485.798,-57.129,26.855,43.945,0.000,135.254,0
1486824485.802,-15.137,26.855,40.527,-40.039,2.930,0
1486824485.806,97.168,27.832,30.273,62.500,-43.457,0
1486824485.810,110.352,24.414,31.250,154.785,77.148,0
1486824485.814,37.109,25.879,36.133,120.605,123.535,0
1486824485.818,-51.758,28.809,42.969,26.855,117.676,0
1486824485.822,-36.133,26.367,40.527,-38.086,4.883,0
1486824485.826,71.289,24.414,32.715,34.668,-62.012,0
1486824485.829,113.281,27.344,33.691,143.555,40.527,0
1486824485.833,55.176,32.227,43.457,125.977,66.406,0
1486824485.837,-46.387,31.738,42.480,26.367,83.984,0
1486824485.841,-34.668,30.762,38.086,-46.387,13.672,0
1486824485.845,79.590,29.297,37.109,21.484,-93.262,0
1486824485.849,116.699,27.344,28.320,136.230,35.156,0
1486824485.853,64.453,28.809,32.715,133.789,117.676,0
1486824485.857,-30.273,30.762,35.645,40.039,85.449,0
1486824485.861,-41.504,26.855,34.180,-46.387,10.742,0
1486824485.865,62.988,23.438,35.156,3.418,-59.082,0
1486824485.869,121.094,27.344,32.227,131.348,32.227,0
1486824485.872,81.055,29.785,34.668,144.043,106.445,0
1486824485.876,-22.949,33.203,35.645,52.734,137.695,0
1486824485.880,-56.641,34.180,39.062,-41.016,25.391,0
1486824485.884,42.480,27.344,34.668,-14.648,-115.723,0
1486824485.888,113.770,28.809,26.367,111.328,4.883,0
1486824485.892,83.984,38.574,34.180,143.555,99.609,0
1486824485.896,-13.672,40.039,41.992,71.289,97.168,0
1486824485.900,-57.617,33.203,41.504,-23.926,40.039,0
1486824485.904,36.621,28.809,38.086,-16.602,-78.613,0
1486824485.908,118.652,26.855,34.668,107.422,-17.578,0
1486824485.911,99.121,29.297,31.250,153.320,97.168,0
1486824485.915,2.441,32.227,37.109,85.449,117.676,0
1486824485.919,-60.059,30.273,41.992,-15.137,36.621,0
1486824485.923,20.996,28.809,39.551,-26.367,-79.590,0
1486824485.927,108.398,27.344,37.598,84.961,-34.668,0
1486824485.931,101.074,28.809,36.133,147.461,47.363,0
1486824485.935,8.789,31.738,40.039,88.379,60.547,0
1486824485.939,-64.941,27.832,39.551,-11.230,51.270,0
1486824485.943,11.719,23.926,35.645,-33.203,-48.340,0
1486824485.947,104.004,24.414,38.574,74.219,-47.852,0
1486824485.951,99.121,25.391,35.156,158.691,94.238,0
1486824485.954,27.832,28.809,37.109,112.305,144.531,0
1486824485.958,-55.176,28.320,40.527,5.859,82.031,0
1486824485.962,-16.113,24.902,34.668,-37.598,-43.457,0
1486824485.966,94.238,26.367,37.598,64.453,-70.312,0
1486824485.970,113.770,27.832,44.434,159.180,47.363,0
1486824485.974,35.156,28.809,43.457,116.699,110.352,0
1486824485.978,-56.641,27.832,42.969,10.254,96.680,0
1486824485.982,-15.137,25.879,43.457,-45.898,-25.879,0
1486824485.986,92.773,22.949,41.504,38.574,-73.730,0
1486824485.990,119.141,20.996,36.621,147.461,45.898,1
1486824485.994,51.270,24.414,39.062,126.953,110.840,0
1486824485.997,-50.293,29.785,47.852,28.320,134.277,0
1486824486.001,-35.156,29.297,40.039,-38.574,17.578,0
1486824486.005,74.707,23.438,29.785,24.902,-51.758,0
1486824486.009,114.746,25.879,30.273,132.324,78.613,0
1486824486.013,58.105,30.762,39.062,130.859,158.203,0
1486824486.017,-33.203,31.738,42.480,38.574,122.070,0
1486824486.021,-41.504,32.715,37.598,-37.109,35.645,0
1486824486.025,67.383,30.273,41.992,11.719,-29.297,0
1486824486.029,134.277,37.109,48.828,144.043,1.465,0
1486824486.033,74.707,31.738,35.645,151.367,100.098,0
1486824486.036,-35.156,23.926,31.738,39.551,129.395,0
1486824486.040,-55.664,28.320,39.551,-44.434,14.648,0
1486824486.044,54.688,25.879,41.992,-3.418,-98.145,0
1486824486.048,113.770,24.902,39.551,116.211,3.418,0
1486824486.052,74.707,29.785,36.133,138.184,124.512,0
1486824486.056,-21.973,32.715,41.504,53.223,107.910,0
1486824486.060,-67.383,26.367,45.410,-34.668,4.395,0
1486824486.064,24.902,24.414,35.645,-15.137,-88.379,0
1486824486.068,106.445,28.320,28.320,102.051,-30.762,0
1486824486.072,85.938,32.715,40.039,145.996,68.359,0
1486824486.076,-9.277,35.156,46.875,73.242,115.723,0
1486824486.079,-63.965,34.180,37.598,-25.391,79.590,0
1486824486.083,23.926,28.320,37.598,-24.902,-40.039,0
1486824486.087,113.770,24.902,40.527,93.750,-2.441,0
1486824486.091,101.562,28.809,41.992,156.738,125.977,0
1486824486.095,16.113,31.250,41.992,97.168,152.344,0
1486824486.099,-55.176,30.762,38.574,-13.672,79.590,0
1486824486.103,12.695,28.320,36.621,-38.086,-62.500,0
1486824486.107,105.469,29.785,35.645,70.801,-31.738,0
1486824486.111,101.562,31.250,40.039,146.973,103.516,0
1486824486.115,15.137,27.832,40.039,88.379,114.746,0
1486824486.118,-68.848,27.344,43.457,-20.996,71.289,0
1486824486.122,-16.602,23.926,35.156,-50.781,-16.602,0
1486824486.126,91.797,25.391,22.461,53.711,-20.996,0
1486824486.130,106.934,29.297,26.367,138.672,78.125,0
1486824486.134,39.551,32.227,34.668,95.215,126.953,0
1486824486.138,-49.316,34.180,40.527,3.906,89.844,0
1486824486.142,-10.742,36.621,39.062,-35.645,-4.395,0
1486824486.146,111.816,38.086,34.180,56.152,-9.277,0
1486824486.150,138.672,32.715,41.992,154.297,79.590,0
1486824486.154,66.406,31.250,47.852,124.023,150.391,0
1486824486.158,-31.738,30.762,32.715,23.926,157.715,0
1486824486.161,-14.160,29.297,29.785,-34.668,22.949,0
1486824486.165,96.191,29.297,32.227,42.969,-40.039,0
1486824486.169,127.441,26.367,30.273,150.391,70.312,0
1486824486.173,63.965,28.809,35.645,126.465,125.000,0
1486824486.177,-40.039,33.203,38.574,27.344,109.863,0
1486824486.181,-43.945,28.809,37.598,-35.156,39.062,0
1486824486.185,73.242,30.762,34.668,23.926,-41.992,0
1486824486.189,123.047,30.762,41.504,145.020,66.895,0
1486824486.193,66.406,26.855,41.016,137.207,184.570,0
1486824486.197,-35.645,28.320,38.574,38.574,142.090,0
1486824486.201,-47.852,29.297,41.504,-27.344,41.992,0
1486824486.204,64.941,26.367,30.273,8.301,-36.621,0
1486824486.208,125.000,23.438,29.297,127.441,37.598,0
1486824486.212,82.520,25.391,32.227,138.184,129.395,0
1486824486.216,-20.996,28.320,32.227,49.316,115.234,0
1486824486.220,-49.805,33.203,37.109,-21.484,41.992,0
1486824486.224,51.758,28.320,35.156,-0.488,-48.340,0
1486824486.228,118.164,24.902,33.691,116.699,4.883,0
1486824486.232,98.145,29.785,36.621,151.855,98.633,0
1486824486.236,5.371,30.273,39.551,79.590,127.441,0
1486824486.240,-58.105,27.832,34.180,-15.137,61.035,0
1486824486.243,25.391,22.461,27.832,-22.461,-83.496,0
1486824486.247,113.770,23.438,32.715,104.980,-52.246,0
1486824486.251,103.516,29.785,44.434,156.738,85.938,0
1486824486.255,7.324,34.180,44.922,85.449,142.578,0
1486824486.259,-62.012,29.297,38.086,-4.883,68.359,0
1486824486.263,17.578,26.367,35.645,-24.414,-69.824,0
1486824486.267,112.305,31.738,35.156,88.379,-23.926,0
1486824486.271,101.074,29.785,35.645,151.367,82.031,0
1486824486.275,17.578,27.344,41.992,94.238,117.676,0
1486824486.279,-58.594,27.344,41.992,-2.930,78.125,0
1486824486.283,-2.441,27.344,34.180,-41.504,-31.738,0
1486824486.286,98.633,29.297,33.203,64.941,-46.387,0
1486824486.290,107.910,27.832,34.668,143.066,42.969,0
1486824486.294,31.738,30.273,32.227,99.121,105.957,0
1486824486.298,-45.898,36.621,37.598,10.254,63.965,0
1486824486.302,-8.301,34.180,37.598,-39.551,-20.020,0
1486824486.306,98.145,29.785,36.133,52.734,-10.742,0
1486824486.310,123.047,29.785,35.156,144.531,62.012,0
1486824486.314,45.410,31.250,37.109,106.934,107.422,0
1486824486.318,-45.898,29.785,43.945,14.648,96.680,0
1486824486.322,-15.137,29.785,43.945,-36.133,-17.090,0
1486824486.326,95.703,32.227,42.480,47.363,-58.594,0
1486824486.329,122.070,29.297,41.992,146.973,62.988,0
1486824486.333,58.594,25.879,39.062,127.930,143.555,0
1486824486.337,-33.691,28.320,43.945,37.598,130.859,0
1486824486.341,-32.715,26.855,38.086,-40.039,37.598,0
1486824486.345,87.402,37.109,44.922,30.273,-44.434,0
1486824486.349,133.789,35.645,48.340,140.625,47.852,0
1486824486.353,60.059,21.484,37.598,122.559,131.348,0
1486824486.357,-39.551,25.879,39.551,40.039,96.680,0
1486824486.361,-43.457,27.832,35.645,-40.527,36.621,0
1486824486.365,66.895,25.879,37.598,5.371,-59.570,0
1486824486.368,129.395,25.879,36.621,127.930,22.949,0
1486824486.372,90.820,30.273,41.504,141.602,108.887,0
1486824486.376,-4.883,36.133,45.898,67.383,77.148,0
1486824486.380,-36.133,34.668,39.551,-23.438,41.992,0
1486824486.384,62.988,32.227,38.574,-3.906,-38.086,0
1486824486.388,130.371,30.273,40.527,120.605,16.113,0
1486824486.392,89.355,30.273,41.016,148.926,109.375,0
1486824486.396,-11.719,32.715,44.434,78.125,143.555,0
1486824486.400,-55.664,28.809,43.945,-16.602,97.656,0
1486824486.404,38.086,27.344,37.109,-9.766,-17.090,0
1486824486.408,116.699,29.785,43.457,107.422,31.738,0
1486824486.411,91.797,29.297,46.875,158.203,123.535,0
1486824486.415,4.395,29.785,43.945,103.027,142.578,0
1486824486.419,-53.711,29.297,43.945,-3.906,73.242,0
1486824486.423,22.949,25.879,34.180,-24.902,-58.105,0
1486824486.427,112.305,29.297,33.203,86.914,-33.203,0
1486824486.431,101.074,30.273,41.016,154.785,93.262,0
1486824486.435,13.184,29.297,44.434,103.027,132.812,0
1486824486.439,-61.035,29.297,41.992,-8.789,112.305,0
1486824486.443,11.719,29.785,42.969,-38.086,-28.320,0
1486824486.447,114.746,31.250,49.316,81.055,-7.324,0
1486824486.450,110.840,30.273,42.480,154.297,124.023,0
1486824486.454,27.344,33.691,38.574,103.516,137.695,0
1486824486.458,-54.688,34.180,39.551,7.812,127.441,0
1486824486.462,-4.883,30.273,39.551,-35.645,6.836,0
1486824486.466,101.562,28.320,40.039,58.594,-49.805,0
1486824486.470,114.258,29.785,35.156,147.949,72.754,0
1486824486.474,40.039,32.715,34.180,116.211,147.949,0
1486824486.478,-48.828,38.086,37.109,14.648,115.723,0
1486824486.482,-18.555,33.203,40.039,-45.410,-11.230,0
1486824486.486,92.285,30.273,43.457,41.504,-55.664,0
1486824486.490,113.770,32.227,43.457,140.625,65.430,0
1486824486.493,45.898,28.809,41.504,118.164,121.094,0
1486824486.497,-44.922,30.762,40.527,18.555,116.699,0
1486824486.501,-37.109,30.273,38.086,-53.223,17.578,0
1486824486.505,71.289,26.855,39.062,19.043,-97.168,0
1486824486.509,111.816,25.879,39.551,137.207,35.156,0
1486824486.513,58.105,23.438,37.598,135.254,138.672,0
1486824486.517,-35.645,26.855,35.156,43.457,145.996,0
1486824486.521,-43.457,29.297,33.691,-33.691,67.383,0
1486824486.525,68.848,26.855,34.668,12.207,-56.152,1
1486824486.529,129.395,30.273,41.504,127.441,0.977,0
1486824486.533,80.566,32.227,41.992,135.254,121.582,0
1486824486.536,-21.973,30.273,36.621,51.758,171.387,0
1486824486.540,-45.410,28.320,38.574,-32.227,66.895,0
1486824486.544,61.035,27.832,40.527,-1.953,-41.992,0
1486824486.548,127.930,27.344,44.434,122.559,23.926,0
1486824486.552,84.961,26.367,44.922,157.227,158.203,0
1486824486.556,-16.602,26.855,38.086,73.730,189.453,0
1486824486.560,-57.129,28.809,35.156,-30.273,67.871,0
1486824486.564,38.086,25.391,37.109,-14.648,-63.965,0
1486824486.568,116.699,20.020,41.504,110.352,11.719,0
1486824486.572,93.262,23.926,44.434,150.391,124.512,0
1486824486.575,-5.371,29.297,41.016,78.125,110.840,0
1486824486.579,-62.988,30.273,38.086,-20.508,68.359,0
1486824486.583,22.949,25.879,34.180,-29.785,-31.250,0
1486824486.587,118.652,30.273,33.203,91.797,-41.992,0
1486824486.591,118.652,41.016,49.316,170.898,83.008,0
1486824486.595,14.648,34.180,44.922,91.309,136.230,0
1486824486.599,-64.941,26.367,33.203,-18.555,82.031,0
1486824486.603,17.090,27.344,32.715,-28.809,-51.758,0
1486824486.607,116.211,26.367,36.133,79.102,-37.598,0
1486824486.611,116.699,31.738,39.551,158.203,74.219,0
1486824486.615,32.227,34.180,43.457,110.352,98.633,0
1486824486.618,-53.223,27.832,43.945,6.348,57.129,0
1486824486.622,-3.418,23.926,28.320,-34.668,-49.316,0
1486824486.626,101.562,22.949,27.832,56.152,-46.875,0
1486824486.630,110.840,24.414,35.645,143.066,59.082,0
1486824486.634,26.367,27.832,37.598,107.422,117.188,0
1486824486.638,-65.430,28.809,41.992,-1.465,69.824,0
1486824486.642,-23.438,24.902,39.062,-45.410,-39.551,0
1486824486.646,87.891,20.996,32.715,51.758,-52.734,0
1486824486.650,114.258,20.996,37.598,157.715,69.336,0
1486824486.654,50.781,28.320,50.293,131.348,116.699,0
1486824486.658,-48.828,29.297,50.293,30.762,98.633,0
1486824486.661,-34.180,23.438,41.992,-34.180,26.367,0
1486824486.665,77.637,25.391,40.039,39.551,-41.504,0
1486824486.669,116.211,29.297,42.480,152.344,44.434,0
1486824486.673,59.082,28.320,42.480,130.859,117.188,0
1486824486.677,-43.945,29.297,41.504,34.668,117.188,0
1486824486.681,-45.410,30.762,43.945,-37.598,35.645,0
1486824486.685,70.312,29.785,44.922,17.578,-77.148,0
1486824486.689,121.582,29.297,40.527,138.672,14.160,0
1486824486.693,72.266,31.738,40.039,144.043,111.328,0
1486824486.697,-21.973,30.762,40.039,54.688,136.719,0
1486824486.700,-43.457,27.344,33.691,-35.645,68.848,0
1486824486.704,62.500,26.855,37.109,-2.441,-44.434,0
1486824486.708,125.977,27.344,42.480,119.629,3.418,0
1486824486.712,83.008,28.320,39.062,138.184,93.262,0
1486824486.716,-15.137,32.715,37.109,55.664,119.141,0
1486824486.720,-47.852,30.762,38.086,-34.180,53.223,0
1486824486.724,45.410,26.855,36.621,-15.137,-36.621,0
1486824486.728,115.723,28.320,32.715,111.816,19.531,0
1486824486.732,91.309,27.344,37.598,150.879,108.398,0
1486824486.736,-2.930,29.297,40.527,72.754,130.371,0
1486824486.740,-55.176,32.227,37.598,-24.902,82.031,0
1486824486.743,36.133,29.785,36.133,-27.832,-49.805,0
1486824486.747,122.070,27.344,32.227,96.680,-37.109,0
1486824486.751,99.121,31.738,36.621,153.320,49.316,0
1486824486.755,5.371,36.621,38.086,90.820,97.168,0
1486824486.759,-56.641,35.156,34.668,-8.301,46.387,0
1486824486.763,21.484,28.809,32.227,-34.180,-82.031,0
1486824486.767,123.047,27.832,33.203,86.914,-64.941,0
1486824486.771,108.887,30.762,39.551,164.062,31.250,0
1486824486.775,16.602,32.715,42.480,101.074,78.613,0
1486824486.779,-48.340,31.738,39.551,-4.883,62.988,0
1486824486.782,24.414,40.039,45.898,-27.344,-53.223,0
1486824486.786,122.559,33.203,39.062,80.566,-77.637,0
1486824486.790,110.352,16.602,27.832,153.809,64.453,0
1486824486.794,31.738,20.508,38.086,107.422,114.258,0
1486824486.798,-48.828,28.320,37.109,15.137,83.008,0
1486824486.802,-8.301,28.320,33.203,-33.691,3.418,0
1486824486.806,103.516,26.855,35.645,51.270,-47.852,0
1486824486.810,119.629,27.832,43.457,160.156,63.477,0
1486824486.814,36.133,27.832,45.410,122.070,115.234,0
1486824486.818,-45.410,26.855,41.504,20.020,74.219,0
1486824486.822,-32.715,29.785,43.945,-30.273,14.160,0
1486824486.825,68.848,28.809,32.715,17.090,-65.918,0
1486824486.829,121.094,23.438,27.832,122.559,2.930,0
1486824486.833,51.758,26.367,36.133,126.465,111.328,0
1486824486.837,-38.086,30.273,40.527,25.391,63.477,0
1486824486.841,-38.574,29.297,37.598,-42.969,-19.043,0
1486824486.845,57.617,24.414,31.738,3.906,-54.688,0
1486824486.849,124.512,24.414,37.109,124.512,-5.371,0
1486824486.853,69.336,28.809,46.387,140.137,89.355,0
1486824486.857,-25.879,29.297,45.898,41.016,90.332,0
1486824486.861,-41.992,26.367,38.086,-38.574,31.250,0
1486824486.865,53.711,24.414,34.180,-4.883,-4.395,0
1486824486.868,126.953,24.902,37.598,104.004,33.691,0
1486824486.872,84.473,29.785,39.062,129.395,91.797,0
1486824486.876,-15.137,31.250,36.133,47.363,102.051,0
1486824486.880,-34.180,25.391,32.715,-41.992,20.508,0
1486824486.884,65.918,23.438,35.645,-6.348,-105.957,0
1486824486.888,127.930,29.297,37.598,127.441,-20.996,0
1486824486.892,83.496,32.715,38.574,153.809,121.094,0
1486824486.896,-17.578,27.832,40.527,76.172,149.902,0
1486824486.900,-50.293,26.367,40.039,-31.250,89.355,0
1486824486.904,36.621,24.902,38.086,-26.367,-60.059,0
1486824486.907,113.770,25.391,39.551,112.305,-33.203,0
1486824486.911,90.820,28.809,44.922,162.109,96.680,0
1486824486.915,-6.348,30.762,45.410,87.402,126.953,0
1486824486.919,-62.500,33.203,42.480,-19.531,78.125,0
1486824486.923,3.418,28.320,35.645,-27.344,5.859,0
1486824486.927,103.516,25.879,37.109,82.520,7.812,0
1486824486.931,105.957,29.785,42.969,146.973,58.594,0
1486824486.935,12.207,30.762,48.828,101.074,107.422,0
1486824486.939,-47.852,32.227,50.781,-6.348,72.266,0
1486824486.943,-1.953,30.762,43.457,-27.344,-36.133,0
1486824486.947,97.656,27.344,36.133,70.312,-53.223,0
1486824486.950,128.906,31.738,35.645,142.090,40.527,0
1486824486.954,41.992,37.598,42.969,106.934,108.887,0
1486824486.958,-44.434,34.668,46.875,-7.324,39.062,0
1486824486.962,-8.789,29.785,41.992,-36.133,-46.875,0
1486824486.966,96.680,28.320,40.527,66.406,-55.176,0
1486824486.970,121.582,32.227,44.922,151.367,37.109,0
1486824486.974,47.363,32.227,44.922,123.535,116.211,0
1486824486.978,-43.945,29.297,41.504,11.230,93.750,0
1486824486.982,-20.508,28.320,37.109,-47.363,6.348,0
1486824486.986,92.285,27.344,36.133,49.805,-29.297,0
1486824486.990,125.000,28.809,38.574,149.414,70.801,0
1486824486.993,49.805,29.297,36.133,127.930,145.996,0
1486824486.997,-51.270,28.809,37.598,26.855,100.586,0
1486824487.001,-37.109,27.832,38.574,-40.039,-13.184,0
1486824487.005,73.242,28.809,38.574,36.133,-36.133,0
1486824487.009,119.141,27.832,39.551,145.508,55.664,0
1486824487.013,60.059,27.832,43.457,132.812,93.750,0
1486824487.017,-36.133,28.809,47.852,23.926,125.488,0
1486824487.021,-43.945,31.738,41.016,-50.293,61.523,0
1486824487.025,64.941,30.762,42.480,8.789,-39.551,0
1486824487.029,132.324,28.809,41.504,129.395,9.766,0
1486824487.032,82.031,29.785,37.598,153.320,114.746,0
1486824487.036,-20.020,31.738,41.992,52.246,141.113,0
1486824487.040,-50.293,27.832,42.969,-35.645,47.852,0
1486824487.044,53.711,21.973,40.039,5.859,-42.969,0
1486824487.048,126.953,23.926,39.062,117.188,36.621,0
1486824487.052,83.008,24.902,42.969,144.043,131.348,0
1486824487.056,-12.207,24.902,47.852,69.336,141.113,0
1486824487.060,-46.387,29.785,44.922,-26.367,91.797,0
1486824487.064,44.922,30.762,41.992,-12.695,-16.113,0
1486824487.068,129.883,27.832,41.016,116.211,-3.906,0
1486824487.072,106.934,30.273,39.551,158.691,127.441,0
1486824487.075,5.371,35.156,44.922,81.543,185.059,0
1486824487.079,-52.246,32.227,42.480,-24.414,109.375,0
1486824487.083,30.273,27.832,31.250,-29.785,-3.906,0
1486824487.087,123.535,34.180,32.227,91.309,18.066,0
1486824487.091,108.398,34.180,35.156,153.320,118.164,0
1486824487.095,16.602,30.762,37.598,86.426,144.531,0
1486824487.099,-52.734,32.227,37.109,-20.996,86.914,0
1486824487.103,6.836,27.832,35.156,-35.645,-11.719,0
1486824487.107,109.375,24.902,35.156,74.219,1.953,0
1486824487.111,110.352,29.297,34.668,149.414,105.957,0
1486824487.114,27.832,32.715,43.457,102.051,147.949,0
1486824487.118,-47.363,31.250,43.945,0.000,116.699,0
1486824487.122,2.441,28.320,40.039,-33.203,-5.859,0
1486824487.126,113.281,27.344,35.645,62.012,-33.691,0
1486824487.130,120.117,32.227,34.180,155.762,93.262,0
1486824487.134,37.109,34.668,41.504,118.652,140.137,0
1486824487.138,-51.270,28.809,44.434,13.184,117.676,0
1486824487.142,-18.066,29.785,44.922,-35.156,19.531,0
1486824487.146,85.449,29.297,47.852,44.922,-20.508,1
1486824487.150,110.352,27.344,41.016,141.602,88.379,0
1486824487.154,48.340,35.645,39.551,110.352,129.883,0
1486824487.157,-50.293,38.574,47.852,3.906,104.004,0
1486824487.161,-35.645,31.250,42.480,-56.641,12.207,0
1486824487.165,75.195,27.344,36.621,17.090,-74.219,0
1486824487.169,117.188,30.762,41.016,132.324,28.809,0
1486824487.173,62.012,31.738,49.805,122.559,107.422,0
1486824487.177,-41.992,29.785,50.293,29.297,105.469,0
1486824487.181,-36.133,28.809,43.457,-35.645,33.203,0
1486824487.185,82.031,25.391,41.504,20.020,-70.801,0
1486824487.189,125.977,26.855,42.480,144.043,44.434,0
1486824487.193,86.426,44.434,52.246,164.062,150.879,0
1486824487.197,-13.672,40.039,47.852,63.965,104.004,0
1486824487.200,-41.504,25.391,34.668,-30.273,29.785,0
1486824487.204,68.848,27.344,36.621,10.254,-57.129,0
1486824487.208,128.418,25.879,41.504,131.348,14.648,0
1486824487.212,85.938,26.367,40.039,148.926,142.578,0
1486824487.216,-18.066,29.297,39.062,59.570,164.551,0
1486824487.220,-59.570,29.297,41.992,-33.691,49.316,0
1486824487.224,37.598,20.508,42.480,-18.066,-68.848,0
1486824487.228,108.398,18.555,43.945,103.027,0.977,0
1486824487.232,73.730,26.855,40.527,135.742,109.375,0
1486824487.236,-19.531,33.203,35.645,51.270,136.230,0
1486824487.239,-67.383,30.273,39.062,-39.551,76.172,0
1486824487.243,27.344,26.367,36.621,-41.504,-50.293,0
1486824487.247,123.535,29.785,38.574,87.891,-8.789,0
1486824487.251,104.492,28.809,45.898,156.250,102.539,0
1486824487.255,12.695,28.320,47.363,93.262,126.465,0
1486824487.259,-57.617,28.320,40.527,-5.859,91.797,0
1486824487.263,20.020,25.879,37.109,-32.227,-38.574,0
1486824487.267,127.441,28.809,40.527,81.055,-31.250,0
1486824487.271,119.629,31.250,41.016,150.879,61.035,0
1486824487.275,27.832,31.738,44.922,97.656,104.980,0
1486824487.279,-50.781,34.668,43.945,0.977,87.402,0
1486824487.282,1.953,28.809,37.598,-40.039,-30.273,0
1486824487.286,104.492,24.902,37.109,69.824,-36.133,0
1486824487.290,113.770,29.785,46.387,161.133,95.703,0
1486824487.294,33.203,28.809,45.898,109.375,107.910,0
1486824487.298,-55.176,26.855,34.668,12.207,76.172,0
1486824487.302,-16.602,28.320,35.156,-26.367,24.902,0
1486824487.306,97.168,28.320,38.574,53.711,-17.578,0
1486824487.310,120.117,30.762,39.062,142.090,50.293,0
1486824487.314,47.363,34.180,44.434,122.559,88.379,0
1486824487.318,-46.387,34.668,43.457,24.414,96.191,0
1486824487.322,-18.066,30.273,34.180,-38.574,19.531,0
1486824487.325,92.773,27.344,30.273,41.504,-41.016,0
1486824487.329,121.582,30.762,33.203,147.461,64.941,0
1486824487.333,64.453,36.133,41.016,129.395,104.492,0
1486824487.337,-34.180,39.062,48.828,29.297,111.328,0
1486824487.341,-25.879,35.156,42.480,-42.969,35.645,0
1486824487.345,87.402,37.109,34.180,25.391,-64.941,0
1486824487.349,129.395,33.203,31.250,137.695,-0.488,0
1486824487.353,81.055,29.785,31.738,135.254,72.754,0
1486824487.357,-23.438,31.738,38.574,50.781,87.402,0
1486824487.361,-44.922,26.367,38.086,-27.832,-1.953,0
1486824487.364,70.801,24.414,34.668,18.066,-115.234,0
1486824487.368,137.207,29.785,38.086,140.625,-33.203,0
1486824487.372,90.332,35.156,37.109,150.879,119.141,0
1486824487.376,-8.301,35.645,38.574,66.895,93.750,0
1486824487.380,-37.598,31.250,49.805,-10.254,11.719,0
1486824487.384,55.176,28.320,43.945,3.418,-62.012,0
1486824487.388,134.766,26.367,37.109,114.746,-26.855,0
1486824487.392,103.027,27.832,38.086,157.715,90.332,0
1486824487.396,0.488,32.227,34.668,86.914,131.348,0
1486824487.400,-48.828,31.250,36.133,-13.672,61.523,0
1486824487.404,40.039,28.809,35.645,-18.066,-62.012,0
1486824487.407,120.117,28.809,39.551,97.656,-16.602,0
1486824487.411,99.121,31.738,39.062,156.250,110.840,0
1486824487.415,3.906,31.738,33.691,87.402,141.113,0
1486824487.419,-64.941,25.391,32.227,-22.949,90.820,0
1486824487.423,13.672,22.949,38.086,-28.809,-33.203,0
1486824487.427,113.281,23.926,37.598,87.891,-26.367,0
1486824487.431,99.121,25.879,32.715,146.973,112.305,0
1486824487.435,5.859,29.297,39.551,89.355,123.047,0
1486824487.439,-64.941,27.344,42.969,-10.742,74.219,0
1486824487.443,5.371,24.902,36.621,-38.574,16.602,0
1486824487.446,113.281,23.438,33.203,67.383,7.812,0
1486824487.450,119.141,27.344,36.621,144.043,69.824,0
1486824487.454,35.156,33.203,36.621,104.492,119.629,0
1486824487.458,-49.805,32.227,37.598,10.254,101.074,0
1486824487.462,-4.395,29.785,41.504,-33.203,-12.207,0
1486824487.466,107.422,32.227,41.504,59.570,-43.457,0
1486824487.470,129.395,29.785,38.574,153.320,49.316,0
1486824487.474,43.945,24.414,39.062,121.582,108.887,0
1486824487.478,-54.688,27.344,41.504,20.508,97.656,0
1486824487.482,-24.902,25.391,43.457,-36.621,-16.602,0
1486824487.486,88.379,23.926,41.016,46.387,-71.289,0
1486824487.489,121.582,28.809,37.598,145.996,31.738,0
1486824487.493,58.105,30.273,42.480,132.812,125.977,0
1486824487.497,-44.922,27.832,41.016,39.551,101.074,0
1486824487.501,-40.039,29.297,35.645,-29.785,3.418,0
1486824487.505,76.660,28.809,40.039,34.180,-45.410,0
1486824487.509,127.930,27.832,46.387,137.695,20.996,0
1486824487.513,64.453,30.273,37.598,129.883,137.695,0
1486824487.517,-34.668,35.645,36.621,47.852,142.090,0
1486824487.521,-41.016,30.762,38.574,-30.273,22.949,0
1486824487.525,61.523,23.438,37.109,12.207,-78.125,0
1486824487.529,115.723,29.297,39.551,126.953,4.395,0
1486824487.532,70.801,34.668,37.598,134.766,123.047,0
1486824487.536,-24.414,30.273,41.992,50.781,115.723,0
1486824487.540,-54.199,26.367,43.457,-41.016,39.551,0
1486824487.544,45.898,25.879,37.109,-4.883,-87.402,0
1486824487.548,115.234,25.391,36.621,112.793,-15.625,0
1486824487.552,77.637,25.391,38.086,136.230,107.910,0
1486824487.556,-16.113,29.785,43.457,67.383,115.234,0
1486824487.560,-50.293,30.762,44.434,-23.926,41.992,0
1486824487.564,41.504,24.414,39.062,-16.602,-64.453,0
1486824487.568,123.047,27.344,38.086,99.609,-26.367,0
1486824487.571,100.098,32.715,43.945,161.133,82.031,0
1486824487.575,2.441,30.762,44.922,91.797,112.793,0
1486824487.579,-52.734,28.320,40.039,-15.137,70.801,0
1486824487.583,33.203,31.738,40.039,-15.137,-30.273,0
1486824487.587,130.371,34.180,40.039,97.168,4.883,0
1486824487.591,104.980,27.832,40.527,158.203,79.590,0
1486824487.595,9.277,29.297,42.969,106.934,93.262,0
1486824487.599,-46.875,33.203,47.852,-0.977,61.523,0
1486824487.603,22.949,27.832,49.316,-27.832,-43.945,0
1486824487.607,117.676,22.949,36.621,73.730,-28.320,0
1486824487.611,119.141,30.762,34.668,148.438,84.473,0
1486824487.614,34.668,32.715,44.434,108.398,121.094,0
1486824487.618,-54.199,27.344,49.316,5.371,96.680,0
1486824487.622,-12.695,27.344,40.039,-33.691,-25.879,0
1486824487.626,92.773,25.879,33.691,58.594,-60.547,0
1486824487.630,103.027,25.879,38.574,151.855,59.082,0
1486824487.634,20.508,27.832,41.016,117.676,121.582,0
1486824487.638,-61.035,32.715,38.574,3.906,74.219,0
1486824487.642,-30.762,31.250,39.062,-44.434,-5.371,0
1486824487.646,82.031,30.273,40.527,40.039,-15.137,0
1486824487.650,112.305,30.762,37.598,139.160,69.336,0
1486824487.654,40.527,26.855,36.133,121.582,146.973,0
1486824487.657,-47.852,26.367,35.645,14.648,132.812,0
1486824487.661,-33.691,26.855,31.250,-53.223,29.297,0
1486824487.665,70.801,25.879,35.645,12.695,-54.688,0
1486824487.669,117.676,26.367,37.109,134.766,33.691,0
1486824487.673,65.918,28.809,31.250,133.789,85.449,0
1486824487.677,-25.391,38.086,42.969,41.016,64.941,0
1486824487.681,-27.832,32.227,42.969,-30.273,-8.301,0
1486824487.685,68.848,21.484,32.715,7.812,-64.453,0
1486824487.689,123.047,20.508,43.945,126.465,55.664,0
1486824487.693,75.195,24.414,47.363,144.531,142.578,0
1486824487.696,-27.832,27.832,42.969,50.293,107.422,0
1486824487.700,-51.270,20.508,37.109,-32.715,10.254,0
1486824487.704,54.688,20.020,32.227,3.906,-74.219,0
1486824487.708,129.395,26.367,36.621,126.953,-20.508,0
1486824487.712,91.797,27.832,45.898,161.621,81.543,0
1486824487.716,-6.836,30.762,44.434,82.031,115.234,0
1486824487.720,-46.875,29.785,36.621,-14.648,36.621,0
1486824487.724,43.945,24.902,32.227,-14.160,-53.711,0
1486824487.728,119.629,26.367,33.203,102.051,9.766,0
1486824487.732,86.914,28.809,41.016,151.855,94.238,0
1486824487.736,-11.230,28.809,46.387,77.637,143.066,0
1486824487.739,-56.641,28.809,41.992,-23.926,91.797,0
1486824487.743,35.645,26.855,37.109,-31.738,-41.016,0
1486824487.747,122.070,23.438,32.715,81.055,-22.949,0
1486824487.751,104.492,30.762,31.250,147.461,63.477,0
1486824487.755,13.672,38.086,36.621,88.867,118.652,0
1486824487.759,-56.152,33.691,39.551,-11.719,83.496,0
1486824487.763,14.160,25.879,31.738,-37.109,-46.875,0
1486824487.767,113.281,27.344,30.762,70.801,-20.508,0
1486824487.771,106.934,30.273,34.668,148.438,77.637,0
1486824487.775,21.973,31.250,39.551,104.004,117.676,0
1486824487.778,-52.246,30.762,40.527,1.953,91.797,0
1486824487.782,7.324,28.320,39.062,-41.016,-18.066,0
1486824487.786,114.258,31.250,39.551,67.383,-8.789,0
1486824487.790,123.535,33.203,36.133,160.645,87.402,0
1486824487.794,48.828,32.227,42.480,118.164,139.648,0
1486824487.798,-43.457,32.227,43.945,17.090,104.492,0
1486824487.802,-15.625,28.320,40.039,-41.992,-39.062,0
1486824487.806,91.797,24.902,40.039,42.969,-44.434,0
1486824487.810,120.117,30.762,33.691,145.020,67.383,0
1486824487.814,48.340,36.621,40.039,128.418,130.859,0
1486824487.818,-45.410,34.180,45.410,35.156,121.582,0
1486824487.821,-22.949,28.809,39.551,-37.598,39.062,0
1486824487.825,94.727,26.855,40.039,38.574,3.906,0
1486824487.829,133.301,29.297,47.363,162.109,86.426,0
1486824487.833,69.824,29.785,49.316,145.020,161.133,0
1486824487.837,-35.156,29.785,40.527,43.457,152.832,1
1486824487.841,-39.551,26.855,35.156,-36.621,74.219,0
1486824487.845,72.266,22.949,35.156,12.207,-20.996,0
1486824487.849,118.652,24.414,32.715,128.906,73.730,0
1486824487.853,68.359,31.738,37.598,126.465,130.371,0
1486824487.857,-30.762,34.668,44.434,41.992,113.770,0
1486824487.861,-53.223,26.367,38.574,-47.363,28.320,0
1486824487.864,50.781,21.973,31.738,-13.672,-75.195,0
1486824487.868,116.211,26.367,34.668,110.352,20.508,0
1486824487.872,70.312,32.227,44.434,130.859,119.629,0
1486824487.876,-32.715,35.156,47.852,44.434,122.070,0
1486824487.880,-55.176,36.133,40.039,-56.641,49.805,0
1486824487.884,46.387,30.762,32.715,-35.645,-76.660,0
1486824487.888,111.328,25.391,33.203,100.098,-9.766,0
1486824487.892,87.402,28.320,35.645,145.020,105.957,0
1486824487.896,-4.883,30.762,41.504,75.195,107.422,0
1486824487.900,-47.363,28.320,41.016,-11.230,41.992,0
1486824487.903,41.992,24.902,38.086,-8.301,-94.727,0
1486824487.907,125.488,27.344,43.945,115.234,-21.484,0
1486824487.911,112.305,35.156,42.969,162.598,70.312,0
1486824487.915,16.602,35.645,42.480,100.586,107.422,0
1486824487.919,-47.852,28.320,43.457,4.883,83.496,0
1486824487.923,24.414,26.367,43.945,-21.484,-51.758,0
1486824487.927,115.723,29.785,41.504,90.820,-7.812,0
1486824487.931,104.492,31.738,34.180,147.461,88.379,0
1486824487.935,12.207,30.762,36.621,92.773,118.652,0
1486824487.939,-64.453,25.879,39.551,-8.789,94.238,0
1486824487.943,-0.977,26.367,34.180,-44.922,-31.738,0
1486824487.946,103.027,28.809,35.645,67.383,-58.594,0
1486824487.950,109.375,33.203,47.852,146.484,55.176,0
1486824487.954,25.879,38.086,47.852,96.680,89.355,0
1486824487.958,-64.453,34.180,38.574,-9.277,54.199,0
1486824487.962,-17.578,31.738,36.133,-55.664,-21.973,0
1486824487.966,93.750,30.273,39.062,50.293,-53.223,0
1486824487.970,108.887,30.273,40.039,148.926,34.668,0
1486824487.974,37.109,32.715,41.504,113.770,75.684,0
1486824487.978,-53.711,31.250,42.480,15.625,76.660,0
1486824487.982,-34.180,30.762,38.574,-45.410,-12.695,0
1486824487.985,78.125,32.227,39.551,38.574,-82.031,0
1486824487.989,112.793,32.715,43.457,152.344,64.453,0
1486824487.993,46.387,31.250,44.922,130.859,122.559,0
1486824487.997,-55.176,25.391,40.527,29.785,75.195,0
1486824488.001,-44.434,25.391,39.062,-40.039,18.555,0
1486824488.005,74.707,25.391,39.551,26.367,-32.715,0
1486824488.009,117.676,27.344,37.109,143.555,33.203,0
1486824488.013,64.453,31.250,43.945,143.555,120.117,0
1486824488.017,-37.598,31.250,45.410,43.945,125.488,0
1486824488.021,-44.434,28.320,40.039,-38.574,28.320,0
1486824488.025,62.012,28.809,37.598,17.090,-49.805,0
1486824488.028,116.699,31.738,37.109,136.719,11.719,0
1486824488.032,81.543,31.250,42.480,152.832,107.910,0
1486824488.036,-22.461,31.250,45.410,66.406,120.605,0
1486824488.040,-44.922,30.762,47.363,-28.809,30.762,0
1486824488.044,57.617,24.902,39.551,2.930,-64.941,0
1486824488.048,122.559,26.855,30.273,125.977,-5.371,0
1486824488.052,96.191,33.691,34.668,155.762,90.820,0
1486824488.056,-4.395,31.250,37.109,80.078,133.301,0
1486824488.060,-54.688,26.367,33.203,-27.344,47.363,0
1486824488.064,37.598,24.414,32.227,-14.648,-96.680,0
1486824488.068,129.883,31.738,34.180,114.746,-25.391,0
1486824488.071,108.398,32.715,41.504,161.133,96.680,0
1486824488.075,5.859,28.320,42.480,92.285,121.582,0
1486824488.079,-50.293,31.250,41.992,-9.277,96.191,0
1486824488.083,36.621,28.809,38.574,-23.438,-28.320,0
1486824488.087,129.395,28.320,27.832,90.820,-16.602,0
1486824488.091,120.117,31.250,35.645,160.645,103.027,0
1486824488.095,23.926,31.250,41.992,102.051,145.508,0
1486824488.099,-55.176,33.691,36.133,-6.836,82.031,0
1486824488.103,13.184,30.762,31.738,-26.367,-25.879,0
1486824488.107,119.141,29.297,33.203,93.750,-6.348,0
1486824488.110,118.652,29.785,38.574,164.551,94.727,0
1486824488.114,32.715,29.785,41.992,108.887,159.668,0
1486824488.118,-53.223,33.691,43.457,9.277,100.586,0
1486824488.122,2.441,34.180,38.574,-25.879,-13.184,0
1486824488.126,110.352,30.762,37.109,68.848,-36.621,0
1486824488.130,113.770,28.809,38.574,153.320,54.688,0
1486824488.134,38.574,33.203,32.227,119.629,139.160,0
1486824488.138,-43.457,36.621,34.180,13.672,110.840,0
1486824488.142,-23.438,29.785,33.203,-40.527,2.441,0
1486824488.146,77.637,25.391,32.227,46.875,-33.691,0
1486824488.150,118.652,28.320,41.016,147.461,57.617,0
1486824488.153,56.641,28.809,46.387,123.535,138.672,0
1486824488.157,-39.551,32.227,41.504,23.926,131.836,0
1486824488.161,-30.273,30.273,39.062,-35.156,46.875,0
1486824488.165,82.031,23.926,40.527,37.598,-17.578,0
1486824488.169,124.023,25.391,39.062,141.602,59.082,0
1486824488.173,62.012,27.344,40.527,127.441,83.496,0
1486824488.177,-41.504,26.367,36.133,30.762,64.453,0
1486824488.181,-48.340,26.855,32.715,-39.062,-12.207,0
1486824488.185,67.871,28.809,33.691,19.043,-75.684,0
1486824488.189,123.047,27.832,35.156,131.348,6.348,0
1486824488.193,79.102,29.297,34.180,140.625,103.516,0
1486824488.196,-20.996,31.250,41.016,45.898,127.930,0
1486824488.200,-46.387,32.715,46.387,-33.691,38.086,0
1486824488.204,65.918,29.785,41.992,8.301,-43.457,0
1486824488.208,129.395,25.391,35.156,122.559,8.301,0
1486824488.212,87.891,29.785,31.250,157.227,116.699,0
1486824488.216,-11.230,33.691,39.551,78.613,134.766,0
1486824488.220,-54.688,28.320,42.480,-29.297,66.406,0
1486824488.224,47.363,30.762,35.645,-18.555,-60.059,0
1486824488.228,126.953,34.180,35.645,107.422,-29.297,0
1486824488.232,90.332,26.855,41.992,152.832,90.332,0
1486824488.235,-12.207,24.902,43.945,66.895,108.887,0
1486824488.239,-64.453,26.367,42.969,-28.320,61.523,0
1486824488.243,20.996,20.996,38.574,-17.578,-38.086,0
1486824488.247,109.375,21.973,38.574,91.309,8.789,0
1486824488.251,96.680,26.367,38.574,147.461,122.559,0
1486824488.255,8.789,27.832,39.551,81.055,153.809,0
1486824488.259,-62.500,26.855,41.016,-20.508,84.473,0
1486824488.263,7.812,25.391,39.551,-41.992,-46.875,0
1486824488.267,110.352,26.367,36.133,72.266,-20.996,0
1486824488.271,104.492,24.902,34.668,152.832,123.535,0
1486824488.275,18.066,28.320,39.062,91.309,129.883,0
1486824488.278,-61.035,33.203,41.504,-4.883,81.543,0
1486824488.282,-6.836,28.320,37.598,-34.668,2.441,0
1486824488.286,105.957,28.320,31.250,53.711,-48.340,0
1486824488.290,121.094,31.250,33.691,146.484,27.344,0
1486824488.294,36.621,27.344,41.992,109.863,104.492,0
1486824488.298,-50.781,26.367,40.527,8.789,70.312,0
1486824488.302,-16.602,27.344,39.551,-29.297,-13.184,0
1486824488.306,93.750,25.391,44.434,51.758,-11.230,0
1486824488.310,117.676,26.367,38.574,146.973,67.383,0
1486824488.314,42.480,27.344,40.039,109.863,123.047,0
1486824488.317,-45.410,29.297,41.016,6.836,113.281,0
1486824488.321,-31.250,25.879,30.273,-44.922,-2.441,0
1486824488.325,77.637,22.949,30.762,23.438,-61.523,0
1486824488.329,127.441,33.691,34.668,135.742,45.898,0
1486824488.333,75.195,38.086,37.598,119.141,105.469,0
1486824488.337,-20.508,29.785,38.574,27.344,107.422,0
1486824488.341,-21.973,30.273,35.645,-41.016,21.484,0
1486824488.345,84.961,29.785,33.691,12.695,-64.453,0
1486824488.349,138.672,25.391,35.156,130.371,40.527,0
1486824488.353,93.262,38.574,48.340,140.625,132.324,0
1486824488.357,-11.719,39.551,47.852,53.223,110.352,0
1486824488.360,-51.270,26.367,35.156,-34.668,6.836,0
1486824488.364,54.688,25.879,37.598,3.418,-79.590,0
1486824488.368,123.047,25.391,38.086,123.535,-17.090,0
1486824488.372,75.195,29.297,35.645,140.625,88.379,0
1486824488.376,-23.438,27.344,39.062,54.688,134.277,0
1486824488.380,-51.758,23.438,36.133,-25.391,35.645,0
1486824488.384,43.457,23.438,38.574,-11.719,-97.168,0
1486824488.388,115.723,26.367,41.992,108.887,-14.648,0
1486824488.392,86.914,26.855,37.598,144.043,91.797,0
1486824488.396,-14.160,26.855,34.180,66.895,121.094,0
1486824488.400,-63.477,26.855,34.180,-23.438,51.758,0
1486824488.403,32.227,25.391,34.180,-23.438,-94.727,0
1486824488.407,121.094,25.391,34.668,101.074,-46.875,0
1486824488.411,100.098,25.879,38.574,145.996,68.359,0
1486824488.415,6.348,31.738,39.062,83.008,125.488,0
1486824488.419,-63.965,30.762,36.133,-10.742,95.215,0
1486824488.423,7.812,25.879,41.504,-33.691,-65.430,0
1486824488.427,108.887,24.414,43.945,83.496,-59.082,0
1486824488.431,106.934,23.926,29.785,145.996,84.961,0
1486824488.435,13.184,28.320,34.180,89.844,110.840,0
1486824488.439,-60.059,28.809,44.922,-9.277,60.547,0
1486824488.442,2.930,27.832,33.203,-49.805,-31.250,0
1486824488.446,103.516,24.902,29.785,62.012,-43.457,0
1486824488.450,112.793,27.344,34.668,147.461,111.328,0
1486824488.454,37.109,34.180,41.016,99.121,186.523,0
1486824488.458,-44.434,31.250,44.922,10.254,107.422,0
1486824488.462,-4.395,25.391,39.062,-41.016,-0.977,0
1486824488.466,100.586,22.949,39.062,50.293,-21.973,0
1486824488.470,117.676,25.879,29.297,144.531,83.496,0
1486824488.474,47.852,30.273,29.297,107.422,154.785,0
1486824488.478,-40.527,31.738,41.504,25.391,136.230,0
1486824488.482,-21.973,31.250,39.062,-39.062,8.789,0
1486824488.485,86.426,29.297,32.715,34.668,-45.898,0
1486824488.489,120.117,29.785,33.203,143.066,70.312,0
1486824488.493,62.988,31.250,37.109,123.047,115.723,0
1486824488.497,-42.969,27.832,49.316,33.691,100.586,0
1486824488.501,-43.945,29.297,41.504,-34.180,32.227,0
1486824488.505,79.102,26.855,30.762,22.461,-41.016,0
1486824488.509,123.047,21.973,31.738,127.930,51.270,0
1486824488.513,62.500,25.391,33.691,125.488,125.000,0
1486824488.517,-37.109,26.855,38.574,37.109,91.797,0
1486824488.521,-48.340,25.879,34.668,-47.852,37.109,0
1486824488.525,65.918,26.855,30.273,8.301,-46.387,0
1486824488.528,131.348,27.344,43.457,131.836,24.414,0
1486824488.532,85.449,27.832,47.363,139.648,128.418,1
1486824488.536,-13.184,30.762,39.551,70.312,138.184,0
1486824488.540,-43.945,29.785,39.062,-21.973,40.039,0
1486824488.544,53.223,23.926,36.621,0.000,-75.195,0
1486824488.548,125.000,23.926,36.133,129.395,-13.184,0
1486824488.552,90.820,26.855,35.156,148.926,59.570,0
1486824488.556,-11.230,32.715,36.621,72.266,81.543,0
1486824488.560,-54.199,33.691,36.621,-21.484,62.012,0
1486824488.564,46.387,27.344,36.133,-19.531,-79.102,0
1486824488.567,126.465,29.297,37.598,103.027,-36.621,0
1486824488.571,102.051,31.738,41.016,148.438,69.824,0
1486824488.575,-0.488,27.344,38.574,78.613,98.633,0
1486824488.579,-63.477,26.855,32.227,-18.555,75.684,0
1486824488.583,21.484,31.250,34.668,-38.574,-62.012,0
1486824488.587,109.375,29.297,42.480,75.684,-52.246,0
1486824488.591,97.168,26.855,38.086,142.090,88.379,0
1486824488.595,7.324,29.297,35.645,85.449,138.672,0
1486824488.599,-62.988,34.180,38.574,-10.254,83.984,0
1486824488.603,7.324,29.297,36.133,-41.016,-43.457,0
1486824488.607,109.863,24.414,34.668,70.801,-60.547,0
1486824488.610,109.863,29.297,38.086,156.738,52.734,0
1486824488.614,31.738,35.645,47.363,116.699,110.352,0
1486824488.618,-53.223,34.180,45.898,17.090,99.121,0
1486824488.622,-14.160,24.414,37.109,-28.809,2.930,0
1486824488.626,88.379,22.949,35.156,65.430,-33.203,0
1486824488.630,108.398,27.344,36.621,155.762,70.801,0
1486824488.634,33.691,29.785,41.016,119.629,125.000,0
1486824488.638,-62.012,33.203,44.434,19.531,123.047,0
1486824488.642,-33.203,29.785,40.039,-39.551,27.344,0
1486824488.646,79.102,25.879,39.062,35.156,-22.949,0
1486824488.649,104.492,25.879,37.598,140.137,90.332,0
1486824488.653,39.551,26.855,39.551,123.047,127.930,0
1486824488.657,-53.223,28.320,42.480,25.391,116.699,0
1486824488.661,-33.691,29.297,40.527,-44.922,2.441,0
1486824488.665,78.125,29.785,34.668,21.973,-102.539,0
1486824488.669,116.699,28.809,32.715,138.672,21.973,0
1486824488.673,69.824,34.668,39.062,142.090,135.742,0
1486824488.677,-21.973,35.645,41.504,49.316,157.227,0
1486824488.681,-37.598,25.879,42.969,-32.227,52.246,0
1486824488.685,70.801,23.438,40.527,10.254,-59.082,0
1486824488.689,122.070,23.926,38.574,129.395,55.176,0
1486824488.692,68.848,23.926,37.109,142.578,141.113,0
1486824488.696,-26.855,29.785,43.457,61.035,143.555,0
1486824488.700,-50.293,33.203,48.340,-23.438,73.730,0
1486824488.704,59.082,27.344,42.480,-2.930,-39.062,0
1486824488.708,121.094,27.344,39.551,121.582,34.180,0
1486824488.712,78.125,35.156,43.945,147.949,124.512,0
1486824488.716,-14.648,34.668,47.852,64.453,130.371,0
1486824488.720,-50.293,30.762,43.457,-24.414,53.711,0
1486824488.724,41.992,26.855,39.062,-19.531,-63.477,0
1486824488.728,121.582,26.855,40.039,95.215,-24.414,0
1486824488.732,96.680,32.227,38.574,144.043,95.215,0
1486824488.735,-1.465,35.156,46.387,82.031,134.277,0
1486824488.739,-57.129,28.320,44.922,-17.578,47.852,0
1486824488.743,25.391,24.902,36.621,-24.414,-84.473,0
1486824488.747,118.164,28.320,43.945,97.168,-28.809,0
1486824488.751,105.469,29.297,45.898,157.715,79.102,0
1486824488.755,12.695,32.227,45.898,102.539,104.492,0
1486824488.759,-56.641,31.250,43.457,2.930,53.223,0
1486824488.763,16.113,25.391,34.668,-23.438,-86.914,0
1486824488.767,119.629,24.414,32.227,91.797,-61.035,0
1486824488.771,115.234,26.855,39.062,170.410,55.176,0
1486824488.774,32.715,30.762,45.898,120.605,77.637,0
1486824488.778,-42.480,32.227,43.945,19.043,86.426,0
1486824488.782,11.719,28.320,43.945,-22.949,-24.902,0
1486824488.786,114.746,28.320,41.016,73.730,-92.285,0
1486824488.790,118.164,32.715,39.062,159.180,49.805,0
1486824488.794,37.109,31.250,41.504,119.141,116.699,0
1486824488.798,-47.363,29.297,39.551,20.508,93.750,0
1486824488.802,-16.602,27.832,37.109,-34.180,-25.391,0
1486824488.806,92.285,25.391,40.039,51.270,-87.402,0
1486824488.810,116.699,27.344,39.062,155.273,30.762,0
1486824488.814,51.758,30.762,38.086,132.324,98.633,0
1486824488.817,-38.574,31.250,46.387,32.227,61.523,0
1486824488.821,-27.832,26.855,47.363,-30.273,-60.547,0
1486824488.825,80.078,26.367,40.527,36.133,-90.332,0
1486824488.829,119.141,30.762,39.551,147.461,34.668,0
1486824488.833,66.895,31.250,44.434,137.207,105.957,0
1486824488.837,-30.762,31.250,39.551,36.621,111.816,0
1486824488.841,-30.273,30.762,42.969,-25.879,29.785,0
1486824488.845,83.496,29.297,43.457,25.391,-71.289,0
1486824488.849,129.883,32.715,35.645,137.207,38.086,0
1486824488.853,77.148,31.250,41.504,147.949,148.926,0
1486824488.857,-20.020,28.320,42.969,58.105,136.719,0
1486824488.860,-36.621,30.273,40.527,-28.809,62.500,0
1486824488.864,62.988,26.367,36.621,-4.395,-38.574,0
1486824488.868,121.094,21.973,29.297,112.305,41.992,0
1486824488.872,79.102,22.461,38.574,146.484,157.227,0
1486824488.876,-20.996,25.391,50.293,62.500,149.902,0
1486824488.880,-56.152,24.902,40.039,-35.156,59.570,0
1486824488.884,48.828,25.879,33.203,-20.020,-54.199,0
1486824488.888,125.977,25.879,34.668,100.586,-6.836,0
1486824488.892,95.215,30.273,37.109,150.391,119.141,0
1486824488.896,1.953,33.691,44.434,77.148,158.203,0
1486824488.899,-59.570,26.367,41.992,-25.879,74.219,0
1486824488.903,28.809,22.949,36.621,-25.879,-35.156,0
1486824488.907,115.723,25.391,39.062,96.680,-26.855,0
1486824488.911,91.309,24.414,44.434,156.738,59.570,0
1486824488.915,1.465,22.949,45.410,99.121,123.047,0
1486824488.919,-66.406,24.902,44.434,-6.836,91.797,0
1486824488.923,13.672,22.949,45.898,-37.598,-56.152,0
1486824488.927,111.816,20.020,38.574,74.219,-67.383,0
1486824488.931,98.633,27.832,37.109,160.156,92.285,0
1486824488.935,14.648,34.180,42.480,105.469,139.648,0
1486824488.939,-60.547,29.297,42.480,2.441,98.633,0
1486824488.942,3.418,25.391,41.504,-36.133,-24.414,0
1486824488.946,109.375,23.438,35.645,62.988,-30.273,0
1486824488.950,108.887,23.926,32.715,158.203,112.305,0
1486824488.954,33.691,26.367,43.457,114.746,162.109,0
1486824488.958,-49.316,29.297,44.922,18.555,118.164,0
1486824488.962,-11.719,31.250,38.574,-37.109,13.672,0
1486824488.966,91.797,30.762,38.574,49.805,-25.391,0
1486824488.970,112.305,29.297,36.621,151.367,89.844,0
1486824488.974,47.363,31.250,37.598,124.023,128.418,0
1486824488.978,-48.340,30.762,39.551,28.809,89.355,0
1486824488.981,-30.273,24.414,38.086,-42.969,10.742,0
1486824488.985,79.102,24.414,29.297,32.715,-43.945,0
1486824488.989,111.816,26.855,32.715,143.066,41.992,0
1486824488.993,50.293,24.414,43.457,122.559,131.836,0
1486824488.997,-45.898,26.367,38.086,30.273,137.207,0
1486824489.001,-44.922,27.832,37.109,-47.363,41.016,0
1486824489.005,64.941,24.902,38.574,7.324,-39.551,0
1486824489.009,120.605,26.855,34.668,137.695,3.418,0
1486824489.013,66.895,32.227,39.551,139.160,88.379,0
1486824489.017,-32.227,35.156,45.898,48.340,125.488,0
1486824489.021,-40.039,27.832,42.969,-30.762,61.035,0
1486824489.024,61.035,22.949,39.062,12.207,-18.066,0
1486824489.028,120.605,26.367,41.504,138.672,57.129,0
1486824489.032,78.613,25.879,40.527,150.391,131.836,0
1486824489.036,-22.949,28.809,39.062,62.500,139.648,0
1486824489.040,-46.875,29.785,38.574,-36.621,68.359,0
1486824489.044,52.734,25.391,35.156,-11.719,-44.922,0
1486824489.048,120.117,25.879,38.086,120.605,27.832,0
1486824489.052,87.402,29.297,42.969,145.508,91.797,0
1486824489.056,-1.465,30.762,46.875,76.660,106.934,0
1486824489.060,-44.922,30.273,43.945,-22.949,84.961,0
1486824489.064,46.875,27.832,35.645,-26.855,-12.207,0
1486824489.067,137.695,29.297,42.480,108.887,40.039,0
1486824489.071,114.746,33.203,36.621,148.438,124.023,0
1486824489.075,3.906,31.250,28.320,78.125,154.785,0
1486824489.079,-62.500,25.879,33.691,-23.438,102.051,0
1486824489.083,22.949,25.879,26.367,-43.457,-70.801,0
1486824489.087,109.863,27.344,32.715,83.496,-53.223,0
1486824489.091,98.633,30.273,46.875,146.973,60.547,0
1486824489.095,11.230,30.762,41.016,92.285,125.977,0
1486824489.099,-70.312,32.227,38.574,-16.113,80.078,0
1486824489.103,-7.812,27.832,41.016,-52.246,-69.336,0
1486824489.106,96.680,23.438,37.109,78.125,-38.086,0
1486824489.110,105.957,27.832,33.203,155.273,72.754,0
1486824489.114,27.832,30.273,31.738,106.934,74.707,0
1486824489.118,-58.594,30.273,36.133,3.418,64.453,0
1486824489.122,-10.254,33.691,36.133,-43.945,-4.395,0
1486824489.126,96.191,30.762,35.156,65.918,-27.832,0
1486824489.130,112.793,26.855,35.156,150.879,69.824,0
1486824489.134,38.086,28.320,38.574,111.328,145.508,0
1486824489.138,-57.617,30.762,36.133,10.254,145.020,0
1486824489.142,-28.809,30.762,36.133,-50.293,7.812,0
1486824489.146,79.590,28.320,42.480,39.551,-35.645,0
1486824489.149,109.863,27.832,36.133,133.301,57.617,0
1486824489.153,50.293,26.855,32.227,111.328,132.812,0
1486824489.157,-52.734,25.879,38.086,18.555,155.273,1
1486824489.161,-48.828,27.344,41.016,-54.688,44.434,0
1486824489.165,74.219,28.809,41.504,25.879,-57.129,0
1486824489.169,120.605,31.738,38.574,137.207,8.301,0
1486824489.173,66.406,32.715,39.551,123.047,108.398,0
1486824489.177,-24.414,32.715,44.922,34.180,118.164,0
1486824489.181,-42.969,30.273,40.039,-42.969,46.875,0
1486824489.185,61.523,27.344,40.527,18.066,-58.105,0
1486824489.189,124.512,26.855,43.945,141.113,-35.645,0
1486824489.192,81.543,27.832,40.527,146.484,63.965,0
1486824489.196,-13.672,30.273,41.016,59.082,115.723,0
1486824489.200,-41.992,30.762,38.574,-32.715,62.012,0
1486824489.204,51.758,27.344,34.668,-0.977,-75.195,0
1486824489.208,117.188,27.344,36.621,116.699,-23.438,0
1486824489.212,83.008,30.273,40.527,140.625,93.262,0
1486824489.216,-14.648,29.297,49.316,58.594,106.445,0
1486824489.220,-56.152,30.273,46.387,-43.457,48.340,0
1486824489.224,33.691,28.320,36.621,-29.297,-65.430,0
1486824489.228,110.840,26.367,33.203,100.586,-10.742,0
1486824489.231,91.797,30.762,36.133,141.602,97.656,0
1486824489.235,6.348,29.785,43.945,66.895,129.883,0
1486824489.239,-49.316,25.391,43.945,-24.902,62.500,0
1486824489.243,26.855,29.785,31.738,-30.273,-82.520,0
1486824489.247,121.094,29.785,37.109,89.355,-38.086,0
1486824489.251,114.258,28.320,41.992,159.180,93.750,0
1486824489.255,23.438,31.738,37.598,99.121,111.816,0
1486824489.259,-51.270,31.250,42.480,-2.930,76.660,0
1486824489.263,17.578,27.344,43.457,-23.438,-32.715,0
1486824489.267,122.070,26.855,47.852,91.797,-37.109,0
1486824489.271,118.652,27.832,50.293,169.434,91.797,0
1486824489.274,37.598,26.855,44.922,120.117,160.156,0
1486824489.278,-44.434,25.879,42.969,11.230,127.441,0
1486824489.282,-0.488,28.809,40.527,-36.621,-12.207,0
1486824489.286,104.980,31.250,37.598,67.383,-16.602,0
1486824489.290,118.164,30.762,44.434,154.785,99.609,0
1486824489.294,39.062,31.250,45.410,114.258,150.879,0
1486824489.298,-50.293,35.156,36.133,15.137,112.793,0
1486824489.302,-17.090,37.109,37.109,-40.527,1.953,0
1486824489.306,87.402,34.180,41.016,42.480,-54.688,0
1486824489.310,117.676,31.738,39.551,135.742,80.566,0
1486824489.313,56.152,35.156,40.527,112.793,149.902,0
1486824489.317,-41.016,35.156,39.551,17.578,122.070,0
1486824489.321,-20.996,33.203,37.109,-46.875,43.945,0
1486824489.325,95.215,34.668,38.086,28.320,-52.246,0
1486824489.329,128.906,34.668,38.574,140.137,40.527,0
1486824489.333,74.707,37.109,38.574,136.719,137.695,0
1486824489.337,-18.066,39.062,43.457,53.711,132.812,0
1486824489.341,-27.344,31.250,41.992,-22.461,28.320,0
1486824489.345,73.730,30.273,36.133,28.809,-27.832,0
1486824489.349,126.465,31.738,34.668,140.625,54.688,0
1486824489.353,79.590,28.809,40.527,139.160,123.535,0
1486824489.356,-17.578,34.180,43.457,52.246,148.438,0
1486824489.360,-31.250,37.598,41.016,-25.391,65.430,0
1486824489.364,65.918,36.133,40.527,12.207,-49.316,0
1486824489.368,122.070,31.250,41.504,137.207,31.250,0
1486824489.372,90.332,30.273,44.922,159.668,137.695,0
1486824489.376,-4.883,31.738,48.828,74.219,164.551,0
1486824489.380,-43.457,30.762,41.016,-14.160,68.848,0
1486824489.384,49.316,30.273,34.668,3.418,-88.379,0
1486824489.388,125.977,28.320,41.992,124.023,-5.859,0
1486824489.392,103.516,29.785,46.875,156.250,105.469,0
1486824489.396,1.953,33.203,41.016,83.984,114.746,0
1486824489.399,-49.316,30.762,39.062,-7.812,97.168,0
1486824489.403,36.133,27.344,40.527,-17.090,-50.781,0
1486824489.407,119.629,28.809,37.109,100.586,-35.645,0
1486824489.411,106.934,30.762,37.598,158.203,104.492,0
1486824489.415,15.137,32.227,42.480,94.238,155.273,0
1486824489.419,-54.199,36.133,45.410,-13.672,88.379,0
1486824489.423,10.742,33.691,37.598,-41.504,-63.477,0
1486824489.427,109.375,28.320,34.668,78.613,-45.898,0
1486824489.431,109.863,30.273,34.668,149.414,81.055,0
1486824489.435,22.461,35.156,37.598,93.262,148.438,0
1486824489.438,-56.641,34.668,42.969,-3.906,104.980,0
1486824489.442,-8.301,30.273,39.062,-41.016,-13.672,0
1486824489.446,97.656,26.855,43.945,62.988,-52.246,0
1486824489.450,112.793,25.391,43.457,149.902,31.738,0
1486824489.454,32.715,31.250,39.062,109.375,104.492,0
1486824489.458,-54.199,33.203,47.363,13.672,123.047,0
1486824489.462,-19.043,27.832,48.340,-39.062,15.137,0
1486824489.466,86.426,26.367,42.480,49.805,-44.922,0
1486824489.470,111.328,23.926,39.551,148.438,87.891,0
1486824489.474,47.363,27.344,40.039,124.023,130.371,0
1486824489.478,-47.363,32.715,37.109,23.926,88.379,0
1486824489.481,-36.133,28.320,35.645,-36.133,17.090,0
1486824489.485,74.219,22.461,40.527,41.992,-68.848,0
1486824489.489,117.188,25.391,37.109,148.926,15.137,0
1486824489.493,61.035,28.320,34.668,129.883,87.891,0
1486824489.497,-39.551,27.344,36.621,23.438,57.617,0
1486824489.501,-41.504,25.391,39.551,-41.016,-19.531,0
1486824489.505,73.730,22.461,41.016,21.973,-64.453,0
1486824489.509,119.629,24.902,31.738,129.395,40.039,0
1486824489.513,64.453,27.344,27.832,127.930,94.238,0
1486824489.517,-31.250,28.320,32.715,40.039,103.027,0
1486824489.521,-55.664,26.855,37.598,-38.086,51.270,0
1486824489.524,49.316,25.879,32.715,5.859,-72.266,0
1486824489.528,116.699,26.367,32.715,121.582,-1.953,0
1486824489.532,80.566,30.762,38.086,139.160,79.102,0
1486824489.536,-22.949,31.250,33.203,53.711,99.609,0
1486824489.540,-68.848,21.484,30.273,-38.086,58.594,0
1486824489.544,34.180,18.066,37.598,-5.859,-57.617,0
1486824489.548,107.422,21.973,35.156,105.469,-20.996,0
1486824489.552,73.730,22.949,23.438,126.465,80.566,0
1486824489.556,-16.602,21.973,29.297,60.059,103.516,0
1486824489.560,-64.453,23.438,37.598,-37.598,34.668,0
1486824489.563,26.855,24.414,31.250,-36.621,-80.078,0
1486824489.567,110.840,24.902,31.250,93.262,-33.203,0
1486824489.571,83.984,28.809,39.062,149.902,64.453,0
1486824489.575,-7.324,30.762,42.480,85.449,99.609,0
1486824489.579,-64.453,28.320,38.574,-21.973,81.055,0
1486824489.583,17.090,22.949,37.109,-36.133,-58.594,0
1486824489.587,113.281,23.926,37.598,82.031,-60.059,0
1486824489.591,108.398,28.320,33.691,141.113,83.008,0
1486824489.595,13.672,28.320,39.551,93.262,115.723,0
1486824489.599,-56.641,26.855,42.480,-1.465,66.895,0
1486824489.603,13.672,27.832,36.621,-37.598,-52.246,0
1486824489.606,115.234,29.785,34.668,73.242,-40.527,0
1486824489.610,121.094,30.762,40.039,149.414,93.750,0
1486824489.614,33.691,28.809,41.504,108.398,132.324,0
1486824489.618,-52.734,27.832,36.133,13.672,76.172,0
1486824489.622,-11.230,21.484,36.133,-42.969,-35.156,0
1486824489.626,99.121,21.484,31.250,62.500,-70.312,0
1486824489.630,117.188,27.832,34.180,159.180,54.199,0
1486824489.634,44.922,26.855,46.875,117.188,110.352,0
1486824489.638,-52.734,24.902,44.922,23.926,87.402,0
1486824489.642,-32.227,23.926,39.062,-30.762,10.742,0
1486824489.645,90.332,21.973,38.574,54.199,-45.898,0
1486824489.649,121.582,24.414,41.504,149.414,67.383,0
1486824489.653,56.641,30.273,44.922,126.465,120.117,0
1486824489.657,-39.062,32.227,41.504,38.574,103.516,0
1486824489.661,-31.250,26.855,37.109,-42.969,-19.043,0
1486824489.665,73.730,23.926,35.645,19.043,-102.051,0
1486824489.669,113.770,24.902,34.180,135.254,29.785,0
1486824489.673,63.477,25.879,33.691,128.906,99.609,0
1486824489.677,-28.320,26.367,34.668,43.457,94.727,0
1486824489.681,-35.156,29.297,36.621,-35.156,30.273,0
1486824489.685,65.430,29.297,36.621,18.555,-102.539,2
1486824489.688,116.211,29.785,32.715,133.789,-33.203,0
1486824489.692,74.219,32.715,30.762,134.766,95.703,0
1486824489.696,-27.832,30.273,41.016,58.105,134.766,0
1486824489.700,-58.594,24.902,40.039,-37.109,24.414,0
1486824489.704,44.922,20.996,37.109,-9.277,-112.305,0
1486824489.708,109.863,19.531,37.598,110.352,-2.930,0
1486824489.712,78.613,27.832,33.691,133.301,103.516,0
1486824489.716,-20.996,37.109,43.457,73.242,124.023,0
1486824489.720,-62.012,29.297,44.434,-24.902,48.828,0
1486824489.724,29.297,24.414,29.785,-22.949,-45.898,0
1486824489.728,107.910,28.809,29.297,96.680,5.371,0
1486824489.731,92.773,31.250,41.992,142.578,49.805,0
1486824489.735,-3.418,35.156,41.992,82.031,97.656,0
1486824489.739,-62.500,33.203,36.621,-21.973,89.844,0
1486824489.743,24.414,25.391,38.086,-27.832,-46.875,0
1486824489.747,115.234,23.926,44.434,89.844,-20.508,0
1486824489.751,101.074,27.344,48.828,157.227,95.703,0
1486824489.755,18.555,29.297,45.410,105.957,128.906,0
1486824489.759,-48.340,33.203,45.410,-1.465,83.008,0
1486824489.763,19.531,33.203,43.457,-27.344,-49.316,0
1486824489.767,119.629,30.762,37.109,67.383,-34.668,0
1486824489.770,122.559,35.645,36.133,140.137,94.727,0
1486824489.774,40.039,35.645,39.062,95.215,125.977,0
1486824489.778,-54.688,30.273,44.922,-11.230,109.375,0
1486824489.782,-4.883,28.320,36.133,-51.270,-23.926,0
1486824489.786,103.516,29.297,30.273,41.504,-74.219,0
1486824489.790,111.816,33.691,39.551,133.789,53.223,0
1486824489.794,41.504,35.645,41.992,100.098,98.145,0
1486824489.798,-54.199,29.785,41.016,-1.953,82.520,0
1486824489.802,-30.762,25.879,37.109,-52.734,-9.277,0
1486824489.806,82.031,26.367,32.227,25.391,-64.941,0
1486824489.810,114.746,25.879,34.668,130.859,62.500,0
1486824489.813,54.688,25.391,40.527,121.094,115.234,0
1486824489.817,-41.504,26.367,40.039,28.809,103.027,0
1486824489.821,-31.250,26.855,35.156,-35.156,20.996,0
1486824489.825,77.148,24.902,38.574,26.367,-63.477,0
1486824489.829,119.141,24.414,43.457,141.602,42.969,0
1486824489.833,73.730,26.855,38.086,148.926,115.234,0
1486824489.837,-26.855,31.250,40.527,61.035,125.000,0
1486824489.841,-42.969,27.344,47.363,-18.555,2.930,0
1486824489.845,71.289,26.367,40.039,20.020,-125.488,0
1486824489.849,126.465,33.203,31.250,132.812,6.348,0
1486824489.853,66.895,29.297,36.621,148.926,123.047,0
1486824489.856,-32.715,23.926,47.363,61.035,95.703,0
1486824489.860,-51.758,20.020,41.016,-27.344,29.785,0
1486824489.864,54.688,20.020,33.203,0.488,-62.012,0
1486824489.868,124.512,25.879,35.645,118.652,-3.906,0
1486824489.872,86.914,27.832,40.039,154.297,87.402,0
1486824489.876,-13.672,32.715,41.016,74.707,106.445,0
1486824489.880,-52.734,34.180,40.527,-26.367,48.828,0
1486824489.884,49.805,31.250,34.180,-17.578,-64.453,0
1486824489.888,125.977,34.668,31.738,106.934,2.441,0
1486824489.892,97.168,30.273,33.691,147.949,101.074,0
1486824489.895,-1.465,26.855,36.133,72.754,122.070,0
1486824489.899,-54.199,30.273,44.922,-21.973,44.434,0
1486824489.903,33.691,28.320,41.504,-33.203,-80.078,0
1486824489.907,123.535,31.250,33.691,89.844,-38.086,0
1486824489.911,107.422,32.715,37.109,152.832,75.684,0
1486824489.915,10.254,30.273,45.410,88.379,100.098,0
1486824489.919,-55.176,29.785,50.293,-5.859,52.734,0
1486824489.923,21.973,27.344,41.016,-27.344,-29.785,0
1486824489.927,117.188,26.855,36.133,85.938,-20.508,0
1486824489.931,113.770,31.250,42.480,167.969,40.527,0
1486824489.935,37.109,34.668,46.387,115.234,96.191,0
1486824489.938,-41.504,33.691,41.992,9.766,79.102,0
1486824489.942,7.812,32.715,39.062,-29.785,-62.500,0
1486824489.946,111.816,34.180,43.457,70.312,-83.008,0
1486824489.950,118.652,32.227,42.969,166.016,67.871,0
1486824489.954,45.410,33.203,40.039,130.371,147.461,0
1486824489.958,-38.574,36.133,46.387,21.973,128.418,0
1486824489.962,-7.812,31.250,55.176,-39.551,30.762,0
1486824489.966,102.051,31.250,47.363,47.852,-6.348,0
1486824489.970,125.000,31.250,36.621,149.414,67.871,0
1486824489.974,49.805,31.250,44.434,128.418,121.582,0
1486824489.977,-44.434,35.156,43.945,34.668,135.742,0
1486824489.981,-21.484,32.715,37.109,-34.180,28.320,0
1486824489.985,85.938,28.809,41.504,35.645,-56.641,0
1486824489.989,117.676,26.367,40.527,153.809,47.852,0
1486824489.993,62.012,26.855,36.621,142.090,140.625,0
1486824489.997,-37.109,30.273,43.945,39.551,114.258,0
1486824490.001,-46.875,28.320,44.922,-38.086,18.066,0
1486824490.005,62.012,24.414,38.086,16.602,-68.359,0
1486824490.009,122.559,27.344,40.039,140.137,-0.488,0
1486824490.013,70.801,31.738,42.480,145.996,117.676,0
1486824490.017,-31.738,30.273,42.480,51.270,115.234,0
1486824490.020,-51.270,26.367,43.945,-26.855,18.555,0
1486824490.024,52.246,23.926,40.527,13.672,-79.590,0
1486824490.028,121.582,27.832,38.574,127.930,-7.324,0
1486824490.032,81.543,30.273,46.875,146.484,117.676,0
1486824490.036,-25.391,30.273,47.363,60.547,126.465,0
1486824490.040,-58.105,33.691,42.969,-36.133,47.852,0
1486824490.044,40.527,33.691,37.109,-18.066,-62.500,0
1486824490.048,113.770,28.809,35.156,109.863,-17.578,0
1486824490.052,83.008,27.344,43.457,144.531,113.281,0
1486824490.056,-13.184,30.762,42.969,70.801,110.840,0
1486824490.060,-64.453,29.297,36.133,-21.484,41.016,0
1486824490.063,24.902,26.367,40.039,-23.926,-41.992,0
1486824490.067,111.328,30.273,34.668,93.262,3.418,0
1486824490.071,85.938,30.762,32.227,145.020,120.605,0
1486824490.075,-3.418,29.297,37.598,82.520,145.508,0
1486824490.079,-63.965,32.715,38.574,-15.625,81.055,0
1486824490.083,7.324,30.273,32.715,-36.133,-23.926,0
1486824490.087,98.633,28.320,33.691,71.777,-0.488,0
1486824490.091,104.492,29.785,40.039,146.484,121.582,0
1486824490.095,21.973,32.715,39.062,99.609,163.574,0
1486824490.099,-62.012,29.785,41.016,-8.301,98.145,0
1486824490.102,-0.488,30.273,37.598,-40.527,-23.438,0
1486824490.106,108.398,35.645,34.668,64.941,-29.785,0
1486824490.110,113.281,35.645,40.527,148.926,80.566,0
1486824490.114,31.738,36.621,38.574,111.816,118.164,0
1486824490.118,-51.758,32.715,39.062,14.160,94.238,0
1486824490.122,-14.160,28.809,36.621,-31.250,3.418,0
1486824490.126,101.074,27.344,34.668,67.871,-45.898,0
1486824490.130,126.465,27.344,38.574,161.621,55.176,0
1486824490.134,50.293,30.273,42.480,133.301,97.656,0
1486824490.138,-41.504,32.227,49.316,30.762,61.523,0
1486824490.142,-23.926,28.809,40.039,-41.016,-50.781,0
1486824490.145,85.449,27.344,36.133,39.551,-90.332,0
1486824490.149,124.023,29.785,43.457,147.461,40.527,0
1486824490.153,60.059,28.809,39.062,125.488,96.680,0
1486824490.157,-41.992,28.809,36.133,26.367,104.492,0
1486824490.161,-41.504,30.762,35.156,-38.574,43.945,0
1486824490.165,73.242,26.855,37.109,24.902,-46.387,0
1486824490.169,125.488,26.367,42.969,135.254,2.930,0
1486824490.173,65.918,28.320,44.922,135.742,94.727,0
1486824490.177,-33.203,32.227,44.434,47.363,109.863,0
1486824490.181,-49.805,33.691,46.387,-37.109,31.738,0
1486824490.185,55.664,28.809,50.293,3.906,-52.246,0
1486824490.188,117.188,24.902,44.922,123.047,14.160,0
1486824490.192,73.242,25.879,40.527,139.160,73.242,0
1486824490.196,-17.578,29.785,47.363,55.176,93.750,0
1486824490.200,-48.828,28.320,46.875,-37.598,32.715,0
1486824490.204,46.875,24.414,41.016,-5.859,-86.914,0
1486824490.208,122.070,23.926,44.922,128.418,-21.973,0
1486824490.212,87.891,26.367,42.969,156.250,81.543,0
1486824490.216,-10.254,26.367,41.992,74.707,105.957,0
1486824490.220,-57.129,26.855,42.969,-28.809,35.645,0
1486824490.224,36.621,27.832,35.156,-28.809,-83.984,0
1486824490.227,122.070,28.320,30.762,103.027,-19.531,0
1486824490.231,94.238,29.785,39.551,151.855,104.980,0
1486824490.235,1.465,32.715,46.387,83.008,123.047,0
1486824490.239,-60.547,31.738,43.945,-13.184,65.918,0
1486824490.243,14.160,30.273,40.527,-38.574,-83.008,0
1486824490.247,102.051,27.832,34.668,76.660,-45.410,0
1486824490.251,93.750,21.973,38.086,151.367,81.543,0
1486824490.255,6.348,22.461,42.969,92.285,135.254,0
1486824490.259,-65.430,24.902,40.039,-9.766,85.938,0
1486824490.263,3.906,24.414,34.180,-39.062,-60.059,0
1486824490.267,106.445,27.344,32.227,68.359,-59.082,0
1486824490.270,111.816,32.227,36.133,152.344,47.852,0
1486824490.274,30.762,28.809,39.551,108.398,136.719,0
1486824490.278,-54.199,30.273,40.039,6.348,140.137,0
1486824490.282,-8.789,35.156,36.621,-43.945,-14.648,0
1486824490.286,100.586,29.785,37.598,55.664,-57.617,0
1486824490.290,108.887,24.902,38.574,155.273,78.613,0
1486824490.294,38.086,24.902,41.504,120.605,103.516,0
1486824490.298,-48.828,26.367,46.875,23.926,100.586,0
1486824490.302,-23.926,27.344,41.992,-29.785,23.438,0
1486824490.306,95.215,28.320,32.715,51.270,-30.273,0
1486824490.309,125.488,30.273,32.227,152.832,47.363,0
1486824490.313,52.734,29.297,37.598,129.883,120.605,0
1486824490.317,-43.457,27.344,38.574,23.438,151.855,0
1486824490.321,-36.621,26.855,32.227,-45.410,42.969,0
1486824490.325,69.824,25.391,33.691,24.414,-53.711,0
1486824490.329,120.117,23.926,37.109,129.395,52.734,0
1486824490.333,62.012,23.438,40.039,125.977,107.422,0
1486824490.337,-39.551,24.902,42.969,33.691,99.121,1
1486824490.341,-44.922,25.879,38.086,-45.410,30.762,0
1486824490.345,62.012,22.949,34.180,8.789,-87.402,0
1486824490.349,122.559,24.414,35.156,133.789,3.418,0
1486824490.352,79.590,30.273,36.621,149.414,128.418,0
1486824490.356,-23.926,28.809,41.016,50.293,146.973,0
1486824490.360,-54.199,24.414,43.945,-41.504,30.762,0
1486824490.364,51.758,24.902,35.156,-2.930,-100.098,0
1486824490.368,121.094,28.320,33.203,113.281,-7.324,0
1486824490.372,87.402,29.297,39.062,143.066,104.004,0
1486824490.376,-12.695,24.414,38.086,62.012,110.840,0
1486824490.380,-60.059,23.438,36.133,-34.668,30.273,0
1486824490.384,39.551,25.879,35.156,-13.672,-62.500,0
1486824490.388,125.488,26.855,36.133,106.445,0.977,0
1486824490.392,100.586,26.855,33.691,147.949,83.984,0
1486824490.395,5.859,26.367,36.133,71.777,102.051,0
1486824490.399,-51.758,27.832,38.086,-30.762,28.809,0
1486824490.403,28.809,29.297,35.645,-32.227,-80.078,0
1486824490.407,111.816,28.320,39.062,88.379,-19.043,0
1486824490.411,99.121,25.391,43.945,148.438,95.703,0
1486824490.415,9.277,28.809,41.504,87.402,141.602,0
1486824490.419,-62.988,30.762,40.527,-10.742,103.027,0
1486824490.423,9.277,27.344,42.969,-23.926,-42.480,0
1486824490.427,107.910,26.855,41.016,83.008,-41.992,0
1486824490.431,104.980,26.855,43.945,160.156,82.031,0
1486824490.434,26.367,31.738,48.828,114.258,129.883,0
1486824490.438,-50.293,29.297,36.621,7.812,95.215,0
1486824490.442,-6.836,20.996,29.785,-23.438,-5.859,0
1486824490.446,95.215,20.020,34.180,67.383,-46.875,0
1486824490.450,111.816,26.367,41.016,159.180,58.105,0
1486824490.454,42.480,26.855,43.945,122.559,162.109,0
1486824490.458,-43.457,24.902,40.039,16.602,116.211,0
1486824490.462,-15.137,26.855,41.504,-27.344,3.906,0
1486824490.466,91.309,24.902,39.551,48.828,-41.504,0
1486824490.470,122.070,24.414,37.109,145.508,38.574,0
1486824490.474,55.176,28.320,42.480,118.164,101.074,0
1486824490.477,-49.316,29.785,52.246,22.461,85.938,0
1486824490.481,-36.621,27.832,48.828,-33.203,-9.766,0
1486824490.485,77.148,25.879,32.715,30.762,-56.152,0
1486824490.489,114.746,25.879,32.715,137.695,45.898,0
1486824490.493,54.688,31.250,43.945,124.512,131.836,0
1486824490.497,-40.039,32.715,41.016,29.297,130.859,0
1486824490.501,-47.852,26.855,35.156,-42.969,47.852,0
1486824490.505,62.500,20.508,36.621,8.301,-39.062,0
1486824490.509,126.953,23.438,33.203,129.883,22.461,0
1486824490.513,85.938,30.273,37.598,137.695,139.648,0
1486824490.517,-16.602,32.227,41.016,41.992,169.922,0
1486824490.520,-37.109,26.367,31.250,-41.504,72.754,0
1486824490.524,63.965,23.438,26.855,-4.395,-41.504,0
1486824490.528,128.418,28.320,32.715,125.000,23.926,0
1486824490.532,102.051,33.203,41.992,150.879,119.629,0
1486824490.536,-3.418,32.715,45.410,66.406,155.273,0
1486824490.540,-45.898,30.762,42.969,-17.578,42.969,0
1486824490.544,53.711,28.320,37.109,-2.930,-67.871,0
1486824490.548,129.883,28.320,35.156,116.211,1.465,0
1486824490.552,99.609,31.738,44.922,159.180,88.867,0
1486824490.556,-5.371,30.762,47.852,79.590,106.445,0
1486824490.559,-61.523,27.344,35.156,-17.578,12.207,0
1486824490.563,31.738,31.250,31.738,-13.672,-87.402,0
1486824490.567,125.977,30.273,39.062,100.586,-30.273,0
1486824490.571,108.398,24.902,39.062,146.973,55.664,0
1486824490.575,13.184,28.320,39.551,85.938,52.734,0
1486824490.579,-57.129,27.832,39.551,-5.859,38.574,0
1486824490.583,8.789,25.391,39.062,-34.180,-71.777,0
1486824490.587,111.816,26.367,38.574,80.566,-78.613,0
1486824490.591,107.910,26.855,36.621,154.785,59.082,0
1486824490.595,20.020,29.785,37.598,97.656,118.652,0
1486824490.599,-54.199,32.227,36.133,-1.953,79.590,0
1486824490.602,-14.160,27.832,27.832,-43.457,-22.461,0
1486824490.606,89.844,21.484,32.227,56.152,-15.137,0
1486824490.610,104.492,23.438,35.645,137.207,81.055,0
1486824490.614,27.832,32.227,40.039,97.656,110.352,0
1486824490.618,-51.270,30.762,39.551,12.695,76.172,0
1486824490.622,-22.461,25.879,30.273,-39.551,-33.203,0
1486824490.626,83.496,23.926,31.738,43.457,-73.730,0
1486824490.630,110.840,27.832,34.668,141.113,34.668,0
1486824490.634,47.852,34.180,41.016,119.141,106.445,0
1486824490.638,-48.828,33.691,46.387,29.297,104.980,0
1486824490.641,-32.715,26.855,39.062,-43.457,-10.254,0
1486824490.645,85.938,21.973,30.273,30.273,-83.984,0
1486824490.649,123.047,23.926,32.715,145.508,38.086,0
1486824490.653,62.500,28.809,39.551,130.371,132.324,0
1486824490.657,-37.598,27.344,40.527,36.133,127.441,0
1486824490.661,-39.551,24.902,36.621,-43.945,6.836,0
1486824490.665,72.266,25.879,43.457,11.719,-84.961,0
1486824490.669,122.070,27.344,43.457,132.812,13.184,0
1486824490.673,71.777,29.297,40.039,133.301,72.754,0
1486824490.677,-25.391,26.855,43.945,49.316,68.848,0
1486824490.681,-51.270,23.926,41.016,-27.832,14.160,0
1486824490.684,55.664,21.973,35.645,2.441,-57.129,0
1486824490.688,120.605,20.996,30.762,116.699,10.742,0
1486824490.692,79.102,26.367,31.738,141.602,113.281,0
1486824490.696,-20.020,29.297,39.551,61.035,104.980,0
1486824490.700,-58.105,26.367,40.039,-37.598,16.113,0
1486824490.704,38.574,22.949,36.133,-23.438,-59.082,0
1486824490.708,124.023,23.438,39.062,104.980,7.812,0
1486824490.712,93.262,24.414,46.387,156.250,106.934,0
1486824490.716,-8.789,24.902,47.852,80.566,132.324,0
1486824490.720,-54.688,28.320,38.086,-15.137,89.844,0
1486824490.724,34.668,30.273,37.109,-8.301,-26.367,0
1486824490.727,120.605,29.785,41.504,104.980,-3.906,0
1486824490.731,98.633,29.297,30.762,153.320,92.773,0
1486824490.735,6.836,32.227,28.320,88.379,145.996,0
1486824490.739,-53.711,31.738,34.668,-8.301,93.750,0
1486824490.743,25.391,28.809,35.645,-26.367,-83.496,0
1486824490.747,120.117,27.344,37.598,83.984,-65.918,0
1486824490.751,110.352,27.344,40.039,162.109,80.078,0
1486824490.755,26.367,30.273,41.992,107.910,123.535,0
1486824490.759,-44.922,30.762,41.504,2.930,96.191,0
1486824490.763,3.418,29.785,41.016,-29.785,-24.414,0
1486824490.766,101.074,28.320,37.598,66.406,-33.203,0
1486824490.770,111.816,25.879,32.227,153.320,78.125,0
1486824490.774,38.086,27.832,42.480,119.629,147.461,0
1486824490.778,-46.875,30.273,44.434,19.531,118.164,0
1486824490.782,-14.648,29.785,33.691,-35.156,3.906,0
1486824490.786,97.168,26.855,31.738,53.711,-40.039,0
1486824490.790,124.023,26.855,38.086,159.180,50.781,0
1486824490.794,55.176,30.273,44.922,137.207,134.766,0
1486824490.798,-41.504,33.203,47.852,28.320,129.395,0
1486824490.802,-28.809,28.320,43.945,-39.551,35.156,0
1486824490.806,75.684,23.926,37.598,38.086,-15.137,0
1486824490.809,114.258,25.879,36.133,138.672,75.195,0
1486824490.813,50.293,23.926,29.785,122.559,134.766,0
1486824490.817,-44.434,28.320,29.297,30.273,109.863,0
1486824490.821,-37.109,33.203,35.156,-34.180,-1.953,0
1486824490.825,72.266,29.297,35.645,27.832,-40.527,0
1486824490.829,121.582,26.367,37.109,137.207,55.664,0
1486824490.833,67.383,27.832,41.504,146.484,129.883,0
1486824490.837,-30.273,33.203,43.457,53.223,127.930,0
1486824490.841,-47.852,31.250,43.457,-36.621,42.480,0
1486824490.845,52.734,27.832,41.504,8.789,-23.926,0
1486824490.849,115.234,31.250,39.062,125.000,45.898,0
1486824490.852,73.242,32.227,39.062,135.742,104.492,0
1486824490.856,-20.508,35.156,40.039,56.152,82.031,0
1486824490.860,-46.387,34.668,38.086,-29.785,18.066,0
1486824490.864,51.270,27.344,32.715,-12.207,-85.938,0
1486824490.868,118.652,25.391,28.320,110.840,-20.508,0
1486824490.872,83.496,26.855,30.273,150.879,115.234,0
1486824490.876,-11.719,29.297,33.691,71.289,145.020,0
1486824490.880,-70.801,26.367,32.715,-26.367,83.496,0
1486824490.884,25.391,29.785,36.621,-22.949,-54.688,0
1486824490.888,117.676,33.203,43.945,97.168,-35.645,0
1486824490.891,88.867,25.391,41.016,152.344,95.215,0
1486824490.895,-6.836,25.391,40.039,82.031,138.184,0
1486824490.899,-70.312,29.297,37.109,-18.066,86.426,0
1486824490.903,6.836,22.461,34.668,-29.785,-32.715,0
1486824490.907,104.980,20.996,40.527,85.938,-4.395,0
1486824490.911,97.168,24.902,38.086,153.320,121.094,0
1486824490.915,9.766,24.414,37.109,100.586,160.156,0
1486824490.919,-60.059,25.879,40.527,1.953,123.535,0
1486824490.923,0.977,28.320,34.180,-32.715,-31.738,0
1486824490.927,91.309,22.949,36.621,73.242,-16.602,0
1486824490.931,93.262,22.461,46.387,152.832,80.078,0
1486824490.934,20.508,25.879,48.340,103.516,90.332,0
1486824490.938,-64.453,25.879,44.434,-1.465,104.980,0
1486824490.942,-22.461,22.949,38.574,-48.340,-36.621,0
1486824490.946,92.773,20.020,35.645,52.246,-95.703,0
1486824490.950,113.770,24.414,44.434,154.785,24.902,0
1486824490.954,37.109,26.855,48.828,123.535,65.430,0
1486824490.958,-51.270,21.973,36.133,24.414,56.641,0
1486824490.962,-27.832,21.484,32.715,-35.645,-17.578,0
1486824490.966,83.008,21.484,36.621,45.410,-42.480,0
1486824490.970,123.047,26.367,37.109,152.832,61.523,0
1486824490.973,58.594,29.297,38.574,126.953,145.508,0
1486824490.977,-43.945,24.902,38.086,22.949,121.582,0
1486824490.981,-38.086,22.461,37.598,-44.922,19.531,0
1486824490.985,74.707,20.996,40.039,33.203,-15.137,0
1486824490.989,120.605,24.414,43.457,155.762,35.156,0
1486824490.993,63.965,26.367,40.039,139.160,89.355,0
1486824490.997,-37.109,25.391,39.062,38.574,97.656,0
1486824491.001,-48.828,24.902,33.691,-34.668,-3.418,0
1486824491.005,62.988,21.973,26.855,13.672,-77.148,0
1486824491.009,121.582,23.438,36.621,131.836,23.438,0
1486824491.013,77.148,30.762,33.691,146.484,123.535,0
1486824491.016,-19.531,35.156,31.250,62.012,157.715,0
1486824491.020,-53.711,25.391,39.062,-33.203,65.918,0
1486824491.024,52.246,20.508,33.691,-11.719,-34.180,0
1486824491.028,116.699,22.949,32.227,115.234,25.391,0
1486824491.032,70.312,25.879,35.156,141.113,88.867,1
1486824491.036,-16.113,30.762,37.109,60.547,114.258,0
1486824491.040,-60.547,28.809,35.645,-30.273,78.125,0
1486824491.044,27.832,24.414,34.180,-25.879,-32.227,0
1486824491.048,113.281,27.832,34.668,98.145,-24.902,0
1486824491.052,92.285,29.297,30.762,147.461,81.543,0
1486824491.056,-1.465,25.879,30.273,83.008,145.020,0
1486824491.059,-63.477,27.344,38.086,-10.254,83.496,0
1486824491.063,20.020,25.879,35.645,-30.762,-34.180,0
1486824491.067,115.234,26.855,27.344,82.520,-2.441,0
1486824491.071,105.469,28.809,31.250,153.809,79.590,0
1486824491.075,14.160,29.785,37.598,90.820,103.027,0
1486824491.079,-55.176,27.832,38.086,-7.324,95.703,0
1486824491.083,11.230,22.461,34.668,-36.133,-14.160,0
1486824491.087,104.004,25.879,36.621,68.848,-44.922,0
1486824491.091,108.398,27.344,36.621,152.344,70.801,0
1486824491.095,34.180,28.809,30.762,100.098,125.977,0
1486824491.098,-56.152,29.785,32.227,0.000,111.328,0
1486824491.102,-8.789,24.902,30.762,-46.875,8.301,0
1486824491.106,104.004,22.461,34.180,53.711,-35.645,0
1486824491.110,116.699,28.809,41.016,155.762,74.219,0
1486824491.114,43.457,32.715,36.621,116.699,135.742,0
1486824491.118,-41.504,28.809,36.133,11.719,99.609,0
1486824491.122,-15.625,28.320,32.715,-52.734,-20.020,0
1486824491.126,93.750,29.297,32.227,35.645,-70.312,0
1486824491.130,122.070,29.297,39.062,148.926,58.105,0
1486824491.134,55.176,28.809,41.992,119.629,113.770,0
1486824491.138,-43.945,22.949,41.992,22.949,92.285,0
1486824491.141,-34.180,22.949,37.598,-40.527,21.973,0
1486824491.145,75.195,23.926,35.156,31.738,-50.781,0
1486824491.149,112.793,27.344,40.039,147.461,39.062,0
1486824491.153,57.129,32.715,38.574,131.836,124.512,0
1486824491.157,-43.457,29.785,31.250,41.016,111.328,0
1486824491.161,-45.410,27.832,29.297,-48.340,-8.301,0
1486824491.165,62.012,25.879,30.762,-0.488,-75.195,0
1486824491.169,110.352,24.902,36.133,130.859,29.297,0
1486824491.173,63.477,26.855,40.039,132.324,100.098,0
1486824491.177,-29.785,29.297,42.480,47.852,125.977,0
1486824491.181,-47.852,29.785,40.039,-37.598,50.781,0
1486824491.184,54.199,28.809,37.598,-7.324,-83.496,0
1486824491.188,121.094,28.320,35.645,121.582,-12.695,0
1486824491.192,82.031,27.832,36.133,140.137,77.148,0
1486824491.196,-20.996,24.902,43.457,63.477,120.605,0
1486824491.200,-61.035,21.973,36.133,-35.156,57.129,0
1486824491.204,39.062,21.973,30.762,-22.949,-60.059,0
1486824491.208,115.723,24.414,37.598,106.934,-9.766,0
1486824491.212,88.867,26.855,35.645,144.531,86.426,0
1486824491.216,-8.789,29.297,35.645,80.566,136.719,0
1486824491.220,-58.105,30.273,42.969,-23.926,76.172,0
1486824491.223,31.738,29.785,41.016,-32.227,-36.621,0
1486824491.227,117.188,28.320,38.086,102.539,-8.789,0
1486824491.231,99.609,25.879,36.133,157.715,76.172,0
1486824491.235,10.254,24.414,34.668,92.285,113.281,0
1486824491.239,-55.664,28.320,34.668,-15.137,93.750,0
1486824491.243,19.043,31.738,35.645,-37.109,-6.836,0
1486824491.247,118.652,27.832,35.645,87.402,-25.391,0
1486824491.251,118.652,27.344,36.133,162.109,65.918,0
1486824491.255,39.062,28.809,41.992,114.258,129.395,0
1486824491.259,-36.621,32.715,45.410,7.812,108.887,0
1486824491.263,20.020,29.297,44.922,-32.227,-14.648,0
1486824491.266,126.953,27.344,42.969,81.543,-25.391,0
1486824491.270,133.789,33.691,42.480,165.527,95.703,0
1486824491.274,57.617,31.250,47.363,121.582,131.836,0
1486824491.278,-32.715,28.809,39.062,12.695,91.797,0
1486824491.282,-3.906,29.297,29.785,-35.645,-49.805,0
1486824491.286,103.027,28.809,36.621,73.242,-76.660,0
1486824491.290,123.535,28.809,39.062,164.551,38.086,0
1486824491.294,49.805,26.855,43.457,133.301,114.746,0
1486824491.298,-44.922,25.879,47.363,24.902,97.656,0
1486824491.302,-29.785,25.391,42.480,-36.133,-13.184,0
1486824491.305,80.566,26.367,42.480,48.828,-59.082,0
1486824491.309,116.211,30.762,42.969,146.973,34.668,0
1486824491.313,51.270,28.320,41.992,127.441,109.375,0
1486824491.317,-46.387,26.367,41.016,26.367,88.379,0
1486824491.321,-38.086,25.391,38.086,-37.109,17.090,0
1486824491.325,72.266,24.414,34.668,25.879,-60.547,0
1486824491.329,120.117,27.344,31.250,133.301,16.113,0
1486824491.333,73.730,29.785,38.086,142.090,137.695,0
1486824491.337,-28.809,30.273,43.457,53.711,135.254,0
1486824491.341,-45.410,27.344,41.992,-36.133,22.461,0
1486824491.345,64.941,30.762,41.992,6.348,-98.145,0
1486824491.348,125.488,34.668,40.527,127.930,-32.715,0
1486824491.352,83.984,32.715,39.062,148.438,73.730,0
1486824491.356,-17.090,30.762,43.945,65.918,123.047,0
1486824491.360,-63.965,29.297,37.109,-32.227,72.754,0
1486824491.364,33.691,27.832,31.738,-11.719,-51.270,0
1486824491.368,115.234,26.367,36.621,114.258,-12.207,0
1486824491.372,83.008,25.879,37.598,144.531,106.934,0
1486824491.376,-17.090,26.367,38.574,66.895,156.250,0
1486824491.380,-66.406,24.414,35.645,-31.250,83.008,0
1486824491.384,28.320,23.438,34.668,-24.902,-36.621,0
1486824491.388,118.652,27.832,36.621,101.074,-5.371,0
1486824491.391,94.238,29.297,44.922,146.484,86.914,0
1486824491.395,-4.395,27.832,49.805,78.613,132.812,0
1486824491.399,-65.430,25.391,41.016,-24.414,43.457,0
1486824491.403,14.648,23.926,31.738,-39.062,-92.285,0
1486824491.407,116.699,28.320,26.367,80.566,-63.965,0
1486824491.411,106.445,30.762,35.156,156.250,61.523,0
1486824491.415,11.719,29.297,47.363,101.074,107.910,0
1486824491.419,-60.059,31.250,42.480,-6.836,68.848,0
1486824491.423,1.953,28.809,31.738,-37.109,-42.969,0
1486824491.427,104.980,30.273,34.180,64.941,-55.664,0
1486824491.430,113.281,34.180,41.992,146.973,33.203,0
1486824491.434,30.762,30.762,41.504,108.887,75.684,0
1486824491.438,-58.105,29.785,36.621,3.906,58.105,0
1486824491.442,-13.184,29.785,40.039,-41.992,-42.480,0
1486824491.446,98.633,26.855,43.945,54.688,-52.246,0
1486824491.450,119.141,28.320,35.645,148.438,61.035,0
1486824491.454,51.270,30.273,34.668,113.281,125.488,0
1486824491.458,-42.480,27.832,43.457,17.090,128.906,0
1486824491.462,-25.879,24.414,41.016,-38.574,18.555,0
1486824491.466,85.449,22.949,31.738,40.039,-47.852,0
1486824491.470,127.930,22.949,29.297,147.461,64.941,0
1486824491.473,68.848,29.297,33.691,129.883,125.977,0
1486824491.477,-29.785,34.180,41.016,34.668,107.910,0
1486824491.481,-27.344,27.344,40.039,-33.203,-3.418,0
1486824491.485,76.172,25.879,32.227,28.809,-95.703,0
1486824491.489,121.094,27.344,33.691,143.066,18.555,0
1486824491.493,73.730,27.344,39.062,139.160,116.211,0
1486824491.497,-25.879,27.832,44.922,46.387,105.469,0
1486824491.501,-41.504,21.973,45.410,-24.902,35.156,0
1486824491.505,74.707,23.926,35.645,19.531,-49.316,0
1486824491.509,134.766,27.832,34.180,135.254,42.480,0
1486824491.513,80.566,28.320,37.109,146.484,99.121,0
1486824491.516,-20.996,28.320,40.039,59.082,106.934,0
1486824491.520,-54.688,25.391,37.109,-30.762,62.988,0
1486824491.524,40.039,24.414,37.109,-2.930,-25.879,0
1486824491.528,117.188,23.926,38.574,121.094,28.809,0
1486824491.532,85.449,22.461,40.039,149.902,136.230,0
1486824491.536,-20.020,24.902,42.480,76.172,148.438,0
1486824491.540,-64.941,25.391,41.992,-20.996,43.457,0
1486824491.544,29.785,20.996,44.922,-14.648,-41.016,0
1486824491.548,112.793,21.973,43.457,110.352,7.812,0
1486824491.552,91.797,29.297,41.016,157.715,96.680,0
1486824491.555,-2.930,31.738,43.457,86.426,144.043,0
1486824491.559,-57.129,27.344,41.504,-15.137,77.148,0
1486824491.563,18.555,24.902,37.598,-29.297,-66.406,0
1486824491.567,110.352,26.855,39.062,88.867,-11.230,0
1486824491.571,103.027,28.320,43.945,158.203,111.328,0
1486824491.575,11.719,29.785,44.434,94.238,136.719,0
1486824491.579,-62.500,25.879,37.598,-6.836,122.559,0
1486824491.583,0.977,20.996,34.180,-35.156,12.695,0
1486824491.587,105.957,22.949,39.551,73.730,-0.977,1
1486824491.591,108.887,27.832,43.945,159.668,117.676,0
1486824491.595,27.832,31.250,38.574,108.887,117.676,0
1486824491.598,-58.105,32.715,46.875,5.859,52.246,0
1486824491.602,-14.648,29.785,46.387,-32.715,-31.738,0
1486824491.606,96.680,29.785,30.273,64.941,-82.520,0
1486824491.610,117.676,31.738,38.574,163.086,13.672,0
1486824491.614,43.945,30.762,40.527,128.418,116.211,0
1486824491.618,-49.805,32.227,34.668,19.531,103.516,0
1486824491.622,-28.809,27.344,37.109,-42.969,-13.672,0
1486824491.626,85.938,26.367,37.598,40.527,-50.781,0
1486824491.630,113.281,30.273,37.109,141.113,46.875,0
1486824491.634,54.199,32.715,38.086,116.699,108.398,0
1486824491.637,-42.480,31.250,45.410,23.926,110.840,0
1486824491.641,-42.969,26.367,46.387,-39.062,0.000,0
1486824491.645,75.684,25.879,44.922,28.320,-89.355,0
1486824491.649,125.488,27.344,44.434,144.531,18.555,0
1486824491.653,66.895,27.344,44.434,132.324,131.836,0
1486824491.657,-31.250,30.273,41.016,37.598,104.492,0
1486824491.661,-39.062,27.832,37.598,-39.551,-17.090,0
1486824491.665,67.383,27.344,37.598,10.742,-68.359,0
1486824491.669,123.535,30.762,35.156,137.695,53.223,0
1486824491.673,74.707,31.250,36.133,141.113,123.047,0
1486824491.677,-25.391,28.809,39.551,55.664,114.258,0
1486824491.680,-55.176,26.855,37.598,-26.367,44.434,0
1486824491.684,42.480,24.414,37.598,-0.977,-70.801,0
1486824491.688,113.281,24.902,38.086,116.211,-9.277,0
1486824491.692,74.219,27.344,36.621,138.184,86.426,0
1486824491.696,-20.508,24.902,37.598,56.152,110.840,0
1486824491.700,-60.059,20.996,36.133,-42.969,50.781,0
1486824491.704,27.344,21.973,33.203,-34.668,-62.500,0
1486824491.708,113.281,25.879,34.180,91.797,-15.137,0
1486824491.712,93.262,27.344,34.180,131.836,113.281,0
1486824491.716,-9.766,28.320,33.691,62.500,142.578,0
1486824491.720,-72.266,24.414,36.133,-39.551,50.293,0
1486824491.723,17.090,22.949,36.621,-54.199,-91.797,0
1486824491.727,113.281,24.902,32.715,75.684,-59.082,0
1486824491.731,101.074,29.785,36.133,144.043,84.473,0
1486824491.735,8.789,31.738,38.086,83.496,131.836,0
1486824491.739,-59.082,29.785,35.645,-12.207,98.145,0
1486824491.743,10.742,26.367,34.668,-38.086,-40.039,0
1486824491.747,111.328,24.414,37.109,76.172,-57.617,0
1486824491.751,100.586,24.414,41.504,157.715,111.816,0
1486824491.755,14.160,28.320,46.387,106.934,147.949,0
1486824491.759,-57.617,28.809,42.480,4.883,67.871,0
1486824491.762,-5.859,26.855,33.203,-44.434,-54.688,0
1486824491.766,98.145,29.785,36.621,61.035,-89.355,0
1486824491.770,115.723,28.320,34.668,150.391,34.180,0
1486824491.774,39.062,27.344,33.203,111.816,117.676,0
1486824491.778,-53.711,28.320,37.109,14.648,80.078,0
1486824491.782,-17.090,26.367,34.180,-50.293,-54.199,0
1486824491.786,90.332,25.391,27.832,41.504,-87.402,0
1486824491.790,109.863,24.902,28.809,140.137,51.758,0
1486824491.794,44.922,27.832,31.738,112.793,115.723,0
1486824491.798,-43.457,30.273,35.645,24.414,70.312,0
1486824491.802,-34.668,28.320,41.992,-41.504,-7.812,0
1486824491.805,75.684,23.438,37.109,35.645,-42.969,0
1486824491.809,122.070,22.461,34.668,146.484,41.992,0
1486824491.813,61.035,22.949,37.598,131.348,86.426,0
1486824491.817,-40.039,27.832,38.574,40.039,86.914,0
1486824491.821,-39.062,28.809,41.504,-34.668,27.832,0
1486824491.825,68.359,23.926,40.527,25.879,-61.035,0
1486824491.829,117.676,23.926,32.715,129.883,6.348,0
1486824491.833,73.730,27.832,32.715,128.906,56.152,0
1486824491.837,-24.414,28.809,36.133,55.664,44.434,0
1486824491.841,-44.434,27.832,32.715,-29.297,-28.320,0
1486824491.845,62.012,26.855,35.156,8.301,-116.699,0
1486824491.848,127.930,28.320,39.551,128.906,1.465,0
1486824491.852,87.891,28.320,41.504,145.996,132.324,0
1486824491.856,-13.184,29.297,43.457,68.359,148.926,0
1486824491.860,-54.199,29.785,34.668,-30.762,61.523,0
1486824491.864,40.039,26.367,31.250,-12.207,-62.988,0
1486824491.868,118.164,26.367,32.227,112.793,-2.930,0
1486824491.872,90.332,30.273,32.715,155.273,114.258,0
1486824491.876,-6.836,28.320,36.621,80.078,128.906,0
1486824491.880,-62.012,27.832,32.715,-25.391,86.914,0
1486824491.884,29.297,28.320,29.297,-25.879,-5.371,0
1486824491.887,112.793,27.832,31.738,82.520,13.672,0
1486824491.891,101.074,30.273,35.156,141.602,83.496,0
1486824491.895,14.160,32.715,39.062,93.750,132.812,0
1486824491.899,-57.129,32.227,48.340,-10.254,86.426,0
1486824491.903,12.695,24.902,44.922,-32.227,-28.320,0
1486824491.907,108.398,24.902,31.250,74.707,8.301,0
1486824491.911,107.422,27.832,28.320,147.461,85.449,0
1486824491.915,20.996,29.297,34.180,105.957,166.504,0
1486824491.919,-58.594,31.250,37.598,3.906,108.887,0
1486824491.923,-6.348,24.902,35.156,-34.668,-12.207,0
1486824491.927,103.516,27.344,30.762,54.199,-20.020,0
1486824491.930,122.070,37.598,35.156,149.902,70.312,0
1486824491.934,43.945,32.715,43.457,120.605,125.000,0
1486824491.938,-53.711,24.902,42.480,11.719,87.891,0
1486824491.942,-19.531,22.949,32.227,-34.668,0.488,0
1486824491.946,95.703,24.414,31.250,47.852,-53.711,0
1486824491.950,124.512,28.320,37.598,145.508,38.086,0
1486824491.954,57.129,32.227,38.574,133.789,109.863,0
1486824491.958,-35.645,32.227,40.527,36.133,101.074,0
1486824491.962,-16.602,29.297,35.156,-31.250,-22.461,0
1486824491.966,90.820,29.297,29.785,39.062,-93.750,0
1486824491.969,128.906,27.344,31.738,146.973,38.086,0
1486824491.973,68.359,23.438,35.645,139.160,111.816,0
1486824491.977,-32.227,26.367,40.039,35.645,69.824,0
1486824491.981,-29.785,27.832,40.527,-33.203,-35.645,0
1486824491.985,79.102,25.391,36.621,22.461,-84.473,0
1486824491.989,126.953,22.949,33.691,130.371,36.133,0
1486824491.993,71.777,24.902,40.039,137.695,128.906,0
1486824491.997,-30.762,29.297,45.410,48.340,143.066,0
1486824492.001,-46.387,26.855,36.133,-33.203,31.738,0
1486824492.005,60.547,27.344,29.785,-0.977,-81.543,0
1486824492.009,127.441,28.809,36.133,118.652,-12.207,0
1486824492.012,85.449,23.926,41.504,142.090,97.168,0
1486824492.016,-12.695,27.832,35.645,52.246,116.699,0
1486824492.020,-44.922,28.809,33.203,-33.203,10.742,0
1486824492.024,58.594,26.855,29.785,-6.348,-111.328,0
1486824492.028,138.184,29.297,29.785,112.305,-37.109,0
1486824492.032,104.492,28.320,37.109,150.391,87.402,0
1486824492.036,8.789,32.715,43.457,83.008,150.879,0
1486824492.040,-40.527,35.156,42.480,-15.137,107.422,0
1486824492.044,40.527,29.297,35.645,-17.578,-57.617,0
1486824492.048,115.234,29.785,38.086,99.121,-44.922,0
1486824492.052,94.727,31.738,44.434,161.621,105.957,0
1486824492.055,2.441,25.879,44.922,95.215,142.090,0
1486824492.059,-61.523,21.973,39.551,-11.719,71.777,0
1486824492.063,10.742,23.926,33.203,-32.227,-44.434,0
1486824492.067,105.469,24.902,34.668,81.543,-38.086,0
1486824492.071,104.004,23.926,35.645,152.832,57.617,0
1486824492.075,13.184,25.391,40.039,91.797,113.281,0
1486824492.079,-65.430,27.344,42.969,-8.301,74.707,0
1486824492.083,2.441,24.902,37.598,-41.504,-44.922,0
1486824492.087,104.004,23.926,36.621,61.035,-26.855,0
1486824492.091,109.863,29.297,43.945,157.227,76.172,0
1486824492.094,33.691,31.738,45.410,112.305,95.215,0
1486824492.098,-47.363,30.273,41.992,6.348,54.199,0
1486824492.102,-10.742,27.344,38.574,-40.039,-51.270,0
1486824492.106,96.191,21.973,40.527,51.270,-91.309,0
1486824492.110,119.141,24.414,40.039,151.855,32.227,0
1486824492.114,42.969,28.809,39.062,120.605,131.348,0
1486824492.118,-47.363,30.273,43.945,15.137,100.586,0
1486824492.122,-26.367,28.320,39.551,-45.898,-9.766,0
1486824492.126,83.008,24.414,38.086,37.598,-53.711,0
1486824492.130,113.281,27.344,41.016,148.438,26.367,0
1486824492.134,50.781,30.273,46.875,129.883,97.656,0
1486824492.137,-37.109,29.297,43.945,33.203,110.352,0
1486824492.141,-34.668,26.855,35.645,-34.180,26.367,0
1486824492.145,75.684,28.809,40.039,30.762,-48.828,0
1486824492.149,121.094,31.738,37.109,138.184,10.742,0
1486824492.153,67.383,32.715,37.109,136.719,132.812,0
1486824492.157,-35.645,29.785,38.086,46.875,151.367,0
1486824492.161,-49.316,30.273,27.832,-42.969,17.090,0
1486824492.165,64.941,31.250,27.344,-0.977,-69.824,0
1486824492.169,119.629,27.344,35.645,125.000,20.020,0
1486824492.173,72.266,28.320,36.133,132.324,93.750,0
1486824492.177,-25.391,29.297,41.504,46.875,107.910,0
1486824492.180,-48.828,28.320,43.457,-35.156,79.590,0
1486824492.184,52.246,23.438,31.738,-12.695,-25.391,1
1486824492.188,120.117,22.949,36.621,113.770,34.180,0
1486824492.192,87.891,25.391,41.504,137.695,140.625,0
1486824492.196,-10.742,30.762,36.133,60.547,151.855,0
1486824492.200,-54.688,31.738,38.574,-26.855,60.059,0
1486824492.204,34.180,25.391,36.133,-20.020,-64.941,0
1486824492.208,109.863,30.273,32.227,99.609,6.836,0
1486824492.212,98.145,39.062,36.133,149.902,132.324,0
1486824492.216,8.301,36.133,41.504,83.496,161.621,0
1486824492.219,-55.664,29.785,41.992,-16.113,115.234,0
1486824492.223,28.320,28.809,36.133,-37.109,-32.227,0
1486824492.227,126.953,31.250,37.598,85.449,-9.766,0
1486824492.231,117.188,31.738,40.039,155.762,118.652,0
1486824492.235,18.555,28.809,38.574,94.727,134.277,0
1486824492.239,-59.082,29.785,38.086,-3.418,111.328,0
1486824492.243,6.348,29.785,39.062,-38.086,13.672,0
1486824492.247,107.422,27.344,39.551,73.242,-10.254,0
1486824492.251,106.445,29.785,41.016,151.855,92.285,0
1486824492.255,20.508,28.320,46.875,96.680,145.996,0
1486824492.259,-63.477,21.484,43.945,-8.789,141.113,0
1486824492.262,-16.602,20.020,39.551,-53.711,4.395,0
1486824492.266,86.914,22.461,40.039,48.340,-39.551,0
1486824492.270,105.469,25.391,35.645,139.648,64.453,0
1486824492.274,34.668,29.785,33.203,104.980,128.418,0
1486824492.278,-60.547,30.762,35.645,8.789,119.141,0
1486824492.282,-34.668,26.367,33.691,-50.781,19.043,0
1486824492.286,77.148,22.461,30.762,35.156,-6.836,0
1486824492.290,108.887,24.414,35.156,138.672,110.352,0
1486824492.294,50.781,28.320,39.062,123.047,181.152,0
1486824492.298,-43.457,27.832,36.621,21.973,167.969,0
1486824492.301,-40.039,27.344,35.156,-46.875,63.477,0
1486824492.305,74.707,27.832,36.621,31.738,-5.859,0
1486824492.309,120.605,28.809,41.016,140.625,62.012,0
1486824492.313,75.684,31.738,41.992,136.719,105.957,0
1486824492.317,-24.902,33.691,35.156,46.875,122.070,0
1486824492.321,-41.016,29.297,30.762,-35.645,45.410,0
1486824492.325,73.242,24.902,34.668,17.578,-85.938,0
1486824492.329,125.977,30.273,34.668,139.160,10.742,0
1486824492.333,76.172,34.180,37.109,145.996,131.836,0
1486824492.337,-25.879,29.297,43.945,59.082,120.117,0
1486824492.341,-50.293,25.391,39.551,-31.738,29.297,0
1486824492.344,52.734,27.832,33.691,-1.465,-50.781,0
1486824492.348,119.629,32.227,39.551,123.047,23.438,0
1486824492.352,85.938,33.691,48.828,150.879,92.773,0
1486824492.356,-17.090,34.668,44.434,66.895,102.051,0
1486824492.360,-60.059,30.273,36.621,-34.180,41.992,0
1486824492.364,41.992,31.250,31.250,-16.602,-80.566,0
1486824492.368,126.953,33.691,29.297,109.863,-32.227,0
1486824492.372,102.051,30.273,34.180,155.273,81.543,0
1486824492.376,11.230,33.203,37.598,94.727,109.863,0
1486824492.380,-49.805,32.715,35.645,-7.812,45.898,0
1486824492.384,25.879,26.855,35.156,-23.926,-100.586,0
1486824492.387,117.188,26.855,34.180,98.145,-51.270,0
1486824492.391,104.980,33.203,38.086,160.645,100.098,0
1486824492.395,13.672,32.227,40.527,95.215,103.516,0
1486824492.399,-58.594,26.367,37.598,-9.766,54.199,0
1486824492.403,11.230,27.832,36.133,-25.879,-47.852,0
1486824492.407,112.305,28.809,36.133,95.703,-46.875,0
1486824492.411,111.816,23.926,40.039,170.898,72.754,0
1486824492.415,30.762,25.879,35.156,116.699,135.254,0
1486824492.419,-54.688,29.785,32.227,5.371,121.582,0
1486824492.423,0.977,28.809,39.062,-23.926,-19.531,0
1486824492.426,115.234,29.297,42.969,85.449,-43.945,0
1486824492.430,129.883,29.785,36.621,164.062,57.617,0
1486824492.434,53.711,31.738,46.875,131.348,86.914,0
1486824492.438,-47.363,29.785,45.898,22.461,122.559,0
1486824492.442,-17.578,26.855,31.738,-35.645,9.766,0
1486824492.446,99.121,28.320,38.574,61.035,-96.191,0
1486824492.450,127.930,30.762,40.039,153.809,0.000,0
1486824492.454,51.270,31.738,40.039,128.418,84.961,0
1486824492.458,-46.387,28.809,44.922,26.855,101.074,0
1486824492.462,-26.367,24.414,37.109,-38.086,-11.230,0
1486824492.466,84.961,24.902,33.203,42.969,-64.941,0
1486824492.469,126.953,25.879,37.109,146.484,54.688,0
1486824492.473,67.383,26.855,41.016,135.742,122.559,0
1486824492.477,-26.855,29.297,44.922,40.039,118.164,0
1486824492.481,-28.320,29.785,38.086,-39.551,14.160,0
1486824492.485,78.613,31.738,35.156,20.996,-43.945,0
1486824492.489,130.859,29.297,41.504,137.695,55.664,0
1486824492.493,75.195,27.832,41.016,143.555,113.770,0
1486824492.497,-24.902,29.297,34.668,51.270,96.680,0
1486824492.501,-44.922,27.344,35.645,-37.109,34.668,0
1486824492.505,57.617,26.367,38.574,1.953,-64.941,0
1486824492.509,121.582,26.855,38.086,123.047,19.043,0
1486824492.512,83.984,31.738,38.086,150.879,130.859,0
1486824492.516,-10.254,39.551,42.969,62.988,124.023,0
1486824492.520,-52.734,33.203,44.922,-27.832,71.289,0
1486824492.524,45.898,23.438,37.109,0.977,-25.391,0
1486824492.528,122.070,24.414,30.273,117.676,-2.441,0
1486824492.532,85.449,25.879,31.738,150.879,87.891,0
1486824492.536,-8.789,27.832,36.621,67.871,126.953,0
1486824492.540,-65.430,25.879,34.180,-33.691,84.473,0
1486824492.544,14.648,23.926,32.715,-25.391,-21.484,0
1486824492.548,109.375,28.809,34.668,94.727,5.859,0
1486824492.551,94.238,28.809,43.457,157.227,117.188,0
1486824492.555,5.371,26.855,46.875,91.309,155.273,0
1486824492.559,-56.152,31.250,38.086,-13.184,115.234,0
1486824492.563,16.113,28.809,34.668,-30.762,1.465,0
1486824492.567,114.258,24.414,38.574,83.008,-17.090,0
1486824492.571,109.863,30.762,34.180,165.039,95.703,0
1486824492.575,23.926,32.715,34.180,106.934,150.879,0
1486824492.579,-51.270,28.809,38.086,-5.859,92.285,0
1486824492.583,2.930,25.879,34.668,-44.434,-54.199,0
1486824492.587,104.492,24.414,34.668,54.688,-53.223,0
1486824492.591,114.258,27.832,39.551,148.438,66.895,0
1486824492.594,40.039,30.762,43.457,103.027,128.906,0
1486824492.598,-45.898,27.344,41.992,-5.371,101.562,0
1486824492.602,-13.672,26.855,41.016,-47.852,-9.277,0
1486824492.606,94.238,26.855,36.621,38.574,-49.316,0
1486824492.610,116.211,27.832,35.645,141.113,30.273,0
1486824492.614,43.457,26.855,40.527,108.887,94.238,0
1486824492.618,-53.711,23.926,40.039,12.207,108.887,0
1486824492.622,-32.715,29.785,34.180,-39.062,23.926,0
1486824492.626,80.566,28.809,33.691,28.809,-58.105,0
1486824492.630,114.746,23.438,39.551,144.531,17.090,0
1486824492.633,50.293,24.414,43.457,121.094,82.520,0
1486824492.637,-43.945,26.367,42.969,23.926,97.656,0
1486824492.641,-31.738,29.297,43.945,-26.855,31.250,0
1486824492.645,78.613,30.273,39.551,23.926,-72.754,0
1486824492.649,118.164,28.809,24.902,129.395,18.066,0
1486824492.653,60.059,26.855,28.320,119.141,130.371,0
1486824492.657,-35.156,27.832,32.715,29.785,128.418,0
1486824492.661,-42.480,29.297,26.855,-41.992,28.809,0
1486824492.665,62.988,23.926,23.926,-8.789,-63.965,0
1486824492.669,121.094,23.926,27.832,108.398,14.648,0
1486824492.673,74.707,27.832,37.109,130.859,124.023,0
1486824492.676,-24.902,29.785,39.551,46.875,123.535,0
1486824492.680,-58.594,29.785,40.039,-39.551,17.090,0
1486824492.684,38.574,28.320,32.227,-20.508,-66.895,0
1486824492.688,106.934,29.785,27.832,96.191,0.000,0
1486824492.692,75.684,35.645,35.156,121.582,83.496,0
1486824492.696,-20.020,37.109,39.551,52.246,130.371,0
1486824492.700,-62.500,32.227,35.645,-36.133,60.547,0
1486824492.704,33.203,30.762,31.250,-33.691,-52.246,0
1486824492.708,120.117,30.762,33.203,104.004,7.812,0
1486824492.712,100.098,31.250,33.691,148.438,116.211,0
1486824492.716,2.441,33.691,34.668,78.125,152.344,0
1486824492.719,-62.500,31.250,36.133,-6.348,114.258,0
1486824492.723,12.207,28.320,40.039,-27.832,-20.020,0
1486824492.727,105.469,30.273,39.551,77.637,-44.922,0
1486824492.731,99.121,30.762,41.992,142.578,63.965,0
1486824492.735,10.742,31.250,44.434,90.820,130.371,0
1486824492.739,-66.895,26.367,39.062,-5.371,99.121,0
1486824492.743,-7.324,26.367,30.762,-48.340,-27.832,0
1486824492.747,97.656,27.832,30.273,61.035,-41.504,0
1486824492.751,106.445,26.855,35.645,145.508,78.125,0
1486824492.755,26.367,28.320,40.527,103.027,159.180,0
1486824492.758,-54.199,30.273,39.062,11.719,126.465,0
1486824492.762,-14.648,25.879,41.016,-46.387,-32.715,0
1486824492.766,95.703,24.414,44.434,50.293,-42.480,0
1486824492.770,120.605,26.855,39.062,154.785,88.867,0
1486824492.774,44.434,28.320,42.969,118.652,102.051,0
1486824492.778,-46.875,28.809,46.875,21.973,88.379,0
1486824492.782,-18.066,24.414,41.504,-37.109,-6.348,0
1486824492.786,100.586,23.438,38.086,47.363,-67.871,0
1486824492.790,130.859,27.832,42.480,157.227,45.898,0
1486824492.794,62.988,34.180,49.316,130.371,107.910,0
1486824492.798,-32.715,37.598,48.828,33.691,119.141,0
1486824492.801,-30.273,29.297,41.016,-35.645,31.250,0
1486824492.805,79.590,21.484,36.621,28.320,-84.473,0
1486824492.809,124.023,26.367,35.156,145.996,21.973,0
1486824492.813,69.824,31.738,39.062,141.602,133.789,0
1486824492.817,-36.133,30.273,38.574,48.828,130.859,0
1486824492.821,-45.898,27.832,40.527,-31.738,36.621,0
1486824492.825,63.477,24.414,33.203,11.719,-84.961,0
1486824492.829,116.699,21.484,25.879,138.184,-1.465,0
1486824492.833,74.707,24.902,31.738,154.785,117.188,2
1486824492.837,-24.414,35.156,38.086,72.266,134.766,0
1486824492.841,-54.688,33.691,39.551,-23.438,28.320,0
1486824492.844,48.340,24.902,37.598,-4.883,-94.727,0
1486824492.848,115.234,26.855,39.551,115.723,6.348,0
1486824492.852,85.449,28.320,41.992,149.414,104.980,0
1486824492.856,-9.277,27.832,40.527,77.148,136.230,0
1486824492.860,-60.059,23.926,36.621,-21.484,66.406,0
1486824492.864,28.809,22.461,32.715,-22.949,-97.168,0
1486824492.868,117.188,28.809,30.273,105.957,-20.508,0
1486824492.872,98.633,31.738,37.109,154.785,116.211,0
1486824492.876,3.906,32.227,40.039,80.078,108.398,0
1486824492.880,-61.035,32.227,31.250,-15.137,44.434,0
1486824492.883,17.578,28.809,32.227,-29.297,-82.520,0
1486824492.887,112.793,27.344,38.086,92.773,-55.176,0
1486824492.891,107.422,32.227,34.668,153.320,78.125,0
1486824492.895,12.695,32.227,39.062,96.191,104.004,0
1486824492.899,-67.871,26.367,38.574,0.488,88.379,0
1486824492.903,3.418,28.809,33.691,-31.250,-24.414,0
1486824492.907,106.445,29.297,34.180,72.266,-35.645,0
1486824492.911,107.422,26.855,35.645,146.973,80.078,0
1486824492.915,30.762,28.809,39.062,101.074,114.746,0
1486824492.919,-49.316,29.297,41.992,1.953,106.445,0
1486824492.923,-12.207,27.832,42.480,-35.645,-11.230,0
1486824492.926,95.215,25.391,36.621,69.336,-23.438,0
1486824492.930,115.723,27.832,36.621,157.715,85.938,0
1486824492.934,44.434,34.180,43.945,119.141,101.562,0
1486824492.938,-48.340,34.668,46.387,22.461,97.168,0
1486824492.942,-25.879,30.762,40.039,-38.574,10.742,0
1486824492.946,87.891,26.367,28.809,38.086,-56.641,0
1486824492.950,122.070,29.297,28.809,145.508,46.387,0
1486824492.954,58.105,30.273,37.109,125.488,99.609,0
1486824492.958,-38.574,24.414,35.156,29.785,59.082,0
1486824492.962,-26.855,22.461,30.762,-36.621,-10.742,0
1486824492.965,88.867,24.902,39.062,34.180,-55.664,0
1486824492.969,125.000,24.902,39.062,144.043,27.344,0
1486824492.973,67.383,27.832,36.133,133.789,102.051,0
1486824492.977,-28.320,28.809,44.434,46.875,101.074,0
1486824492.981,-39.551,25.391,38.574,-39.551,-22.949,0
1486824492.985,68.359,23.926,31.250,2.930,-119.141,0
1486824492.989,127.441,26.367,35.645,132.324,-17.578,0
1486824492.993,78.613,29.785,46.875,155.273,94.727,0
1486824492.997,-26.855,26.855,47.363,61.035,99.121,0
1486824493.001,-46.387,28.809,40.527,-37.598,24.902,0
1486824493.005,64.941,27.344,37.598,-4.883,-88.867,0
1486824493.008,124.512,24.414,31.250,120.605,-35.156,0
1486824493.012,86.914,32.715,44.434,154.297,64.941,0
1486824493.016,-11.719,33.691,58.594,76.660,97.656,0
1486824493.020,-57.617,26.855,46.875,-28.320,30.273,0
1486824493.024,37.109,22.949,39.551,-18.555,-84.473,0
1486824493.028,114.746,24.414,41.016,103.027,-46.875,0
1486824493.032,93.750,27.832,39.551,147.461,72.754,0
1486824493.036,-1.465,27.344,45.410,87.891,139.648,0
1486824493.040,-54.199,31.250,57.129,-13.672,25.879,0
1486824493.044,35.645,32.227,49.316,-16.113,-140.137,0
1486824493.048,121.094,27.832,39.551,107.422,-50.781,0
1486824493.051,112.305,32.715,41.992,168.457,106.445,0
1486824493.055,24.414,39.551,43.945,115.723,136.230,0
1486824493.059,-51.270,34.668,48.828,6.348,57.617,0
1486824493.063,19.531,31.738,40.039,-15.137,-73.730,0
1486824493.067,117.676,37.109,36.621,97.168,-29.297,0
1486824493.071,118.652,35.156,37.109,170.410,101.074,0
1486824493.075,37.109,30.762,47.852,126.465,150.391,0
1486824493.079,-43.945,31.738,57.129,16.113,92.773,0
1486824493.083,6.348,29.785,41.016,-30.762,-48.828,0
1486824493.087,109.375,26.367,32.227,70.312,-34.668,0
1486824493.090,123.535,28.320,37.109,162.598,84.961,0
1486824493.094,48.340,32.227,41.016,126.953,161.621,0
1486824493.098,-46.387,32.227,47.363,27.832,133.301,0
1486824493.102,-17.578,28.809,45.898,-20.508,9.766,0
1486824493.106,91.797,25.391,38.574,53.711,-29.785,0
1486824493.110,115.234,24.902,38.086,143.066,54.199,0
1486824493.114,47.852,27.832,45.410,122.559,127.930,0
1486824493.118,-57.129,30.273,40.039,24.902,118.164,0
1486824493.122,-44.922,28.809,32.227,-41.016,8.789,0
1486824493.126,75.195,27.344,37.109,28.320,-45.898,0
1486824493.130,116.211,29.785,45.898,141.113,48.828,0
1486824493.133,58.594,29.297,41.016,129.395,93.750,0
1486824493.137,-38.574,32.715,32.227,35.645,84.961,0
1486824493.141,-42.480,34.180,36.621,-30.273,0.488,0
1486824493.145,66.895,33.203,37.109,13.672,-71.777,0
1486824493.149,118.652,34.668,36.133,126.953,14.160,0
1486824493.153,71.777,37.109,43.945,140.625,93.750,0
1486824493.157,-26.367,37.598,38.086,46.875,79.590,0
1486824493.161,-49.805,31.250,29.297,-35.156,1.465,0
1486824493.165,51.270,28.320,27.344,-6.836,-102.051,0
1486824493.169,118.652,29.785,33.203,111.328,-10.742,0
1486824493.173,78.613,29.785,34.180,142.090,123.047,0
1486824493.176,-21.484,31.250,35.645,60.547,130.859,0
1486824493.180,-56.152,31.738,41.016,-30.762,33.203,0
1486824493.184,42.480,26.367,38.086,-15.137,-62.500,0
1486824493.188,118.164,25.879,39.551,110.352,-0.977,0
1486824493.192,86.426,31.250,39.062,148.926,67.383,0
1486824493.196,-7.324,31.250,36.133,70.312,92.285,0
1486824493.200,-51.758,27.344,39.551,-24.414,49.805,0
1486824493.204,33.203,23.438,30.762,-32.715,-61.035,0
1486824493.208,117.676,25.391,30.273,87.402,-44.434,0
1486824493.212,104.492,25.879,39.062,151.855,55.176,0
1486824493.215,11.719,28.809,44.434,89.355,81.543,0
1486824493.219,-55.664,30.762,44.922,-6.836,58.105,0
1486824493.223,15.625,25.879,40.527,-39.551,-52.246,0
1486824493.227,117.676,24.902,38.574,76.660,-42.480,0
1486824493.231,112.793,27.832,39.551,161.133,70.312,0
1486824493.235,21.973,31.250,44.434,104.492,106.934,0
1486824493.239,-54.688,32.715,47.363,8.789,108.887,0
1486824493.243,-4.395,29.785,34.668,-41.992,-23.926,0
1486824493.247,104.980,29.297,35.156,55.176,-56.152,0
1486824493.251,124.023,31.250,41.504,159.180,70.312,0
1486824493.255,42.969,29.785,40.527,120.117,135.254,0
1486824493.258,-48.340,28.320,42.480,21.484,106.934,0
1486824493.262,-17.578,26.367,38.574,-36.133,-11.719,0
1486824493.266,90.332,25.391,34.668,49.805,-56.641,0
1486824493.270,117.188,26.367,37.598,154.785,19.531,0
1486824493.274,48.828,29.297,38.086,126.953,121.582,0
1486824493.278,-41.504,34.668,39.062,31.250,108.887,0
1486824493.282,-22.949,33.691,34.180,-38.086,-6.348,0
1486824493.286,85.449,27.832,31.250,30.273,-20.508,0
1486824493.290,128.906,31.250,39.551,153.809,56.641,0
1486824493.294,66.895,39.551,47.852,146.973,114.258,0
1486824493.297,-39.551,35.645,43.945,41.016,122.070,0
1486824493.301,-41.992,27.832,36.621,-37.109,17.090,0
1486824493.305,71.777,26.367,37.109,19.531,-70.801,0
1486824493.309,119.629,27.344,34.668,134.766,30.273,0
1486824493.313,71.777,33.203,37.598,136.719,126.953,0
1486824493.317,-16.113,37.109,49.316,55.176,137.695,0
1486824493.321,-41.504,35.645,44.922,-35.645,37.598,0
1486824493.325,57.129,33.691,31.250,4.883,-89.844,0
1486824493.329,121.094,31.250,37.109,136.719,-12.695,0
1486824493.333,75.684,30.273,39.062,143.066,93.262,0
1486824493.337,-24.414,30.762,38.574,59.570,112.305,0
1486824493.340,-56.641,29.785,38.574,-31.250,53.223,0
1486824493.344,48.340,29.785,39.551,-12.207,-41.016,0
1486824493.348,125.000,32.227,42.480,113.770,18.066,0
1486824493.352,87.891,30.762,46.387,151.855,138.184,0
1486824493.356,-9.766,29.785,50.293,81.055,145.020,0
1486824493.360,-60.547,29.297,41.992,-28.809,45.898,0
1486824493.364,25.391,26.855,35.156,-34.180,-64.453,0
1486824493.368,117.676,28.320,34.668,99.609,-14.648,0
1486824493.372,97.656,30.762,38.086,156.250,90.332,0
1486824493.376,2.441,31.250,46.875,89.355,116.211,0
1486824493.380,-60.059,28.809,40.527,-20.508,57.129,0
1486824493.383,12.695,26.367,31.738,-36.621,-78.125,0
1486824493.387,113.770,25.879,34.180,90.820,-52.246,0
1486824493.391,104.980,28.320,39.062,161.621,66.406,0
1486824493.395,12.207,31.250,43.457,106.445,113.770,0
1486824493.399,-61.035,31.250,40.527,-3.418,73.242,0
1486824493.403,0.488,28.320,36.621,-42.480,-36.133,0
1486824493.407,112.305,26.855,36.133,73.242,-64.453,0
1486824493.411,117.188,29.785,34.668,162.109,68.848,0
1486824493.415,32.715,30.273,34.668,116.211,159.180,0
1486824493.419,-52.734,28.809,38.574,12.695,147.461,0
1486824493.422,-19.531,25.391,41.016,-41.992,48.828,0
1486824493.426,92.773,21.973,44.922,53.711,-11.230,0
1486824493.430,116.211,27.344,44.434,154.297,66.406,0
1486824493.434,43.457,36.133,37.109,119.629,140.625,0
1486824493.438,-47.363,33.203,37.598,13.184,129.395,0
1486824493.442,-25.391,24.902,38.086,-45.410,32.715,0
1486824493.446,85.449,25.391,34.668,38.574,-41.504,0
1486824493.450,117.676,23.926,36.133,140.625,47.852,0
1486824493.454,54.688,25.391,38.086,125.977,108.887,0
1486824493.458,-34.668,27.344,41.016,28.320,86.914,0
1486824493.462,-32.227,22.461,33.203,-44.434,12.207,0
1486824493.465,72.266,22.461,27.344,26.855,-75.684,0
1486824493.469,124.023,26.855,30.762,142.090,36.621,0
1486824493.473,71.289,32.715,34.668,135.254,128.906,0
1486824493.477,-31.738,35.156,39.062,43.945,126.953,0
1486824493.481,-41.016,29.297,35.156,-31.250,49.805,0
1486824493.485,73.242,30.273,34.180,10.742,-47.852,0
1486824493.489,131.836,28.809,36.621,129.883,23.926,0
1486824493.493,80.566,23.926,46.387,150.879,135.254,0
1486824493.497,-20.996,27.832,48.340,62.012,125.000,0
1486824493.501,-48.828,26.367,32.715,-31.738,26.367,0
1486824493.505,52.734,24.902,32.227,-0.977,-75.195,1
1486824493.508,125.488,32.227,41.992,126.465,-6.836,0
1486824493.512,89.844,31.738,40.527,154.785,108.398,0
1486824493.516,-4.883,29.297,32.227,69.824,144.531,0
1486824493.520,-46.875,31.250,36.133,-31.738,75.684,0
1486824493.524,36.133,28.809,36.621,-23.438,-57.617,0
1486824493.528,125.000,27.344,29.297,102.051,-26.855,0
1486824493.532,108.398,30.273,39.062,150.879,75.195,0
1486824493.536,5.371,31.250,47.852,86.914,121.094,0
1486824493.540,-58.105,32.715,40.039,-13.672,63.477,0
1486824493.544,21.484,29.785,33.691,-32.715,-52.246,0
1486824493.547,113.281,27.344,30.273,83.008,5.371,0
1486824493.551,100.586,29.297,33.203,151.367,119.629,0
1486824493.555,5.371,30.762,45.898,98.145,182.617,0
1486824493.559,-68.848,28.809,47.363,-5.371,127.441,0
1486824493.563,-3.906,24.902,38.086,-33.203,-7.812,0
1486824493.567,96.191,28.809,37.109,74.219,-4.883,0
1486824493.571,97.656,31.738,35.156,146.484,69.824,0
1486824493.575,15.625,25.391,39.551,100.586,127.930,0
1486824493.579,-65.918,22.949,37.598,-3.418,132.324,0
1486824493.583,-19.043,26.367,35.156,-46.875,-1.953,0
1486824493.587,93.750,29.785,41.504,57.617,-36.133,0
1486824493.590,114.746,30.273,34.668,151.367,84.961,0
1486824493.594,45.410,29.785,32.227,114.258,118.652,0
1486824493.598,-41.504,33.691,38.574,16.113,75.195,0
1486824493.602,-16.602,31.738,43.945,-33.203,-10.742,0
1486824493.606,88.379,26.367,40.527,41.992,-63.965,0
1486824493.610,118.652,27.832,38.086,140.625,21.484,0
1486824493.614,52.734,28.320,39.062,120.117,87.891,0
1486824493.618,-49.316,27.344,39.551,16.602,94.238,0
1486824493.622,-39.062,22.461,44.434,-46.875,-23.438,0
1486824493.626,75.195,21.973,36.133,25.879,-102.051,0
1486824493.629,119.629,27.832,34.180,140.137,18.066,0
1486824493.633,62.988,30.273,40.527,131.836,117.188,0
1486824493.637,-33.691,30.762,40.039,43.457,135.254,0
1486824493.641,-38.086,29.785,42.969,-30.273,11.719,0
1486824493.645,73.730,24.414,38.086,12.695,-79.102,0
1486824493.649,128.906,24.414,34.180,138.184,23.926,0
1486824493.653,79.590,26.367,39.551,151.855,108.398,0
1486824493.657,-21.973,27.344,39.062,54.199,139.648,0
1486824493.661,-50.781,28.809,34.668,-31.738,73.242,0
1486824493.665,52.734,26.367,32.715,-1.465,-36.621,0
1486824493.669,120.605,26.367,31.250,118.652,0.000,0
1486824493.672,79.590,32.227,33.691,145.996,122.559,0
1486824493.676,-14.160,32.715,40.527,64.453,176.270,0
1486824493.680,-56.641,26.367,39.062,-31.250,86.426,0
1486824493.684,41.016,26.367,37.598,-18.555,-69.824,0
1486824493.688,127.930,28.320,44.922,112.305,-18.555,0
1486824493.692,98.633,27.344,41.016,151.367,111.816,0
1486824493.696,6.348,27.832,34.180,76.660,144.531,0
1486824493.700,-47.363,28.809,39.062,-13.672,68.848,0
1486824493.704,34.668,25.879,45.898,-17.578,-46.875,0
1486824493.708,120.605,25.879,41.504,104.004,-3.418,0
1486824493.712,104.980,28.320,35.645,150.879,112.305,0
1486824493.715,14.160,27.344,39.062,87.402,173.828,0
1486824493.719,-48.340,27.344,40.527,-9.277,132.812,0
1486824493.723,26.367,29.785,41.992,-34.668,-18.555,0
1486824493.727,120.117,29.785,40.527,83.984,-14.160,0
1486824493.731,121.094,29.785,37.598,160.156,108.887,0
1486824493.735,38.574,31.250,42.969,113.770,151.367,0
1486824493.739,-44.434,29.785,46.387,19.043,117.188,0
1486824493.743,8.301,27.344,39.062,-25.391,-44.922,0
1486824493.747,117.188,28.809,41.016,75.684,-71.289,0
1486824493.751,122.559,31.250,45.410,160.645,95.215,0
1486824493.754,43.945,28.320,38.574,123.047,158.691,0
1486824493.758,-41.992,27.832,39.551,24.902,106.445,0
1486824493.762,-13.672,27.832,41.504,-37.598,-13.672,0
1486824493.766,93.750,21.973,37.109,48.828,-41.016,0
1486824493.770,125.000,20.508,40.527,151.855,85.449,0
1486824493.774,56.152,24.902,46.875,129.883,175.293,0
1486824493.778,-39.551,27.832,44.922,33.691,151.855,0
1486824493.782,-23.926,26.855,37.109,-29.785,34.668,0
