timestamps,TP9,AF7,AF8,TP10,Right AUX,Marker
1486825052.657,-12.695,22.461,30.762,75.684,116.699,0
1486825052.661,20.508,22.461,33.691,50.781,116.699,0
1486825052.665,78.613,23.926,33.203,35.156,10.742,0
1486825052.669,85.449,24.902,34.180,62.500,5.371,0
1486825052.673,33.691,29.297,39.551,58.105,11.230,0
1486825052.677,-14.160,32.227,44.922,69.824,126.953,0
1486825052.681,15.137,28.320,41.992,59.570,147.949,0
1486825052.685,80.566,28.320,35.645,42.969,-2.930,0
1486825052.689,101.074,30.762,41.504,64.941,-21.973,0
1486825052.693,57.617,23.926,40.527,59.082,11.230,0
1486825052.697,3.906,34.668,45.898,76.172,73.242,0
1486825052.700,4.883,32.227,42.480,67.383,84.473,0
1486825052.704,54.199,15.625,25.879,27.832,-18.066,0
1486825052.708,82.031,22.949,29.785,56.641,-41.992,0
1486825052.712,43.457,25.391,35.645,67.871,1.465,0
1486825052.716,-16.602,22.461,43.945,77.148,99.121,0
1486825052.720,-11.230,21.484,43.945,73.242,123.535,0
1486825052.724,55.664,23.926,41.992,40.039,-3.418,0
1486825052.728,86.914,23.926,49.316,59.570,-32.227,0
1486825052.732,53.223,27.344,42.969,64.453,-10.254,2
1486825052.736,-0.488,28.320,35.645,75.684,65.918,0
1486825052.740,-1.465,27.344,36.133,79.590,136.230,0
1486825052.743,63.477,29.785,36.133,41.016,28.320,0
1486825052.747,94.727,29.785,35.156,55.176,-42.480,0
1486825052.751,64.453,30.273,43.945,68.848,8.789,0
1486825052.755,7.324,29.297,50.293,75.195,82.031,0
1486825052.759,-16.113,21.484,39.551,76.172,125.977,0
1486825052.763,41.992,26.367,40.527,39.551,46.387,0
1486825052.767,90.820,31.738,42.969,51.270,-10.254,0
1486825052.771,67.871,15.625,36.133,62.012,21.973,0
1486825052.775,15.137,21.973,36.133,67.383,66.406,0
1486825052.779,-6.348,32.227,33.203,83.008,126.953,0
1486825052.782,45.410,28.320,31.250,49.805,94.727,0
1486825052.786,95.703,26.855,32.227,53.711,4.883,0
1486825052.790,79.590,29.785,35.156,76.660,8.301,0
1486825052.794,27.344,33.203,37.598,75.195,72.754,0
1486825052.798,-5.859,32.715,48.340,88.379,150.879,0
1486825052.802,29.785,27.344,47.852,53.223,89.844,0
1486825052.806,82.031,24.902,31.738,48.340,-7.324,0
1486825052.810,78.613,26.367,35.156,68.848,-21.484,0
1486825052.814,26.367,27.832,42.969,68.848,0.977,0
1486825052.818,-13.184,31.738,42.480,86.914,87.402,0
1486825052.822,23.926,32.715,29.297,52.246,106.445,0
1486825052.825,98.633,43.945,36.133,44.922,-12.207,0
1486825052.829,101.074,38.574,40.527,68.848,-25.879,0
1486825052.833,35.645,20.508,26.855,58.105,21.484,0
1486825052.837,-9.277,26.855,35.156,75.195,97.168,0
1486825052.841,14.160,25.391,43.945,54.688,107.910,0
1486825052.845,70.312,22.949,41.504,35.645,-4.395,0
1486825052.849,84.473,26.855,33.203,60.547,-2.930,0
1486825052.853,41.992,28.320,33.203,62.012,4.395,0
1486825052.857,-4.395,27.344,35.645,76.660,112.305,0
1486825052.861,11.230,25.879,26.367,66.406,133.301,0
1486825052.865,74.707,27.832,26.855,37.598,-20.508,0
1486825052.868,100.098,29.297,32.227,61.523,1.465,0
1486825052.872,57.617,31.738,37.598,73.730,31.250,0
1486825052.876,2.441,29.785,43.945,91.309,53.223,0
1486825052.880,1.465,23.926,37.598,75.684,119.629,0
1486825052.884,62.500,27.832,37.109,38.574,48.828,0
1486825052.888,94.238,30.762,36.621,62.500,13.184,0
1486825052.892,69.824,39.062,44.922,77.148,26.855,0
1486825052.896,12.207,35.645,48.340,82.031,67.383,0
1486825052.900,-8.301,20.020,31.250,61.523,155.273,0
1486825052.904,54.688,22.949,27.832,29.785,62.500,0
1486825052.907,95.215,25.879,28.809,48.828,-20.020,0
1486825052.911,72.754,28.809,36.621,60.547,4.883,0
1486825052.915,13.184,33.203,44.922,73.242,58.105,0
1486825052.919,-4.395,33.203,41.504,77.148,142.090,0
1486825052.923,54.199,27.344,37.109,35.645,53.711,0
1486825052.927,96.680,26.855,39.551,46.875,-29.785,0
1486825052.931,74.219,29.785,37.598,59.082,15.137,0
1486825052.935,13.672,29.785,35.156,63.477,67.871,0
1486825052.939,-12.695,29.297,40.527,72.754,166.504,0
1486825052.943,33.203,26.855,43.945,32.227,95.703,0
1486825052.947,78.125,23.438,33.691,31.738,-16.602,0
1486825052.950,70.801,28.320,29.297,50.293,-6.836,0
1486825052.954,16.602,32.227,36.621,61.523,40.039,0
1486825052.958,-3.906,39.062,51.270,92.773,162.598,0
1486825052.962,50.293,32.715,48.340,56.152,98.145,0
1486825052.966,81.543,14.648,31.250,33.203,-55.664,0
1486825052.970,69.824,17.090,33.691,62.988,-23.438,0
1486825052.974,20.020,24.902,37.598,71.289,47.852,0
1486825052.978,-20.996,27.344,35.156,83.984,118.164,0
1486825052.982,20.508,22.461,43.457,62.012,91.797,0
1486825052.986,81.055,23.438,44.922,47.852,-2.930,0
1486825052.989,79.102,29.785,39.551,64.941,20.996,0
1486825052.993,28.809,26.855,45.410,73.730,53.711,0
1486825052.997,-13.672,27.832,39.062,84.473,164.062,0
1486825053.001,14.160,28.809,34.180,62.988,177.246,0
1486825053.005,72.754,25.391,35.156,42.969,46.875,0
1486825053.009,87.402,29.297,38.574,56.152,3.906,0
1486825053.013,41.016,25.391,43.457,62.500,30.273,0
1486825053.017,-10.742,26.855,41.504,76.172,107.422,0
1486825053.021,8.789,30.273,40.039,62.988,127.441,0
1486825053.025,68.848,28.809,39.551,37.109,12.695,0
1486825053.029,89.844,27.344,38.086,51.270,-3.418,0
1486825053.032,40.039,22.461,31.250,46.875,0.000,0
1486825053.036,-9.766,34.668,45.898,76.172,56.641,0
1486825053.040,-0.488,32.715,44.434,69.824,137.207,0
1486825053.044,45.898,20.020,31.250,27.832,17.578,0
1486825053.048,76.660,24.902,47.852,49.316,-29.785,0
1486825053.052,47.852,26.855,43.457,59.570,20.996,0
1486825053.056,-11.719,28.320,36.133,75.684,86.914,0
1486825053.060,-15.137,29.785,40.527,67.871,119.629,0
1486825053.064,56.152,31.738,39.062,35.156,11.719,0
1486825053.068,88.867,30.762,35.645,46.875,-54.199,0
1486825053.072,60.059,27.832,42.969,61.523,-18.066,0
1486825053.075,4.395,28.809,46.875,72.266,81.543,0
1486825053.079,-22.461,29.297,34.180,64.941,146.973,0
1486825053.083,37.598,25.879,30.762,36.621,44.922,0
1486825053.087,87.891,24.414,37.109,49.316,-19.043,0
1486825053.091,62.012,23.926,40.039,62.500,-8.301,0
1486825053.095,14.160,28.809,57.617,86.426,53.223,0
1486825053.099,-16.113,25.879,56.152,78.613,148.926,0
1486825053.103,31.738,20.508,38.086,26.367,63.965,0
1486825053.107,88.867,27.832,40.527,34.668,-39.551,0
1486825053.111,69.824,27.344,41.504,61.523,-23.438,0
1486825053.114,15.625,28.320,36.621,65.430,18.066,0
1486825053.118,-17.090,28.320,33.203,65.430,101.562,0
1486825053.122,25.879,25.391,29.785,38.574,82.520,0
1486825053.126,83.008,25.391,35.645,33.691,-18.066,0
1486825053.130,74.219,27.344,35.156,56.152,-42.480,0
1486825053.134,13.672,24.902,33.691,61.523,-27.344,0
1486825053.138,-19.531,25.391,35.156,73.730,118.164,0
1486825053.142,19.531,32.227,34.668,46.387,134.766,0
1486825053.146,74.707,32.227,39.062,27.832,4.395,0
1486825053.150,82.520,33.691,42.969,64.941,21.973,0
1486825053.154,20.996,26.855,37.598,63.477,56.641,0
1486825053.157,-24.414,23.438,35.645,60.059,113.281,0
1486825053.161,9.766,27.344,34.180,47.363,104.980,0
1486825053.165,71.289,27.344,30.273,28.320,-2.441,0
1486825053.169,86.426,30.273,29.297,47.852,-17.090,0
1486825053.173,46.875,32.227,29.297,65.918,9.766,0
1486825053.177,-4.395,30.762,34.180,83.984,107.910,0
1486825053.181,11.719,26.367,34.180,66.406,138.184,0
1486825053.185,75.195,24.902,37.598,34.668,16.602,0
1486825053.189,88.379,27.832,38.086,54.688,9.766,0
1486825053.193,43.945,29.297,36.621,69.336,29.297,0
1486825053.197,-11.719,30.273,38.086,81.055,98.633,0
1486825053.200,-3.906,25.879,34.180,65.918,142.090,0
1486825053.204,70.801,32.227,43.457,37.598,15.137,0
1486825053.208,97.656,38.086,39.062,61.523,-35.645,0
1486825053.212,45.410,24.902,28.809,63.965,-32.227,0
1486825053.216,-7.324,27.832,34.180,69.824,74.707,0
1486825053.220,-4.395,28.809,30.762,64.941,137.207,0
1486825053.224,61.035,24.902,35.645,35.156,13.184,0
1486825053.228,97.168,22.949,41.504,59.570,-35.645,0
1486825053.232,66.406,24.414,38.086,84.473,-25.391,0
1486825053.236,12.695,29.785,41.504,93.750,44.434,0
1486825053.239,-0.488,30.762,50.781,83.008,115.234,0
1486825053.243,50.781,28.809,41.504,29.785,29.297,0
1486825053.247,97.656,29.785,33.203,42.969,-43.945,0
1486825053.251,77.148,33.203,30.273,63.477,-14.648,0
1486825053.255,9.766,33.203,32.715,71.289,29.297,0
1486825053.259,-14.648,28.809,37.109,75.195,115.723,0
1486825053.263,31.738,24.414,35.156,28.320,70.312,0
1486825053.267,74.219,20.020,32.227,37.109,-29.297,0
1486825053.271,74.219,32.227,39.062,76.660,-11.230,0
1486825053.275,16.113,33.691,39.062,73.242,33.203,0
1486825053.279,-21.973,20.020,33.203,73.242,148.438,0
1486825053.282,31.250,20.508,43.945,46.387,103.027,0
1486825053.286,79.590,22.949,40.039,39.551,-53.223,0
1486825053.290,74.219,22.461,34.668,67.383,-55.664,0
1486825053.294,26.855,25.879,37.598,65.918,-6.348,0
1486825053.298,-13.672,27.832,31.738,71.777,103.516,0
1486825053.302,17.090,24.414,23.926,40.039,97.656,0
1486825053.306,69.336,24.902,32.227,34.668,-40.039,0
1486825053.310,67.871,26.855,35.645,65.430,-53.223,0
1486825053.314,26.367,32.227,41.016,73.242,-17.578,0
1486825053.318,-11.719,35.645,50.781,92.773,95.215,0
1486825053.321,9.766,23.926,41.504,56.152,90.332,1
1486825053.325,77.148,23.438,37.598,34.668,-54.688,0
1486825053.329,82.031,24.902,31.250,62.500,-62.988,0
1486825053.333,30.762,25.879,27.832,64.453,-29.297,0
1486825053.337,-16.602,28.809,33.203,73.242,62.012,0
1486825053.341,8.301,26.855,30.273,59.570,146.973,0
1486825053.345,72.266,23.438,25.879,38.086,45.898,0
1486825053.349,88.867,25.391,33.691,62.988,-4.883,0
1486825053.353,49.805,29.785,38.086,62.500,33.691,0
1486825053.357,-2.930,31.250,45.410,74.219,129.883,0
1486825053.361,8.301,25.879,45.410,62.012,179.199,0
1486825053.364,73.242,25.391,35.156,29.785,26.855,0
1486825053.368,96.680,24.414,31.250,60.059,-18.555,0
1486825053.372,75.195,31.738,40.527,78.613,21.973,0
1486825053.376,21.484,35.156,45.410,91.797,104.004,0
1486825053.380,2.441,20.996,36.133,69.824,144.531,0
1486825053.384,64.453,23.926,36.621,40.527,9.766,0
1486825053.388,96.680,29.785,39.551,75.684,-37.109,0
1486825053.392,64.453,27.832,51.270,88.379,-27.344,0
1486825053.396,7.812,26.367,42.969,84.473,58.105,0
1486825053.400,-4.395,24.414,36.133,79.590,177.246,0
1486825053.404,50.781,22.949,36.133,45.898,26.367,0
1486825053.407,96.680,29.297,37.598,65.430,-78.613,0
1486825053.411,69.336,28.809,40.527,75.195,-24.902,0
1486825053.415,12.695,26.367,41.992,76.172,47.363,0
1486825053.419,-6.348,23.438,37.598,75.195,145.996,0
1486825053.423,54.688,35.156,41.016,44.434,95.215,0
1486825053.427,99.609,36.621,50.781,60.059,2.441,0
1486825053.431,66.406,20.020,40.039,57.617,-8.301,0
1486825053.435,8.789,25.391,34.668,56.641,19.043,0
1486825053.439,-20.020,24.902,30.762,71.777,138.672,0
1486825053.443,33.203,22.949,26.367,41.016,98.633,0
1486825053.446,91.797,25.391,32.227,42.480,-52.246,0
1486825053.450,86.914,27.344,37.109,69.336,-30.273,0
1486825053.454,23.438,27.832,38.086,72.266,13.184,0
1486825053.458,-27.344,25.391,38.574,81.055,105.957,0
1486825053.462,19.043,25.391,41.504,49.805,77.637,0
1486825053.466,89.844,30.273,41.016,45.410,-37.598,0
1486825053.470,85.938,34.180,31.250,67.871,-28.809,0
1486825053.474,30.273,28.809,34.180,71.777,15.137,0
1486825053.478,-8.789,23.926,37.109,79.102,132.324,0
1486825053.482,32.227,31.738,45.410,57.129,116.699,0
1486825053.486,98.145,35.156,53.711,54.199,-34.180,0
1486825053.489,81.543,22.461,38.574,68.359,-23.438,0
1486825053.493,28.320,22.461,36.621,67.871,6.836,0
1486825053.497,-6.348,28.320,47.363,80.566,78.613,0
1486825053.501,16.113,26.367,46.875,53.711,116.699,0
1486825053.505,76.660,25.879,30.762,27.344,36.621,0
1486825053.509,85.938,27.344,24.414,56.152,-0.488,0
1486825053.513,40.039,28.320,34.180,65.918,-4.883,0
1486825053.517,-7.812,30.273,34.180,77.148,85.449,0
1486825053.521,1.953,27.832,35.156,61.035,114.746,0
1486825053.525,64.941,24.902,39.551,28.809,10.742,0
1486825053.529,91.309,25.391,35.645,53.223,-8.789,0
1486825053.532,54.199,33.203,41.992,68.359,10.742,0
1486825053.536,2.441,35.645,48.340,71.289,59.082,0
1486825053.540,2.930,29.785,40.039,56.152,115.723,0
1486825053.544,63.477,33.691,33.691,33.203,49.805,0
1486825053.548,102.051,37.598,41.504,63.477,4.883,0
1486825053.552,67.871,30.273,33.691,64.941,-9.766,0
1486825053.556,8.301,31.738,27.832,76.172,87.891,0
1486825053.560,1.465,33.691,36.133,79.102,170.410,0
1486825053.564,59.082,31.250,42.480,38.086,21.484,0
1486825053.568,101.074,31.738,50.293,63.477,-27.832,0
1486825053.571,80.078,31.738,43.945,74.219,33.203,0
1486825053.575,20.020,33.691,34.180,75.684,72.754,0
1486825053.579,1.953,33.691,33.691,85.938,122.070,0
1486825053.583,57.129,31.738,34.180,44.922,54.688,0
1486825053.587,99.121,30.762,33.691,49.805,-23.438,0
1486825053.591,75.195,26.855,32.227,72.754,-8.789,0
1486825053.595,15.137,29.297,37.109,79.102,29.785,0
1486825053.599,-12.207,27.344,38.086,77.637,116.699,0
1486825053.603,32.227,27.832,36.133,38.086,49.316,0
1486825053.607,80.566,33.203,36.133,38.086,-13.184,0
1486825053.611,69.824,28.809,37.598,60.059,11.230,0
1486825053.614,11.230,25.391,41.016,67.871,35.156,0
1486825053.618,-22.949,23.438,39.551,71.289,130.371,0
1486825053.622,26.367,28.320,39.551,42.480,106.934,0
1486825053.626,89.355,38.574,41.992,47.363,-27.832,0
1486825053.630,72.266,27.344,28.809,58.105,-45.410,0
1486825053.634,13.672,24.902,30.762,55.176,11.230,0
1486825053.638,-27.832,30.762,34.180,72.266,90.332,0
1486825053.642,3.906,25.391,26.855,46.387,68.359,0
1486825053.646,68.359,24.414,30.762,32.715,-21.484,0
1486825053.650,67.383,28.320,34.668,61.035,-18.066,0
1486825053.653,19.531,31.738,41.504,70.312,30.762,0
1486825053.657,-20.508,29.297,40.527,73.242,115.723,0
1486825053.661,4.883,25.879,31.738,49.316,127.930,0
1486825053.665,63.477,28.320,28.320,25.391,9.766,0
1486825053.669,79.102,29.785,36.133,49.316,-21.973,0
1486825053.673,33.203,33.691,44.922,63.477,8.301,0
1486825053.677,-26.367,32.227,36.133,62.500,91.309,0
1486825053.681,-9.766,25.879,26.855,41.504,151.855,0
1486825053.685,54.688,22.949,30.762,27.832,35.156,0
1486825053.689,80.078,27.344,40.527,50.781,-31.250,0
1486825053.693,37.109,25.879,44.434,49.805,4.395,0
1486825053.696,-9.277,34.668,45.898,68.359,71.289,0
1486825053.700,0.488,35.645,35.645,59.082,134.766,0
1486825053.704,45.410,18.066,21.484,18.066,24.414,0
1486825053.708,76.660,20.996,35.156,50.781,-39.062,0
1486825053.712,51.270,28.320,39.062,67.383,33.203,0
1486825053.716,-2.441,28.809,44.434,66.406,90.332,0
1486825053.720,-5.371,26.855,42.480,67.871,119.141,0
1486825053.724,53.711,27.832,33.691,45.410,51.270,0
1486825053.728,88.379,27.832,40.039,48.828,3.906,0
1486825053.732,60.547,27.832,42.969,62.500,26.855,0
1486825053.736,5.371,31.250,42.480,70.312,93.262,0
1486825053.739,-8.301,32.227,36.133,68.359,154.297,0
1486825053.743,56.641,29.785,39.551,43.457,64.941,0
1486825053.747,100.098,29.785,45.410,54.199,13.184,0
1486825053.751,75.684,30.762,38.086,69.824,19.043,0
1486825053.755,26.367,34.180,41.504,87.402,45.898,0
1486825053.759,0.488,33.203,41.504,84.961,136.719,0
1486825053.763,43.457,29.785,40.039,41.504,65.430,0
1486825053.767,94.238,27.832,44.922,55.176,-41.016,0
1486825053.771,84.961,29.297,50.293,83.496,-7.324,0
1486825053.775,24.414,28.809,49.805,78.613,46.387,0
1486825053.778,-10.742,27.832,35.645,80.078,130.371,0
1486825053.782,41.504,34.668,39.062,55.176,98.633,0
1486825053.786,96.191,30.273,39.551,45.410,-24.902,0
1486825053.790,83.496,26.855,38.086,67.871,-25.391,0
1486825053.794,26.367,26.855,37.598,67.383,58.594,0
1486825053.798,-13.672,26.855,30.762,76.660,157.715,0
1486825053.802,26.367,29.785,35.645,59.082,80.078,0
1486825053.806,89.844,32.715,38.574,41.992,-31.738,0
1486825053.810,96.191,30.762,40.039,68.848,-7.812,0
1486825053.814,43.457,27.344,43.945,74.707,0.000,0
1486825053.818,-10.742,26.367,39.062,80.566,88.867,0
1486825053.821,18.555,24.414,34.668,69.336,155.762,0
1486825053.825,84.473,25.391,40.039,46.875,29.785,0
1486825053.829,90.332,25.879,35.156,63.477,-25.391,0
1486825053.833,44.922,26.367,33.691,65.918,34.668,0
1486825053.837,-2.441,25.879,37.109,73.242,135.254,0
1486825053.841,12.695,23.438,39.551,69.336,167.969,0
1486825053.845,74.707,21.484,37.109,45.410,13.672,0
1486825053.849,105.957,32.715,42.480,80.078,-42.480,0
1486825053.853,63.477,38.086,50.293,76.660,10.254,0
1486825053.857,-16.113,22.461,30.273,61.035,85.449,0
1486825053.861,-3.906,22.949,28.809,62.012,117.676,0
1486825053.864,67.871,27.832,46.875,40.527,4.395,0
1486825053.868,94.727,27.344,45.898,69.336,-38.574,0
1486825053.872,57.129,26.855,31.738,62.500,-35.156,0
1486825053.876,0.488,27.832,35.156,67.871,54.688,0
1486825053.880,5.859,25.879,34.180,81.543,143.555,0
1486825053.884,61.035,24.414,31.738,39.551,49.805,0
1486825053.888,89.844,28.320,34.668,56.152,-22.949,0
1486825053.892,65.430,29.297,35.645,65.918,-52.734,0
1486825053.896,7.812,29.785,44.434,70.312,14.160,0
1486825053.900,-6.348,29.785,45.898,79.102,152.344,0
1486825053.903,47.363,29.297,33.203,35.645,70.312,0
1486825053.907,90.332,26.855,36.133,51.758,-33.203,0
1486825053.911,71.289,22.949,39.551,67.383,14.160,0
1486825053.915,16.602,32.715,46.875,68.359,44.922,0
1486825053.919,-7.324,33.691,52.734,90.332,106.445,0
1486825053.923,27.832,16.602,29.785,41.016,50.293,0
1486825053.927,75.684,21.973,29.785,43.945,-28.320,0
1486825053.931,64.941,23.438,36.621,64.453,-21.484,0
1486825053.935,8.301,20.508,47.363,73.242,18.555,0
1486825053.939,-17.578,24.414,53.711,88.379,118.164,0
1486825053.943,31.250,23.926,40.527,43.945,74.219,0
1486825053.946,82.031,21.973,32.715,43.945,-36.621,0
1486825053.950,77.148,25.391,29.297,66.895,-43.945,0
1486825053.954,25.879,28.320,38.086,65.918,34.668,0
1486825053.958,-17.090,27.344,41.504,75.195,128.906,0
1486825053.962,21.973,23.926,33.203,46.387,101.562,0
1486825053.966,76.172,20.996,33.691,32.227,-0.488,0
1486825053.970,80.078,30.762,45.410,61.035,17.578,0
1486825053.974,36.621,34.668,51.270,70.312,46.387,0
1486825053.978,-23.438,23.438,41.992,76.172,140.137,0
1486825053.982,2.441,25.391,35.645,52.246,139.648,0
1486825053.985,68.359,26.367,28.809,32.227,25.879,0
1486825053.989,73.730,21.484,36.621,57.617,30.273,0
1486825053.993,27.344,22.461,39.551,65.430,23.926,1
1486825053.997,-14.160,28.809,37.598,79.590,82.520,0
1486825054.001,4.883,24.902,37.109,63.477,128.906,0
1486825054.005,64.453,25.391,35.645,40.039,-13.184,0
1486825054.009,85.938,32.227,41.992,61.035,-31.738,0
1486825054.013,43.945,29.297,45.898,68.359,41.504,0
1486825054.017,-11.719,27.832,47.363,83.008,95.215,0
1486825054.021,-0.488,27.344,48.340,70.801,127.441,0
1486825054.025,58.594,23.926,38.574,36.133,14.648,0
1486825054.028,80.078,27.832,31.250,52.246,-36.133,0
1486825054.032,49.805,25.391,37.598,60.059,-8.789,0
1486825054.036,5.371,36.621,47.363,81.055,92.773,0
1486825054.040,-1.953,39.062,41.992,62.988,167.969,0
1486825054.044,40.527,15.137,23.438,11.719,44.922,0
1486825054.048,81.055,18.555,24.414,41.504,5.371,0
1486825054.052,55.176,27.344,40.527,53.223,41.504,0
1486825054.056,-2.930,26.367,48.828,54.688,64.453,0
1486825054.060,-13.672,21.973,37.109,50.293,111.816,0
1486825054.064,44.922,22.461,27.832,20.508,57.617,0
1486825054.068,89.844,23.926,34.180,37.109,-40.039,0
1486825054.071,69.336,22.461,50.293,57.617,-37.598,0
1486825054.075,2.441,24.414,38.086,72.266,58.105,0
1486825054.079,-9.766,28.809,25.391,80.078,115.234,0
1486825054.083,46.387,29.297,33.203,46.875,36.621,0
1486825054.087,84.473,28.809,39.062,55.176,-26.367,0
1486825054.091,75.195,25.391,34.668,74.219,-26.367,0
1486825054.095,25.391,34.668,43.945,90.820,23.926,0
1486825054.099,-2.441,38.574,52.734,96.680,105.957,0
1486825054.103,25.879,15.625,32.227,39.062,50.293,0
1486825054.107,72.266,13.672,32.715,37.109,-27.832,0
1486825054.110,64.453,21.484,38.086,57.617,0.977,0
1486825054.114,10.254,24.414,34.668,62.500,62.012,0
1486825054.118,-30.273,23.926,28.809,69.824,147.461,0
1486825054.122,4.395,21.973,28.809,25.391,139.648,0
1486825054.126,62.012,23.926,34.668,15.625,24.414,0
1486825054.130,60.059,25.879,33.691,41.992,-17.578,0
1486825054.134,9.766,25.879,41.016,47.852,46.875,0
1486825054.138,-32.227,26.367,49.316,63.477,129.883,0
1486825054.142,-5.859,20.020,34.668,32.227,108.887,0
1486825054.146,63.965,21.484,27.344,20.020,10.254,0
1486825054.150,82.520,30.273,33.691,56.641,14.160,0
1486825054.153,30.762,32.227,35.645,61.523,29.297,0
1486825054.157,-16.113,29.297,32.715,70.801,117.676,0
1486825054.161,13.672,30.762,33.203,52.246,174.805,0
1486825054.165,74.219,31.738,33.691,28.320,38.086,0
1486825054.169,101.562,36.133,49.316,70.312,-26.367,0
1486825054.173,52.734,32.227,49.316,68.848,4.883,0
1486825054.177,-23.926,19.043,23.438,61.035,109.863,0
1486825054.181,-7.812,20.508,18.066,57.617,145.508,0
1486825054.185,63.965,24.414,24.414,31.738,-1.465,0
1486825054.189,83.984,25.391,32.227,57.617,-29.785,0
1486825054.193,41.016,26.367,32.715,64.941,20.508,0
1486825054.196,-7.324,29.297,35.156,73.730,51.270,0
1486825054.200,-4.395,26.367,36.621,70.801,83.496,0
1486825054.204,61.035,27.344,37.598,43.945,12.207,0
1486825054.208,98.145,31.738,49.316,58.594,-36.133,0
1486825054.212,66.895,30.273,50.781,70.801,-25.391,0
1486825054.216,13.184,29.297,40.039,79.590,71.777,0
1486825054.220,-0.488,31.738,36.621,73.730,148.926,0
1486825054.224,60.059,30.762,41.504,40.039,38.086,0
1486825054.228,103.516,26.367,42.480,54.199,-28.320,0
1486825054.232,77.148,26.367,39.551,72.266,-9.766,0
1486825054.235,10.742,25.879,36.621,75.195,64.941,0
1486825054.239,-9.277,26.855,35.156,75.195,154.785,0
1486825054.243,62.500,29.297,38.086,49.316,46.387,0
1486825054.247,113.770,29.297,49.316,62.988,-65.918,0
1486825054.251,88.867,31.250,50.293,75.684,-35.645,0
1486825054.255,28.320,33.203,42.969,74.707,37.109,0
1486825054.259,-10.742,30.762,41.504,80.566,137.207,0
1486825054.263,48.340,38.086,54.199,51.270,74.219,0
1486825054.267,104.980,37.109,54.199,53.711,-27.832,0
1486825054.271,73.730,25.391,29.785,62.012,-0.488,0
1486825054.275,21.484,30.762,35.156,67.383,12.695,0
1486825054.278,-14.648,31.738,41.016,78.125,83.008,0
1486825054.282,24.902,30.762,40.527,46.875,68.359,0
1486825054.286,81.055,33.691,42.480,38.574,-74.219,0
1486825054.290,83.008,29.785,41.504,66.406,-94.238,0
1486825054.294,33.691,31.738,45.898,77.637,6.836,0
1486825054.298,-7.812,37.109,52.734,85.449,123.535,0
1486825054.302,20.996,30.273,41.504,55.176,108.398,0
1486825054.306,81.055,27.832,40.039,43.457,22.949,0
1486825054.310,86.914,30.762,45.410,67.871,-8.789,0
1486825054.314,38.574,31.738,35.156,69.336,43.945,0
1486825054.317,-6.348,29.297,36.621,83.496,166.992,0
1486825054.321,16.602,28.809,37.109,63.965,179.688,0
1486825054.325,70.312,31.250,38.086,44.434,45.410,0
1486825054.329,83.008,30.762,45.410,68.848,-23.438,0
1486825054.333,38.086,23.926,41.992,66.406,22.949,0
1486825054.337,-2.930,35.645,46.387,84.473,112.305,0
1486825054.341,12.207,36.621,41.504,78.125,141.602,0
1486825054.345,60.059,19.043,31.250,32.227,49.316,0
1486825054.349,82.520,21.973,37.598,51.758,17.090,0
1486825054.353,39.551,25.391,32.715,64.941,54.688,0
1486825054.357,-12.207,27.344,31.738,78.125,114.746,0
1486825054.360,-5.859,29.297,41.504,70.801,136.719,0
1486825054.364,54.688,27.832,38.574,34.668,32.227,0
1486825054.368,94.238,26.367,36.133,64.941,-7.324,0
1486825054.372,62.988,25.391,46.875,83.496,14.160,0
1486825054.376,-3.418,26.855,43.457,79.590,46.387,0
1486825054.380,-2.930,28.809,38.574,73.730,81.055,0
1486825054.384,49.805,25.391,42.480,39.062,11.719,0
1486825054.388,78.613,25.879,37.598,57.617,-27.832,0
1486825054.392,57.129,30.762,36.621,70.312,-0.977,0
1486825054.396,-3.906,31.738,43.945,70.312,77.148,0
1486825054.400,-23.438,26.367,39.062,69.824,162.598,0
1486825054.403,37.109,27.344,33.691,27.344,55.664,0
1486825054.407,80.566,25.391,30.762,39.551,-26.855,0
1486825054.411,71.289,33.203,36.133,69.336,33.203,0
1486825054.415,18.555,37.598,41.504,66.406,53.223,0
1486825054.419,-21.973,21.973,28.320,61.035,117.676,0
1486825054.423,29.785,21.484,32.715,29.297,98.633,0
1486825054.427,79.102,24.902,37.598,33.691,-20.020,0
1486825054.431,69.824,30.273,34.668,60.059,-43.457,0
1486825054.435,13.184,27.832,36.133,58.105,-4.395,0
1486825054.439,-27.344,22.949,44.922,71.289,141.113,0
1486825054.442,19.043,23.926,47.363,37.598,130.859,0
1486825054.446,83.008,25.391,34.668,30.273,3.906,0
1486825054.450,78.613,24.902,28.809,59.570,12.207,0
1486825054.454,18.555,21.973,38.086,55.176,69.824,0
1486825054.458,-27.832,20.020,35.645,69.336,161.133,0
1486825054.462,10.742,19.531,33.691,53.223,132.812,0
1486825054.466,77.148,20.508,37.109,37.109,-6.836,0
1486825054.470,83.008,19.043,38.574,60.059,-24.414,0
1486825054.474,34.668,21.973,41.504,65.430,4.395,0
1486825054.478,-16.602,21.484,43.457,79.102,96.680,0
1486825054.482,1.953,18.555,42.480,51.758,133.301,0
1486825054.485,69.824,23.438,47.363,26.367,-3.906,0
1486825054.489,79.590,23.926,41.016,54.199,-22.461,0
1486825054.493,30.273,23.926,35.156,56.152,28.320,0
1486825054.497,-15.137,24.414,38.574,72.754,122.070,0
1486825054.501,4.883,25.391,39.551,64.453,162.109,0
1486825054.505,73.730,30.762,51.270,40.039,43.457,0
1486825054.509,89.844,24.414,46.387,59.082,-4.395,0
1486825054.513,43.457,18.066,34.180,58.594,-2.930,0
1486825054.517,-5.859,20.996,41.504,71.289,79.590,0
1486825054.521,-0.977,20.020,44.922,66.406,140.625,0
1486825054.525,57.129,20.996,34.668,39.551,15.625,0
1486825054.528,90.820,27.832,31.250,63.965,-45.898,0
1486825054.532,53.223,33.203,29.785,63.965,-46.387,0
1486825054.536,-8.301,30.762,37.109,74.707,69.336,0
1486825054.540,-7.812,27.344,39.062,63.477,149.414,0
1486825054.544,53.711,28.320,31.738,19.043,24.414,2
1486825054.548,78.125,27.832,29.785,43.457,5.859,0
1486825054.552,51.270,25.391,35.156,58.594,26.367,0
1486825054.556,3.418,30.273,41.016,69.824,44.434,0
1486825054.560,-15.137,32.715,39.551,63.965,102.539,0
1486825054.564,42.969,32.227,38.086,27.832,36.133,0
1486825054.567,87.891,32.227,34.668,51.270,-45.410,0
1486825054.571,68.848,28.809,38.086,65.918,-16.602,0
1486825054.575,9.277,26.855,41.504,72.754,72.754,0
1486825054.579,-20.508,27.344,39.551,78.125,166.504,0
1486825054.583,29.785,25.879,41.016,42.480,81.543,0
1486825054.587,84.473,26.855,34.668,49.316,-51.758,0
1486825054.591,74.707,29.785,34.180,65.430,-44.434,0
1486825054.595,21.484,32.227,44.434,73.730,3.906,0
1486825054.599,-10.254,33.203,45.898,81.055,124.512,0
1486825054.603,31.738,27.344,35.645,41.016,132.812,0
1486825054.607,83.496,22.461,36.133,40.527,-2.930,0
1486825054.610,71.777,21.973,41.016,66.895,-22.949,0
1486825054.614,22.949,22.949,48.340,73.730,-2.930,0
1486825054.618,-16.113,27.344,44.922,77.148,116.699,0
1486825054.622,20.020,31.250,37.598,47.852,101.562,0
1486825054.626,74.707,20.996,33.691,40.039,-42.480,0
1486825054.630,73.730,19.531,31.738,55.664,-11.230,0
1486825054.634,37.109,30.762,41.016,65.918,-8.301,0
1486825054.638,-2.441,35.156,48.340,82.520,46.387,0
1486825054.642,15.625,26.855,45.898,60.547,46.387,0
1486825054.646,70.801,23.926,34.668,44.434,-50.293,0
1486825054.649,82.520,25.879,31.738,62.988,-31.738,0
1486825054.653,37.109,26.855,36.621,71.289,-17.090,0
1486825054.657,-11.230,26.367,40.527,79.590,79.102,0
1486825054.661,3.906,23.926,36.621,57.129,131.348,0
1486825054.665,63.477,27.832,25.879,36.133,-4.395,0
1486825054.669,91.797,30.762,26.855,57.129,-40.039,0
1486825054.673,55.176,32.715,37.109,67.871,7.812,0
1486825054.677,0.977,34.180,40.527,80.566,95.703,0
1486825054.681,9.277,30.273,34.180,71.289,135.254,0
1486825054.685,64.941,28.809,28.320,42.969,-4.883,0
1486825054.689,91.309,29.785,36.133,65.430,-17.090,0
1486825054.692,57.617,28.809,41.504,78.613,41.504,0
1486825054.696,3.906,31.250,41.504,84.961,99.121,0
1486825054.700,4.395,25.879,45.410,73.730,168.945,0
1486825054.704,59.570,20.996,37.109,43.945,68.848,0
1486825054.708,90.820,25.391,34.668,66.406,-18.066,0
1486825054.712,65.918,28.320,36.133,79.590,12.207,0
1486825054.716,9.766,34.180,37.598,79.590,104.004,0
1486825054.720,-0.977,39.551,47.363,81.055,184.570,0
1486825054.724,54.688,29.297,35.156,41.016,58.105,0
1486825054.728,96.191,30.273,28.320,43.945,-41.016,0
1486825054.732,74.219,37.109,35.645,63.965,14.648,0
1486825054.735,12.695,33.691,35.156,65.430,52.246,0
1486825054.739,-9.766,34.668,38.086,69.824,132.324,0
1486825054.743,51.758,33.203,38.574,42.969,85.449,0
1486825054.747,102.051,31.738,34.668,49.805,-11.719,0
1486825054.751,85.449,33.203,37.109,72.266,14.648,0
1486825054.755,34.180,35.156,39.551,78.613,58.105,0
1486825054.759,-0.488,34.668,38.086,75.684,126.953,0
1486825054.763,41.016,33.203,38.574,47.852,94.238,0
1486825054.767,95.215,32.227,34.180,49.805,-20.020,0
1486825054.771,80.566,28.809,29.297,65.918,-2.441,0
1486825054.774,26.367,28.809,38.574,75.684,56.641,0
1486825054.778,-13.672,30.273,39.062,85.938,135.254,0
1486825054.782,20.996,25.879,27.832,56.152,89.355,0
1486825054.786,83.496,25.391,27.832,46.387,-29.785,0
1486825054.790,88.379,30.273,39.062,73.730,-11.719,0
1486825054.794,42.480,28.809,41.504,79.102,28.809,0
1486825054.798,-13.672,22.461,32.227,76.660,122.070,0
1486825054.802,19.531,30.762,31.738,58.594,137.695,0
1486825054.806,87.402,38.086,36.133,48.828,5.371,0
1486825054.810,77.148,23.926,31.738,56.152,7.812,0
1486825054.814,29.297,23.438,35.645,56.152,38.086,0
1486825054.817,-19.043,27.344,35.156,71.289,118.164,0
1486825054.821,2.441,28.320,43.457,61.523,155.273,0
1486825054.825,61.035,30.762,44.922,38.574,6.348,0
1486825054.829,78.125,28.320,38.574,56.641,-37.598,0
1486825054.833,36.133,24.902,43.457,64.453,9.277,0
1486825054.837,-20.020,23.926,37.109,73.730,77.637,0
1486825054.841,-6.836,20.508,26.367,53.711,129.395,0
1486825054.845,59.082,21.973,31.738,29.785,40.527,0
1486825054.849,89.355,23.926,38.574,60.059,-33.203,0
1486825054.853,53.223,24.414,45.898,68.359,-29.785,0
1486825054.856,-12.695,26.367,48.828,72.266,99.121,0
1486825054.860,-15.625,26.367,40.039,68.359,184.570,0
1486825054.864,48.828,24.414,35.156,36.133,48.340,0
1486825054.868,78.613,25.391,36.133,48.340,-22.461,0
1486825054.872,47.852,27.344,37.109,58.594,-2.441,0
1486825054.876,-4.883,26.367,43.945,68.359,82.031,0
1486825054.880,-12.695,23.926,41.016,68.848,158.203,0
1486825054.884,44.922,20.996,31.738,32.715,49.316,0
1486825054.888,86.914,23.926,36.621,43.945,-25.391,0
1486825054.892,63.477,26.367,41.016,56.152,-3.418,0
1486825054.896,0.977,25.879,35.156,61.035,3.906,0
1486825054.899,-23.926,21.973,31.250,58.105,108.887,0
1486825054.903,39.551,30.762,44.434,33.203,68.359,0
1486825054.907,88.867,35.645,41.992,49.316,-62.500,0
1486825054.911,58.105,17.090,28.320,56.152,-28.809,0
1486825054.915,3.418,16.113,35.156,63.965,22.461,0
1486825054.919,-16.602,22.949,42.969,73.242,86.914,0
1486825054.923,36.621,24.414,40.527,39.551,41.016,0
1486825054.927,83.496,23.926,30.762,44.922,-24.414,0
1486825054.931,75.195,24.902,38.574,71.289,-12.207,0
1486825054.935,20.996,27.832,45.410,65.918,10.742,0
1486825054.939,-20.996,22.949,33.691,66.406,123.535,0
1486825054.942,19.043,19.043,25.879,38.086,108.887,0
1486825054.946,75.195,20.508,27.832,30.762,-50.781,0
1486825054.950,77.148,20.020,32.715,58.594,-33.691,0
1486825054.954,36.133,20.996,38.574,66.406,33.691,0
1486825054.958,-9.766,22.461,43.945,79.590,103.516,0
1486825054.962,18.555,25.391,46.387,62.988,142.578,0
1486825054.966,87.891,29.297,49.316,47.363,27.344,0
1486825054.970,93.750,30.273,52.734,68.848,-45.410,0
1486825054.974,39.062,29.785,42.969,69.336,-23.926,0
1486825054.978,-8.301,29.785,33.691,76.660,89.355,0
1486825054.981,9.766,26.855,33.691,58.105,134.277,0
1486825054.985,81.055,38.086,38.086,42.969,26.367,0
1486825054.989,90.820,33.203,33.203,63.477,-6.836,0
1486825054.993,47.852,18.555,26.855,59.570,15.625,0
1486825054.997,-1.465,23.438,32.715,72.754,107.422,0
1486825055.001,1.465,23.926,38.086,64.941,155.762,0
1486825055.005,73.730,24.414,39.551,38.086,36.621,0
1486825055.009,96.680,28.320,37.109,52.734,2.930,0
1486825055.013,59.570,30.273,41.504,60.547,3.906,0
1486825055.017,0.488,29.297,36.621,67.871,89.355,0
1486825055.021,-4.883,29.297,30.273,61.523,184.570,0
1486825055.024,59.082,30.273,35.645,34.180,49.805,0
1486825055.028,95.215,31.250,41.016,51.270,-15.625,0
1486825055.032,61.035,27.344,36.621,61.035,55.664,0
1486825055.036,8.789,27.832,40.039,74.707,103.516,0
1486825055.040,4.395,34.668,48.828,71.777,130.859,0
1486825055.044,52.734,23.438,40.527,27.344,47.363,0
1486825055.048,95.703,20.996,44.434,49.805,-25.879,0
1486825055.052,68.359,28.809,46.387,61.523,5.371,0
1486825055.056,1.953,26.855,39.062,66.406,72.266,0
1486825055.060,-14.160,24.902,39.062,78.613,166.992,0
1486825055.064,46.875,29.785,41.016,39.062,52.246,0
1486825055.067,94.727,32.715,41.992,47.852,-41.504,0
1486825055.071,75.195,25.879,43.945,64.941,21.973,0
1486825055.075,20.020,26.367,40.527,73.242,27.832,0
1486825055.079,-11.230,31.250,35.645,82.031,113.770,0
1486825055.083,35.156,28.320,40.039,41.016,73.242,0
1486825055.087,90.820,25.391,46.875,41.016,-41.992,0
1486825055.091,69.824,28.320,39.551,57.617,-39.551,0
1486825055.095,9.766,31.738,32.715,59.082,-20.508,0
1486825055.099,-20.020,33.691,42.480,75.195,100.098,0
1486825055.103,19.043,29.785,41.992,43.945,93.750,0
1486825055.106,80.078,28.320,35.645,37.598,-46.387,0
1486825055.110,80.566,32.227,39.062,60.059,-83.008,0
1486825055.114,20.996,31.738,43.457,63.965,-10.742,0
1486825055.118,-20.508,32.227,46.387,77.148,101.562,0
1486825055.122,8.789,33.691,42.480,48.340,107.422,0
1486825055.126,61.523,28.320,31.738,30.762,8.301,0
1486825055.130,68.359,26.367,26.855,50.781,-44.922,0
1486825055.134,25.879,30.762,34.180,54.199,-24.414,0
1486825055.138,-23.438,27.344,40.527,70.801,80.566,0
1486825055.142,-5.371,24.902,31.250,52.246,79.590,0
1486825055.146,62.500,24.902,26.367,35.156,-49.316,0
1486825055.149,80.566,24.902,34.668,51.758,-56.152,0
1486825055.153,36.621,28.320,37.109,56.152,-26.855,0
1486825055.157,-15.137,29.297,35.156,82.520,64.453,0
1486825055.161,5.371,27.832,35.156,68.359,122.070,0
1486825055.165,74.707,28.320,33.691,38.574,25.879,0
1486825055.169,88.867,28.320,33.691,56.641,-6.348,0
1486825055.173,44.922,28.320,41.504,61.523,-13.672,2
1486825055.177,-8.789,27.344,41.992,79.590,58.594,0
1486825055.181,-11.719,24.414,32.715,66.406,137.695,0
1486825055.185,57.617,26.855,28.320,36.133,22.461,0
1486825055.188,95.215,28.320,31.738,47.852,12.695,0
1486825055.192,61.523,23.926,37.109,57.129,51.758,0
1486825055.196,3.906,31.250,39.062,76.660,92.773,0
1486825055.200,-3.418,31.738,36.133,62.988,133.301,0
1486825055.204,62.988,25.879,42.969,38.086,6.836,0
1486825055.208,99.609,31.250,48.828,60.059,-47.363,0
1486825055.212,60.059,23.438,37.598,63.477,-17.090,0
1486825055.216,5.371,22.949,36.621,70.312,21.973,0
1486825055.220,-14.648,23.438,38.086,70.801,121.094,0
1486825055.224,41.504,24.414,44.922,40.527,58.105,0
1486825055.228,88.379,28.809,42.480,46.387,-37.109,0
1486825055.231,67.383,25.879,32.715,65.430,-11.230,0
1486825055.235,14.160,26.367,36.133,70.801,39.551,0
1486825055.239,-13.184,25.391,35.645,73.242,124.512,0
1486825055.243,42.480,25.879,36.621,50.781,38.086,0
1486825055.247,91.797,27.832,41.992,47.363,-45.898,0
1486825055.251,81.055,28.809,42.969,62.988,-21.484,0
1486825055.255,28.320,29.297,45.898,71.289,26.367,0
1486825055.259,-11.230,31.738,38.574,70.801,133.301,0
1486825055.263,32.715,38.574,36.621,46.875,104.980,0
1486825055.267,72.754,25.391,33.691,29.297,-11.719,0
1486825055.271,61.523,20.996,32.715,44.922,-4.883,0
1486825055.274,17.578,25.879,35.156,56.152,3.418,0
1486825055.278,-27.832,24.414,35.156,69.336,112.793,0
1486825055.282,7.324,25.391,34.180,44.434,123.047,0
1486825055.286,75.684,24.414,43.457,31.250,3.906,0
1486825055.290,67.871,20.508,42.480,53.223,-8.789,0
1486825055.294,27.344,22.461,38.574,63.477,-2.930,0
1486825055.298,-8.301,25.391,46.387,81.543,112.305,0
1486825055.302,15.625,27.832,38.574,58.594,118.652,0
1486825055.306,82.520,29.785,35.645,35.156,-0.488,0
1486825055.310,97.656,28.320,41.992,64.941,-12.207,0
1486825055.313,54.199,25.879,46.875,74.707,26.367,0
1486825055.317,0.977,25.879,47.363,85.449,127.441,0
1486825055.321,8.789,29.785,42.480,70.801,156.250,0
1486825055.325,65.918,32.227,35.156,37.598,18.555,0
1486825055.329,89.844,33.203,42.969,61.523,-27.832,0
1486825055.333,52.246,27.832,56.641,70.801,-15.625,0
1486825055.337,-12.695,23.926,44.434,67.871,60.547,0
1486825055.341,-13.672,25.391,28.809,50.781,124.512,0
1486825055.345,45.898,24.414,35.645,21.484,36.621,0
1486825055.349,70.312,22.461,41.016,41.016,-9.766,0
1486825055.353,42.480,24.414,34.180,54.199,-9.277,0
1486825055.356,-16.113,23.926,33.203,63.477,72.266,0
1486825055.360,-20.508,22.461,39.062,63.477,145.996,0
1486825055.364,63.477,31.250,49.805,42.480,26.855,0
1486825055.368,98.145,25.879,47.852,57.129,-25.879,0
1486825055.372,61.035,22.461,38.574,68.359,20.508,0
1486825055.376,4.395,23.926,39.062,83.984,100.098,0
1486825055.380,-6.836,22.949,39.551,90.332,218.750,0
1486825055.384,48.828,22.949,33.691,39.551,111.816,0
1486825055.388,89.355,21.484,34.180,51.270,-24.902,0
1486825055.392,71.777,20.996,40.039,82.031,6.836,0
1486825055.396,19.043,24.902,46.875,83.496,109.375,0
1486825055.399,-0.488,29.785,49.805,82.031,208.984,0
1486825055.403,48.340,23.926,35.645,40.527,76.660,0
1486825055.407,95.703,22.949,36.133,49.316,-40.039,0
1486825055.411,84.473,26.855,44.434,78.613,5.371,0
1486825055.415,26.367,28.320,41.504,82.520,49.316,0
1486825055.419,-5.859,29.785,48.828,95.215,148.926,0
1486825055.423,42.480,25.391,44.434,54.688,102.051,0
1486825055.427,94.238,21.484,30.762,45.898,-14.648,0
1486825055.431,88.379,23.926,31.738,71.777,0.000,0
1486825055.435,36.133,26.855,36.621,72.266,40.527,0
1486825055.438,-0.977,30.762,41.504,78.613,128.906,0
1486825055.442,34.180,29.297,43.945,48.340,116.699,0
1486825055.446,91.309,25.879,37.109,29.297,-0.977,0
1486825055.450,94.238,32.715,28.809,52.246,-3.906,0
1486825055.454,40.527,32.715,28.809,62.988,47.363,0
1486825055.458,-9.766,26.855,36.621,73.242,156.250,0
1486825055.462,19.043,34.180,42.480,55.176,133.789,0
1486825055.466,72.754,31.738,30.762,37.109,12.695,0
1486825055.470,74.707,21.973,20.996,53.711,21.973,0
1486825055.474,35.645,25.391,31.250,61.523,42.969,0
1486825055.478,-18.066,28.809,37.109,79.102,151.367,0
1486825055.481,5.859,34.668,45.410,59.570,164.551,0
1486825055.485,66.406,31.250,48.828,33.691,20.508,0
1486825055.489,82.520,25.879,36.621,60.547,-20.020,0
1486825055.493,50.781,29.785,31.250,69.336,12.207,0
1486825055.497,-6.836,29.297,37.598,71.289,102.539,0
1486825055.501,-1.953,25.391,36.621,58.594,125.977,0
1486825055.505,64.453,23.926,35.645,43.945,1.465,0
1486825055.509,96.191,25.391,36.133,69.336,-46.875,0
1486825055.513,57.129,27.344,38.086,67.383,-7.812,0
1486825055.517,-7.324,26.855,40.039,76.172,70.801,0
1486825055.520,-10.254,24.414,41.992,74.707,125.488,0
1486825055.524,51.270,22.949,47.363,31.250,40.527,0
1486825055.528,88.379,20.996,42.480,51.758,-31.250,0
1486825055.532,59.082,22.949,37.598,66.895,15.625,0
1486825055.536,-1.465,27.832,35.156,66.895,91.797,0
1486825055.540,-21.484,25.391,34.668,64.453,149.414,0
1486825055.544,35.645,20.996,39.062,27.832,78.125,0
1486825055.548,81.543,21.484,35.156,34.180,1.953,0
1486825055.552,59.570,21.973,37.598,60.059,28.809,0
1486825055.556,-4.883,22.949,46.875,64.941,60.059,0
1486825055.560,-18.066,33.691,48.828,67.383,134.766,0
1486825055.563,48.828,35.156,48.828,40.039,47.852,0
1486825055.567,83.496,20.508,36.621,33.203,-79.590,0
1486825055.571,61.035,20.996,30.273,54.688,-12.207,0
1486825055.575,9.766,26.367,36.133,62.988,57.617,0
1486825055.579,-21.973,27.344,31.250,66.895,135.742,0
1486825055.583,15.625,22.949,30.762,28.809,80.078,0
1486825055.587,73.730,23.438,34.668,23.438,-26.367,0
1486825055.591,71.777,24.902,36.621,55.664,-9.766,0
1486825055.595,10.254,23.926,35.156,62.012,21.973,0
1486825055.599,-21.973,27.344,31.250,63.965,110.840,0
1486825055.603,17.578,26.855,38.086,46.387,106.445,0
1486825055.606,74.707,25.391,46.387,42.969,-16.113,0
1486825055.610,78.613,28.809,43.457,55.664,-32.227,0
1486825055.614,25.391,26.367,32.715,59.570,-3.906,0
1486825055.618,-10.742,23.438,36.133,74.707,116.699,0
1486825055.622,14.160,22.461,41.016,55.664,148.926,0
1486825055.626,78.125,25.879,37.109,43.457,-13.672,0
1486825055.630,94.238,26.367,46.387,66.406,-59.570,0
1486825055.634,39.551,21.973,45.898,67.383,21.973,0
1486825055.638,2.441,37.598,49.316,89.355,116.211,0
1486825055.642,15.137,34.668,47.852,72.754,126.465,0
1486825055.645,60.547,18.555,38.086,37.598,38.574,0
1486825055.649,82.520,24.414,42.480,54.199,-27.832,0
1486825055.653,39.551,29.785,36.621,57.617,-48.828,0
1486825055.657,-16.113,32.227,35.645,73.242,73.242,0
1486825055.661,-8.301,25.879,33.691,59.570,104.004,0
1486825055.665,57.129,23.438,30.273,34.180,-19.043,0
1486825055.669,87.402,28.320,36.621,61.523,-29.297,0
1486825055.673,57.617,32.227,46.875,72.754,12.695,0
1486825055.677,4.883,34.180,50.781,79.102,60.059,0
1486825055.681,-0.977,30.273,44.434,72.754,102.539,0
1486825055.685,58.105,27.344,36.133,41.504,30.762,0
1486825055.688,93.262,27.344,41.016,56.152,-19.043,0
1486825055.692,64.941,37.598,51.270,78.613,-2.441,0
1486825055.696,8.301,41.504,47.363,87.891,34.180,0
1486825055.700,-11.230,22.949,29.785,64.941,131.836,0
1486825055.704,51.758,22.461,32.715,32.227,67.871,0
1486825055.708,90.332,26.855,37.109,45.898,-50.781,0
1486825055.712,66.895,29.297,35.645,60.547,-38.086,0
1486825055.716,8.789,31.738,43.457,71.289,47.363,0
1486825055.720,-11.719,30.273,48.828,69.824,155.762,0
1486825055.724,40.039,27.344,37.598,32.715,64.941,0
1486825055.728,81.055,29.785,36.621,43.945,-24.902,0
1486825055.731,73.730,30.762,45.410,68.359,10.254,0
1486825055.735,13.184,29.785,41.504,73.242,40.039,0
1486825055.739,-20.020,27.832,32.227,75.684,138.672,0
1486825055.743,30.273,23.926,26.855,41.992,103.027,0
1486825055.747,84.961,25.879,30.273,42.969,-14.648,0
1486825055.751,74.219,28.809,34.668,64.941,2.930,0
1486825055.755,24.414,32.715,36.621,71.289,46.875,0
1486825055.759,-12.207,31.738,39.551,84.473,141.113,0
1486825055.763,24.902,31.738,38.086,53.223,139.160,0
1486825055.767,86.426,30.762,36.621,45.410,5.371,0
1486825055.770,79.102,31.250,35.645,67.383,-39.551,0
1486825055.774,30.762,39.062,39.551,74.707,7.812,0
1486825055.778,-6.348,34.180,49.805,85.938,125.977,0
1486825055.782,23.438,26.367,50.781,62.012,126.953,0
1486825055.786,96.191,33.203,46.387,52.734,-21.484,0
1486825055.790,97.168,28.320,37.109,67.871,-53.223,0
1486825055.794,43.457,24.902,33.691,74.219,11.230,0
1486825055.798,-2.930,25.879,39.062,81.543,124.512,0
1486825055.802,12.207,26.367,36.621,60.059,155.762,0
1486825055.806,72.266,28.320,36.133,45.898,15.625,0
1486825055.810,89.355,27.344,36.133,63.477,-24.414,0
1486825055.813,45.898,28.320,38.574,71.777,2.441,1
1486825055.817,-8.789,29.297,41.016,79.590,99.121,0
1486825055.821,1.953,31.250,40.039,63.477,174.805,0
1486825055.825,60.059,26.367,34.668,36.621,41.504,0
1486825055.829,84.961,27.344,31.738,62.012,-11.719,0
1486825055.833,51.758,30.762,39.551,65.918,19.531,0
1486825055.837,-7.812,24.414,44.434,60.059,86.426,0
1486825055.841,-12.207,20.508,34.668,52.734,137.695,0
1486825055.845,54.688,25.879,30.762,26.367,28.809,0
1486825055.849,95.703,35.645,46.387,59.570,-25.879,0
1486825055.852,58.594,25.391,39.062,65.918,-33.203,0
1486825055.856,-9.766,23.926,35.156,57.617,29.785,0
1486825055.860,-11.719,29.785,40.039,67.383,147.949,0
1486825055.864,58.105,27.344,33.203,39.551,28.320,0
1486825055.868,100.586,28.320,33.691,49.805,-40.039,0
1486825055.872,68.848,32.227,41.992,72.754,20.020,0
1486825055.876,3.418,30.762,44.922,76.172,38.574,0
1486825055.880,-11.230,25.879,34.668,68.359,127.930,0
1486825055.884,43.457,24.414,30.762,32.715,75.195,0
1486825055.888,90.332,26.855,43.457,47.363,-22.461,0
1486825055.892,76.660,26.855,46.875,63.477,-13.184,0
1486825055.895,13.672,27.344,37.109,61.523,52.246,0
1486825055.899,-14.160,28.809,41.504,70.312,121.094,0
1486825055.903,34.180,24.902,35.645,36.621,19.043,0
1486825055.907,83.496,23.926,33.203,38.574,-38.574,0
1486825055.911,75.195,25.391,36.621,63.477,-14.160,0
1486825055.915,16.113,23.438,40.039,60.547,-3.906,0
1486825055.919,-24.414,24.414,39.062,72.754,90.820,0
1486825055.923,25.879,28.809,42.969,56.641,78.613,0
1486825055.927,92.285,31.738,51.758,54.688,-41.992,0
1486825055.931,72.754,23.926,39.551,66.406,-5.371,0
1486825055.935,16.602,20.020,35.156,60.059,52.734,0
1486825055.938,-18.066,25.391,37.109,73.730,141.113,0
1486825055.942,14.160,24.902,40.527,52.246,105.957,0
1486825055.946,74.219,23.926,34.668,35.156,-16.602,0
1486825055.950,79.590,26.855,33.203,57.617,-19.043,0
1486825055.954,20.020,26.855,40.039,50.781,5.371,0
1486825055.958,-28.320,29.297,40.527,64.453,139.648,0
1486825055.962,7.812,28.320,41.504,55.664,143.066,0
1486825055.966,65.430,25.391,30.273,27.344,-27.344,0
1486825055.970,83.496,30.273,27.344,51.758,-43.945,0
1486825055.974,43.945,34.668,37.598,58.594,1.465,0
1486825055.977,-17.578,33.203,36.621,61.523,97.656,0
1486825055.981,-0.977,27.832,31.250,52.734,124.023,0
1486825055.985,57.617,23.438,32.715,33.203,12.695,0
1486825055.989,77.637,26.855,37.598,62.012,3.906,0
1486825055.993,49.316,31.250,42.969,65.430,18.066,0
1486825055.997,-6.348,30.273,50.781,76.660,71.289,0
1486825056.001,-3.906,29.785,35.645,73.730,150.879,0
1486825056.005,69.336,41.016,35.645,49.316,49.805,0
1486825056.009,90.820,33.691,41.504,65.430,-22.461,0
1486825056.013,50.781,17.578,24.902,53.223,11.230,0
1486825056.017,0.488,22.461,28.809,65.430,52.734,0
1486825056.020,-12.207,23.926,40.039,77.637,145.996,0
1486825056.024,56.152,25.391,42.480,42.969,61.523,0
1486825056.028,90.820,27.832,37.598,64.453,-32.227,0
1486825056.032,59.570,31.738,38.086,76.660,36.133,0
1486825056.036,11.230,33.691,45.410,87.402,98.633,0
1486825056.040,-2.441,27.344,39.551,91.309,142.090,0
1486825056.044,46.387,23.438,36.621,42.480,46.875,0
1486825056.048,91.309,27.344,38.574,62.012,-21.484,0
1486825056.052,75.684,30.273,40.039,79.102,15.137,0
1486825056.056,19.043,29.785,47.363,78.613,55.664,0
1486825056.060,-7.324,27.832,52.734,93.262,143.066,0
1486825056.063,40.527,28.809,42.480,55.176,108.398,0
1486825056.067,85.938,29.297,32.227,55.176,24.414,0
1486825056.071,73.730,28.809,33.203,70.312,16.113,0
1486825056.075,20.020,36.133,40.527,68.359,54.199,0
1486825056.079,-20.020,37.109,42.969,79.102,149.414,0
1486825056.083,24.902,29.785,36.133,43.945,90.820,0
1486825056.087,83.008,22.949,31.250,36.621,-26.367,0
1486825056.091,87.402,37.598,44.434,66.406,0.488,0
1486825056.095,39.062,39.551,55.176,71.289,50.293,0
1486825056.099,-18.066,21.484,36.621,73.242,115.723,0
1486825056.102,12.695,21.484,28.320,47.363,104.492,0
1486825056.106,76.660,21.484,29.297,39.062,0.977,0
1486825056.110,84.961,28.320,34.180,58.105,-18.555,0
1486825056.114,26.367,32.227,38.574,51.758,1.465,0
1486825056.118,-23.438,30.762,43.457,67.383,105.957,0
1486825056.122,10.742,28.809,41.016,48.340,128.418,0
1486825056.126,72.754,27.832,33.691,30.762,13.672,0
1486825056.130,85.938,26.367,39.062,56.152,19.043,0
1486825056.134,43.945,23.926,40.527,58.105,29.785,0
1486825056.138,-12.695,23.438,35.645,71.289,120.605,0
1486825056.142,-1.465,24.414,32.227,55.176,134.766,0
1486825056.145,63.965,27.344,35.645,39.062,-0.488,0
1486825056.149,84.961,28.809,40.527,66.406,-2.930,0
1486825056.153,41.992,28.320,38.574,71.777,35.156,0
1486825056.157,-9.766,29.785,37.598,83.008,89.355,0
1486825056.161,-1.953,29.297,39.551,64.941,134.766,0
1486825056.165,51.270,26.855,50.293,29.297,22.949,0
1486825056.169,81.055,30.762,50.293,51.758,-5.371,0
1486825056.173,56.641,39.062,41.992,62.012,32.227,0
1486825056.177,-9.766,28.320,32.715,64.453,98.145,0
1486825056.181,-22.949,18.555,25.391,54.199,167.969,0
1486825056.184,50.781,24.902,31.250,25.879,46.387,0
1486825056.188,87.891,26.855,36.621,57.617,-17.090,0
1486825056.192,51.270,22.461,39.551,73.242,27.832,0
1486825056.196,-7.324,23.438,39.062,64.453,62.988,0
1486825056.200,-19.531,23.926,41.504,70.801,105.469,0
1486825056.204,43.945,24.414,45.898,41.992,1.465,0
1486825056.208,88.867,27.832,42.480,48.828,-43.457,0
1486825056.212,68.848,29.785,43.457,69.336,-18.555,0
1486825056.216,10.254,31.250,47.363,77.637,2.441,0
1486825056.220,-18.555,27.344,40.527,80.078,133.301,0
1486825056.224,34.668,22.949,32.715,39.062,39.062,0
1486825056.227,84.473,22.949,32.715,44.434,-59.082,0
1486825056.231,69.824,22.461,40.527,71.289,-7.812,0
1486825056.235,10.742,22.461,40.527,73.730,64.941,0
1486825056.239,-19.531,20.508,38.086,77.637,146.484,0
1486825056.243,25.391,18.066,41.016,40.039,89.355,0
1486825056.247,79.102,23.438,37.598,42.480,-23.926,0
1486825056.251,74.219,24.414,39.551,68.359,-35.156,0
1486825056.255,33.203,34.180,57.617,78.613,-9.766,0
1486825056.259,-6.348,31.738,51.758,86.426,122.559,0
1486825056.263,9.277,17.578,33.203,38.086,110.352,0
1486825056.267,68.848,20.508,31.250,27.832,-57.129,0
1486825056.270,75.195,20.508,33.691,61.035,-50.293,0
1486825056.274,22.461,22.949,35.645,63.477,-0.977,0
1486825056.278,-20.996,23.926,41.016,72.266,91.309,0
1486825056.282,9.766,20.508,39.062,55.664,110.352,0
1486825056.286,70.801,24.902,29.785,37.109,-12.207,0
1486825056.290,79.590,27.344,34.668,61.035,-29.297,0
1486825056.294,33.691,26.367,41.504,67.383,-0.977,0
1486825056.298,-17.090,24.414,40.527,71.289,79.590,0
1486825056.302,3.418,21.973,34.180,54.199,121.582,0
1486825056.306,69.824,23.438,33.203,35.645,37.598,0
1486825056.309,94.238,26.367,40.527,61.035,6.836,0
1486825056.313,53.711,24.902,38.086,70.801,8.789,0
1486825056.317,-3.418,24.414,38.086,84.473,110.840,2
1486825056.321,7.812,24.902,36.133,65.918,167.969,0
1486825056.325,69.824,25.879,29.297,33.691,54.199,0
1486825056.329,97.656,28.320,35.645,61.035,20.996,0
1486825056.333,54.199,24.902,36.133,67.871,31.738,0
1486825056.337,-9.766,26.855,33.691,71.289,81.543,0
1486825056.341,1.953,32.227,35.645,69.824,121.582,0
1486825056.345,67.383,26.367,41.504,42.480,-6.836,0
1486825056.349,104.980,30.762,48.340,68.848,-29.297,0
1486825056.352,63.965,26.367,37.598,71.289,-10.742,0
1486825056.356,-0.488,21.484,34.668,71.289,49.805,0
1486825056.360,-10.742,25.879,41.504,77.148,142.578,0
1486825056.364,46.875,25.391,34.180,36.133,30.762,0
1486825056.368,95.215,25.391,34.180,48.340,-35.645,0
1486825056.372,73.730,25.879,40.527,72.754,6.836,0
1486825056.376,17.090,32.227,41.504,81.055,51.270,0
1486825056.380,-6.836,33.203,41.992,83.496,126.465,0
1486825056.384,34.668,27.344,45.898,43.457,53.223,0
1486825056.388,80.078,26.855,43.457,47.852,-41.504,0
1486825056.392,70.312,31.250,46.875,73.730,-18.555,0
1486825056.395,13.184,27.832,46.875,70.801,-16.113,0
1486825056.399,-17.090,26.367,37.109,79.102,93.262,0
1486825056.403,34.180,30.762,38.086,47.363,46.875,0
1486825056.407,90.820,28.809,41.992,41.992,-81.055,0
1486825056.411,81.543,33.203,38.574,69.824,-20.508,0
1486825056.415,20.020,34.668,35.645,72.266,57.617,0
1486825056.419,-21.973,24.414,38.574,78.613,163.086,0
1486825056.423,27.832,33.203,50.293,63.477,100.586,0
1486825056.427,90.332,40.527,56.641,53.711,-37.598,0
1486825056.431,77.148,24.414,31.250,54.199,-15.137,0
1486825056.434,22.949,26.367,27.344,52.734,16.602,0
1486825056.438,-19.531,29.785,38.086,73.730,116.699,0
1486825056.442,8.301,27.344,35.645,50.293,155.762,0
1486825056.446,69.336,26.367,35.156,25.879,18.555,0
1486825056.450,77.637,24.414,32.227,57.617,-15.137,0
1486825056.454,28.809,27.832,36.133,60.547,6.836,0
1486825056.458,-20.508,29.785,41.504,73.242,90.820,0
1486825056.462,-1.465,26.855,40.527,60.547,111.328,0
1486825056.466,64.941,28.320,39.551,29.785,-22.949,0
1486825056.470,78.125,27.344,36.133,53.223,-41.504,0
1486825056.474,33.203,25.879,34.180,59.570,9.277,0
1486825056.477,-18.066,26.855,37.598,65.918,83.008,0
1486825056.481,-8.789,24.902,41.504,57.617,125.977,0
1486825056.485,55.664,23.438,40.527,33.203,-0.488,0
1486825056.489,83.984,28.320,40.039,61.035,-64.941,0
1486825056.493,45.410,33.691,41.016,69.824,-57.129,0
1486825056.497,-9.766,30.273,41.992,79.102,57.129,0
1486825056.501,-8.789,24.414,46.875,72.266,144.043,0
1486825056.505,50.781,24.902,39.551,27.344,10.254,0
1486825056.509,85.449,29.297,28.320,46.387,-5.371,0
1486825056.513,52.734,30.273,35.645,61.035,-8.789,0
1486825056.516,-5.371,30.273,38.574,71.777,2.930,0
1486825056.520,-11.230,29.297,36.621,74.707,136.719,0
1486825056.524,43.457,27.832,32.715,28.809,42.480,0
1486825056.528,76.660,24.902,26.855,45.410,-43.457,0
1486825056.532,68.359,40.039,48.828,80.078,1.953,0
1486825056.536,8.301,37.598,57.129,78.125,26.367,0
1486825056.540,-33.691,16.602,28.320,63.477,97.656,0
1486825056.544,26.855,17.578,26.367,23.438,26.855,0
1486825056.548,75.684,19.531,29.785,39.062,-74.707,0
1486825056.552,60.059,26.367,41.992,72.266,-70.312,0
1486825056.556,12.207,27.832,44.922,73.242,-5.859,0
1486825056.559,-3.906,30.762,36.621,81.055,104.492,0
1486825056.563,41.504,28.320,32.227,41.016,45.898,0
1486825056.567,87.402,22.461,34.668,39.062,-57.617,0
1486825056.571,77.637,25.879,39.551,74.219,12.207,0
1486825056.575,20.996,26.367,39.062,69.824,70.801,0
1486825056.579,-11.719,21.484,37.109,67.871,112.793,0
1486825056.583,25.879,23.438,32.715,44.434,116.211,0
1486825056.587,86.426,27.344,40.527,36.621,12.695,0
1486825056.591,84.473,28.809,41.992,62.012,-3.418,0
1486825056.595,30.762,29.297,32.715,61.523,28.320,0
1486825056.599,-6.836,31.250,33.203,78.125,123.535,0
1486825056.602,14.648,30.762,40.527,53.711,86.914,0
1486825056.606,68.848,28.320,34.668,27.344,-39.551,0
1486825056.610,83.984,26.367,29.785,54.688,-23.438,0
1486825056.614,47.852,33.203,46.387,72.754,-21.484,0
1486825056.618,1.465,41.504,57.129,90.820,49.316,0
1486825056.622,2.441,24.414,34.668,55.176,82.031,0
1486825056.626,62.988,20.508,30.762,22.461,-7.324,0
1486825056.630,85.449,27.344,37.598,51.758,-26.367,0
1486825056.634,41.992,28.809,35.645,63.965,24.414,0
1486825056.638,-9.766,33.691,41.504,74.219,107.422,0
1486825056.641,-6.836,31.250,39.551,58.594,152.344,0
1486825056.645,54.199,31.250,32.715,31.738,47.363,0
1486825056.649,84.961,33.203,34.668,59.570,-6.348,0
1486825056.653,51.270,30.762,40.039,68.359,14.648,0
1486825056.657,-4.883,31.738,43.945,76.172,60.547,0
1486825056.661,-3.906,29.297,42.969,68.359,108.887,0
1486825056.665,57.617,27.344,41.992,31.250,27.832,0
1486825056.669,90.332,30.273,43.945,48.828,-27.344,0
1486825056.673,53.223,30.273,44.922,62.012,8.301,0
1486825056.677,-5.371,27.832,43.945,65.918,75.195,0
1486825056.681,-3.906,32.715,43.945,63.965,160.645,0
1486825056.684,51.270,39.062,48.340,35.156,47.363,0
1486825056.688,73.242,25.879,34.180,35.156,-43.457,0
1486825056.692,52.734,21.973,27.344,53.711,-6.348,0
1486825056.696,1.465,25.391,35.645,66.895,30.762,0
1486825056.700,-15.625,24.902,45.898,65.430,101.074,0
1486825056.704,41.504,23.438,41.504,32.227,46.387,0
1486825056.708,83.984,26.855,35.156,41.504,-53.223,0
1486825056.712,54.688,28.809,38.086,61.035,-26.855,0
1486825056.716,-4.395,26.855,44.922,64.941,24.902,0
1486825056.720,-29.297,25.879,46.387,64.453,105.469,0
1486825056.724,17.578,24.414,30.273,31.738,106.445,0
1486825056.727,71.289,28.320,27.344,28.809,-31.250,0
1486825056.731,70.801,37.598,43.457,59.570,-61.035,0
1486825056.735,20.996,41.992,46.875,78.613,38.574,0
1486825056.739,-27.832,25.391,29.785,67.383,126.953,0
1486825056.743,17.578,21.484,29.785,38.574,50.293,0
1486825056.747,76.172,24.414,36.133,30.273,-60.547,0
1486825056.751,73.242,23.926,38.086,57.129,-15.137,0
1486825056.755,19.043,25.879,39.062,64.941,9.766,0
1486825056.759,-24.414,26.367,42.969,67.383,102.051,0
1486825056.763,21.973,27.344,45.898,59.082,117.676,0
1486825056.766,83.496,27.832,42.480,47.363,-18.555,0
1486825056.770,86.426,28.809,40.527,69.336,-5.371,0
1486825056.774,39.551,33.691,42.480,79.102,41.504,0
1486825056.778,-11.230,33.691,40.039,76.172,117.676,0
1486825056.782,10.254,26.367,38.086,59.570,142.090,0
1486825056.786,80.078,27.344,38.574,49.316,20.020,0
1486825056.790,97.168,26.367,32.715,57.617,1.953,0
1486825056.794,58.594,34.668,49.316,75.684,32.227,0
1486825056.798,9.766,35.645,52.734,87.402,92.773,0
1486825056.802,13.672,17.578,33.691,54.688,144.531,0
1486825056.806,83.496,26.367,42.480,36.133,34.180,0
1486825056.809,107.422,31.250,43.945,66.406,-23.926,0
1486825056.813,63.965,28.809,42.969,75.684,-12.207,0
1486825056.817,4.883,28.320,43.457,74.219,63.965,0
1486825056.821,10.742,30.273,32.715,64.453,139.160,0
1486825056.825,62.500,29.785,33.691,42.480,47.852,0
1486825056.829,83.984,27.832,33.203,57.617,-19.531,0
1486825056.833,50.293,26.855,31.250,67.871,14.648,0
1486825056.837,-5.371,27.344,37.109,77.148,73.730,0
1486825056.841,-9.766,25.879,36.133,70.801,133.789,0
1486825056.845,47.852,25.391,32.715,37.109,8.789,0
1486825056.848,88.379,23.438,35.156,47.363,-57.617,0
1486825056.852,65.918,35.156,51.758,67.871,12.207,0
1486825056.856,5.371,38.086,59.570,67.383,56.641,0
1486825056.860,-17.578,20.020,37.109,53.711,113.281,0
1486825056.864,39.551,20.996,30.273,27.344,13.672,0
1486825056.868,83.496,23.438,30.762,49.805,-33.691,0
1486825056.872,61.523,24.414,28.320,66.895,-5.859,0
1486825056.876,4.395,25.391,36.621,66.895,32.715,0
1486825056.880,-18.555,26.855,40.039,79.102,139.160,0
1486825056.884,29.785,26.855,32.227,37.598,68.848,0
1486825056.888,79.102,25.879,30.273,42.969,-24.414,0
1486825056.891,67.383,29.297,33.691,67.871,-6.348,0
1486825056.895,13.184,30.762,36.621,67.383,24.414,0
1486825056.899,-19.043,25.879,46.387,74.707,131.836,0
1486825056.903,22.461,21.973,45.410,42.969,103.027,0
1486825056.907,75.684,23.438,30.273,30.762,-11.230,0
1486825056.911,73.242,25.879,30.273,52.734,-32.715,0
1486825056.915,27.832,27.344,35.156,62.012,0.977,0
1486825056.919,-18.555,22.949,40.527,71.289,119.141,0
1486825056.923,8.301,20.508,34.668,49.316,97.168,0
1486825056.927,69.824,25.879,28.320,37.598,-33.203,0
1486825056.931,71.289,24.414,33.203,61.035,-30.273,0
1486825056.934,20.508,19.531,35.645,62.012,23.438,0
1486825056.938,-10.254,30.762,49.805,79.590,122.070,0
1486825056.942,14.160,24.414,44.434,54.688,147.949,0
1486825056.946,58.594,16.113,24.414,23.438,17.090,0
1486825056.950,67.383,22.949,24.414,50.781,-0.488,0
1486825056.954,33.203,27.344,31.250,57.129,47.852,0
1486825056.958,-4.883,33.203,38.574,73.730,83.008,0
1486825056.962,8.789,29.297,37.109,58.105,84.473,1
1486825056.966,69.824,26.367,33.203,34.668,-21.484,0
1486825056.970,93.262,28.809,31.250,62.012,-23.438,0
1486825056.973,54.199,27.344,29.297,58.105,-13.672,0
1486825056.977,-2.930,30.762,32.227,69.824,59.082,0
1486825056.981,3.906,29.785,42.969,72.754,129.883,0
1486825056.985,67.871,23.926,39.062,39.551,26.855,0
1486825056.989,91.797,27.344,35.645,62.012,-10.254,0
1486825056.993,52.246,30.762,41.992,67.383,1.465,0
1486825056.997,1.465,34.180,45.898,72.754,64.941,0
1486825057.001,-0.488,27.832,36.133,69.336,120.605,0
1486825057.005,62.500,27.344,26.855,32.715,23.438,0
1486825057.009,94.727,27.832,30.762,50.293,-34.668,0
1486825057.013,71.777,33.203,42.480,69.336,-18.066,0
1486825057.016,25.391,38.574,48.340,84.473,35.156,0
1486825057.020,-4.395,26.855,31.250,77.148,143.555,0
1486825057.024,47.363,25.391,38.574,43.945,62.500,0
1486825057.028,92.285,25.879,41.992,56.641,-42.969,0
1486825057.032,76.660,26.855,35.156,69.824,-25.879,0
1486825057.036,19.043,28.809,36.133,77.637,24.902,0
1486825057.040,-9.766,28.320,41.992,83.008,124.023,0
1486825057.044,41.992,27.344,43.457,43.457,69.336,0
1486825057.048,96.680,29.785,35.645,48.828,-28.809,0
1486825057.052,81.055,30.273,29.785,71.777,-5.859,0
1486825057.056,25.879,31.250,34.180,79.102,22.949,0
1486825057.059,4.883,30.273,46.387,93.750,161.133,0
1486825057.063,43.945,28.320,46.387,54.688,139.648,0
1486825057.067,83.008,29.297,33.691,38.574,-25.879,0
1486825057.071,79.102,31.250,33.203,65.918,5.859,0
1486825057.075,25.391,29.785,43.945,66.406,79.102,0
1486825057.079,-20.020,27.832,41.504,81.055,156.250,0
1486825057.083,21.484,28.320,40.039,58.594,127.930,0
1486825057.087,83.496,27.832,39.551,34.668,14.160,0
1486825057.091,80.078,30.762,38.086,60.059,-6.836,0
1486825057.095,20.508,31.250,38.574,60.059,4.395,0
1486825057.098,-21.973,29.297,35.156,75.195,124.512,0
1486825057.102,7.812,26.855,33.203,52.734,165.039,0
1486825057.106,80.078,34.668,45.898,41.504,42.480,0
1486825057.110,101.074,37.598,48.340,75.684,36.133,0
1486825057.114,37.109,22.461,26.855,57.129,55.664,0
1486825057.118,-15.625,24.414,31.738,69.824,121.582,0
1486825057.122,6.348,26.367,43.945,61.035,168.945,0
1486825057.126,60.547,23.926,35.645,33.203,27.344,0
1486825057.130,80.078,26.367,30.273,58.105,-9.766,0
1486825057.134,44.922,30.273,37.109,61.523,41.016,0
1486825057.138,-13.672,30.273,33.203,67.871,122.559,0
1486825057.141,-4.883,26.367,29.297,54.688,148.926,0
1486825057.145,58.594,28.320,33.203,36.621,35.645,0
1486825057.149,80.566,29.297,41.504,64.941,19.531,0
1486825057.153,46.387,26.855,41.504,63.477,28.320,0
1486825057.157,-5.371,25.879,40.527,76.172,109.375,0
1486825057.161,-7.324,23.926,46.387,72.754,171.387,0
1486825057.165,45.898,18.066,40.039,29.785,48.340,0
1486825057.169,78.125,16.602,34.180,49.805,39.062,0
1486825057.173,55.664,25.879,40.527,61.035,70.312,0
1486825057.177,3.906,28.320,41.504,68.848,106.934,0
1486825057.180,0.000,25.391,30.273,72.266,186.523,0
1486825057.184,62.012,28.809,31.250,33.691,77.148,0
1486825057.188,100.098,28.320,42.480,54.199,-14.648,0
1486825057.192,80.566,26.855,39.551,71.289,-12.695,0
1486825057.196,23.438,30.273,38.086,75.684,47.852,0
1486825057.200,-1.465,30.273,43.945,84.473,159.180,0
1486825057.204,54.199,26.367,40.527,43.945,70.312,0
1486825057.208,100.098,25.879,44.922,50.781,-43.945,0
1486825057.212,83.496,24.902,46.387,74.707,-5.859,0
1486825057.216,22.461,23.438,37.109,79.102,77.637,0
1486825057.220,-7.324,22.949,36.133,85.938,147.949,0
1486825057.223,33.691,23.926,31.250,46.387,73.730,0
1486825057.227,84.473,27.832,28.809,45.410,-38.574,0
1486825057.231,85.938,33.203,39.062,73.242,-24.902,0
1486825057.235,23.926,24.414,40.527,64.941,28.320,0
1486825057.239,-15.625,17.578,39.551,62.500,103.027,0
1486825057.243,20.508,20.020,31.738,39.062,93.750,0
1486825057.247,71.289,20.996,32.715,33.691,-18.066,0
1486825057.251,75.195,22.949,35.645,53.711,-18.066,0
1486825057.255,26.367,24.902,28.320,57.617,25.879,0
1486825057.259,-20.996,26.367,29.297,74.707,129.395,0
1486825057.263,9.277,25.879,32.715,51.758,102.539,0
1486825057.266,69.336,28.320,33.691,34.180,-43.457,0
1486825057.270,73.730,26.855,35.645,53.223,-17.090,0
1486825057.274,33.691,27.344,32.227,55.176,45.898,0
1486825057.278,-12.207,33.203,37.598,67.383,85.938,0
1486825057.282,-1.953,27.832,40.039,51.758,125.000,0
1486825057.286,59.082,28.320,32.715,36.133,33.691,0
1486825057.290,83.496,33.203,40.039,57.617,-26.855,0
1486825057.294,39.551,30.273,42.480,62.500,4.883,0
1486825057.298,-8.789,30.762,33.691,69.824,105.957,0
1486825057.302,5.371,26.855,32.715,63.477,139.648,0
1486825057.305,68.359,21.484,32.227,43.945,37.109,0
1486825057.309,93.750,23.926,35.156,57.617,4.883,0
1486825057.313,58.594,25.879,32.715,64.941,8.789,0
1486825057.317,6.348,31.250,36.621,88.379,70.801,0
1486825057.321,10.254,37.598,48.340,88.867,115.234,0
1486825057.325,57.617,26.855,34.180,44.434,11.230,0
1486825057.329,93.750,22.949,34.668,60.547,-12.695,0
1486825057.333,71.289,28.809,47.363,75.684,24.414,0
1486825057.337,0.488,29.785,37.598,78.613,86.426,0
1486825057.341,-14.160,25.391,36.133,71.777,164.551,0
1486825057.345,40.527,22.949,37.598,37.598,71.289,0
1486825057.348,83.984,22.461,32.715,42.969,-20.020,0
1486825057.352,65.430,23.438,30.762,62.012,-16.602,0
1486825057.356,9.766,26.855,40.527,83.008,39.551,0
1486825057.360,-10.254,28.320,42.969,78.613,138.184,0
1486825057.364,37.598,26.855,28.809,38.574,81.055,0
1486825057.368,83.496,22.949,31.738,43.945,31.738,0
1486825057.372,69.336,27.832,44.434,67.383,38.574,0
1486825057.376,9.277,32.227,39.062,71.289,36.133,0
1486825057.380,-14.648,29.785,40.039,76.660,109.863,0
1486825057.384,26.855,22.949,39.062,39.062,74.219,0
1486825057.388,83.496,31.250,36.133,42.480,-28.809,0
1486825057.391,86.914,42.480,41.504,78.125,-23.438,0
1486825057.395,12.207,29.297,30.762,65.918,14.648,0
1486825057.399,-18.066,26.367,30.273,73.730,82.520,0
1486825057.403,23.926,26.855,34.180,51.758,73.730,0
1486825057.407,82.520,29.297,38.574,41.016,-19.531,0
1486825057.411,83.496,29.785,36.133,63.965,11.230,0
1486825057.415,23.438,25.879,38.574,68.359,23.926,0
1486825057.419,-20.020,22.949,44.922,76.172,85.449,0
1486825057.423,12.207,24.414,39.551,48.340,112.793,0
1486825057.427,70.801,26.367,35.645,26.367,-24.414,0
1486825057.430,75.195,26.855,32.715,56.152,-18.066,0
1486825057.434,26.855,32.715,32.227,70.801,39.551,0
1486825057.438,-17.090,29.785,37.109,74.707,116.699,0
1486825057.442,4.395,20.996,35.645,53.711,125.000,0
1486825057.446,64.453,23.438,29.785,29.297,0.977,0
1486825057.450,81.055,25.879,33.203,55.176,-9.766,0
1486825057.454,38.086,25.879,39.062,63.477,23.926,0
1486825057.458,-15.137,27.344,34.668,64.453,94.238,0
1486825057.462,-6.836,24.414,36.133,62.012,126.953,0
1486825057.466,58.594,23.926,33.203,31.250,28.320,0
1486825057.470,83.984,26.855,30.762,38.574,-18.555,0
1486825057.473,47.852,26.367,38.086,57.129,13.672,0
1486825057.477,-10.254,25.391,40.527,65.430,99.121,0
1486825057.481,-2.930,25.879,38.574,58.594,155.762,0
1486825057.485,72.266,26.855,41.504,34.668,52.246,0
1486825057.489,95.703,24.414,38.574,45.410,-39.551,0
1486825057.493,62.988,25.391,32.227,62.988,0.977,0
1486825057.497,10.254,30.273,37.598,78.125,104.492,0
1486825057.501,-10.254,29.297,37.598,70.312,136.719,0
1486825057.505,59.570,36.133,47.852,46.387,12.207,0
1486825057.509,98.633,34.180,50.293,65.430,-28.320,0
1486825057.512,48.340,24.902,33.203,62.988,5.859,0
1486825057.516,-8.301,26.367,33.691,72.266,47.852,0
1486825057.520,-27.344,25.879,35.645,76.660,133.789,0
1486825057.524,32.227,25.879,39.062,36.621,43.945,0
1486825057.528,83.008,23.926,49.316,50.293,-54.688,0
1486825057.532,67.871,27.832,45.898,67.383,-29.297,0
1486825057.536,19.043,28.809,43.945,70.801,45.410,0
1486825057.540,-15.625,25.879,44.922,75.195,168.457,0
1486825057.544,32.227,25.879,34.668,35.645,78.613,0
1486825057.548,88.867,29.297,35.156,38.574,-62.988,0
1486825057.552,70.312,29.785,41.016,60.059,-41.504,0
1486825057.555,8.301,29.297,34.180,61.523,41.992,0
1486825057.559,-18.555,31.250,39.062,73.730,150.391,0
1486825057.563,26.367,26.855,41.504,38.086,96.191,0
1486825057.567,81.055,28.809,37.598,29.785,-17.090,1
1486825057.571,79.590,29.785,37.598,61.035,-20.020,0
1486825057.575,23.926,26.367,36.621,62.500,15.625,0
1486825057.579,-12.207,28.320,46.875,71.777,167.969,0
1486825057.583,24.414,26.855,44.434,43.945,131.836,0
1486825057.587,86.426,27.344,34.668,35.645,6.836,0
1486825057.591,89.355,28.809,36.133,62.500,16.602,0
1486825057.595,36.621,28.320,41.016,59.082,16.113,0
1486825057.598,-5.371,30.273,42.969,68.848,128.418,0
1486825057.602,11.719,25.391,29.785,56.641,181.641,0
1486825057.606,82.520,33.691,37.598,51.270,59.082,0
1486825057.610,93.750,34.180,39.551,64.453,4.883,0
1486825057.614,32.715,19.531,28.320,53.223,13.672,0
1486825057.618,-10.254,22.461,36.133,71.777,90.820,0
1486825057.622,6.348,24.902,34.668,66.895,161.133,0
1486825057.626,69.336,25.879,32.227,41.504,23.926,0
1486825057.630,92.773,28.320,35.156,57.129,-52.246,0
1486825057.634,49.805,30.273,46.387,64.941,-11.719,0
1486825057.637,-6.836,29.297,44.922,69.824,89.355,0
1486825057.641,2.441,30.762,32.227,60.547,137.695,0
1486825057.645,63.477,24.902,35.156,33.203,-4.395,0
1486825057.649,89.844,19.531,34.668,43.945,-65.430,0
1486825057.653,62.500,25.391,39.551,56.641,-10.254,0
1486825057.657,-4.395,25.879,45.898,60.059,57.129,0
1486825057.661,-10.254,22.949,39.062,54.688,102.539,0
1486825057.665,60.547,25.879,34.668,31.738,20.020,0
1486825057.669,92.773,24.902,36.133,47.852,-65.918,0
1486825057.673,64.453,25.391,40.039,66.406,-60.547,0
1486825057.677,6.836,28.809,45.898,75.195,67.383,0
1486825057.680,-9.766,28.320,42.969,71.289,164.062,0
1486825057.684,48.340,26.367,38.086,38.086,58.105,0
1486825057.688,89.844,22.461,35.156,50.293,13.672,0
1486825057.692,66.895,21.484,30.762,67.871,14.648,0
1486825057.696,19.043,25.879,34.668,76.660,40.527,0
1486825057.700,-7.812,23.926,37.598,83.008,125.000,0
1486825057.704,49.316,36.133,48.340,58.105,51.758,0
1486825057.708,100.586,37.109,46.875,58.594,-37.598,0
1486825057.712,70.312,20.508,29.785,65.430,-24.414,0
1486825057.716,20.508,27.344,40.527,82.031,4.883,0
1486825057.720,-8.301,29.785,42.969,90.820,121.094,0
1486825057.723,33.203,24.414,37.109,46.387,51.270,0
1486825057.727,87.402,24.902,31.250,46.387,-58.594,0
1486825057.731,80.078,30.762,31.250,73.730,-29.297,0
1486825057.735,24.902,28.320,40.039,68.359,38.574,0
1486825057.739,-7.324,28.320,41.504,78.125,130.859,0
1486825057.743,19.043,29.297,33.691,47.363,74.707,0
1486825057.747,70.801,28.320,35.645,35.645,-32.227,0
1486825057.751,74.219,28.809,42.480,65.430,-37.109,0
1486825057.755,20.020,23.438,37.109,64.453,-12.207,0
1486825057.759,-20.020,21.973,36.133,69.336,87.402,0
1486825057.762,14.160,23.926,40.527,47.852,97.168,0
1486825057.766,72.266,20.020,29.297,27.344,-54.688,0
1486825057.770,75.684,19.531,27.832,46.875,-38.574,0
1486825057.774,36.621,23.926,43.945,60.547,16.113,0
1486825057.778,-14.648,29.297,45.898,75.195,92.773,0
1486825057.782,2.441,29.297,37.109,53.711,142.090,0
1486825057.786,68.359,24.902,42.480,39.551,23.926,0
1486825057.790,79.590,25.391,42.480,53.223,-19.043,0
1486825057.794,39.062,25.391,37.109,53.711,28.320,0
1486825057.798,-4.883,25.879,39.551,79.102,92.285,0
1486825057.802,-0.977,27.344,38.574,69.336,132.324,0
1486825057.805,60.547,26.367,33.203,39.551,20.508,0
1486825057.809,97.656,29.785,33.203,63.477,1.953,0
1486825057.813,65.918,33.691,43.457,66.895,28.320,0
1486825057.817,7.324,30.273,45.410,83.496,97.168,0
1486825057.821,10.742,28.320,39.062,87.402,176.758,0
1486825057.825,73.242,30.762,41.992,50.293,70.312,0
1486825057.829,102.539,29.785,46.387,69.336,-10.254,0
1486825057.833,71.777,29.785,41.992,83.984,-6.836,0
1486825057.837,19.043,39.551,53.711,92.285,66.406,0
1486825057.841,-6.348,29.297,46.387,76.172,138.184,0
1486825057.844,42.969,20.020,28.320,31.250,49.316,0
1486825057.848,80.566,19.531,33.203,54.199,-27.832,0
1486825057.852,54.688,22.949,33.203,71.289,2.930,0
1486825057.856,4.395,25.879,35.156,72.266,78.613,0
1486825057.860,-17.578,25.879,37.109,79.590,153.320,0
1486825057.864,33.203,27.832,44.434,44.922,62.500,0
1486825057.868,78.125,21.973,44.434,48.828,-31.738,0
1486825057.872,62.012,19.043,35.156,65.918,-17.578,0
1486825057.876,10.254,21.973,42.480,71.777,35.645,0
1486825057.880,-19.531,22.949,37.598,75.195,137.207,0
1486825057.884,27.344,25.391,26.855,39.062,81.543,0
1486825057.887,82.520,25.391,32.715,41.992,-11.230,0
1486825057.891,69.336,25.391,38.574,58.594,26.855,0
1486825057.895,16.113,25.391,43.945,62.012,40.039,0
1486825057.899,-19.531,26.367,39.062,64.453,155.273,0
1486825057.903,14.160,24.902,35.645,41.504,160.645,0
1486825057.907,66.895,21.973,36.621,41.016,16.113,0
1486825057.911,68.848,23.438,29.785,63.965,-6.348,0
1486825057.915,25.879,26.367,33.203,68.359,31.738,0
1486825057.919,-20.508,25.391,36.621,71.777,145.508,0
1486825057.923,5.859,21.484,31.250,50.293,139.160,0
1486825057.927,68.848,27.832,28.320,32.227,3.906,0
1486825057.930,79.102,34.180,28.809,54.199,-2.930,0
1486825057.934,38.574,30.762,41.992,61.035,49.316,0
1486825057.938,-16.602,23.926,46.875,63.965,136.719,0
1486825057.942,-6.348,20.996,33.203,48.828,128.418,0
1486825057.946,62.012,20.508,29.297,32.715,4.395,0
1486825057.950,85.938,21.484,34.180,52.734,-57.617,0
1486825057.954,40.039,26.367,41.016,59.570,-36.621,0
1486825057.958,-12.695,25.391,42.969,72.754,79.590,0
1486825057.962,-2.930,19.531,38.086,58.105,101.074,0
1486825057.966,58.105,21.973,29.297,30.273,1.465,0
1486825057.969,103.027,34.668,44.434,66.895,-36.621,0
1486825057.973,53.711,26.367,47.852,69.824,-6.836,0
1486825057.977,-19.531,20.020,31.738,57.129,53.223,0
1486825057.981,-13.672,24.902,29.785,57.129,114.258,0
1486825057.985,53.711,23.438,28.320,33.203,44.434,0
1486825057.989,90.332,25.879,31.738,51.758,14.648,0
1486825057.993,58.594,30.762,38.086,68.848,14.648,0
1486825057.997,5.371,33.691,38.086,69.336,81.055,0
1486825058.001,-6.836,32.227,35.645,62.988,178.223,0
1486825058.005,52.734,26.855,34.668,30.273,65.918,0
1486825058.009,94.727,26.367,39.551,50.781,-23.438,0
1486825058.012,62.500,24.414,40.039,72.266,-9.277,0
1486825058.016,2.930,23.438,34.668,71.289,34.180,0
1486825058.020,-10.742,28.809,40.527,79.102,138.672,0
1486825058.024,44.434,25.391,42.969,47.852,69.336,0
1486825058.028,88.867,21.484,39.062,48.340,-25.879,0
1486825058.032,74.707,25.391,39.062,72.266,-28.809,0
1486825058.036,20.508,27.832,37.598,75.195,32.227,0
1486825058.040,-3.418,28.809,39.551,75.195,125.488,0
1486825058.044,41.504,29.785,40.039,45.410,64.453,0
1486825058.048,80.566,27.344,31.738,41.992,-8.789,0
1486825058.052,70.801,25.879,31.250,64.453,30.762,0
1486825058.055,25.879,31.250,35.645,65.430,50.293,0
1486825058.059,-13.672,31.250,38.574,70.801,138.184,0
1486825058.063,21.484,26.367,41.992,46.875,72.754,0
1486825058.067,78.125,25.879,39.062,36.621,-34.180,0
1486825058.071,76.660,34.668,37.109,61.035,31.738,0
1486825058.075,23.926,32.715,37.109,57.129,39.551,0
1486825058.079,-16.602,29.785,29.785,63.965,109.375,0
1486825058.083,23.438,31.250,32.227,57.617,128.418,0
1486825058.087,83.984,31.250,37.598,48.828,-1.465,0
1486825058.091,87.402,33.203,39.551,62.500,-61.523,0
1486825058.094,36.621,30.273,36.133,60.059,-41.504,0
1486825058.098,-10.254,31.738,34.180,77.148,87.891,0
1486825058.102,5.859,32.227,39.062,63.477,111.816,0
1486825058.106,66.406,30.762,38.574,37.598,-10.254,0
1486825058.110,84.473,30.273,34.180,54.688,-11.230,0
1486825058.114,42.969,33.691,31.738,53.711,-5.371,0
1486825058.118,-2.930,43.945,40.039,63.477,53.711,0
1486825058.122,-2.930,30.273,34.180,51.270,124.512,0
1486825058.126,58.105,25.391,28.809,24.902,12.695,0
1486825058.130,87.891,30.273,35.156,50.781,-31.738,0
1486825058.134,42.969,26.855,29.785,54.199,-5.371,0
1486825058.137,-10.254,29.297,31.738,63.965,62.012,0
1486825058.141,-2.930,25.879,35.156,62.500,128.906,0
1486825058.145,57.617,23.926,35.156,27.832,20.020,0
1486825058.149,92.285,27.344,40.527,50.293,-24.414,0
1486825058.153,62.012,29.297,45.898,61.523,15.137,0
1486825058.157,-7.812,22.461,44.434,61.523,85.449,0
1486825058.161,-16.602,20.508,32.715,58.105,139.160,0
1486825058.165,53.711,25.879,26.855,19.043,59.570,0
1486825058.169,87.402,24.902,27.832,36.621,-1.465,0
1486825058.173,61.035,25.391,33.691,53.711,-3.418,0
1486825058.176,10.742,26.855,39.551,59.082,27.344,0
1486825058.180,-1.953,29.297,30.273,62.988,109.375,1
1486825058.184,53.223,30.273,27.832,26.855,41.016,0
1486825058.188,98.633,28.320,41.016,44.922,-48.340,0
1486825058.192,79.590,27.344,39.062,63.965,-13.184,0
1486825058.196,11.719,27.832,29.785,57.129,40.527,0
1486825058.200,-22.461,28.320,28.320,72.266,143.555,0
1486825058.204,25.391,26.367,29.785,37.598,87.402,0
1486825058.208,73.242,27.832,34.668,37.109,-23.926,0
1486825058.212,63.477,29.297,41.504,68.359,1.953,0
1486825058.216,17.578,36.133,46.875,73.242,54.688,0
1486825058.219,-26.367,30.273,38.574,71.289,138.184,0
1486825058.223,13.184,20.996,31.738,34.180,101.562,0
1486825058.227,66.895,21.973,31.250,30.762,0.977,0
1486825058.231,55.176,23.926,29.785,47.852,-5.371,0
1486825058.235,14.160,23.438,38.574,59.082,-3.906,0
1486825058.239,-25.879,24.414,35.156,81.543,116.211,0
1486825058.243,7.812,22.461,28.809,56.641,147.461,0
1486825058.247,76.660,20.508,34.668,48.340,20.996,0
1486825058.251,78.613,22.461,36.133,67.383,9.766,0
1486825058.255,27.832,21.973,38.086,75.195,47.852,0
1486825058.259,-13.672,24.414,38.086,91.797,139.160,0
1486825058.262,6.348,23.438,37.109,62.500,128.418,0
1486825058.266,67.871,24.414,40.039,45.410,-29.785,0
1486825058.270,86.426,25.391,40.527,64.941,-41.992,0
1486825058.274,32.227,21.484,33.203,57.129,3.418,0
1486825058.278,-13.184,33.691,40.527,83.008,106.934,0
1486825058.282,9.277,32.715,47.363,77.637,148.438,0
1486825058.286,57.129,14.648,28.809,32.715,3.418,0
1486825058.290,83.984,19.043,26.367,53.711,-55.664,0
1486825058.294,48.828,25.879,40.039,59.082,-29.297,0
1486825058.298,-5.859,32.715,43.457,74.219,68.848,0
1486825058.301,0.977,28.809,28.320,70.801,146.973,0
1486825058.305,67.871,23.438,24.902,38.086,18.066,0
1486825058.309,97.168,22.461,33.203,63.965,-34.180,0
1486825058.313,56.152,20.996,40.527,72.266,-3.418,0
1486825058.317,2.441,23.926,44.922,78.613,17.090,0
1486825058.321,-2.930,21.973,36.133,78.613,67.383,0
1486825058.325,51.758,21.973,33.691,40.527,-13.672,0
1486825058.329,92.285,24.414,37.598,54.199,-61.035,0
1486825058.333,66.895,28.320,35.645,66.406,-28.809,0
1486825058.337,9.766,36.133,44.434,82.031,73.242,0
1486825058.341,-2.930,32.715,51.270,82.520,125.000,0
1486825058.344,51.270,22.949,38.574,34.180,14.648,0
1486825058.348,87.891,25.391,31.738,40.527,-40.039,0
1486825058.352,62.988,25.391,43.945,59.570,-22.949,0
1486825058.356,6.348,21.973,44.434,66.406,41.504,0
1486825058.360,-9.277,24.902,39.551,73.730,124.023,0
1486825058.364,49.805,26.855,41.504,42.969,41.504,0
1486825058.368,97.168,31.250,47.852,49.805,-34.180,0
1486825058.372,77.637,32.227,47.363,67.383,-11.230,0
1486825058.376,22.461,29.297,36.621,64.941,25.391,0
1486825058.380,-11.230,27.832,37.109,73.730,103.516,0
1486825058.384,31.250,22.949,37.598,40.527,94.238,0
1486825058.387,85.449,20.996,41.504,35.156,43.457,0
1486825058.391,79.590,23.438,41.016,58.105,6.348,0
1486825058.395,30.273,27.832,34.668,59.570,22.461,0
1486825058.399,-10.742,27.832,46.387,66.406,140.625,0
1486825058.403,20.996,28.809,43.945,42.480,113.770,0
1486825058.407,84.473,34.180,35.645,35.156,-23.926,0
1486825058.411,91.797,30.273,39.551,61.523,-37.109,0
1486825058.415,42.969,28.320,32.227,65.430,23.926,0
1486825058.419,11.719,40.527,42.969,86.426,120.117,0
1486825058.423,33.203,31.738,41.992,62.012,111.816,0
1486825058.426,77.637,20.020,29.297,31.250,4.395,0
1486825058.430,95.215,25.391,33.203,60.059,-32.227,0
1486825058.434,49.805,24.902,38.086,65.430,16.602,0
1486825058.438,-3.418,27.832,40.039,75.195,119.629,0
1486825058.442,13.672,33.203,42.969,65.918,117.188,0
1486825058.446,76.172,30.273,41.992,41.992,33.203,0
1486825058.450,92.773,28.809,33.691,60.547,-15.137,0
1486825058.454,47.363,30.273,37.109,64.453,-25.879,0
1486825058.458,-5.859,30.762,39.551,69.824,91.797,0
1486825058.462,-0.977,28.320,38.086,65.430,149.414,0
1486825058.466,56.641,22.949,33.203,42.969,3.906,0
1486825058.469,83.496,23.438,37.109,64.941,-46.387,0
1486825058.473,52.246,29.297,49.805,76.172,-37.109,0
1486825058.477,0.977,34.180,45.410,78.125,53.223,0
1486825058.481,-5.859,32.227,33.203,64.941,111.328,0
1486825058.485,55.176,27.832,33.203,36.621,-10.742,0
1486825058.489,89.355,24.414,34.180,57.617,-52.246,0
1486825058.493,64.453,25.391,35.645,73.242,5.371,0
1486825058.497,17.090,34.668,40.039,76.172,104.004,0
1486825058.501,-0.977,32.715,35.156,73.730,169.922,0
1486825058.505,57.129,26.855,34.180,37.109,72.266,0
1486825058.508,97.168,29.297,39.062,49.316,-17.578,0
1486825058.512,60.547,29.297,46.387,73.730,20.508,0
1486825058.516,9.766,33.691,57.129,80.566,111.328,0
1486825058.520,-17.090,32.227,50.293,75.684,186.035,0
1486825058.524,28.320,26.367,31.738,33.691,84.961,0
1486825058.528,80.566,23.926,33.203,36.621,-18.066,0
1486825058.532,57.617,24.414,37.598,57.617,2.441,0
1486825058.536,1.953,26.367,33.691,65.430,39.551,0
1486825058.540,-19.531,24.902,40.527,80.078,126.953,0
1486825058.544,26.367,23.438,43.457,47.363,103.027,0
1486825058.548,77.637,23.438,38.086,34.180,-29.785,0
1486825058.551,70.801,21.973,34.668,61.523,-0.977,0
1486825058.555,21.484,24.414,34.180,75.684,58.105,0
1486825058.559,-9.766,29.785,40.039,88.867,115.723,0
1486825058.563,25.879,24.414,42.480,59.082,110.352,0
1486825058.567,79.102,19.531,32.227,41.016,-22.949,0
1486825058.571,87.402,28.809,30.273,74.707,-53.711,0
1486825058.575,45.410,40.527,44.434,89.355,6.348,0
1486825058.579,-11.230,26.367,35.645,75.684,110.352,0
1486825058.583,8.301,16.113,32.715,52.246,109.863,0
1486825058.587,71.777,18.555,42.480,40.039,-22.949,0
1486825058.591,79.590,22.949,41.992,58.594,-18.066,0
1486825058.594,31.738,23.438,38.574,66.895,-18.066,0
1486825058.598,-11.230,24.414,41.992,83.008,24.414,0
1486825058.602,3.906,24.902,43.457,74.707,74.707,0
1486825058.606,63.965,22.949,37.598,45.410,-16.113,0
1486825058.610,89.844,25.879,30.273,59.082,-55.664,0
1486825058.614,50.293,27.344,30.273,69.824,-56.152,0
1486825058.618,-6.836,25.879,32.227,76.660,47.852,0
1486825058.622,-1.465,26.367,34.180,60.547,116.699,0
1486825058.626,57.129,21.973,37.109,26.855,-6.348,0
1486825058.630,82.520,20.508,34.180,50.781,-54.688,0
1486825058.633,47.363,21.973,36.621,63.965,-23.926,0
1486825058.637,-9.766,20.996,42.480,69.336,62.988,0
1486825058.641,-7.324,22.949,41.504,70.801,164.062,0
1486825058.645,57.129,21.973,35.645,34.180,42.969,0
1486825058.649,90.332,23.438,35.156,54.199,-30.762,0
1486825058.653,56.152,24.414,33.203,69.336,-0.488,0
1486825058.657,0.488,22.949,30.762,74.219,82.520,0
1486825058.661,0.000,29.297,37.109,81.543,158.691,0
1486825058.665,66.406,37.109,48.340,44.922,38.574,0
1486825058.669,93.750,26.367,36.133,48.828,-21.973,0
1486825058.673,61.523,26.367,33.203,63.965,21.973,0
1486825058.676,7.812,32.227,42.480,68.359,76.660,0
1486825058.680,-10.254,26.367,38.574,74.707,152.344,0
1486825058.684,43.945,28.809,38.086,34.180,92.773,0
1486825058.688,91.309,29.785,38.574,39.062,15.625,0
1486825058.692,75.195,26.855,38.086,62.988,15.137,0
1486825058.696,19.531,28.320,40.039,66.406,20.508,0
1486825058.700,-8.301,28.320,40.527,83.008,125.488,0
1486825058.704,33.691,25.879,43.945,50.293,124.512,0
1486825058.708,89.844,21.484,41.016,46.875,8.301,0
1486825058.712,82.031,24.902,37.109,71.777,-0.488,0
1486825058.716,17.090,31.738,39.062,73.242,71.289,0
1486825058.719,-13.184,30.273,45.898,87.891,163.086,0
1486825058.723,23.438,25.879,45.410,50.293,116.211,0
1486825058.727,75.195,24.902,32.715,31.738,5.371,0
1486825058.731,78.613,23.926,34.180,60.059,-18.066,0
1486825058.735,24.414,24.414,37.598,62.500,18.066,0
1486825058.739,-16.602,27.832,46.387,73.730,132.812,0
1486825058.743,13.672,25.879,47.852,48.828,144.531,0
1486825058.747,67.383,25.391,35.156,24.414,18.066,0
1486825058.751,75.684,30.273,26.367,50.293,-14.160,0
1486825058.755,34.668,29.297,31.738,58.594,-3.418,0
1486825058.758,-15.625,25.879,44.434,76.660,101.562,0
1486825058.762,6.348,31.250,41.504,59.570,128.906,0
1486825058.766,74.219,32.715,33.203,29.297,-1.465,0
1486825058.770,88.379,29.297,38.086,55.176,-23.438,0
1486825058.774,32.715,30.273,39.551,56.641,-4.883,0
1486825058.778,-13.672,31.250,36.621,68.359,105.957,0
1486825058.782,6.836,32.715,41.504,60.547,170.898,0
1486825058.786,59.082,26.855,32.227,24.414,8.789,1
1486825058.790,83.984,24.414,30.273,54.199,-2.930,0
1486825058.794,44.434,28.320,33.203,62.500,25.391,0
1486825058.798,-9.277,29.297,32.715,71.777,61.523,0
1486825058.801,-7.324,25.391,40.527,64.453,134.766,0
1486825058.805,47.363,25.391,41.504,23.438,21.973,0
1486825058.809,83.984,27.344,34.180,54.688,-37.598,0
1486825058.813,58.594,26.367,34.668,75.195,-16.602,0
1486825058.817,-0.488,32.227,36.621,81.543,38.086,0
1486825058.821,-9.277,30.762,38.086,73.242,131.348,0
1486825058.825,48.340,22.949,36.621,31.738,40.527,0
1486825058.829,80.566,23.438,31.738,43.457,-47.363,0
1486825058.833,53.711,25.879,33.203,63.477,-25.391,0
1486825058.837,3.906,30.762,36.621,73.242,20.020,0
1486825058.840,-5.859,29.785,38.574,65.430,137.695,0
1486825058.844,44.434,26.367,36.621,24.414,91.309,0
1486825058.848,84.961,23.926,36.621,41.016,15.625,0
1486825058.852,65.918,22.461,34.180,56.152,26.367,0
1486825058.856,10.742,25.879,40.527,65.430,46.387,0
1486825058.860,-17.090,26.855,43.457,74.219,161.621,0
1486825058.864,29.785,27.832,31.250,29.297,88.867,0
1486825058.868,84.473,25.391,27.832,41.016,-1.953,0
1486825058.872,82.031,23.926,38.574,66.406,18.555,0
1486825058.876,30.273,26.367,44.434,62.500,34.668,0
1486825058.880,0.488,37.598,44.922,82.031,165.039,0
1486825058.883,48.828,40.527,45.410,55.664,122.070,0
1486825058.887,86.914,20.508,26.367,30.273,-18.066,0
1486825058.891,81.055,19.043,21.484,55.176,21.973,0
1486825058.895,30.273,22.949,36.133,70.312,83.008,0
1486825058.899,-19.043,20.996,34.668,78.125,168.945,0
1486825058.903,10.254,24.902,24.414,40.527,117.188,0
1486825058.907,73.730,29.297,28.809,38.086,-16.602,0
1486825058.911,81.055,28.320,42.480,69.336,-14.648,0
1486825058.915,25.391,28.809,40.527,65.430,2.441,0
1486825058.919,-19.531,32.715,33.203,77.148,85.449,0
1486825058.923,3.906,30.273,36.621,61.523,109.863,0
1486825058.926,69.824,26.855,34.180,46.875,17.090,0
1486825058.930,87.402,25.879,40.039,64.941,-2.930,0
1486825058.934,40.527,28.809,40.039,59.570,2.441,0
1486825058.938,-12.207,28.320,30.762,72.754,73.242,0
1486825058.942,-4.883,21.973,36.133,63.965,94.727,0
1486825058.946,60.059,22.949,36.133,37.109,-9.766,0
1486825058.950,86.914,31.738,37.109,55.176,-40.527,0
1486825058.954,50.293,29.297,39.551,63.477,-16.602,0
1486825058.958,0.488,24.414,44.434,80.078,98.633,0
1486825058.962,-4.883,26.367,43.457,63.965,158.203,0
1486825058.965,49.805,25.391,34.180,32.715,18.066,0
1486825058.969,90.820,26.367,33.691,53.223,-37.598,0
1486825058.973,64.453,30.762,37.598,64.453,-17.578,0
1486825058.977,0.977,29.785,36.621,71.289,36.133,0
1486825058.981,-5.859,25.391,38.574,75.684,134.766,0
1486825058.985,48.340,24.414,38.574,46.387,46.387,0
1486825058.989,85.449,25.879,41.504,51.758,-28.320,0
1486825058.993,64.941,27.832,50.293,73.730,-1.953,0
1486825058.997,-1.953,28.320,41.992,79.102,54.688,0
1486825059.001,-17.090,25.391,32.715,76.172,139.648,0
1486825059.005,37.109,23.926,31.738,42.969,60.059,0
1486825059.008,85.938,24.902,34.180,58.105,-22.461,0
1486825059.012,75.684,23.438,41.992,79.102,-11.230,0
1486825059.016,18.555,25.879,45.410,78.125,34.668,0
1486825059.020,-7.812,31.250,38.574,79.102,108.398,0
1486825059.024,46.387,26.855,36.133,48.828,63.965,0
1486825059.028,102.539,25.391,49.805,53.223,-20.020,0
1486825059.032,86.914,24.902,50.781,74.219,-9.766,0
1486825059.036,26.855,20.020,35.645,78.613,24.414,0
1486825059.040,-9.766,23.926,30.762,87.402,127.930,0
1486825059.044,33.203,25.391,29.785,57.129,115.723,0
1486825059.048,90.332,22.461,33.203,50.781,-6.836,0
1486825059.051,86.426,21.973,43.945,76.172,16.113,0
1486825059.055,31.250,21.973,38.086,74.219,35.645,0
1486825059.059,-9.766,24.414,33.203,81.055,119.141,0
1486825059.063,27.832,25.391,37.598,60.547,143.555,0
1486825059.067,89.355,26.367,42.480,46.387,-15.625,0
1486825059.071,93.262,25.879,40.527,73.242,-32.715,0
1486825059.075,44.434,27.344,35.645,70.312,40.527,0
1486825059.079,-6.348,29.297,39.062,77.637,120.117,0
1486825059.083,6.836,25.879,34.180,59.570,156.250,0
1486825059.087,74.219,23.438,35.156,45.410,22.461,0
1486825059.090,93.750,24.414,37.109,70.801,-0.488,0
1486825059.094,52.734,36.621,42.969,65.918,29.785,0
1486825059.098,6.836,42.480,57.617,89.844,104.980,0
1486825059.102,10.742,24.414,46.387,71.289,133.301,0
1486825059.106,72.266,23.438,36.621,35.156,-1.953,0
1486825059.110,88.379,24.414,32.227,54.199,-39.551,0
1486825059.114,48.340,24.414,29.297,61.035,-14.648,0
1486825059.118,-2.930,30.273,39.551,72.754,61.523,0
1486825059.122,5.859,28.320,45.898,68.359,96.191,0
1486825059.126,63.965,23.926,39.551,39.062,3.418,0
1486825059.130,85.938,24.902,33.203,53.711,-26.367,0
1486825059.133,53.711,23.926,34.668,63.477,-16.602,0
1486825059.137,-2.441,23.438,38.086,77.148,62.500,0
1486825059.141,-11.719,23.926,37.109,74.219,146.484,0
1486825059.145,47.363,22.949,43.945,32.715,3.418,0
1486825059.149,87.891,20.020,43.945,48.340,-91.797,0
1486825059.153,58.105,24.414,38.574,61.035,-64.941,0
1486825059.157,0.000,26.855,44.434,65.430,-23.438,0
1486825059.161,-9.766,25.391,41.016,74.219,82.520,0
1486825059.165,51.270,25.879,36.621,43.945,0.977,0
1486825059.169,95.215,26.367,34.180,49.316,-90.820,0
1486825059.172,76.172,32.715,38.086,69.336,-54.199,0
1486825059.176,17.090,29.785,43.457,73.730,41.016,0
1486825059.180,-11.719,24.902,39.062,82.031,148.438,0
1486825059.184,34.668,26.367,39.551,46.875,70.801,0
1486825059.188,76.660,20.996,37.109,34.668,-33.203,0
1486825059.192,76.660,33.203,45.410,71.289,-43.945,0
1486825059.196,24.902,38.574,45.898,77.637,23.438,0
1486825059.200,-23.926,20.996,26.367,62.012,126.465,0
1486825059.204,27.832,22.461,32.227,37.109,106.445,0
1486825059.208,81.055,23.926,30.273,36.133,-4.883,0
1486825059.212,73.730,26.367,31.738,57.129,-33.203,0
1486825059.215,23.438,28.320,42.480,61.523,-2.441,0
1486825059.219,-16.602,27.832,41.016,73.730,106.445,0
1486825059.223,19.531,27.344,33.203,45.898,71.289,0
1486825059.227,80.566,27.344,37.109,38.574,-40.039,0
1486825059.231,84.961,25.879,46.875,64.453,-5.859,0
1486825059.235,36.621,28.809,39.062,63.965,11.230,0
1486825059.239,-12.695,30.273,35.156,83.496,119.141,0
1486825059.243,11.719,22.461,34.668,61.523,122.070,0
1486825059.247,73.730,19.531,35.156,35.156,4.883,0
1486825059.251,85.449,24.414,43.457,57.129,-11.719,0
1486825059.255,39.551,27.344,50.781,59.570,24.414,0
1486825059.258,-9.766,24.414,42.480,70.312,106.934,0
1486825059.262,0.977,25.879,30.762,54.688,124.023,0
1486825059.266,58.594,27.344,28.320,27.344,10.254,0
1486825059.270,86.914,23.926,37.109,53.223,-12.695,0
1486825059.274,44.434,29.785,42.480,52.734,28.320,0
1486825059.278,-15.137,30.273,39.551,65.430,87.891,0
1486825059.282,-7.812,24.902,33.203,58.105,108.398,0
1486825059.286,56.641,26.367,26.367,19.531,16.602,0
1486825059.290,84.961,29.297,32.227,45.410,12.695,0
1486825059.294,53.711,31.250,53.223,61.035,12.207,0
1486825059.297,-4.883,28.320,43.457,62.012,86.426,0
1486825059.301,-21.973,23.438,24.414,49.316,169.434,0
1486825059.305,42.480,19.043,33.203,26.367,31.250,0
1486825059.309,80.566,20.020,36.621,47.852,-28.320,0
1486825059.313,51.758,22.949,34.180,52.734,-5.371,0
1486825059.317,1.953,25.391,37.598,69.336,52.246,0
1486825059.321,-13.184,22.461,33.691,73.242,148.926,0
1486825059.325,49.316,27.344,38.574,42.969,36.133,0
1486825059.329,93.750,34.668,49.316,57.617,-47.363,0
1486825059.333,57.129,21.973,37.598,53.711,3.418,0
1486825059.337,7.324,20.020,32.715,63.965,62.012,0
1486825059.340,-11.230,23.926,37.598,82.031,131.348,0
1486825059.344,39.062,22.949,37.109,42.969,60.547,0
1486825059.348,92.773,23.926,38.086,52.246,-11.230,0
1486825059.352,81.055,27.344,41.504,67.871,0.000,2
1486825059.356,21.973,27.344,34.668,70.801,57.617,0
1486825059.360,-14.648,24.414,34.180,87.402,154.785,0
1486825059.364,31.738,21.484,37.598,44.922,75.684,0
1486825059.368,79.102,25.879,35.156,38.574,-17.090,0
1486825059.372,73.242,28.809,38.086,61.035,18.555,0
1486825059.376,21.973,22.949,41.016,62.012,69.824,0
1486825059.380,-22.949,21.973,33.203,72.266,130.371,0
1486825059.383,14.648,19.531,28.320,40.039,108.887,0
1486825059.387,81.055,20.996,32.227,30.273,27.344,0
1486825059.391,78.613,26.367,35.645,55.664,4.395,0
1486825059.395,21.973,27.832,38.574,58.105,6.348,0
1486825059.399,-14.160,28.809,39.551,65.918,84.473,0
1486825059.403,2.441,24.902,34.668,40.039,139.648,0
1486825059.407,62.012,25.391,30.273,31.738,5.859,0
1486825059.411,84.961,29.785,41.016,57.129,-25.879,0
1486825059.415,32.715,28.809,46.875,57.617,35.156,0
1486825059.419,-20.996,27.832,41.504,76.172,123.047,0
1486825059.422,1.953,24.902,35.645,54.688,124.023,0
1486825059.426,62.012,21.484,30.273,29.297,9.766,0
1486825059.430,77.148,26.367,30.273,50.293,10.254,0
1486825059.434,35.645,30.762,33.691,47.852,8.789,0
1486825059.438,-14.648,29.785,44.922,64.941,59.082,0
1486825059.442,-4.883,26.855,50.781,61.035,120.117,0
1486825059.446,45.898,24.902,37.598,23.926,11.230,0
1486825059.450,74.707,26.367,29.785,46.387,-20.020,0
1486825059.454,45.410,24.414,36.621,62.988,3.418,0
1486825059.458,-13.184,24.414,41.016,70.312,84.961,0
1486825059.462,-6.836,25.391,49.805,62.500,151.367,0
1486825059.465,57.617,25.391,46.875,34.668,15.137,0
1486825059.469,90.820,29.297,36.621,52.734,-64.453,0
1486825059.473,63.965,26.367,35.156,64.453,-30.762,0
1486825059.477,12.207,37.109,46.387,88.379,39.551,0
1486825059.481,0.488,39.062,57.617,92.285,139.160,0
1486825059.485,41.992,17.090,35.645,33.691,43.945,0
1486825059.489,82.031,20.020,29.297,42.480,-31.250,0
1486825059.493,61.523,23.926,37.598,64.453,14.160,0
1486825059.497,-1.465,22.949,35.645,69.336,78.613,0
1486825059.501,-22.949,27.344,35.645,71.289,163.574,0
1486825059.504,33.203,27.832,34.668,36.621,83.496,0
1486825059.508,80.078,25.391,36.621,42.969,23.926,0
1486825059.512,60.059,24.414,38.086,56.641,11.719,0
1486825059.516,0.488,27.344,36.621,61.035,45.410,0
1486825059.520,-23.438,27.832,40.527,72.266,155.762,0
1486825059.524,27.344,23.926,47.363,42.969,59.082,0
1486825059.528,77.637,21.973,40.039,43.457,-13.184,0
1486825059.532,73.242,27.344,40.527,71.777,13.672,0
1486825059.536,21.484,30.273,50.293,72.754,27.832,0
1486825059.540,-17.578,29.785,38.086,76.660,135.742,0
1486825059.544,14.648,27.832,24.414,51.758,101.562,0
1486825059.547,77.637,24.902,29.785,37.598,-27.344,0
1486825059.551,81.055,27.832,39.062,63.477,-8.789,0
1486825059.555,20.996,24.902,36.621,69.336,27.344,0
1486825059.559,-22.949,20.020,34.180,80.078,112.305,0
1486825059.563,10.254,23.926,31.250,52.734,123.047,0
1486825059.567,75.195,26.367,30.273,30.273,9.766,0
1486825059.571,87.891,27.344,38.086,63.477,23.926,0
1486825059.575,43.945,31.738,40.039,68.848,20.508,0
1486825059.579,-7.812,30.762,32.715,72.266,98.633,0
1486825059.583,16.602,32.715,32.227,57.617,136.230,0
1486825059.587,86.914,32.227,41.016,36.133,12.207,0
1486825059.590,102.051,28.320,40.527,51.270,-38.574,0
1486825059.594,59.082,28.320,35.645,60.059,-28.809,0
1486825059.598,4.883,28.320,32.227,71.777,66.406,0
1486825059.602,13.672,29.297,36.133,57.129,137.207,0
1486825059.606,65.430,25.879,42.969,29.785,17.090,0
1486825059.610,84.473,23.926,34.180,56.152,-40.039,0
1486825059.614,53.223,28.809,33.203,70.312,20.508,0
1486825059.618,-9.766,25.391,41.992,75.684,90.820,0
1486825059.622,-12.695,19.531,38.574,71.777,152.832,0
1486825059.626,55.176,24.902,31.738,41.992,54.688,0
1486825059.629,83.984,25.879,33.203,53.711,-5.371,0
1486825059.633,49.805,23.438,37.598,62.012,-19.043,0
1486825059.637,-0.977,30.762,41.016,74.219,58.594,0
1486825059.641,-14.648,30.762,39.551,73.730,163.574,0
1486825059.645,42.480,30.762,38.086,23.438,45.898,0
1486825059.649,86.914,33.203,47.852,42.969,-2.441,0
1486825059.653,57.617,30.273,43.457,66.895,8.789,0
1486825059.657,-0.488,34.180,35.156,61.035,39.062,0
1486825059.661,-20.996,32.227,36.621,63.477,143.066,0
1486825059.665,32.715,28.320,29.785,23.926,59.570,0
1486825059.669,78.125,32.715,27.832,28.809,-9.277,0
1486825059.672,54.688,29.785,31.738,48.828,11.230,0
1486825059.676,-5.371,27.344,35.645,50.781,7.812,0
1486825059.680,-34.180,29.297,37.109,62.012,94.238,0
1486825059.684,18.555,30.273,37.109,29.297,62.500,0
1486825059.688,72.754,33.203,31.250,30.762,-71.777,0
1486825059.692,67.871,31.738,29.297,59.570,-63.965,0
1486825059.696,16.113,27.832,39.062,64.453,17.578,0
1486825059.700,-11.719,36.133,44.922,77.148,100.098,0
1486825059.704,25.391,30.762,33.691,41.504,91.309,0
1486825059.708,68.848,18.066,23.926,21.973,20.508,0
1486825059.712,63.965,23.926,23.926,47.363,25.879,0
1486825059.715,15.137,25.391,36.133,53.223,47.852,0
1486825059.719,-23.926,20.996,42.480,58.594,127.441,0
1486825059.723,9.766,20.508,29.785,43.457,124.023,0
1486825059.727,77.637,23.438,35.645,39.062,-19.043,0
1486825059.731,83.008,25.391,39.551,61.035,-28.809,0
1486825059.735,37.109,27.344,37.598,66.406,19.043,0
1486825059.739,-4.883,23.926,41.016,80.566,131.836,0
1486825059.743,11.719,23.926,34.180,61.035,151.855,0
1486825059.747,73.242,26.855,30.762,41.992,12.695,0
1486825059.751,92.285,26.855,35.156,67.383,-26.855,0
1486825059.754,46.875,28.809,41.504,71.289,2.930,0
1486825059.758,-2.441,31.250,41.504,83.008,121.094,0
1486825059.762,9.277,26.855,41.504,77.637,166.992,0
1486825059.766,84.473,38.086,57.129,62.988,39.551,0
1486825059.770,106.934,42.969,52.734,79.102,-39.551,0
1486825059.774,51.758,23.926,36.133,67.383,-14.160,0
1486825059.778,-2.930,21.484,34.668,77.148,103.516,0
1486825059.782,-3.418,21.973,33.203,73.242,171.875,0
1486825059.786,64.453,23.438,39.062,35.156,46.875,0
1486825059.790,96.680,25.879,42.969,53.223,-3.418,0
1486825059.794,58.594,25.391,39.551,69.336,9.277,0
1486825059.797,-0.488,25.879,39.551,75.684,57.129,0
1486825059.801,-4.883,28.809,42.480,68.848,109.375,0
1486825059.805,62.500,31.250,44.434,34.668,20.996,0
1486825059.809,93.750,32.227,42.969,49.805,-60.059,0
1486825059.813,64.941,33.691,37.598,65.918,-42.969,0
1486825059.817,9.766,31.738,37.598,66.895,28.809,0
1486825059.821,-9.277,29.785,34.180,64.941,118.652,0
1486825059.825,44.922,25.879,33.203,35.645,49.316,0
1486825059.829,93.262,28.320,40.039,47.852,-51.270,0
1486825059.833,77.637,32.227,48.340,71.777,-36.621,0
1486825059.836,15.137,29.785,48.828,76.660,17.090,0
1486825059.840,-10.742,27.832,40.527,80.566,125.000,0
1486825059.844,38.574,23.926,31.250,46.875,51.270,0
1486825059.848,87.891,23.438,29.297,42.969,-47.363,0
1486825059.852,78.613,28.809,36.133,66.895,-6.836,0
1486825059.856,20.996,26.367,41.992,68.359,33.203,0
1486825059.860,-21.973,20.508,39.062,72.266,144.531,0
1486825059.864,20.996,21.484,37.598,46.387,134.277,0
1486825059.868,85.938,23.438,48.828,43.945,3.418,0
1486825059.872,78.125,21.484,45.898,62.012,-21.484,0
1486825059.876,19.531,22.461,38.086,64.941,40.527,0
1486825059.879,-19.531,25.391,37.598,70.312,134.277,0
1486825059.883,10.742,23.438,35.156,42.969,95.703,0
1486825059.887,68.848,23.926,31.250,33.691,12.695,0
1486825059.891,76.660,25.391,42.480,61.035,15.625,0
1486825059.895,32.227,28.320,47.363,62.500,42.969,0
1486825059.899,-11.230,31.250,35.156,68.848,139.160,0
1486825059.903,8.789,28.809,38.574,59.082,185.059,0
1486825059.907,67.383,27.344,33.691,34.668,49.805,0
1486825059.911,84.473,24.902,35.156,60.547,-20.996,0
1486825059.915,40.039,22.949,45.410,66.895,12.695,0
1486825059.919,-18.066,23.926,39.062,67.383,113.281,0
1486825059.922,4.395,22.949,35.645,59.082,119.141,0
1486825059.926,70.312,21.973,33.691,47.363,6.836,0
1486825059.930,85.449,27.832,36.133,65.430,11.719,0
1486825059.934,41.504,26.855,39.551,56.152,32.715,0
1486825059.938,-5.859,22.949,38.086,72.266,106.445,0
1486825059.942,3.906,26.367,42.480,73.242,179.199,0
1486825059.946,66.895,27.344,40.039,36.621,46.387,0
1486825059.950,98.145,28.809,30.273,59.082,-26.367,0
1486825059.954,51.758,28.320,36.133,70.312,-15.625,0
1486825059.958,-7.324,25.391,37.598,74.219,68.359,0
1486825059.961,-4.883,31.250,45.898,76.172,162.109,0
1486825059.965,52.734,29.785,48.340,44.434,46.875,0
1486825059.969,78.613,17.090,27.832,47.363,-1.953,0
1486825059.973,54.199,19.043,29.785,49.805,17.090,0
1486825059.977,-0.977,26.367,39.551,60.547,73.730,0
1486825059.981,-13.672,26.855,44.434,66.406,139.648,0
1486825059.985,39.551,20.996,38.574,28.809,38.086,0
1486825059.989,78.125,20.508,40.039,40.039,-25.391,0
1486825059.993,57.617,24.902,38.086,56.152,10.742,0
1486825059.997,2.930,30.273,31.250,66.406,35.156,0
1486825060.001,-19.531,28.320,37.598,69.336,150.391,0
1486825060.004,31.250,25.879,37.109,30.762,107.910,0
1486825060.008,83.984,28.809,32.227,35.645,-20.996,0
1486825060.012,75.684,29.785,41.504,61.035,-15.625,0
1486825060.016,14.160,31.250,44.922,63.477,16.113,0
1486825060.020,-27.344,28.320,37.598,62.988,115.234,0
1486825060.024,22.949,27.344,39.062,32.227,71.289,0
1486825060.028,84.961,29.297,34.668,31.738,-54.688,0
1486825060.032,77.637,29.297,36.133,58.594,-41.504,0
1486825060.036,20.508,29.297,41.016,65.918,11.230,0
1486825060.040,-11.230,31.738,34.180,70.801,124.023,0
1486825060.044,25.879,33.203,27.344,43.457,78.613,0
1486825060.047,82.520,32.715,33.203,39.062,-42.969,0
1486825060.051,83.496,34.180,36.621,66.406,-27.344,0
1486825060.055,30.273,30.762,32.715,63.477,9.766,1
1486825060.059,-10.742,27.344,36.133,70.801,99.121,0
1486825060.063,15.137,29.785,35.645,50.781,124.512,0
1486825060.067,74.219,29.297,40.527,41.504,6.836,0
1486825060.071,82.520,27.832,40.039,62.988,-49.805,0
1486825060.075,39.062,26.855,32.227,63.965,-4.395,0
1486825060.079,-9.766,26.855,41.504,84.473,147.949,0
1486825060.083,6.836,26.855,46.387,64.453,131.836,0
1486825060.086,69.336,24.902,38.086,40.039,-19.531,0
1486825060.090,92.285,25.391,35.156,63.965,-23.926,0
1486825060.094,45.410,24.414,37.109,62.500,30.273,0
1486825060.098,-15.137,24.414,39.062,70.801,107.422,0
1486825060.102,-6.836,26.855,35.645,62.500,165.039,0
1486825060.106,57.129,28.320,32.227,37.109,46.387,0
1486825060.110,86.426,24.414,35.156,54.199,-8.301,0
1486825060.114,60.547,32.227,51.270,79.102,-11.230,0
1486825060.118,-3.418,30.762,41.504,77.148,84.473,0
1486825060.122,-13.672,21.484,31.738,56.641,158.203,0
1486825060.126,51.270,21.484,36.133,32.715,-0.488,0
1486825060.129,85.449,21.484,29.785,47.852,-71.777,0
1486825060.133,59.082,24.902,36.621,65.918,-69.824,0
1486825060.137,1.465,25.391,43.457,77.637,34.180,0
1486825060.141,-13.184,23.438,35.645,64.453,145.508,0
1486825060.145,48.828,24.902,32.715,34.668,16.113,0
1486825060.149,93.262,27.344,38.086,60.059,-71.777,0
1486825060.153,65.430,30.273,39.551,74.707,-19.531,0
1486825060.157,6.348,29.785,40.527,67.383,76.172,0
1486825060.161,-12.695,26.367,38.574,67.383,160.156,0
1486825060.165,37.598,27.344,36.621,32.715,70.312,0
1486825060.168,70.312,26.855,32.715,31.250,-22.949,0
1486825060.172,50.781,27.344,35.156,55.664,-7.812,0
1486825060.176,-1.465,30.762,36.621,50.293,61.523,0
1486825060.180,-26.855,31.738,33.691,58.105,166.016,0
1486825060.184,27.832,26.855,36.133,40.039,86.914,0
1486825060.188,86.914,25.391,41.992,37.598,-23.926,0
1486825060.192,80.566,27.832,44.922,64.941,11.719,0
1486825060.196,23.438,29.297,39.062,65.430,53.711,0
1486825060.200,-6.348,27.344,36.133,80.078,132.812,0
1486825060.204,35.645,26.367,39.062,59.570,113.770,0
1486825060.208,86.914,24.902,42.969,50.781,4.395,0
1486825060.211,83.496,22.461,44.434,77.637,2.441,0
1486825060.215,31.250,28.809,38.086,68.359,10.254,0
1486825060.219,-7.324,31.738,37.598,81.543,115.723,0
1486825060.223,20.508,30.762,47.852,62.500,140.137,0
1486825060.227,76.172,27.344,46.387,42.969,20.508,0
1486825060.231,80.566,22.949,34.180,67.383,-0.488,0
1486825060.235,33.691,23.438,30.762,67.383,23.926,0
1486825060.239,-9.277,23.926,32.227,84.473,103.027,0
1486825060.243,10.254,25.391,30.273,61.523,135.254,0
1486825060.247,71.777,24.414,32.715,34.180,-3.418,0
1486825060.251,91.797,24.902,37.598,68.359,-21.484,0
1486825060.254,53.711,33.691,35.645,65.918,42.969,0
1486825060.258,-0.488,33.691,38.086,76.660,123.047,0
1486825060.262,2.930,22.949,38.574,70.801,156.250,0
1486825060.266,67.871,19.531,35.156,33.691,-4.883,0
1486825060.270,95.215,23.926,38.574,56.152,-41.504,0
1486825060.274,53.223,23.438,37.598,56.152,11.230,0
1486825060.278,-0.488,25.879,32.227,61.035,61.523,0
1486825060.282,0.000,26.367,22.949,60.059,131.348,0
1486825060.286,70.312,35.645,32.227,39.062,-5.371,0
1486825060.290,108.887,40.527,39.062,63.965,-69.824,0
1486825060.293,67.383,25.879,24.902,58.105,-12.207,0
1486825060.297,16.113,25.879,26.367,68.848,71.777,0
1486825060.301,14.160,27.344,35.645,77.148,168.457,0
1486825060.305,65.918,28.320,47.852,36.621,64.941,0
1486825060.309,103.027,27.832,37.109,49.316,-4.883,0
1486825060.313,78.125,28.320,26.855,64.453,33.691,0
1486825060.317,8.301,29.297,33.203,64.941,56.152,0
1486825060.321,-9.277,30.273,32.715,77.148,127.930,0
1486825060.325,45.410,29.785,28.320,41.016,61.035,0
1486825060.329,92.773,27.832,28.320,47.363,-8.301,0
1486825060.333,82.031,28.809,32.715,66.406,20.020,0
1486825060.336,16.602,29.785,39.551,65.430,50.781,0
1486825060.340,-16.113,26.367,42.969,80.566,123.535,0
1486825060.344,37.109,24.902,41.992,48.828,64.941,0
1486825060.348,90.332,25.879,35.156,41.992,-48.828,0
1486825060.352,72.754,23.926,30.762,58.105,-27.832,0
1486825060.356,19.043,25.879,32.715,67.383,41.016,0
1486825060.360,-13.184,26.855,36.133,80.566,124.512,0
1486825060.364,26.367,23.438,35.156,41.016,70.801,0
1486825060.368,87.891,25.879,30.762,32.227,-21.484,0
1486825060.372,83.496,29.785,31.738,56.152,-16.602,0
1486825060.376,22.461,27.344,37.109,55.176,-7.324,0
1486825060.379,-20.020,25.391,38.086,71.289,87.891,0
1486825060.383,12.207,22.949,35.645,47.363,92.773,0
1486825060.387,72.266,23.926,39.551,36.621,-23.926,0
1486825060.391,79.102,25.879,42.480,65.430,-18.066,0
1486825060.395,28.320,28.320,39.551,62.988,2.930,0
1486825060.399,-14.648,26.855,41.504,74.219,65.918,0
1486825060.403,2.930,23.438,37.598,59.570,88.867,0
1486825060.407,61.035,25.879,28.320,39.062,-16.602,0
1486825060.411,79.590,27.344,30.273,62.988,-40.527,0
1486825060.415,37.598,27.344,34.668,62.500,0.000,0
1486825060.418,-11.719,26.855,35.156,67.871,60.547,0
1486825060.422,-2.441,26.855,39.062,63.477,100.586,0
1486825060.426,60.059,29.785,43.945,40.039,-10.742,0
1486825060.430,88.379,30.273,43.457,59.082,-47.852,0
1486825060.434,44.922,21.484,41.016,61.035,-11.719,0
1486825060.438,4.883,28.809,52.246,79.590,65.918,0
1486825060.442,8.301,34.668,49.805,77.637,137.695,0
1486825060.446,50.293,18.066,24.414,28.320,25.391,0
1486825060.450,78.125,17.090,22.949,47.852,-46.875,0
1486825060.454,48.828,22.461,35.645,62.988,-33.691,0
1486825060.458,2.441,27.832,40.039,72.754,53.711,0
1486825060.461,-10.254,30.762,34.180,69.336,132.812,0
1486825060.465,52.246,26.367,33.203,33.691,11.230,0
1486825060.469,90.820,24.414,32.227,50.293,-53.711,0
1486825060.473,62.500,24.902,36.133,70.801,0.977,0
1486825060.477,6.348,25.879,40.039,76.660,62.988,0
1486825060.481,-7.812,27.832,36.621,76.660,177.246,0
1486825060.485,56.152,26.855,35.156,40.527,94.727,0
1486825060.489,101.562,26.367,35.156,43.945,-2.441,0
1486825060.493,75.684,30.762,41.992,69.824,10.254,0
1486825060.497,18.555,32.715,52.246,84.473,91.309,0
1486825060.500,-6.348,28.320,38.086,83.984,203.613,0
1486825060.504,43.457,28.809,33.203,52.246,109.375,0
1486825060.508,93.750,32.227,39.062,53.223,7.812,0
1486825060.512,78.125,31.250,33.203,64.941,-5.371,0
1486825060.516,24.902,28.320,28.809,69.824,42.969,0
1486825060.520,-6.348,27.344,29.785,80.078,171.387,0
1486825060.524,35.645,27.832,33.691,42.480,135.742,0
1486825060.528,93.262,29.785,28.809,36.621,-23.926,0
1486825060.532,88.379,29.297,39.551,68.848,-41.016,0
1486825060.536,34.668,26.855,43.945,73.730,36.133,0
1486825060.540,-10.254,25.391,33.691,83.496,156.250,0
1486825060.543,21.973,26.855,34.180,54.688,136.719,0
1486825060.547,83.008,28.809,35.645,39.551,9.766,0
1486825060.551,83.008,27.832,36.621,62.500,4.883,0
1486825060.555,29.785,29.297,33.691,58.594,21.973,0
1486825060.559,-6.836,40.527,46.875,83.496,103.027,0
1486825060.563,11.719,32.715,43.945,72.754,124.512,0
1486825060.567,68.848,21.973,30.762,41.504,-5.371,0
1486825060.571,94.238,29.297,41.504,73.242,-36.621,0
1486825060.575,43.457,26.855,45.898,76.660,-28.809,0
1486825060.579,-11.719,26.855,39.551,83.496,78.125,0
1486825060.583,2.930,27.832,34.668,71.289,149.902,0
1486825060.586,60.547,29.297,29.297,45.898,31.250,0
1486825060.590,82.031,28.809,34.668,60.059,-51.270,0
1486825060.594,43.945,28.809,39.551,61.523,-37.109,0
1486825060.598,-4.395,32.227,38.574,83.984,107.910,0
1486825060.602,1.953,30.762,34.668,72.754,162.598,0
1486825060.606,60.059,24.902,32.715,34.668,35.156,0
1486825060.610,91.797,24.414,37.598,60.547,-21.484,0
1486825060.614,60.547,27.344,54.199,80.078,-9.277,0
1486825060.618,-0.488,26.367,52.734,78.613,113.281,0
1486825060.622,-9.766,24.414,33.203,68.848,178.711,0
1486825060.625,54.199,23.926,32.715,41.992,23.926,0
1486825060.629,89.355,27.344,36.621,58.105,-16.602,0
1486825060.633,60.547,29.785,40.527,69.824,8.301,0
1486825060.637,2.930,27.832,41.992,78.613,69.336,0
1486825060.641,-10.742,26.855,38.574,79.590,169.922,0
1486825060.645,50.293,29.785,42.480,40.527,74.707,0
1486825060.649,86.426,28.809,44.922,47.852,-16.113,0
1486825060.653,61.035,26.855,43.945,64.453,-3.906,0
1486825060.657,6.836,30.762,49.316,65.918,59.570,1
1486825060.661,-20.020,30.273,47.852,70.801,149.902,0
1486825060.665,25.391,28.809,37.598,30.762,66.895,0
1486825060.668,75.195,27.832,26.855,32.715,-43.945,0
1486825060.672,61.523,24.902,25.879,59.570,-29.785,0
1486825060.676,9.277,27.344,33.691,66.406,54.199,0
1486825060.680,-20.020,31.738,40.039,76.172,135.742,0
1486825060.684,25.391,30.273,35.645,40.039,90.332,0
1486825060.688,77.637,28.809,35.645,35.645,-12.695,0
1486825060.692,67.871,29.297,38.086,63.965,-18.555,0
1486825060.696,21.973,34.668,42.480,70.312,24.414,0
1486825060.700,-17.090,33.203,47.852,73.730,106.445,0
1486825060.704,17.578,29.785,36.133,40.039,76.172,0
1486825060.708,80.078,29.297,31.738,28.320,-44.922,0
1486825060.711,74.219,27.832,36.621,61.035,-60.059,0
1486825060.715,25.879,27.832,31.738,59.082,-17.090,0
1486825060.719,-9.766,32.227,42.969,76.660,109.375,0
1486825060.723,16.113,30.273,50.293,60.547,107.422,0
1486825060.727,74.219,25.879,35.156,33.691,-34.180,0
1486825060.731,83.984,27.832,30.273,62.012,-6.348,0
1486825060.735,40.039,30.273,39.551,64.941,80.566,0
1486825060.739,-9.277,26.367,47.363,76.660,136.719,0
1486825060.743,3.906,24.902,39.551,59.082,99.609,0
1486825060.747,66.406,30.273,32.715,26.855,-25.879,0
1486825060.750,88.867,28.809,40.039,62.500,-57.617,0
1486825060.754,46.875,28.809,41.016,70.312,-45.410,0
1486825060.758,-7.324,27.832,31.250,71.777,78.613,0
1486825060.762,0.488,29.297,34.180,65.430,166.016,0
1486825060.766,66.895,36.133,42.969,34.668,24.414,0
1486825060.770,88.379,24.414,33.203,55.664,-12.695,0
1486825060.774,54.199,21.973,33.203,65.430,26.367,0
1486825060.778,-5.371,26.367,42.480,64.941,89.844,0
1486825060.782,-17.090,23.438,37.598,57.129,157.715,0
1486825060.786,51.758,25.879,39.551,25.391,32.227,0
1486825060.790,86.914,26.855,39.551,43.945,-37.598,0
1486825060.793,52.246,26.367,34.668,60.547,24.414,0
1486825060.797,3.418,27.832,38.086,67.871,83.008,0
1486825060.801,-2.930,26.855,38.574,72.754,137.695,0
1486825060.805,50.781,25.879,37.109,38.086,39.062,0
1486825060.809,91.797,28.809,40.527,46.875,-41.504,0
1486825060.813,74.219,30.273,42.969,69.824,-17.090,0
1486825060.817,14.648,29.297,44.434,73.730,42.480,0
1486825060.821,-11.230,28.809,45.410,81.543,124.023,0
1486825060.825,44.922,22.461,41.992,41.016,65.430,0
1486825060.829,93.262,21.484,44.434,42.969,-24.414,0
1486825060.832,70.801,22.461,42.480,68.359,-39.062,0
1486825060.836,11.719,22.949,35.156,67.383,0.977,0
1486825060.840,-11.719,24.902,37.109,80.078,131.836,0
1486825060.844,36.133,23.438,37.109,43.945,84.961,0
1486825060.848,85.449,24.902,39.551,40.527,-66.406,0
1486825060.852,78.613,22.949,37.109,66.406,-35.156,0
1486825060.856,26.367,24.414,40.039,70.312,1.953,0
1486825060.860,-16.602,24.902,40.039,83.008,99.121,0
1486825060.864,20.996,24.902,29.297,35.645,64.941,0
1486825060.868,85.938,28.809,31.250,26.367,-36.621,0
1486825060.872,88.867,27.344,37.598,63.477,-9.277,0
1486825060.875,32.715,26.855,34.180,66.895,1.465,0
1486825060.879,-15.625,28.320,33.691,80.078,80.078,0
1486825060.883,15.625,25.391,38.086,52.734,120.605,0
1486825060.887,81.055,26.367,40.527,41.992,28.809,0
1486825060.891,91.797,27.344,43.457,65.430,-43.945,0
1486825060.895,42.480,28.809,40.527,61.035,-25.391,0
1486825060.899,-5.859,32.227,35.645,76.172,95.703,0
1486825060.903,14.648,29.785,34.180,62.988,129.395,0
1486825060.907,71.289,24.902,38.086,37.109,-0.488,0
1486825060.911,80.078,23.438,41.992,58.594,-22.949,0
1486825060.915,38.086,23.926,38.086,65.430,5.859,0
1486825060.918,-13.184,24.414,37.109,75.684,123.047,0
1486825060.922,-2.930,29.297,38.574,60.547,166.016,0
1486825060.926,62.500,26.367,44.434,31.250,28.320,0
1486825060.930,89.355,23.438,41.504,59.570,-0.977,0
1486825060.934,53.223,29.297,44.434,65.430,-4.883,0
1486825060.938,4.395,33.691,50.781,76.172,85.938,0
1486825060.942,-12.695,22.949,28.320,53.223,185.547,0
1486825060.946,40.527,20.508,21.973,17.090,58.105,0
1486825060.950,85.449,22.461,30.762,52.246,-13.672,0
1486825060.954,53.223,24.902,38.086,60.059,1.953,0
1486825060.957,1.953,28.320,40.039,68.359,66.895,0
1486825060.961,-10.254,28.320,36.133,65.430,175.293,0
1486825060.965,41.504,26.367,33.691,26.855,112.793,0
1486825060.969,83.496,26.367,38.086,46.875,17.090,0
1486825060.973,59.570,21.973,42.480,57.129,46.387,0
1486825060.977,7.324,24.414,38.086,65.430,116.699,0
1486825060.981,-10.742,30.762,36.133,63.965,159.180,0
1486825060.985,40.039,25.391,27.344,18.066,78.125,0
1486825060.989,90.332,21.484,28.320,39.062,19.531,0
1486825060.993,69.824,25.391,34.668,62.012,33.203,0
1486825060.997,10.742,25.879,34.180,62.988,71.289,0
1486825061.000,-8.789,25.879,50.293,73.730,169.434,0
1486825061.004,37.598,25.879,44.922,38.086,109.863,0
1486825061.008,83.496,22.461,27.832,39.551,-14.648,0
1486825061.012,66.895,20.508,32.715,61.523,-27.344,0
1486825061.016,5.859,22.461,39.062,71.777,49.316,0
1486825061.020,-27.344,23.926,40.527,86.426,153.809,0
1486825061.024,6.836,21.484,35.156,47.363,89.355,0
1486825061.028,65.430,21.484,33.203,41.504,-7.812,0
1486825061.032,70.801,24.414,43.457,75.195,14.160,0
1486825061.036,24.902,25.391,52.246,77.148,25.879,0
1486825061.040,-16.602,27.344,38.086,75.684,112.793,0
1486825061.043,15.137,25.391,27.832,55.176,130.371,0
1486825061.047,80.566,24.414,27.832,41.992,8.789,0
1486825061.051,84.961,24.902,35.645,58.594,-26.367,0
1486825061.055,30.273,26.855,46.387,68.848,3.418,0
1486825061.059,-20.508,33.691,42.480,80.078,103.516,0
1486825061.063,-1.953,27.832,40.039,60.547,121.094,0
1486825061.067,63.477,19.043,42.969,40.527,4.395,0
1486825061.071,84.473,24.902,35.156,61.523,-2.930,0
1486825061.075,42.969,27.344,38.574,68.359,10.742,0
1486825061.079,-12.207,25.879,43.457,74.219,88.867,0
1486825061.082,-2.441,26.855,33.691,62.988,152.344,0
1486825061.086,61.035,27.344,25.879,39.551,14.160,0
1486825061.090,84.473,26.855,32.715,61.523,-44.434,0
1486825061.094,50.781,30.273,42.480,69.336,-46.387,0
1486825061.098,-1.953,31.738,47.852,79.590,66.406,0
1486825061.102,-8.301,26.367,41.504,63.477,136.230,0
1486825061.106,44.922,24.902,25.879,27.344,11.230,0
1486825061.110,85.449,26.855,26.367,54.688,-20.020,0
1486825061.114,59.570,27.344,37.598,67.383,-7.324,0
1486825061.118,-5.371,28.809,43.457,65.918,43.457,0
1486825061.122,-10.254,30.273,37.109,65.430,140.137,0
1486825061.125,50.293,27.832,28.320,41.016,45.898,0
1486825061.129,86.914,28.320,26.855,55.176,-36.133,0
1486825061.133,72.754,33.203,37.598,65.430,-9.277,0
1486825061.137,9.766,29.785,41.016,73.242,62.988,0
1486825061.141,-15.625,27.344,31.738,81.543,161.621,0
1486825061.145,50.781,28.809,30.762,44.922,82.520,0
1486825061.149,104.980,29.297,32.227,52.246,-1.953,0
1486825061.153,81.055,27.832,32.227,67.383,3.418,0
1486825061.157,19.531,27.344,38.086,72.754,31.738,0
1486825061.161,-7.812,29.785,41.992,81.055,126.953,0
1486825061.164,35.156,25.391,34.180,40.527,94.238,0
1486825061.168,100.098,36.621,48.828,56.641,-12.207,0
1486825061.172,90.820,41.016,52.246,81.055,-29.785,0
1486825061.176,19.043,21.484,23.438,61.523,4.395,0
1486825061.180,-9.277,25.391,26.855,74.219,116.211,0
1486825061.184,32.227,27.832,32.227,47.852,74.707,0
1486825061.188,84.473,24.902,29.297,36.133,-44.922,0
1486825061.192,88.867,28.320,33.203,60.547,-33.691,0
1486825061.196,36.621,29.785,37.109,61.523,16.602,0
1486825061.200,-4.395,34.180,41.992,76.660,101.562,0
1486825061.204,26.367,32.715,44.434,61.523,86.914,0
1486825061.207,80.078,26.855,35.645,41.992,-4.395,0
1486825061.211,83.984,27.344,27.344,62.500,-33.203,0
1486825061.215,41.992,32.227,33.691,66.895,-4.395,0
1486825061.219,1.465,38.574,40.039,83.496,105.469,0
1486825061.223,21.484,34.668,31.250,56.641,125.977,0
1486825061.227,83.984,30.273,30.762,29.785,4.395,0
1486825061.231,105.469,33.691,36.621,64.941,-33.203,0
1486825061.235,59.082,36.133,39.062,65.430,-27.344,0
1486825061.239,-1.953,37.598,43.945,84.473,90.332,0
1486825061.243,13.672,35.156,46.875,71.289,141.113,0
1486825061.247,74.707,29.785,35.645,28.320,-8.789,0
1486825061.250,93.262,31.250,29.297,60.547,-62.500,0
1486825061.254,51.758,33.203,33.203,72.754,-27.344,0
1486825061.258,2.441,37.598,37.598,78.125,49.805,0
1486825061.262,13.184,34.180,36.133,71.777,97.656,0
1486825061.266,64.941,26.855,31.250,38.086,-16.113,0
1486825061.270,91.797,30.273,32.227,61.523,-38.086,0
1486825061.274,64.941,33.203,35.156,74.219,6.836,0
1486825061.278,8.789,30.762,46.875,83.984,55.176,0
1486825061.282,0.488,31.738,50.781,81.055,138.184,0
1486825061.286,55.176,30.273,36.621,37.109,39.551,0
1486825061.289,93.750,28.809,35.156,56.152,-31.738,0
1486825061.293,68.848,31.250,43.945,71.777,0.977,0
1486825061.297,8.301,33.203,39.551,79.590,93.262,0
1486825061.301,-4.395,28.809,41.504,85.938,183.594,0
1486825061.305,46.387,22.461,39.551,43.457,48.340,0
1486825061.309,87.891,25.391,40.039,52.734,-56.152,0
1486825061.313,74.707,27.344,46.387,69.824,-13.184,0
1486825061.317,8.789,29.785,39.062,61.523,51.270,0
1486825061.321,-19.043,28.809,31.250,75.195,159.668,0
1486825061.325,27.344,23.438,28.320,40.039,95.215,0
1486825061.329,73.730,23.926,30.762,37.109,-10.254,0
1486825061.332,69.336,29.297,37.598,64.453,6.836,0
1486825061.336,16.602,30.762,41.992,70.312,41.016,0
1486825061.340,-14.160,27.344,46.875,89.844,168.457,0
1486825061.344,29.785,26.367,41.504,48.340,125.977,0
1486825061.348,83.008,26.855,35.156,43.457,-10.254,0
1486825061.352,80.566,30.762,42.969,76.660,24.902,0
1486825061.356,27.344,33.691,47.363,68.848,40.527,0
1486825061.360,-17.090,29.297,36.621,79.102,87.402,1
1486825061.364,22.461,26.367,26.855,58.594,96.680,0
1486825061.368,81.055,29.297,33.691,47.852,-8.301,0
1486825061.372,82.520,29.297,40.527,70.312,-20.996,0
1486825061.375,37.598,29.297,42.969,69.824,34.180,0
1486825061.379,-6.348,33.691,39.551,86.426,175.781,0
1486825061.383,7.324,27.344,38.574,61.523,179.688,0
1486825061.387,61.523,25.879,38.574,43.457,25.879,0
1486825061.391,82.520,28.320,34.668,62.012,7.324,0
1486825061.395,34.668,26.367,35.156,55.664,17.578,0
1486825061.399,-20.020,26.855,35.645,68.359,124.512,0
1486825061.403,-1.953,26.367,35.156,57.129,152.832,0
1486825061.407,53.223,20.020,34.180,30.762,2.441,0
1486825061.411,87.402,27.832,38.574,52.734,-12.695,0
1486825061.414,55.176,37.109,47.852,60.547,-13.672,0
1486825061.418,-21.484,23.926,43.945,63.965,66.406,0
1486825061.422,-13.672,20.020,34.668,49.316,165.039,0
1486825061.426,53.711,23.438,27.832,17.578,44.434,0
1486825061.430,74.219,22.949,28.320,48.340,10.254,0
1486825061.434,43.457,25.391,33.691,58.594,22.461,0
1486825061.438,-5.859,26.855,45.410,71.777,63.477,0
1486825061.442,-12.695,25.879,41.504,70.801,110.840,0
1486825061.446,50.293,25.391,34.180,37.109,-1.953,0
1486825061.450,86.426,29.785,35.645,58.594,-34.668,0
1486825061.454,48.828,33.203,44.922,57.617,-46.875,0
1486825061.457,-10.742,28.320,44.922,61.035,15.137,0
1486825061.461,-17.578,27.344,38.574,76.660,153.320,0
1486825061.465,29.785,26.367,38.574,31.250,61.523,0
1486825061.469,69.336,24.414,28.320,40.039,-37.109,0
1486825061.473,60.547,27.344,31.250,64.941,-0.488,0
1486825061.477,2.441,32.227,42.969,65.430,43.945,0
1486825061.481,-23.438,32.227,42.480,69.336,98.633,0
1486825061.485,27.832,30.762,34.668,30.273,27.832,0
1486825061.489,76.660,26.855,36.133,32.227,-70.801,0
1486825061.493,67.383,26.367,41.504,49.316,-28.809,0
1486825061.496,9.766,30.762,38.086,57.129,25.391,0
1486825061.500,-25.391,31.250,33.691,69.824,90.332,0
1486825061.504,19.531,31.738,35.156,28.320,34.180,0
1486825061.508,80.566,32.227,36.133,35.645,-51.270,0
1486825061.512,79.102,31.250,35.156,59.082,-32.715,0
1486825061.516,27.344,32.715,40.527,64.941,30.762,0
1486825061.520,-6.348,32.227,41.016,84.961,123.535,0
1486825061.524,25.391,27.344,40.039,46.875,55.176,0
1486825061.528,78.613,26.367,40.039,43.457,-50.781,0
1486825061.532,81.543,31.250,36.621,67.871,-26.855,0
1486825061.536,23.438,27.344,34.668,63.477,12.207,0
1486825061.539,-16.113,25.391,41.016,86.914,123.047,0
1486825061.543,19.531,28.809,48.340,65.918,116.211,0
1486825061.547,75.684,26.855,43.457,46.387,-15.137,0
1486825061.551,88.867,27.344,33.691,62.988,-20.996,0
1486825061.555,45.410,28.809,37.598,56.641,4.395,0
1486825061.559,-5.859,27.344,47.852,75.195,106.934,0
1486825061.563,18.066,28.320,39.551,59.570,150.391,0
1486825061.567,74.707,26.367,29.785,30.762,0.488,0
1486825061.571,93.750,27.344,32.227,62.012,-6.348,0
1486825061.575,59.082,28.320,42.969,64.453,33.691,0
1486825061.579,2.930,28.809,50.293,79.590,105.957,0
1486825061.582,6.836,28.809,43.457,73.730,177.734,0
