timestamps,TP9,AF7,AF8,TP10,Right AUX,Marker
1485533512.801,-23.438,49.316,53.711,33.203,-36.133,0
1485533512.805,140.625,49.805,42.969,8.301,-223.633,0
1485533512.809,176.270,51.758,39.062,53.711,-82.031,0
1485533512.813,50.781,53.223,41.504,74.707,122.070,0
1485533512.816,-67.871,55.664,48.340,96.680,-0.488,0
1485533512.820,-25.391,57.617,48.340,72.266,307.129,0
1485533512.824,139.648,51.270,42.480,19.043,219.727,0
1485533512.828,199.219,54.199,36.621,53.711,-108.398,0
1485533512.832,81.055,59.082,41.016,94.238,446.289,0
1485533512.836,-60.059,53.223,56.641,92.773,447.754,0
1485533512.840,-42.480,53.223,54.688,51.758,-59.082,0
1485533512.844,120.117,54.199,43.945,19.043,-8.789,0
1485533512.848,192.871,52.734,37.598,48.828,32.715,0
1485533512.852,86.914,48.828,39.062,64.453,5.371,0
1485533512.856,-63.965,49.805,51.270,91.309,23.926,0
1485533512.859,-62.988,52.734,50.781,68.848,22.949,0
1485533512.863,95.703,52.734,42.480,21.973,-96.680,0
1485533512.867,202.637,52.246,39.551,60.059,-19.531,0
1485533512.871,124.023,51.758,41.504,88.379,514.160,0
1485533512.875,-41.016,54.199,48.828,89.355,519.043,0
1485533512.879,-69.824,55.176,56.641,72.754,67.383,0
1485533512.883,70.801,48.828,50.293,24.414,-102.539,0
1485533512.887,186.523,46.387,39.062,34.668,-278.320,0
1485533512.891,127.441,47.852,42.480,63.965,-95.703,0
1485533512.895,-26.367,47.852,53.223,84.473,41.504,0
1485533512.898,-82.520,52.734,54.688,79.102,10.254,0
1485533512.902,52.734,51.270,45.410,23.438,20.508,0
1485533512.906,185.059,49.316,38.086,29.297,-34.668,0
1485533512.910,144.043,49.316,40.527,51.758,-10.742,0
1485533512.914,-12.207,52.246,50.293,83.984,246.582,0
1485533512.918,-92.773,52.734,59.082,80.078,409.668,0
1485533512.922,17.090,46.387,52.734,0.488,130.859,0
1485533512.926,162.598,43.945,45.410,2.930,-376.953,0
1485533512.930,132.812,46.875,37.598,78.125,114.746,0
1485533512.934,-11.230,45.898,44.922,91.797,640.625,0
1485533512.938,-86.914,45.410,60.059,66.406,167.480,0
1485533512.941,0.000,46.387,52.246,21.484,-22.461,0
1485533512.945,157.227,43.945,41.504,20.508,-299.316,0
1485533512.949,159.180,45.898,40.039,67.383,-121.582,0
1485533512.953,19.043,47.363,52.246,84.961,85.449,0
1485533512.957,-84.473,50.781,58.105,102.539,18.555,0
1485533512.961,-15.625,51.270,45.410,57.129,400.879,0
1485533512.965,138.672,43.457,39.551,16.113,97.168,0
1485533512.969,171.875,46.875,37.109,66.406,-55.664,0
1485533512.973,32.715,51.758,41.504,92.285,549.805,0
1485533512.977,-91.797,46.875,52.734,74.219,317.383,0
1485533512.980,-32.715,49.316,48.828,50.781,58.594,0
1485533512.984,124.512,45.898,40.039,13.184,-226.074,0
1485533512.988,174.805,48.340,33.691,38.574,-232.910,0
1485533512.992,59.570,53.711,40.527,70.312,60.059,0
1485533512.996,-77.148,48.828,51.758,84.961,0.488,0
1485533513.000,-62.012,44.434,46.875,49.805,100.098,0
1485533513.004,95.703,41.016,36.621,6.836,-125.000,0
1485533513.008,167.969,42.480,34.180,48.828,-59.570,0
1485533513.012,72.754,47.852,34.180,70.801,560.059,0
1485533513.016,-61.523,48.828,44.434,71.289,440.430,0
1485533513.020,-63.477,49.316,49.805,53.223,76.172,0
1485533513.023,96.680,50.781,38.086,5.859,55.664,0
1485533513.027,196.777,50.293,36.621,32.715,-176.758,0
1485533513.031,110.840,52.246,43.945,66.406,-89.844,0
1485533513.035,-41.016,54.199,53.223,88.867,44.922,0
1485533513.039,-73.242,53.223,55.664,76.172,138.672,0
1485533513.043,65.918,48.828,48.340,13.672,-61.523,0
1485533513.047,181.641,47.852,42.969,33.691,-336.426,0
1485533513.051,119.629,44.434,45.410,72.266,-87.891,0
1485533513.055,-41.992,46.387,49.805,100.098,292.480,0
1485533513.059,-92.773,52.246,48.828,79.102,487.793,0
1485533513.063,46.875,49.805,44.434,9.766,83.496,0
1485533513.066,180.176,46.875,40.527,19.043,-471.191,0
1485533513.070,133.301,52.734,35.156,71.289,131.348,0
1485533513.074,-24.902,52.734,46.387,90.820,585.938,0
1485533513.078,-92.285,52.246,54.199,65.918,211.914,0
1485533513.082,31.250,56.152,44.434,11.230,104.980,0
1485533513.086,177.246,50.781,37.598,16.113,-263.184,0
1485533513.090,148.438,51.270,33.691,54.688,-107.422,0
1485533513.094,1.953,46.875,42.969,72.754,63.965,0
1485533513.098,-87.891,46.875,50.781,85.938,50.293,0
1485533513.102,0.977,50.293,43.457,34.668,276.855,0
1485533513.105,161.133,45.410,43.457,14.648,-85.938,0
1485533513.109,162.598,48.828,39.062,65.430,35.156,0
1485533513.113,19.043,53.711,37.598,93.262,636.719,0
1485533513.117,-75.195,50.781,51.758,85.938,423.828,0
1485533513.121,-6.836,49.805,49.805,38.086,39.551,0
1485533513.125,158.203,49.805,38.574,17.578,-343.262,0
1485533513.129,183.105,50.293,33.691,61.035,-83.496,0
1485533513.133,49.316,51.758,38.574,83.008,118.652,0
1485533513.137,-78.125,54.199,45.898,87.402,75.684,0
1485533513.141,-38.574,53.223,43.945,38.574,264.160,0
1485533513.145,142.578,46.387,36.133,6.348,-173.828,1
1485533513.148,169.434,46.875,27.832,51.758,-11.719,0
1485533513.152,40.039,51.270,30.762,71.777,610.840,0
1485533513.156,-79.590,49.805,48.340,75.684,413.574,0
1485533513.160,-50.781,50.781,49.805,41.504,53.223,0
1485533513.164,114.746,47.363,38.086,3.906,-305.664,0
1485533513.168,176.758,48.340,31.250,45.898,-278.320,0
1485533513.172,64.453,49.805,32.227,71.777,31.250,0
1485533513.176,-74.219,51.758,44.922,82.520,99.121,0
1485533513.180,-62.988,56.641,50.293,62.500,94.238,0
1485533513.184,95.215,49.805,41.992,23.438,-240.723,0
1485533513.188,185.547,49.805,32.227,46.875,-294.434,0
1485533513.191,101.562,51.270,33.691,76.172,20.508,0
1485533513.195,-47.363,52.246,42.480,104.980,346.191,0
1485533513.199,-73.242,55.176,48.340,79.590,483.398,0
1485533513.203,77.637,51.758,43.457,13.672,72.266,0
1485533513.207,192.383,49.316,37.598,37.598,-376.953,0
1485533513.211,104.492,55.664,32.715,82.031,270.020,0
1485533513.215,-46.387,56.641,41.992,92.773,681.152,0
1485533513.219,-67.383,52.246,54.199,68.848,152.832,0
1485533513.223,66.406,49.316,42.969,8.301,-157.715,0
1485533513.227,189.453,48.828,33.691,27.344,-311.035,0
1485533513.230,129.883,48.340,34.180,62.012,-55.176,0
1485533513.234,-23.438,48.828,43.945,79.590,126.465,0
1485533513.238,-89.355,50.293,46.387,84.473,106.934,0
1485533513.242,22.949,50.293,38.086,27.344,187.012,0
1485533513.246,170.898,46.387,40.039,19.043,-100.098,0
1485533513.250,143.555,49.316,39.551,67.871,134.277,0
1485533513.254,-7.812,51.270,42.480,90.820,625.000,0
1485533513.258,-87.891,47.363,52.246,72.266,423.340,0
1485533513.262,9.766,44.434,48.828,15.137,74.707,0
1485533513.266,160.156,40.527,40.039,7.324,-333.496,0
1485533513.270,150.391,44.922,36.133,50.293,-34.180,0
1485533513.273,9.766,49.805,40.527,74.219,183.594,0
1485533513.277,-91.797,51.758,49.805,91.309,108.398,0
1485533513.281,-10.254,50.781,47.363,37.109,-32.715,0
1485533513.285,152.832,47.852,36.621,18.555,-357.910,0
1485533513.289,157.715,49.805,29.785,76.172,102.051,0
1485533513.293,26.855,50.781,37.109,76.172,695.312,0
1485533513.297,-74.219,49.316,52.734,69.336,321.777,0
1485533513.301,-25.879,48.828,49.316,41.016,-64.453,0
1485533513.305,136.719,46.875,38.574,16.602,-306.641,0
1485533513.309,187.012,50.293,32.715,58.594,-125.000,0
1485533513.312,73.730,54.199,37.598,80.078,163.574,0
1485533513.316,-68.848,54.688,47.852,85.449,267.090,0
1485533513.320,-46.875,53.711,49.316,41.504,146.484,0
1485533513.324,117.676,52.246,41.504,14.160,-267.578,0
1485533513.328,176.270,50.781,36.621,54.688,-36.621,0
1485533513.332,64.941,51.758,43.945,67.383,181.641,0
1485533513.336,-73.242,53.223,49.316,86.914,320.312,0
1485533513.340,-62.500,53.223,47.852,60.059,464.355,0
1485533513.344,101.562,48.828,41.504,10.254,31.738,0
1485533513.348,189.453,45.898,38.086,38.086,-343.750,0
1485533513.352,86.426,52.734,38.086,77.637,407.227,0
1485533513.355,-60.059,53.223,47.363,84.961,597.168,0
1485533513.359,-66.406,54.199,52.246,53.223,12.695,0
1485533513.363,83.496,54.199,44.434,10.742,-226.562,0
1485533513.367,192.871,51.270,39.551,39.551,-319.336,0
1485533513.371,118.164,52.246,37.109,62.500,-44.434,0
1485533513.375,-46.875,53.223,44.922,93.750,261.230,0
1485533513.379,-81.055,54.199,49.805,80.566,293.457,0
1485533513.383,60.059,50.781,41.992,16.113,118.652,0
1485533513.387,176.758,45.410,39.062,27.344,-1.953,0
1485533513.391,120.605,48.340,35.645,62.500,429.688,0
1485533513.395,-37.598,50.293,43.457,78.613,612.305,0
1485533513.398,-89.844,47.852,52.246,60.547,49.805,0
1485533513.402,36.133,49.805,44.922,11.719,-195.312,0
1485533513.406,172.852,48.340,40.527,19.531,-348.633,0
1485533513.410,154.785,48.340,35.645,60.547,-52.246,0
1485533513.414,4.883,49.805,43.457,81.055,114.258,0
1485533513.418,-83.496,51.758,51.270,90.332,41.504,0
1485533513.422,21.484,53.223,43.457,29.785,-94.238,0
1485533513.426,168.457,51.270,36.621,25.391,-361.816,0
1485533513.430,154.785,49.316,31.738,80.078,221.191,0
1485533513.434,16.602,49.805,39.062,96.680,680.176,0
1485533513.437,-82.031,52.246,53.223,90.820,330.566,0
1485533513.441,-4.395,52.246,50.781,34.668,-5.371,0
1485533513.445,150.391,47.363,43.457,20.996,-367.188,0
1485533513.449,157.715,49.805,37.598,74.219,39.062,0
1485533513.453,33.691,50.781,45.410,94.238,392.090,0
1485533513.457,-75.684,52.246,56.152,86.426,42.480,0
1485533513.461,-26.367,52.246,51.758,38.086,-27.344,0
1485533513.465,135.742,45.410,45.410,19.043,-280.762,0
1485533513.469,168.945,47.852,37.109,63.965,-34.180,0
1485533513.473,44.434,50.781,40.039,83.008,227.539,0
1485533513.477,-83.984,50.781,50.293,99.609,255.371,0
1485533513.480,-41.016,50.293,47.852,62.012,401.855,0
1485533513.484,130.859,45.898,42.480,12.207,-129.883,0
1485533513.488,180.176,46.387,37.109,56.152,-205.566,0
1485533513.492,59.570,50.781,38.574,86.426,587.402,0
1485533513.496,-60.547,52.734,52.246,83.008,423.340,0
1485533513.500,-45.898,55.664,53.711,52.246,-63.477,0
1485533513.504,109.863,52.734,43.945,13.184,-275.391,0
1485533513.508,183.105,47.852,37.598,51.270,-229.980,0
1485533513.512,80.078,49.316,40.039,70.312,93.262,0
1485533513.516,-55.664,51.270,50.781,84.473,27.832,0
1485533513.520,-67.871,55.176,50.293,67.383,0.977,0
1485533513.523,78.613,53.711,42.480,17.090,-6.348,0
1485533513.527,174.805,47.363,38.574,42.969,76.660,0
1485533513.531,90.820,48.828,39.062,64.453,548.828,0
1485533513.535,-59.570,51.758,47.363,69.336,568.359,0
1485533513.539,-78.613,49.316,51.270,55.664,171.875,0
1485533513.543,62.500,44.434,44.922,-1.465,-169.922,0
1485533513.547,179.199,46.387,39.551,23.438,-325.195,0
1485533513.551,128.418,47.852,34.180,52.246,88.867,0
1485533513.555,-27.344,47.852,40.039,69.336,136.230,0
1485533513.559,-88.379,52.246,49.316,73.242,-37.109,0
1485533513.562,43.945,54.199,43.457,0.488,-181.641,1
1485533513.566,180.176,52.246,32.715,12.207,-288.574,0
1485533513.570,138.672,49.316,30.762,52.734,153.809,0
1485533513.574,-12.207,47.852,41.992,68.848,301.758,0
1485533513.578,-80.078,50.293,50.781,73.730,113.281,0
1485533513.582,34.668,50.293,45.410,18.066,-69.824,0
1485533513.586,176.270,48.828,36.621,13.672,-334.473,0
1485533513.590,145.020,52.246,32.227,62.012,204.102,0
1485533513.594,-0.977,56.152,43.945,81.543,621.582,0
1485533513.598,-85.938,53.711,56.641,72.266,161.133,0
1485533513.602,-3.418,54.199,47.852,21.973,-57.617,0
1485533513.605,149.902,54.688,44.434,12.207,-230.957,0
1485533513.609,154.297,51.758,39.062,54.199,80.078,0
1485533513.613,20.020,51.758,41.504,79.590,286.621,0
1485533513.617,-94.238,52.246,54.199,88.379,299.316,0
1485533513.621,-29.785,51.758,49.805,33.203,388.184,0
1485533513.625,140.137,48.828,42.480,4.395,-51.270,0
1485533513.629,166.992,49.805,39.062,56.641,64.941,0
1485533513.633,37.109,53.711,41.016,74.707,619.141,0
1485533513.637,-72.266,51.270,52.734,66.406,285.645,0
1485533513.641,-33.691,54.199,50.781,40.527,-68.848,0
1485533513.644,127.441,52.734,40.527,18.066,-282.715,0
1485533513.648,190.430,51.758,35.645,58.594,-92.285,0
1485533513.652,74.707,53.223,41.504,73.730,125.488,0
1485533513.656,-49.805,55.664,52.734,95.215,-15.625,0
1485533513.660,-36.133,57.617,49.805,70.312,2.441,0
1485533513.664,113.770,53.223,39.062,29.297,1.953,0
1485533513.668,196.289,49.316,36.133,66.895,236.816,0
1485533513.672,93.750,48.340,42.969,80.078,438.965,0
1485533513.676,-48.828,51.758,55.176,85.938,183.594,0
1485533513.680,-57.129,55.176,54.688,72.266,-28.320,0
1485533513.684,87.891,51.270,44.434,20.020,-227.051,0
1485533513.687,178.223,48.340,35.645,42.969,-234.375,0
1485533513.691,92.285,50.293,37.109,67.383,142.090,0
1485533513.695,-49.805,55.176,50.293,82.031,143.066,0
1485533513.699,-73.730,60.547,54.199,70.801,0.000,0
1485533513.703,63.477,57.129,44.922,19.043,-169.922,0
1485533513.707,172.363,51.758,36.621,38.086,-239.258,0
1485533513.711,118.164,49.316,37.598,65.430,106.934,0
1485533513.715,-31.738,48.828,46.387,89.844,338.867,0
1485533513.719,-81.055,50.781,49.316,74.219,155.762,0
1485533513.723,55.176,50.293,41.992,11.719,-105.957,0
1485533513.727,183.105,48.340,38.086,26.367,-239.746,0
1485533513.730,133.789,51.758,36.133,68.848,310.547,0
1485533513.734,-13.672,51.758,46.387,91.309,479.980,0
1485533513.738,-79.102,49.805,54.688,85.938,24.414,0
1485533513.742,32.715,49.316,47.363,31.250,-134.766,0
1485533513.746,176.758,51.758,40.527,38.086,-195.801,0
1485533513.750,152.344,51.270,35.156,61.523,89.844,0
1485533513.754,10.254,52.246,43.945,82.031,51.758,0
1485533513.758,-81.055,59.082,50.293,109.375,281.738,0
1485533513.762,6.348,53.711,44.434,33.691,375.488,0
1485533513.766,159.668,47.363,40.039,8.301,-157.715,0
1485533513.769,158.691,51.758,34.180,68.359,145.020,0
1485533513.773,9.277,51.270,37.109,80.078,588.867,0
1485533513.777,-92.773,46.387,49.316,70.312,199.219,0
1485533513.781,-14.160,52.246,44.434,36.133,-39.062,0
1485533513.785,143.066,50.781,35.645,18.066,-162.598,0
1485533513.789,164.551,48.340,32.715,57.129,162.109,0
1485533513.793,42.480,50.781,41.992,75.195,184.570,0
1485533513.797,-73.242,55.176,55.176,90.820,-36.621,0
1485533513.801,-26.855,55.664,45.898,53.223,30.762,0
1485533513.805,146.973,50.781,34.180,25.391,51.758,0
1485533513.809,194.336,50.293,32.715,62.500,225.098,0
1485533513.812,64.453,51.270,37.109,83.496,567.383,0
1485533513.816,-62.012,51.758,48.340,85.449,314.941,0
1485533513.820,-35.645,54.688,47.363,58.594,-32.227,0
1485533513.824,116.699,49.316,38.574,26.367,-160.645,0
1485533513.828,177.246,47.363,36.621,62.988,-112.793,0
1485533513.832,70.312,52.246,45.410,77.148,55.176,0
1485533513.836,-71.289,56.152,50.293,83.984,14.160,0
1485533513.840,-70.312,56.152,44.922,58.594,50.293,0
1485533513.844,82.031,49.805,38.086,3.418,-104.004,0
1485533513.848,173.340,49.316,32.227,41.016,52.734,0
1485533513.852,84.473,50.781,38.086,61.523,376.465,0
1485533513.855,-59.082,51.270,50.293,72.266,281.738,0
1485533513.859,-73.730,51.758,54.688,63.477,69.824,0
1485533513.863,56.641,49.805,48.828,5.371,-95.703,0
1485533513.867,165.527,49.316,41.016,21.973,-249.023,0
1485533513.871,100.586,47.363,41.992,57.617,175.293,0
1485533513.875,-55.176,44.434,54.199,72.754,297.852,0
1485533513.879,-97.168,48.828,54.688,62.500,2.441,0
1485533513.883,37.598,46.875,41.504,3.418,-51.270,0
1485533513.887,174.805,45.410,38.086,19.531,-207.031,0
1485533513.891,125.977,45.410,41.504,51.758,-103.027,0
1485533513.894,-23.438,46.387,49.805,77.637,20.996,0
1485533513.898,-90.820,49.805,55.176,84.473,253.906,0
1485533513.902,18.555,47.363,46.875,13.184,346.680,0
1485533513.906,165.039,47.363,41.016,12.207,12.695,0
1485533513.910,140.137,50.781,44.434,67.383,269.043,0
1485533513.914,-10.742,50.293,51.758,87.891,559.570,0
1485533513.918,-92.285,48.828,56.641,73.242,121.094,0
1485533513.922,4.395,48.828,53.711,18.066,-40.039,0
1485533513.926,156.250,45.410,46.875,14.648,-218.750,0
1485533513.930,151.367,44.434,39.062,55.176,-51.270,0
1485533513.934,15.137,47.363,48.340,74.219,73.242,0
1485533513.937,-84.961,49.316,58.594,88.867,-18.555,0
1485533513.941,-13.672,50.293,48.340,29.785,53.223,0
1485533513.945,145.020,47.852,39.551,11.719,29.297,0
1485533513.949,165.039,47.852,39.551,65.918,270.996,0
1485533513.953,32.227,51.270,47.363,75.195,551.270,0
1485533513.957,-76.172,49.316,57.617,75.684,226.074,0
1485533513.961,-17.578,51.758,51.270,45.410,129.883,0
1485533513.965,145.508,48.828,44.434,14.648,-31.250,0
1485533513.969,187.988,46.875,41.016,56.152,-59.082,0
1485533513.973,69.824,51.270,43.945,73.730,72.754,0
1485533513.976,-56.152,53.711,53.223,88.379,-12.695,0
1485533513.980,-25.391,55.664,50.781,50.293,75.195,0
1485533513.984,133.301,53.711,46.387,11.230,-196.289,0
1485533513.988,190.918,53.223,42.969,53.711,-250.488,0
1485533513.992,76.172,54.688,40.527,75.684,188.965,0
1485533513.996,-58.594,53.711,53.711,86.426,310.547,0
1485533514.000,-48.340,54.199,55.664,55.176,169.434,0
1485533514.004,106.445,49.316,40.527,10.254,-181.641,0
1485533514.008,187.988,48.828,36.133,42.969,-302.246,0
1485533514.012,92.285,49.805,40.039,67.871,127.441,0
1485533514.016,-52.734,52.246,49.805,79.590,139.160,0
1485533514.019,-67.871,56.152,51.270,62.012,63.477,0
1485533514.023,78.125,50.293,43.945,15.137,41.992,0
1485533514.027,187.012,46.387,41.016,41.504,-226.562,0
1485533514.031,107.910,49.805,42.969,68.359,135.742,0
1485533514.035,-36.621,52.734,53.711,90.332,260.254,0
1485533514.039,-70.312,54.199,53.711,87.402,373.047,0
1485533514.043,61.035,51.270,43.945,14.648,254.883,0
1485533514.047,194.336,46.875,42.480,24.902,-395.996,0
1485533514.051,131.836,50.293,41.504,74.219,209.473,0
1485533514.055,-19.531,55.176,51.270,93.750,596.680,2
1485533514.059,-64.453,57.617,60.059,75.684,133.301,0
1485533514.062,51.758,56.152,53.223,14.648,-73.730,0
1485533514.066,185.547,48.828,46.387,28.320,-312.500,0
1485533514.070,143.555,47.852,43.945,62.500,-56.152,0
1485533514.074,-7.324,51.758,52.734,83.984,65.430,0
1485533514.078,-90.332,51.758,59.570,93.262,41.016,0
1485533514.082,3.906,50.293,46.387,26.855,131.836,0
1485533514.086,162.109,49.316,37.598,22.461,16.113,0
1485533514.090,137.695,52.734,37.598,68.359,336.914,0
1485533514.094,-3.906,52.246,43.945,74.707,539.551,0
1485533514.098,-83.984,49.316,52.246,75.195,150.879,0
1485533514.101,-6.836,51.758,50.781,34.180,-43.945,0
1485533514.105,158.691,50.293,46.387,18.555,-344.238,0
1485533514.109,164.551,48.340,40.527,62.012,-114.258,0
1485533514.113,23.926,47.363,45.898,81.543,81.055,0
1485533514.117,-89.355,51.758,55.664,96.191,23.926,0
1485533514.121,-36.133,50.293,53.711,43.457,52.246,0
1485533514.125,128.418,47.852,42.480,10.254,-317.871,0
1485533514.129,172.852,52.246,36.621,61.523,-123.047,0
1485533514.133,52.734,56.641,43.457,87.891,377.930,0
1485533514.137,-76.660,57.617,52.734,94.238,298.340,0
1485533514.141,-36.621,56.641,46.387,57.129,326.660,0
1485533514.144,131.836,54.688,36.133,22.949,46.387,0
1485533514.148,184.570,54.199,39.551,68.848,-179.199,0
1485533514.152,71.777,56.152,43.457,96.191,483.887,0
1485533514.156,-56.152,56.152,53.711,85.449,429.199,0
1485533514.160,-47.363,54.199,57.129,60.059,74.219,0
1485533514.164,98.633,48.340,42.969,16.113,-196.289,0
1485533514.168,174.805,50.781,34.668,43.457,-248.535,0
1485533514.172,81.543,51.270,41.504,70.801,12.695,0
1485533514.176,-62.500,51.758,49.316,85.938,58.105,0
1485533514.180,-76.660,56.641,44.922,69.824,330.078,0
1485533514.183,73.242,51.758,39.551,3.418,196.289,0
1485533514.187,177.734,47.363,39.062,20.508,-285.156,0
1485533514.191,90.820,53.223,37.109,64.453,297.852,0
1485533514.195,-56.152,55.176,44.922,74.707,581.055,0
1485533514.199,-82.031,51.758,52.246,54.199,225.098,0
1485533514.203,62.012,49.805,44.922,-0.488,-25.391,0
1485533514.207,186.035,46.875,37.109,21.973,-366.699,0
1485533514.211,114.258,45.410,37.109,56.641,-141.113,0
1485533514.215,-33.691,46.875,47.363,85.449,50.293,0
1485533514.219,-81.543,46.387,51.758,83.984,92.285,0
1485533514.223,41.504,45.410,45.410,23.438,-105.469,0
1485533514.226,176.270,44.434,37.109,42.969,-60.059,0
1485533514.230,130.859,47.363,32.715,75.684,475.586,0
1485533514.234,-20.020,49.316,42.480,93.262,589.844,0
1485533514.238,-84.961,49.805,54.199,80.566,170.898,0
1485533514.242,22.949,49.805,47.852,18.555,-113.770,0
1485533514.246,170.410,42.969,41.504,27.832,-351.562,0
1485533514.250,150.391,41.992,36.621,60.059,-108.887,0
1485533514.254,11.719,47.363,41.504,77.637,40.039,0
1485533514.258,-81.543,51.270,50.781,100.586,179.199,0
1485533514.262,-2.930,48.340,51.758,37.598,185.059,0
1485533514.266,156.738,44.434,41.992,13.672,-321.777,0
1485533514.269,162.598,46.875,32.227,61.035,-95.215,0
1485533514.273,17.578,48.340,36.133,88.379,342.285,0
1485533514.277,-86.426,50.293,46.387,98.145,430.664,0
1485533514.281,-18.066,50.781,46.875,40.527,228.027,0
1485533514.285,142.090,44.922,37.598,3.906,-352.051,0
1485533514.289,166.504,48.340,31.738,62.012,-114.258,0
1485533514.293,38.574,50.781,36.621,89.355,586.914,0
1485533514.297,-73.242,49.316,53.223,77.637,340.820,0
1485533514.301,-41.016,47.852,49.316,36.133,-15.625,0
1485533514.305,116.699,44.922,35.645,3.418,-292.480,0
1485533514.308,164.062,43.945,32.227,49.316,-145.996,0
1485533514.312,42.969,44.922,36.133,66.895,104.980,0
1485533514.316,-82.031,50.781,44.434,86.914,225.098,0
1485533514.320,-63.477,54.199,44.922,61.523,466.309,0
1485533514.324,102.051,49.805,37.109,12.207,152.832,0
1485533514.328,176.270,47.363,32.227,48.340,-54.688,0
1485533514.332,62.500,52.246,33.203,77.637,479.980,0
1485533514.336,-66.406,50.293,46.875,89.355,530.273,0
1485533514.340,-54.688,49.805,53.223,62.500,-9.277,0
1485533514.344,86.914,47.363,39.551,14.648,-274.414,0
1485533514.348,179.688,43.945,28.809,45.410,-339.844,0
1485533514.351,90.332,49.805,30.762,65.430,-29.785,0
1485533514.355,-62.500,49.316,40.527,84.961,116.211,0
1485533514.359,-75.195,49.805,44.434,75.195,51.758,0
1485533514.363,63.965,50.781,40.039,12.207,-182.617,0
1485533514.367,180.176,49.316,35.156,40.527,-92.285,0
1485533514.371,110.840,52.246,37.598,69.824,476.562,0
1485533514.375,-52.734,53.711,46.387,77.637,697.754,0
1485533514.379,-85.938,52.734,53.711,74.707,368.652,0
1485533514.383,45.410,49.316,47.852,18.066,-14.648,0
1485533514.387,177.734,47.363,41.016,33.691,-313.965,0
1485533514.391,127.930,51.758,40.039,65.918,-131.836,0
1485533514.394,-26.367,53.223,46.875,83.008,84.961,0
1485533514.398,-84.961,53.711,52.734,88.867,37.598,0
1485533514.402,27.344,55.664,44.434,25.391,-146.973,0
1485533514.406,164.062,50.781,42.969,34.668,-342.285,0
1485533514.410,145.020,51.270,42.969,78.613,-42.480,0
1485533514.414,-4.883,55.664,41.992,97.656,431.152,0
1485533514.418,-95.215,52.734,51.758,93.262,454.102,0
1485533514.422,4.395,50.293,53.223,20.996,45.410,0
1485533514.426,154.785,45.410,44.434,9.766,-406.738,0
1485533514.430,140.625,49.316,39.551,66.895,9.766,0
1485533514.433,0.000,55.176,43.457,87.402,699.707,0
1485533514.437,-91.309,53.223,52.246,74.707,437.988,0
1485533514.441,-12.695,49.316,50.293,24.902,-31.250,0
1485533514.445,149.414,46.387,44.922,15.625,-343.262,0
1485533514.449,162.598,53.711,38.086,52.734,-39.551,0
1485533514.453,33.203,53.711,41.016,66.895,222.168,0
1485533514.457,-83.008,51.758,56.152,92.773,47.852,0
1485533514.461,-43.457,56.152,48.828,60.547,270.508,0
1485533514.465,135.254,50.781,43.457,10.742,33.691,0
1485533514.469,187.988,50.293,40.527,56.152,-83.984,0
1485533514.473,50.293,55.176,39.062,81.543,582.031,0
1485533514.476,-76.172,55.176,54.199,78.613,397.949,2
1485533514.480,-45.410,57.129,52.246,58.594,-41.016,0
1485533514.484,118.652,53.711,41.992,19.531,-273.438,0
1485533514.488,195.801,54.688,37.598,53.223,-203.613,0
1485533514.492,89.844,57.129,41.992,75.684,168.457,0
1485533514.496,-56.641,53.711,52.246,85.449,245.605,0
1485533514.500,-64.941,54.688,50.293,50.781,88.379,0
1485533514.504,92.285,51.758,43.945,1.953,-251.953,0
1485533514.508,171.875,49.805,39.551,43.457,-63.965,0
1485533514.512,75.195,57.129,37.598,68.359,654.785,0
1485533514.515,-64.453,56.641,48.828,77.148,563.477,0
1485533514.519,-78.613,52.246,53.711,64.453,25.879,0
1485533514.523,69.824,51.270,41.504,9.277,-196.289,0
1485533514.527,179.688,48.828,33.691,38.574,-283.691,0
1485533514.531,113.281,51.758,39.062,67.871,45.410,0
1485533514.535,-32.227,54.688,50.781,82.520,129.883,0
1485533514.539,-76.172,54.688,55.664,85.938,39.551,0
1485533514.543,63.965,52.734,49.805,30.273,-149.414,0
1485533514.547,187.012,49.316,43.457,48.340,-309.082,0
1485533514.551,130.371,49.316,42.969,77.637,-13.184,0
1485533514.555,-20.508,53.223,47.363,94.727,292.969,0
1485533514.558,-78.613,58.594,51.270,92.773,411.621,0
1485533514.562,45.898,55.176,48.828,25.879,137.695,0
1485533514.566,181.152,47.852,43.945,31.250,-375.000,0
1485533514.570,151.855,55.664,39.062,81.055,225.098,0
1485533514.574,5.859,56.152,48.340,95.215,657.715,0
1485533514.578,-83.008,51.758,58.105,82.520,105.469,0
1485533514.582,10.742,51.758,48.828,19.043,-133.301,0
1485533514.586,152.344,49.805,41.992,14.648,-307.617,0
1485533514.590,143.555,50.293,41.016,61.035,79.102,0
1485533514.594,11.719,51.270,49.316,78.613,253.906,0
1485533514.598,-87.402,58.105,57.129,91.309,22.461,0
1485533514.601,-19.043,57.129,48.828,44.922,248.535,0
1485533514.605,140.625,47.363,44.922,14.648,34.180,0
1485533514.609,166.504,47.852,44.434,65.918,145.508,0
1485533514.613,39.062,53.711,51.758,86.914,639.160,0
1485533514.617,-68.848,51.270,64.941,81.055,229.004,0
1485533514.621,-22.461,47.363,58.105,48.340,-91.309,0
1485533514.625,133.789,46.875,43.457,20.020,-323.730,0
1485533514.629,171.387,48.828,37.598,62.500,-16.113,0
1485533514.633,49.805,47.852,43.945,80.566,189.453,0
1485533514.637,-71.289,48.340,55.176,103.516,-23.926,0
1485533514.640,-41.016,49.316,52.734,63.965,-10.254,0
1485533514.644,119.629,45.410,42.480,22.461,-225.586,0
1485533514.648,179.688,49.805,35.156,64.941,90.332,0
1485533514.652,66.895,54.688,38.574,75.195,663.574,0
1485533514.656,-62.988,51.270,52.734,75.684,382.812,0
1485533514.660,-52.734,50.293,52.246,55.664,-43.457,0
1485533514.664,99.609,49.805,39.062,14.648,-283.691,0
1485533514.668,185.547,49.805,32.227,42.969,-189.453,0
1485533514.672,98.145,50.781,35.645,64.453,154.785,0
1485533514.676,-48.828,50.781,49.805,89.844,64.453,0
1485533514.680,-62.988,54.688,53.223,74.707,26.367,0
1485533514.683,89.844,54.199,44.434,13.184,-148.926,0
1485533514.687,184.570,50.293,35.156,37.109,-177.734,0
1485533514.691,111.816,49.805,34.668,69.336,49.316,0
1485533514.695,-29.785,53.711,49.316,106.445,268.066,0
1485533514.699,-73.730,57.129,58.105,84.473,377.441,0
1485533514.703,62.012,50.293,49.316,6.836,-31.738,0
1485533514.707,189.941,45.410,41.504,30.762,-323.730,0
1485533514.711,127.441,52.246,40.527,82.031,330.566,0
1485533514.715,-28.809,55.176,48.340,92.773,615.234,0
1485533514.719,-68.848,53.711,58.594,77.148,101.074,0
1485533514.723,50.293,53.711,50.293,25.879,-119.141,0
1485533514.726,178.711,51.758,40.039,25.391,-229.980,0
1485533514.730,145.996,50.781,44.434,63.477,77.148,0
1485533514.734,-3.418,52.246,54.199,82.520,78.613,0
1485533514.738,-85.938,55.664,55.176,87.891,21.973,0
1485533514.742,10.254,52.734,48.340,40.039,269.043,0
1485533514.746,159.668,46.387,45.410,9.766,3.906,0
1485533514.750,140.137,49.316,42.480,61.523,181.641,0
1485533514.754,-8.301,49.316,48.340,93.750,599.609,0
1485533514.758,-88.379,46.875,59.570,72.266,162.109,0
1485533514.762,-7.812,53.223,54.688,33.691,-78.613,0
1485533514.765,148.926,49.805,46.875,22.949,-272.949,0
1485533514.769,160.156,45.898,40.039,66.406,90.332,0
1485533514.773,23.438,46.387,47.852,84.961,301.758,0
1485533514.777,-81.543,49.316,60.547,88.379,-11.230,0
1485533514.781,-24.902,51.270,54.688,41.992,-36.133,0
1485533514.785,138.672,47.852,41.992,9.766,-217.773,0
1485533514.789,166.504,51.270,36.133,57.617,159.668,0
1485533514.793,35.156,53.711,44.922,70.801,623.047,0
1485533514.797,-76.660,48.828,57.129,64.941,228.516,0
1485533514.801,-41.016,52.734,53.711,48.340,-14.160,0
1485533514.805,112.305,52.246,43.457,12.207,-55.176,0
1485533514.808,166.504,48.340,36.133,34.668,-31.738,0
1485533514.812,60.547,51.270,39.551,65.918,83.496,0
1485533514.816,-69.824,52.246,49.805,83.496,-10.742,0
1485533514.820,-63.477,51.758,49.805,53.223,6.348,0
1485533514.824,94.238,49.316,45.410,9.766,-189.941,0
1485533514.828,166.016,48.828,38.086,44.434,-160.156,0
1485533514.832,75.684,51.270,37.598,67.383,70.801,0
1485533514.836,-62.012,55.176,48.828,92.285,269.531,0
1485533514.840,-78.125,56.152,50.781,66.406,395.508,0
1485533514.844,83.008,51.270,43.945,3.906,-52.734,0
1485533514.847,190.430,50.781,42.480,39.551,-149.414,0
1485533514.851,93.262,54.688,41.992,71.777,509.277,0
1485533514.855,-52.734,54.199,51.758,79.590,443.848,0
1485533514.859,-76.172,55.664,60.059,67.383,-8.789,0
1485533514.863,52.734,53.223,46.875,8.789,-124.023,0
1485533514.867,178.711,49.805,37.109,26.855,-284.668,0
1485533514.871,122.559,53.223,37.598,66.406,176.270,0
1485533514.875,-30.762,53.223,45.410,73.730,292.480,0
1485533514.879,-78.613,54.688,54.199,71.289,-32.227,0
1485533514.883,38.574,59.570,49.805,20.508,202.637,0
1485533514.887,182.617,56.152,43.457,19.043,-30.762,0
1485533514.890,140.625,52.734,36.621,62.988,208.496,0
1485533514.894,-18.555,56.152,43.457,83.496,562.012,0
1485533514.898,-71.289,57.617,57.617,74.707,66.406,0
1485533514.902,22.461,53.711,48.828,19.043,-130.371,0
1485533514.906,161.133,48.828,41.016,26.367,-103.516,0
1485533514.910,158.203,49.805,41.504,66.895,98.633,0
1485533514.914,15.137,54.199,44.922,75.195,4.395,0
1485533514.918,-87.891,57.129,55.176,90.820,6.348,0
1485533514.922,-3.418,55.664,53.711,32.715,10.254,0
1485533514.926,153.320,53.711,42.480,11.230,-245.605,0
1485533514.930,149.414,51.758,36.133,70.312,241.211,0
1485533514.933,16.602,48.340,41.504,83.984,641.113,0
1485533514.937,-80.566,48.828,55.176,80.566,187.500,1
1485533514.941,-19.043,49.805,51.758,43.457,7.324,0
1485533514.945,143.555,47.852,41.504,13.184,-209.961,0
1485533514.949,166.992,49.316,37.598,55.664,-53.223,0
1485533514.953,39.062,49.805,43.457,82.520,109.863,0
1485533514.957,-81.055,54.199,52.734,88.867,-1.465,0
1485533514.961,-37.598,52.246,50.293,44.434,33.691,0
1485533514.965,115.234,47.363,40.039,8.789,-73.730,0
1485533514.969,168.457,48.828,36.133,44.922,172.363,0
1485533514.972,61.035,49.316,42.480,63.477,169.434,0
1485533514.976,-82.520,52.734,50.293,91.797,268.555,0
1485533514.980,-57.617,55.664,53.711,56.641,425.781,0
1485533514.984,99.121,49.805,46.875,0.488,-122.070,0
1485533514.988,160.645,49.805,36.621,46.387,-291.504,0
1485533514.992,65.918,54.199,39.062,78.125,450.684,0
1485533514.996,-72.266,50.781,51.270,72.266,436.523,0
1485533515.000,-73.242,51.758,49.805,48.828,15.137,0
1485533515.004,85.449,51.758,40.527,1.953,-134.766,0
1485533515.008,177.246,47.363,37.109,34.668,-272.949,0
1485533515.012,88.867,48.828,35.156,69.824,14.160,0
1485533515.015,-56.641,49.805,45.898,93.262,139.160,0
1485533515.019,-83.496,52.246,51.758,78.613,112.793,0
1485533515.023,58.105,52.246,36.621,20.996,145.508,0
1485533515.027,178.223,47.363,31.738,43.945,60.547,0
1485533515.031,116.211,51.270,31.250,76.172,459.961,0
1485533515.035,-34.180,50.293,37.598,83.984,493.164,0
1485533515.039,-79.102,52.246,49.316,74.219,30.273,0
1485533515.043,41.016,50.781,42.480,19.043,-121.582,0
1485533515.047,169.922,47.363,36.133,28.320,-363.770,0
1485533515.051,131.836,49.316,36.621,57.129,-184.570,0
1485533515.055,-31.250,49.805,41.016,74.707,-41.016,0
1485533515.058,-102.051,52.734,47.852,86.914,21.973,0
1485533515.062,25.391,48.828,45.898,19.043,-33.203,0
1485533515.066,166.016,45.410,38.086,16.602,-328.125,0
1485533515.070,130.371,48.828,33.203,74.707,253.906,0
1485533515.074,-11.719,50.781,41.504,81.543,493.652,0
1485533515.078,-95.215,51.758,52.734,78.613,16.113,0
1485533515.082,-11.230,52.734,44.434,35.156,183.105,0
1485533515.086,144.531,45.410,36.133,18.066,-45.410,0
1485533515.090,147.949,44.434,35.645,57.129,72.754,0
1485533515.094,12.695,47.852,43.945,70.312,299.805,0
1485533515.097,-87.891,53.711,52.734,77.637,27.832,0
1485533515.101,-15.137,56.152,48.828,29.785,47.852,0
1485533515.105,140.625,49.316,44.922,0.000,-297.852,0
1485533515.109,166.016,52.246,34.180,42.480,-116.211,0
1485533515.113,40.039,57.617,38.086,70.801,78.613,0
1485533515.117,-91.797,59.082,54.199,93.750,299.316,0
1485533515.121,-38.086,56.641,55.176,37.598,406.250,0
1485533515.125,131.836,51.758,48.828,-1.953,-262.207,0
1485533515.129,167.969,51.270,35.645,60.059,-138.672,0
1485533515.133,61.035,53.223,35.645,79.102,558.594,0
1485533515.137,-58.105,53.223,57.129,69.336,307.129,0
1485533515.140,-43.945,52.734,59.082,53.223,175.781,0
1485533515.144,117.676,45.898,45.898,12.695,80.078,0
1485533515.148,182.129,44.434,38.086,38.086,-108.398,0
1485533515.152,66.895,46.387,42.480,60.547,56.152,0
1485533515.156,-60.059,50.293,56.641,80.078,43.457,0
1485533515.160,-61.035,56.152,53.711,59.082,126.465,0
1485533515.164,82.031,49.316,44.922,11.230,83.008,0
1485533515.168,173.828,46.387,41.504,38.574,172.363,0
1485533515.172,97.168,53.711,46.875,51.270,406.250,0
1485533515.176,-51.270,50.781,60.059,67.383,241.699,0
1485533515.179,-76.660,49.805,53.223,55.664,100.586,0
1485533515.183,71.289,51.270,41.016,1.465,-145.508,0
1485533515.187,174.805,44.922,41.016,35.645,-356.934,0
1485533515.191,101.562,46.875,40.527,63.477,196.777,0
1485533515.195,-37.598,48.340,50.293,67.383,265.625,0
1485533515.199,-84.473,50.293,56.152,75.684,162.109,0
1485533515.203,39.062,50.293,45.898,13.672,105.957,0
1485533515.207,170.410,49.316,38.574,18.555,-295.898,0
1485533515.211,116.699,52.246,42.480,64.941,36.621,0
1485533515.215,-30.762,54.688,55.176,89.844,381.836,0
1485533515.219,-83.008,57.129,58.105,85.938,241.699,0
1485533515.222,21.973,54.688,47.852,19.531,-5.371,0
1485533515.226,157.227,45.898,42.969,19.043,-288.574,0
1485533515.230,140.137,49.316,44.434,72.266,178.223,0
1485533515.234,-8.789,51.270,50.293,93.750,534.668,0
1485533515.238,-96.191,49.316,57.129,80.078,152.832,0
1485533515.242,-0.977,50.781,49.805,25.879,-38.574,0
1485533515.246,160.645,48.340,43.457,14.160,-353.027,0
1485533515.250,153.809,48.340,45.898,55.176,-112.793,0
1485533515.254,4.395,50.781,52.246,87.891,82.031,0
1485533515.258,-99.121,55.176,52.246,99.609,365.723,0
1485533515.262,-23.438,55.664,48.828,33.203,463.867,0
1485533515.265,136.719,49.805,42.969,3.906,-229.492,0
1485533515.269,145.996,54.199,38.574,54.688,-32.715,0
1485533515.273,12.207,55.664,44.922,78.125,579.102,0
1485533515.277,-94.238,50.781,54.199,74.219,286.133,0
1485533515.281,-46.387,50.781,53.711,42.969,36.133,0
1485533515.285,120.117,46.387,46.875,17.578,-322.754,0
1485533515.289,173.340,53.711,41.016,61.523,-145.508,0
1485533515.293,54.199,58.594,48.340,88.379,102.051,0
1485533515.297,-74.707,56.152,55.176,97.656,38.086,0
1485533515.301,-43.945,54.688,52.246,61.523,74.219,0
1485533515.304,106.445,52.246,41.504,22.461,-20.020,0
1485533515.308,170.410,53.223,32.715,53.711,153.809,0
1485533515.312,65.430,54.688,37.109,71.777,513.672,0
1485533515.316,-79.102,53.711,48.828,73.730,418.945,0
1485533515.320,-64.941,54.688,50.781,51.270,243.164,0
1485533515.324,91.309,51.758,43.457,2.930,-187.500,0
1485533515.328,170.898,50.781,38.574,35.645,-337.891,0
1485533515.332,83.984,54.199,42.480,72.266,7.324,0
1485533515.336,-62.500,52.734,52.246,88.867,73.242,0
1485533515.340,-88.379,49.805,54.199,70.801,91.309,0
1485533515.344,64.453,48.828,45.898,17.090,-209.961,0
1485533515.347,182.617,49.316,39.551,40.039,-359.863,0
1485533515.351,106.934,49.316,39.551,72.754,110.840,0
1485533515.355,-43.945,49.805,48.828,89.355,353.027,0
1485533515.359,-82.520,50.781,56.152,77.148,118.164,0
1485533515.363,56.641,49.805,47.363,15.625,-146.973,0
1485533515.367,184.082,48.828,41.504,29.297,-412.598,0
1485533515.371,120.605,52.246,38.086,81.543,212.402,0
1485533515.375,-35.645,56.641,41.992,95.215,651.367,0
1485533515.379,-92.285,56.152,48.828,72.754,271.484,0
1485533515.383,30.762,54.199,43.945,14.160,-79.590,0
1485533515.387,165.527,52.734,38.574,27.344,-384.277,0
1485533515.390,125.488,51.758,38.574,64.941,-62.012,0
1485533515.394,-16.602,51.758,48.828,83.984,149.902,0
1485533515.398,-95.703,55.176,53.711,100.586,344.727,0
1485533515.402,8.789,55.664,46.875,29.297,356.445,0
1485533515.406,165.527,50.781,44.434,12.207,-269.531,0
1485533515.410,142.090,53.711,42.969,72.266,92.285,0
1485533515.414,-10.254,52.734,46.875,80.566,537.598,0
1485533515.418,-96.191,51.758,53.223,76.660,118.652,0
1485533515.422,-18.555,52.246,47.363,32.227,-64.453,0
1485533515.426,142.578,47.852,42.969,17.090,-360.352,0
1485533515.429,157.227,51.758,40.527,71.289,19.531,0
1485533515.433,19.531,51.270,45.898,89.355,418.457,0
1485533515.437,-91.309,51.270,54.199,95.703,368.652,0
1485533515.441,-35.156,54.688,50.781,48.340,273.926,1
1485533515.445,121.094,47.363,43.457,17.578,-2.930,0
1485533515.449,151.367,43.945,37.109,58.594,259.766,0
1485533515.453,30.762,48.340,36.621,70.801,652.832,0
1485533515.457,-92.773,46.387,49.316,71.777,298.340,0
1485533515.461,-59.082,47.363,50.293,47.363,-67.871,0
1485533515.465,104.004,49.316,41.504,10.742,-328.613,0
1485533515.469,163.574,51.270,39.551,56.641,-186.523,0
1485533515.472,49.805,47.852,44.922,79.590,182.617,0
1485533515.476,-92.285,46.387,52.734,89.355,76.172,0
1485533515.480,-78.125,49.316,52.246,61.523,7.324,0
1485533515.484,79.102,46.387,44.434,8.789,-279.785,0
1485533515.488,153.809,46.387,38.086,52.734,-257.812,0
1485533515.492,57.129,48.340,41.992,77.148,234.863,0
1485533515.496,-89.355,50.781,50.293,81.543,438.477,0
1485533515.500,-106.934,51.758,50.781,60.547,360.840,0
1485533515.504,50.781,48.828,44.922,-1.465,-115.234,0
1485533515.508,160.156,48.340,40.039,25.879,-363.281,0
1485533515.511,52.734,52.246,36.621,62.012,405.273,0
1485533515.515,-95.703,50.293,47.363,67.383,577.637,0
1485533515.519,-104.980,48.340,54.199,54.688,22.949,0
1485533515.523,26.367,51.758,41.504,1.953,-180.664,0
1485533515.527,142.578,51.758,41.504,20.996,-278.320,0
1485533515.531,90.332,53.223,45.410,56.152,-17.578,0
1485533515.535,-56.152,56.641,49.316,79.102,103.516,0
1485533515.539,-113.770,58.594,49.316,74.707,277.344,0
1485533515.543,3.906,54.199,40.527,3.906,258.789,0
1485533515.547,139.648,46.875,43.457,13.672,-261.230,0
1485533515.551,95.703,50.781,40.039,69.336,199.707,0
1485533515.554,-59.570,52.734,43.945,87.402,777.344,0
1485533515.558,-113.770,49.316,54.688,71.289,244.141,0
1485533515.562,-0.488,50.293,47.852,17.090,-154.297,0
1485533515.566,139.160,47.852,42.969,21.973,-348.633,0
1485533515.570,119.629,47.852,40.039,51.758,-46.387,0
1485533515.574,-22.461,50.781,45.898,72.754,100.098,0
1485533515.578,-112.305,56.152,54.199,92.285,-2.930,0
1485533515.582,-28.809,55.176,48.828,25.391,-55.664,0
1485533515.586,116.211,49.805,37.109,7.812,-96.191,0
1485533515.590,126.465,52.246,32.227,57.617,372.559,0
1485533515.594,-4.883,56.641,42.969,68.359,613.281,0
1485533515.597,-109.863,52.246,59.570,72.266,170.898,0
1485533515.601,-33.691,48.340,56.641,38.574,-77.637,0
1485533515.605,128.418,49.316,45.898,9.766,-305.664,0
1485533515.609,158.203,53.223,42.480,46.875,-65.430,0
1485533515.613,34.668,56.152,46.875,70.312,333.984,0
1485533515.617,-78.613,55.664,58.105,87.402,255.371,0
1485533515.621,-34.180,51.270,54.688,42.480,4.883,0
1485533515.625,119.141,48.828,41.992,8.789,-333.496,0
1485533515.629,174.805,48.828,41.016,56.641,-106.934,0
1485533515.633,62.500,50.781,45.410,90.332,378.906,0
1485533515.636,-64.453,53.711,54.688,101.562,410.156,0
1485533515.640,-43.457,50.781,58.594,56.152,144.043,0
1485533515.644,110.352,47.852,49.805,12.695,-235.840,0
1485533515.648,182.617,50.781,42.480,56.641,-55.176,0
1485533515.652,77.148,50.293,45.898,77.637,548.828,0
1485533515.656,-50.293,49.316,59.082,78.613,409.668,0
1485533515.660,-48.340,53.223,57.617,61.035,12.695,0
1485533515.664,89.355,49.316,47.363,12.207,-201.172,0
1485533515.668,181.152,44.922,41.992,36.621,-228.027,0
1485533515.672,91.797,49.316,41.992,63.965,210.938,0
1485533515.676,-58.105,51.758,52.246,87.402,260.742,0
1485533515.679,-74.219,52.734,54.199,80.078,276.855,0
1485533515.683,69.824,51.758,45.410,15.625,189.453,0
1485533515.687,186.035,47.852,41.504,28.320,-242.188,0
1485533515.691,108.398,51.758,40.527,72.266,298.340,0
1485533515.695,-47.363,52.734,48.828,89.844,545.898,0
1485533515.699,-79.102,52.246,57.129,70.801,-0.977,0
1485533515.703,50.781,52.246,48.828,9.766,-216.797,0
1485533515.707,174.316,46.875,36.621,19.043,-298.828,0
1485533515.711,130.859,48.340,39.551,55.176,-48.340,0
1485533515.715,-9.766,55.176,50.293,84.961,-24.414,0
1485533515.719,-78.125,54.688,54.688,89.355,-35.645,0
1485533515.722,20.996,47.852,50.781,21.484,-119.629,0
1485533515.726,162.598,45.410,41.992,32.227,-88.867,0
1485533515.730,148.926,50.293,35.156,75.195,468.750,0
1485533515.734,9.277,54.688,47.852,82.520,540.039,0
1485533515.738,-73.730,51.758,60.059,81.055,72.754,0
1485533515.742,10.254,50.293,48.340,24.902,-121.094,0
1485533515.746,157.227,49.805,39.551,18.066,-274.902,0
1485533515.750,152.344,48.828,39.062,56.641,-11.230,0
1485533515.754,16.602,49.805,44.922,69.336,49.316,0
1485533515.758,-93.262,49.805,51.758,85.449,-33.203,0
1485533515.761,-26.367,47.852,42.969,27.344,-63.965,0
1485533515.765,139.160,44.434,35.156,7.812,-302.246,0
1485533515.769,159.180,44.922,36.621,55.664,34.180,0
1485533515.773,31.250,49.805,37.598,70.312,381.348,0
1485533515.777,-75.684,51.270,47.852,81.055,350.586,0
1485533515.781,-24.414,49.316,47.363,30.762,105.957,0
1485533515.785,134.766,42.969,37.109,0.488,-338.867,0
1485533515.789,179.199,46.387,28.809,59.570,-4.395,0
1485533515.793,58.105,49.316,34.668,80.078,609.863,0
1485533515.797,-59.082,45.898,50.293,81.055,267.090,0
1485533515.801,-31.738,49.805,44.922,55.176,-69.336,0
1485533515.804,119.141,48.340,36.621,11.719,-255.371,0
1485533515.808,197.754,50.293,32.227,49.805,-78.613,0
1485533515.812,92.773,50.293,40.527,72.266,139.160,0
1485533515.816,-54.688,50.781,53.711,85.449,9.766,0
1485533515.820,-57.617,53.711,45.410,63.477,341.797,0
1485533515.824,102.051,48.340,37.598,8.301,127.930,0
1485533515.828,190.918,45.898,37.598,36.133,-223.145,0
1485533515.832,96.191,49.805,31.250,72.266,442.871,0
1485533515.836,-37.109,51.270,44.434,88.867,488.281,0
1485533515.840,-51.270,51.758,52.734,60.547,-4.883,0
1485533515.843,87.402,51.758,40.527,5.371,-225.586,0
1485533515.847,187.988,48.340,34.180,38.574,-80.078,0
1485533515.851,120.117,45.898,45.898,55.176,145.996,0
1485533515.855,-27.832,46.387,51.758,79.590,10.742,0
1485533515.859,-68.359,48.828,45.898,75.195,125.488,0
1485533515.863,66.895,48.340,43.457,4.395,-53.223,0
1485533515.867,188.477,49.805,36.133,31.738,48.828,0
1485533515.871,134.766,53.711,32.715,66.406,559.570,0
1485533515.875,-17.090,53.711,43.945,82.031,533.691,0
1485533515.879,-67.871,53.711,54.199,70.312,33.203,0
1485533515.883,40.039,51.270,48.340,12.207,-158.691,0
1485533515.886,171.387,42.480,41.992,21.973,-263.672,0
1485533515.890,146.973,44.434,43.945,52.246,-104.004,0
1485533515.894,-5.371,46.875,53.711,78.125,-45.410,0
1485533515.898,-91.797,42.969,58.594,91.309,-3.418,0
1485533515.902,8.789,43.945,46.875,16.602,-88.379,0
1485533515.906,156.738,47.852,41.016,18.066,-140.137,2
1485533515.910,150.391,48.340,41.992,59.570,212.402,0
1485533515.914,2.930,49.805,46.387,73.242,339.844,0
1485533515.918,-93.750,51.270,53.711,84.961,269.531,0
1485533515.922,-18.555,50.293,49.805,24.902,43.945,0
1485533515.926,138.672,46.875,41.016,6.836,-252.930,0
1485533515.929,159.180,51.270,41.016,59.082,93.262,0
1485533515.933,30.273,54.688,52.734,80.078,573.242,0
1485533515.937,-65.918,50.293,61.523,81.055,191.895,0
1485533515.941,-20.508,52.734,53.223,42.480,-37.109,0
1485533515.945,138.184,51.758,44.922,12.207,-192.383,0
1485533515.949,184.082,52.734,41.504,57.617,-0.977,0
1485533515.953,68.359,53.223,50.293,81.543,113.281,0
1485533515.957,-57.129,55.176,61.035,98.633,-10.254,0
1485533515.961,-31.738,52.734,57.129,58.105,338.379,0
1485533515.965,121.094,44.434,47.363,5.859,148.926,0
1485533515.968,172.852,50.781,45.410,47.363,61.035,0
1485533515.972,66.895,55.664,49.316,72.266,566.406,0
1485533515.976,-55.664,54.199,55.176,71.289,337.891,0
1485533515.980,-45.898,58.105,56.641,51.758,-3.906,0
1485533515.984,104.492,56.641,45.410,4.395,-120.117,0
1485533515.988,182.617,52.734,40.527,31.738,-125.488,0
1485533515.992,89.355,50.781,42.480,61.035,36.133,0
1485533515.996,-59.082,54.688,53.223,76.172,16.602,0
1485533516.000,-74.219,57.129,59.570,63.965,30.273,0
1485533516.004,80.566,52.246,47.852,6.348,-117.188,0
1485533516.008,184.082,53.711,40.039,32.227,-18.555,0
1485533516.011,108.398,55.664,39.551,64.453,553.711,0
1485533516.015,-36.133,56.152,49.316,78.125,497.070,0
1485533516.019,-62.988,56.152,60.059,61.523,39.062,0
1485533516.023,66.895,54.199,47.363,0.488,-73.730,0
1485533516.027,187.988,51.758,34.180,21.973,-62.500,0
1485533516.031,145.020,53.711,41.504,54.199,9.277,0
1485533516.035,-9.277,54.199,53.223,83.984,-26.855,0
1485533516.039,-71.289,54.199,55.176,89.355,17.090,0
1485533516.043,55.664,56.152,47.363,20.508,-43.457,0
1485533516.047,189.941,52.246,41.504,24.414,-257.812,0
1485533516.051,156.250,50.781,43.457,62.988,-124.023,0
1485533516.054,12.695,56.641,49.805,89.844,216.797,0
1485533516.058,-67.871,56.152,51.758,98.145,419.434,0
1485533516.062,27.344,54.199,42.480,25.391,270.508,0
1485533516.066,171.387,53.711,40.527,21.484,-254.395,0
1485533516.070,146.973,52.246,36.621,81.055,188.477,0
1485533516.074,12.695,49.805,48.340,89.844,570.801,0
1485533516.078,-66.895,49.805,62.500,86.426,81.055,0
1485533516.082,8.301,51.270,48.340,34.180,-23.438,0
1485533516.086,161.133,49.805,45.410,20.996,-64.941,0
1485533516.090,171.875,44.922,49.316,63.477,25.391,0
1485533516.093,39.551,45.898,50.293,75.195,6.348,0
1485533516.097,-78.125,54.199,57.129,98.633,-4.395,0
1485533516.101,-26.855,54.688,50.293,54.199,338.379,0
1485533516.105,140.625,47.852,43.457,12.207,26.367,0
1485533516.109,177.734,47.363,38.574,61.523,-0.977,0
1485533516.113,47.852,48.340,44.922,81.055,547.363,0
1485533516.117,-67.383,48.340,60.059,81.055,232.910,0
1485533516.121,-29.297,52.246,50.781,46.875,10.254,0
1485533516.125,133.301,49.805,42.969,8.789,-249.023,0
1485533516.129,184.570,50.293,38.574,51.758,-203.613,0
1485533516.133,76.172,52.246,40.039,75.195,92.773,0
1485533516.136,-60.547,53.223,54.688,96.191,-14.160,0
1485533516.140,-55.176,57.617,53.711,63.477,77.637,0
1485533516.144,105.469,50.781,45.410,15.625,24.902,0
1485533516.148,177.734,44.434,37.109,48.340,63.477,0
1485533516.152,74.219,46.875,36.133,62.988,516.113,0
1485533516.156,-59.570,50.781,50.781,74.707,380.371,0
1485533516.160,-54.199,53.223,53.223,65.430,81.055,0
1485533516.164,83.984,47.852,43.457,6.348,-167.969,0
1485533516.168,169.434,46.387,35.156,22.461,-343.750,0
1485533516.172,91.309,47.363,36.133,52.246,-59.570,0
1485533516.175,-54.199,49.805,45.410,72.754,-27.344,0
1485533516.179,-78.613,51.270,46.875,70.312,82.031,0
1485533516.183,58.105,48.828,37.109,11.230,-90.820,0
1485533516.187,169.922,43.945,34.668,20.020,-355.957,0
1485533516.191,119.629,46.387,33.691,54.688,-102.539,0
1485533516.195,-38.086,51.758,41.504,90.332,255.371,0
1485533516.199,-93.750,52.734,49.316,79.102,473.145,0
1485533516.203,45.898,48.828,40.039,8.301,346.191,0
1485533516.207,179.688,47.852,39.551,14.648,-234.863,0
1485533516.211,130.371,52.246,38.574,68.848,182.129,0
1485533516.215,-14.160,50.293,47.852,86.426,596.680,0
1485533516.218,-74.219,49.805,60.547,78.613,154.785,0
1485533516.222,29.785,48.340,51.270,23.438,-52.734,0
1485533516.226,164.062,44.434,40.527,20.020,-347.168,0
1485533516.230,147.949,47.852,39.062,56.152,-97.656,0
1485533516.234,5.371,49.805,48.340,77.637,40.039,0
1485533516.238,-83.496,53.223,55.664,100.098,68.359,0
1485533516.242,-1.465,56.152,46.387,43.945,325.195,0
1485533516.246,145.996,47.363,41.016,16.113,60.059,0
1485533516.250,160.645,49.805,41.016,66.406,175.781,0
1485533516.254,29.785,56.152,50.293,82.520,547.363,0
1485533516.258,-80.078,53.711,59.082,82.031,232.910,0
1485533516.261,-25.391,51.270,44.922,41.504,137.695,0
1485533516.265,142.578,46.875,38.086,15.137,-208.008,0
1485533516.269,171.387,51.270,37.109,60.547,-107.422,0
1485533516.273,46.875,52.246,42.480,78.613,90.332,0
1485533516.277,-79.590,48.828,51.270,97.168,80.078,0
1485533516.281,-43.945,48.828,47.363,52.734,210.449,0
1485533516.285,127.441,49.316,40.527,14.160,-237.793,0
1485533516.289,173.340,49.805,39.062,70.801,48.340,0
1485533516.293,56.641,49.805,40.527,85.449,649.902,0
1485533516.297,-73.730,48.340,48.828,84.473,375.488,0
1485533516.300,-54.688,48.828,52.734,64.453,88.379,0
1485533516.304,111.328,45.898,46.387,19.531,-233.398,0
1485533516.308,181.152,47.363,35.645,47.852,-186.523,0
1485533516.312,77.148,50.293,38.574,72.754,86.914,0
1485533516.316,-57.129,51.758,52.246,91.309,12.207,0
1485533516.320,-69.336,51.758,47.852,76.172,283.691,0
1485533516.324,79.590,47.852,40.039,15.625,103.516,0
1485533516.328,175.781,45.898,41.504,32.715,-224.121,0
1485533516.332,95.215,47.852,41.504,64.941,28.809,2
1485533516.336,-51.758,52.246,44.922,89.355,313.965,0
1485533516.340,-78.125,54.199,46.875,68.359,515.625,0
1485533516.343,71.777,46.875,44.434,5.859,139.648,0
1485533516.347,187.500,46.387,40.039,29.297,-354.980,0
1485533516.351,113.281,55.176,35.645,69.336,276.367,0
1485533516.355,-35.156,56.152,48.828,84.961,605.469,0
1485533516.359,-69.336,56.152,54.688,72.266,137.207,0
1485533516.363,57.129,56.641,45.410,7.812,-136.230,0
1485533516.367,176.758,52.734,44.434,26.367,-310.059,0
1485533516.371,137.695,53.223,44.434,59.082,-103.027,0
1485533516.375,-3.418,56.152,47.363,78.613,-2.930,0
1485533516.379,-80.078,57.129,52.246,91.797,170.410,0
1485533516.383,21.973,54.688,47.363,19.531,233.887,0
1485533516.386,165.039,52.734,39.551,17.578,-16.113,0
1485533516.390,144.043,57.617,37.598,62.500,348.633,0
1485533516.394,-1.465,58.105,45.410,71.289,569.336,0
1485533516.398,-84.473,53.223,56.152,70.801,162.109,0
1485533516.402,11.719,55.176,53.223,21.484,-124.512,0
1485533516.406,162.109,55.664,45.410,11.719,-395.996,0
1485533516.410,158.691,52.734,39.551,46.875,-122.070,0
1485533516.414,24.414,51.270,46.875,68.359,67.383,0
1485533516.418,-84.473,53.711,54.199,90.820,37.598,0
1485533516.422,-16.602,54.688,49.805,36.621,-67.871,0
1485533516.425,148.926,52.246,40.039,12.207,-413.574,0
1485533516.429,163.086,55.176,33.203,68.359,133.789,0
1485533516.433,31.250,57.617,39.551,76.660,612.793,0
1485533516.437,-75.684,60.547,51.758,78.125,387.207,0
1485533516.441,-28.809,60.547,51.270,42.480,233.398,0
1485533516.445,130.859,53.711,41.016,1.953,-323.242,0
1485533516.449,170.898,52.734,36.133,45.898,-167.969,0
1485533516.453,50.293,51.758,42.480,74.219,159.668,0
1485533516.457,-71.777,54.688,50.293,90.820,53.711,0
1485533516.461,-43.457,53.711,48.340,47.852,20.020,0
1485533516.465,112.793,49.805,41.016,8.789,-284.180,0
1485533516.468,178.711,49.316,38.086,49.316,-157.715,0
1485533516.472,74.219,52.246,40.039,66.895,145.996,0
1485533516.476,-63.965,56.641,47.852,89.355,347.656,0
1485533516.480,-62.988,57.617,53.223,64.941,381.836,0
1485533516.484,84.961,54.199,46.387,9.277,-164.062,0
1485533516.488,173.828,55.176,41.016,41.016,-321.289,0
1485533516.492,78.125,56.641,40.527,72.266,406.738,0
1485533516.496,-63.965,52.734,45.898,78.613,622.559,0
1485533516.500,-78.613,53.711,51.758,61.523,205.078,0
1485533516.504,68.848,51.758,45.410,3.906,-195.312,0
1485533516.507,177.734,47.852,41.504,31.250,-317.871,0
1485533516.511,105.957,49.805,41.992,66.895,-3.418,0
1485533516.515,-34.180,52.734,48.828,86.426,89.355,0
1485533516.519,-74.219,55.176,52.734,83.984,51.758,0
1485533516.523,51.270,50.781,40.039,27.344,114.258,0
1485533516.527,181.152,47.852,34.668,30.273,-73.730,0
1485533516.531,127.930,52.246,36.133,73.730,311.035,0
1485533516.535,-21.973,53.711,46.875,92.773,615.234,0
1485533516.539,-70.312,50.781,57.617,72.754,77.637,0
1485533516.543,43.945,47.852,47.363,12.207,-191.406,0
1485533516.547,173.340,49.316,41.992,16.602,-350.098,0
1485533516.550,137.207,49.316,42.480,51.758,-126.465,0
1485533516.554,-12.207,48.340,43.457,76.660,186.523,0
1485533516.558,-97.656,51.758,49.805,84.473,288.086,0
1485533516.562,0.488,48.828,50.781,12.695,-58.105,0
1485533516.566,148.438,47.363,41.016,10.742,-385.742,0
1485533516.570,137.695,52.734,32.715,63.965,208.008,0
1485533516.574,5.371,51.270,41.992,75.195,420.410,0
1485533516.578,-83.984,48.828,56.641,79.102,-8.301,0
1485533516.582,-14.160,51.758,50.781,32.227,-59.570,0
1485533516.586,144.531,47.363,36.621,5.371,-373.047,0
1485533516.590,153.320,46.875,27.344,48.340,27.344,0
1485533516.593,17.578,48.828,33.691,64.941,456.543,0
1485533516.597,-83.496,49.316,50.781,74.707,46.387,0
1485533516.601,-30.762,50.293,45.898,42.969,-71.289,0
1485533516.605,132.324,51.270,36.621,16.113,-327.148,0
1485533516.609,174.316,54.688,37.598,51.758,-76.660,0
1485533516.613,53.711,50.781,43.945,75.684,211.426,0
1485533516.617,-65.430,55.176,51.270,98.633,302.246,0
1485533516.621,-44.434,56.152,46.387,48.340,451.660,0
1485533516.625,116.699,46.875,40.039,1.465,-183.594,0
1485533516.629,180.664,53.711,34.668,53.223,-185.059,0
1485533516.632,62.012,59.570,37.598,75.195,603.516,0
1485533516.636,-61.035,57.617,52.734,77.148,363.770,0
1485533516.640,-51.270,58.594,54.199,59.082,-33.691,0
1485533516.644,86.914,53.223,48.340,12.695,-251.953,0
1485533516.648,166.992,48.828,43.945,44.922,-194.336,0
1485533516.652,83.008,52.246,43.457,64.453,159.180,0
1485533516.656,-60.059,54.688,53.711,76.172,26.367,0
1485533516.660,-69.336,55.176,54.199,68.848,7.324,0
1485533516.664,82.031,52.246,42.480,19.531,102.539,0
1485533516.668,180.664,50.293,39.062,35.156,-55.176,0
1485533516.672,98.633,56.152,38.574,75.195,452.637,0
1485533516.675,-47.363,56.641,48.340,90.820,714.355,0
1485533516.679,-68.359,53.223,57.129,61.523,127.441,0
1485533516.683,65.430,49.316,49.316,6.348,-228.027,0
1485533516.687,177.246,48.828,42.480,34.668,-307.617,0
1485533516.691,115.723,48.340,46.387,56.641,41.504,0
1485533516.695,-31.738,50.781,59.082,75.195,64.941,0
1485533516.699,-82.031,54.199,58.594,91.797,37.109,0
1485533516.703,33.691,50.781,44.434,22.461,-7.812,0
1485533516.707,168.945,45.410,38.574,25.879,-262.695,0
1485533516.711,133.789,46.387,40.527,72.754,148.438,0
1485533516.715,-9.766,49.316,50.781,85.449,341.797,0
1485533516.718,-78.125,51.270,56.641,83.496,113.281,0
1485533516.722,25.879,50.293,49.316,22.461,-63.477,0
1485533516.726,167.969,46.875,41.016,18.066,-347.168,0
1485533516.730,146.973,53.223,40.527,74.219,246.094,0
1485533516.734,10.742,55.176,49.316,86.914,721.680,0
1485533516.738,-75.684,51.270,55.176,74.219,187.988,0
1485533516.742,-1.953,50.293,50.781,26.855,-105.469,0
1485533516.746,149.414,45.898,42.969,22.461,-292.480,0
1485533516.750,152.832,47.852,41.016,61.523,32.715,1
1485533516.754,27.344,48.828,50.293,83.496,142.578,0
1485533516.757,-71.289,54.199,54.688,109.375,246.094,0
1485533516.761,-7.324,56.152,48.828,47.363,275.391,0
1485533516.765,150.879,49.805,42.480,18.066,-318.359,0
1485533516.769,162.598,50.293,38.574,76.660,62.012,0
1485533516.773,40.527,51.758,42.480,89.355,661.133,0
1485533516.777,-61.035,50.781,52.246,85.938,240.234,0
1485533516.781,-25.879,50.781,48.340,58.594,-29.297,0
1485533516.785,126.953,45.898,39.551,25.391,-284.180,0
1485533516.789,180.176,51.270,36.621,64.453,-31.250,0
1485533516.793,66.406,55.176,44.922,77.148,273.438,0
1485533516.797,-57.129,54.199,53.711,83.496,27.344,0
1485533516.800,-39.551,54.199,49.316,63.477,20.508,0
1485533516.804,100.586,50.781,40.039,24.902,57.129,0
1485533516.808,176.758,49.805,36.621,54.688,132.812,0
1485533516.812,84.473,53.711,43.457,81.543,553.711,0
1485533516.816,-46.387,54.688,56.641,89.355,425.781,0
1485533516.820,-50.781,55.176,56.641,73.730,-2.930,0
1485533516.824,92.285,51.758,47.363,28.809,-219.727,0
1485533516.828,188.477,52.734,39.062,47.852,-157.227,0
1485533516.832,114.746,54.199,39.551,74.219,106.445,0
1485533516.836,-23.926,52.734,46.875,97.168,-6.348,0
1485533516.839,-62.012,55.664,46.387,79.102,22.949,0
1485533516.843,63.965,56.641,40.527,20.020,-171.875,0
1485533516.847,172.363,51.758,35.156,44.434,-224.609,0
1485533516.851,111.328,50.293,35.156,73.242,156.738,0
1485533516.855,-38.086,54.688,47.852,99.121,396.484,0
1485533516.859,-85.938,56.152,56.152,91.309,316.406,0
1485533516.863,46.875,53.711,48.828,27.832,-83.008,0
1485533516.867,170.410,50.293,41.016,42.969,-324.219,0
1485533516.871,117.188,53.711,36.133,87.402,306.641,0
1485533516.875,-15.137,56.641,47.363,99.121,567.383,0
1485533516.879,-70.312,58.594,57.617,84.473,45.410,0
1485533516.882,32.715,57.617,46.387,25.879,-119.629,0
1485533516.886,161.621,51.270,41.504,21.973,-200.195,0
1485533516.890,141.113,48.340,42.969,48.340,-9.766,0
1485533516.894,0.488,47.363,49.805,74.219,39.062,0
1485533516.898,-99.121,53.711,51.758,94.238,303.223,0
1485533516.902,-6.348,53.223,45.898,23.926,253.906,0
1485533516.906,155.762,49.805,38.574,10.742,-244.141,0
1485533516.910,149.414,54.199,34.180,67.383,250.977,0
1485533516.914,16.602,54.199,40.527,74.707,590.332,0
1485533516.918,-72.754,53.711,50.293,73.730,102.539,0
1485533516.922,-7.324,58.594,46.875,35.156,-95.215,0
1485533516.925,144.531,52.734,37.109,9.766,-228.516,0
1485533516.929,163.086,48.828,34.180,48.340,11.230,0
1485533516.933,42.480,48.828,41.016,71.289,83.008,0
1485533516.937,-71.777,49.805,48.828,89.355,-25.879,0
1485533516.941,-33.203,50.293,44.922,51.270,7.812,0
1485533516.945,119.629,44.922,35.156,19.531,21.484,0
1485533516.949,165.527,48.340,31.738,53.711,302.734,0
1485533516.953,69.824,53.711,37.598,68.848,203.125,0
1485533516.957,-61.035,54.688,48.340,84.961,-44.922,0
1485533516.961,-43.457,56.152,45.898,61.035,1.465,0
1485533516.964,108.887,51.758,38.086,18.066,-214.844,0
1485533516.968,172.852,50.781,34.180,54.199,-11.230,0
1485533516.972,82.031,53.223,38.574,76.660,600.586,0
1485533516.976,-56.641,49.805,53.223,79.102,357.910,0
1485533516.980,-60.059,52.734,52.734,63.477,-26.367,0
1485533516.984,87.891,53.711,41.504,17.578,-123.047,0
1485533516.988,175.293,49.316,40.039,41.016,-127.930,0
1485533516.992,92.285,52.246,41.992,73.242,154.785,0
1485533516.996,-53.223,55.176,48.828,96.191,352.051,0
1485533517.000,-76.660,53.711,52.246,70.801,295.410,0
1485533517.004,62.500,51.758,43.457,3.418,-78.125,0
1485533517.007,174.805,52.246,38.086,31.250,-313.477,0
1485533517.011,106.934,53.223,39.062,71.777,318.848,0
1485533517.015,-40.039,54.199,46.387,78.613,513.184,0
1485533517.019,-77.637,52.734,53.223,70.312,4.883,0
1485533517.023,51.270,49.316,46.875,18.555,-176.758,0
1485533517.027,166.016,48.340,37.598,31.738,-59.570,0
1485533517.031,126.953,49.316,38.574,50.781,110.352,0
1485533517.035,-18.066,49.805,48.340,72.754,-47.363,0
1485533517.039,-95.703,53.223,47.852,93.262,255.859,0
1485533517.043,25.879,54.199,41.992,17.578,322.754,0
1485533517.047,169.434,48.828,42.969,6.348,-219.238,0
1485533517.050,137.207,51.758,39.551,71.289,141.113,0
1485533517.054,-6.836,55.176,44.922,90.332,545.898,0
1485533517.058,-84.473,54.688,57.617,75.684,73.242,0
1485533517.062,0.488,48.828,48.828,27.344,-57.129,0
1485533517.066,150.391,43.457,40.039,15.137,-236.816,0
1485533517.070,149.414,46.387,41.504,50.293,-62.988,0
1485533517.074,12.695,48.340,49.805,68.359,56.641,0
1485533517.078,-89.844,50.781,54.688,88.379,-12.695,0
1485533517.082,-17.090,51.758,46.875,41.016,42.480,0
1485533517.086,149.902,50.293,37.598,13.184,-11.719,0
1485533517.089,162.109,53.223,37.598,58.594,295.410,0
1485533517.093,35.645,53.711,49.805,76.172,541.016,0
1485533517.097,-66.895,49.316,57.129,77.148,143.555,0
1485533517.101,-17.578,50.781,51.758,45.410,-29.297,0
1485533517.105,132.324,49.805,46.875,13.184,-264.648,0
1485533517.109,168.457,51.758,40.527,55.176,-129.395,0
1485533517.113,58.594,57.617,45.410,79.102,88.867,0
1485533517.117,-68.359,55.664,56.641,91.309,-47.363,0
1485533517.121,-52.246,50.781,53.223,60.059,77.148,0
1485533517.125,98.145,49.316,45.898,14.160,-66.406,0
1485533517.129,163.574,51.758,44.434,46.387,-150.391,0
1485533517.132,62.500,51.758,47.852,78.125,219.238,0
1485533517.136,-65.918,51.270,54.199,90.332,355.469,0
1485533517.140,-54.199,55.176,51.270,58.105,186.523,0
1485533517.144,92.773,49.805,42.969,9.766,-29.297,0
1485533517.148,174.316,45.898,36.133,41.016,-135.742,0
1485533517.152,81.543,52.734,36.133,72.266,393.555,0
1485533517.156,-56.641,52.246,49.316,77.148,434.570,1
1485533517.160,-65.430,52.734,51.758,54.688,20.996,0
1485533517.164,75.684,51.270,44.434,5.859,-152.832,0
1485533517.168,178.223,49.316,43.945,34.668,-290.527,0
1485533517.171,111.328,50.781,42.480,61.523,-67.383,0
1485533517.175,-31.250,53.223,49.316,87.891,-13.184,0
1485533517.179,-74.707,54.688,48.828,86.914,304.688,0
1485533517.183,52.734,52.734,40.527,10.742,351.074,0
1485533517.187,180.664,49.805,39.551,19.531,-229.492,0
1485533517.191,125.977,52.734,36.133,66.406,200.684,0
1485533517.195,-26.855,54.688,42.480,81.055,529.297,0
1485533517.199,-83.008,54.688,51.270,69.824,0.977,0
1485533517.203,29.297,53.223,43.457,15.137,26.367,0
1485533517.207,159.180,45.898,39.551,20.020,-169.922,0
1485533517.211,131.348,42.480,39.551,54.688,-160.645,0
1485533517.214,-11.719,46.875,43.945,77.637,4.883,0
1485533517.218,-94.727,48.828,48.340,84.473,50.293,0
1485533517.222,-0.488,48.340,40.039,21.973,1.953,0
1485533517.226,146.484,45.410,31.738,20.996,-87.891,0
1485533517.230,133.301,47.363,29.785,64.453,395.508,0
1485533517.234,10.254,52.246,40.039,73.730,560.547,0
1485533517.238,-76.172,52.246,54.199,78.613,151.367,0
1485533517.242,-9.766,53.223,48.340,31.250,-6.836,0
1485533517.246,143.555,48.340,40.039,11.719,-318.848,0
1485533517.250,155.762,49.316,32.227,51.270,-104.980,0
1485533517.254,30.273,54.199,37.598,71.289,69.336,0
1485533517.257,-82.520,53.223,47.363,93.750,-40.039,0
1485533517.261,-34.668,52.734,39.062,54.199,247.070,0
1485533517.265,126.953,53.223,32.227,15.137,-13.184,0
1485533517.269,161.133,49.805,31.250,48.340,-95.703,0
1485533517.273,37.598,52.246,34.668,73.242,299.316,0
1485533517.277,-79.102,54.199,46.387,81.543,312.988,0
1485533517.281,-49.805,50.293,49.316,46.875,195.801,0
1485533517.285,109.375,48.340,42.969,8.301,-296.387,0
1485533517.289,172.852,51.758,33.203,53.223,-196.777,0
1485533517.293,56.152,52.734,33.691,81.055,533.203,0
1485533517.296,-69.824,49.805,49.316,73.242,362.305,0
1485533517.300,-49.316,51.758,51.758,59.570,101.562,0
1485533517.304,105.469,51.270,45.410,18.555,-173.340,0
1485533517.308,188.965,50.293,39.551,51.270,-203.125,0
1485533517.312,91.309,51.758,42.480,78.613,53.711,0
1485533517.316,-48.340,55.664,52.734,98.633,39.551,0
1485533517.320,-56.152,55.664,56.152,89.355,381.836,0
1485533517.324,83.496,52.246,49.316,23.926,274.414,0
1485533517.328,183.105,50.781,41.504,42.480,-82.520,0
1485533517.332,105.957,52.246,41.992,77.148,405.762,0
1485533517.336,-33.691,53.711,50.293,81.055,529.785,0
1485533517.339,-56.641,55.176,53.711,65.430,91.797,0
1485533517.343,72.266,51.758,48.828,17.090,-182.617,0
1485533517.347,182.617,48.828,42.480,32.227,-356.445,0
1485533517.351,127.441,48.340,41.992,63.965,-107.422,0
1485533517.355,-17.578,51.270,50.781,83.984,39.062,0
1485533517.359,-72.754,53.223,56.641,80.566,126.465,0
1485533517.363,49.316,49.805,48.828,20.996,-87.402,0
1485533517.367,168.945,48.340,38.574,36.621,-99.609,0
1485533517.371,121.582,50.781,37.598,77.637,492.188,0
1485533517.375,-11.230,54.199,47.852,88.379,569.336,0
1485533517.378,-75.684,54.199,56.152,86.914,190.430,0
1485533517.382,21.484,54.688,46.875,32.227,159.180,0
1485533517.386,166.504,52.734,42.969,17.578,-202.148,0
1485533517.390,148.926,48.828,41.992,56.641,-159.180,0
1485533517.394,13.672,49.805,46.387,79.102,31.250,0
1485533517.398,-83.984,53.223,56.641,86.426,95.703,0
1485533517.402,-6.836,50.781,49.316,27.344,19.043,0
1485533517.406,151.855,47.363,38.086,20.020,-332.031,0
1485533517.410,155.762,50.293,34.668,62.500,-76.172,0
1485533517.414,22.461,54.199,38.574,84.961,359.375,0
1485533517.418,-82.031,55.664,50.293,91.797,429.199,0
1485533517.421,-16.602,52.734,48.828,42.969,130.859,0
1485533517.425,144.043,46.387,42.969,17.578,-368.652,0
1485533517.429,166.016,48.340,37.109,61.035,-5.371,0
1485533517.433,38.086,51.758,36.621,72.266,582.031,0
1485533517.437,-77.637,51.758,49.805,64.941,312.988,0
1485533517.441,-35.156,49.316,46.875,42.480,250.977,0
1485533517.445,123.047,40.527,38.574,0.488,-159.180,0
1485533517.449,159.668,43.945,31.250,32.715,-138.184,0
1485533517.453,51.758,44.922,35.645,59.570,137.695,0
1485533517.457,-66.406,45.898,47.363,76.172,63.965,0
1485533517.461,-56.641,47.852,41.992,59.082,379.883,0
1485533517.464,97.656,41.016,41.016,12.695,57.129,0
1485533517.468,164.062,43.457,40.039,41.016,-226.074,0
1485533517.472,54.688,50.293,36.133,70.312,488.281,0
1485533517.476,-72.754,46.387,48.828,71.289,520.996,0
1485533517.480,-72.266,45.898,54.199,51.270,71.289,0
1485533517.484,73.242,41.504,42.969,3.906,-251.953,0
1485533517.488,161.621,39.551,31.250,35.645,-267.578,0
1485533517.492,83.008,45.898,32.227,63.965,-2.441,0
1485533517.496,-60.059,46.387,41.504,81.543,100.098,0
1485533517.500,-85.449,44.922,45.410,66.406,271.484,0
1485533517.503,56.152,44.922,42.969,3.418,-84.961,0
1485533517.507,161.621,44.434,36.621,34.180,-120.117,0
1485533517.511,98.633,45.898,34.180,73.730,541.992,0
1485533517.515,-37.109,45.410,41.992,80.566,609.375,0
1485533517.519,-74.219,43.945,48.828,63.477,131.348,0
1485533517.523,42.969,44.922,41.504,13.672,-184.082,0
1485533517.527,166.016,44.434,33.691,25.391,-381.348,0
1485533517.531,120.117,44.434,31.250,57.617,-144.043,0
1485533517.535,-26.367,44.922,37.598,75.195,96.191,0
1485533517.539,-93.262,47.363,47.363,72.754,81.055,0
1485533517.543,11.719,44.922,40.039,15.625,-118.164,0
1485533517.546,151.855,42.480,30.762,14.160,-249.512,0
1485533517.550,137.207,43.945,31.250,44.434,-62.988,0
1485533517.554,-3.906,48.828,40.527,73.242,322.754,0
1485533517.558,-98.633,48.340,48.828,86.426,481.934,0
1485533517.562,-6.348,43.945,39.062,21.484,166.992,0
1485533517.566,145.508,41.992,30.273,-0.488,-394.043,0
1485533517.570,135.742,47.852,32.227,62.500,111.328,0
1485533517.574,7.812,50.781,41.992,80.566,680.176,0
1485533517.578,-77.148,47.852,51.270,74.219,218.750,0
1485533517.582,-3.906,48.828,44.434,37.109,-80.078,0
1485533517.586,146.973,47.852,37.109,16.113,-338.379,0
1485533517.589,173.340,47.852,33.203,60.547,-99.609,0
1485533517.593,48.828,47.852,35.645,71.777,159.180,0
1485533517.597,-74.219,47.363,47.363,95.215,65.430,0
1485533517.601,-34.668,46.875,44.922,73.730,307.129,1
1485533517.605,117.188,40.527,37.598,13.672,-50.781,0
1485533517.609,157.227,42.480,31.738,46.875,-111.816,0
1485533517.613,50.781,50.293,31.250,78.125,622.559,0
1485533517.617,-61.523,49.805,46.875,77.637,464.844,0
1485533517.621,-45.898,49.805,50.781,44.922,36.621,0
1485533517.625,110.840,45.898,42.480,3.418,-321.289,0
1485533517.628,179.688,46.387,34.180,47.852,-188.477,0
1485533517.632,75.684,49.805,37.598,65.918,162.109,0
1485533517.636,-52.734,51.270,51.758,83.984,65.918,0
1485533517.640,-54.199,51.270,49.805,64.941,-16.113,0
1485533517.644,85.938,49.805,38.574,13.672,-252.441,0
1485533517.648,176.758,52.734,32.715,49.805,-36.133,0
1485533517.652,92.285,51.758,34.180,69.336,636.719,0
1485533517.656,-50.781,46.875,49.316,74.707,477.539,0
1485533517.660,-65.430,47.852,53.223,62.988,-15.625,0
1485533517.664,81.543,47.852,44.434,9.277,-202.637,0
1485533517.668,188.477,49.316,39.062,37.109,-279.297,0
1485533517.671,118.164,52.734,40.039,68.848,11.230,0
1485533517.675,-22.461,52.734,49.805,83.008,243.652,0
1485533517.679,-68.848,55.664,55.176,76.172,149.414,0
1485533517.683,57.129,52.734,49.805,12.695,-192.871,0
1485533517.687,180.664,46.875,43.945,29.785,-349.609,0
1485533517.691,129.395,50.293,42.969,59.570,-31.250,0
1485533517.695,-18.066,52.734,51.270,86.914,348.145,0
1485533517.699,-78.613,52.246,56.641,89.355,417.969,0
1485533517.703,38.574,50.781,50.293,11.719,27.832,0
1485533517.707,165.039,47.363,44.922,25.879,-423.828,0
1485533517.710,128.906,49.316,41.016,83.496,201.172,0
1485533517.714,-13.672,51.758,48.828,84.473,597.656,0
1485533517.718,-89.844,52.734,59.570,76.172,91.797,0
1485533517.722,0.977,48.828,52.246,21.973,-104.980,0
1485533517.726,133.789,44.922,41.992,13.184,-308.105,0
1485533517.730,136.230,48.828,40.039,53.711,-63.965,0
1485533517.734,12.695,48.828,48.828,76.172,220.703,0
1485533517.738,-92.773,52.734,55.176,97.168,233.887,0
1485533517.742,-21.484,54.688,50.293,42.480,291.504,0
1485533517.746,142.578,48.340,42.480,17.578,-60.059,0
1485533517.750,156.250,50.293,35.645,63.477,90.332,0
1485533517.753,24.414,51.270,41.504,79.102,603.027,0
1485533517.757,-79.590,50.293,57.617,89.844,302.246,0
1485533517.761,-25.391,48.828,51.758,43.457,-25.879,0
1485533517.765,132.324,45.410,38.574,11.719,-338.867,0
1485533517.769,163.086,47.852,32.715,62.012,-13.184,0
1485533517.773,44.434,49.316,41.992,75.684,201.172,0
1485533517.777,-72.754,51.758,52.734,92.285,-7.324,0
1485533517.781,-45.410,50.781,45.898,53.711,13.672,0
1485533517.785,109.863,44.922,36.621,9.766,-250.488,0
1485533517.789,163.086,50.781,33.203,54.199,81.055,0
1485533517.793,58.594,57.129,37.598,65.430,665.527,0
1485533517.796,-52.246,50.293,49.805,70.801,309.082,0
1485533517.800,-45.410,49.805,47.852,53.223,-47.852,0
1485533517.804,100.098,49.316,36.621,4.883,-277.344,0
1485533517.808,180.176,48.828,32.227,44.434,-154.297,0
1485533517.812,91.797,55.176,38.574,69.336,141.113,0
1485533517.816,-43.457,53.711,51.270,88.379,4.883,0
1485533517.820,-59.570,52.246,49.316,71.777,22.949,0
1485533517.824,68.848,48.340,41.504,9.277,-185.547,0
1485533517.828,158.203,45.410,35.645,41.504,-188.965,0
1485533517.832,93.750,51.758,34.180,65.430,91.309,0
1485533517.835,-49.316,54.199,46.875,92.285,310.547,0
1485533517.839,-86.914,50.781,52.246,78.125,333.008,0
1485533517.843,46.875,47.363,41.016,3.418,-133.789,0
1485533517.847,163.574,46.387,32.227,32.715,-279.785,0
1485533517.851,112.793,47.363,35.645,61.523,200.684,0
1485533517.855,-28.320,50.781,42.480,71.289,213.867,0
1485533517.859,-84.961,51.270,49.316,79.590,44.434,0
1485533517.863,21.484,44.434,45.410,13.672,-100.586,0
1485533517.867,153.809,41.992,35.156,16.113,-258.789,0
1485533517.871,128.906,44.434,31.250,46.875,78.125,0
1485533517.875,-14.648,46.387,41.992,62.500,97.656,0
1485533517.878,-91.797,53.223,51.758,83.008,63.477,0
1485533517.882,-2.930,51.270,41.504,26.367,285.645,0
1485533517.886,140.625,43.945,35.156,9.277,148.438,0
1485533517.890,131.348,50.293,33.691,55.176,386.230,0
1485533517.894,-6.836,54.688,39.062,76.660,904.785,0
1485533517.898,-75.195,51.270,52.734,70.312,506.836,0
1485533517.902,6.348,51.270,45.898,18.066,-78.125,0
1485533517.906,147.949,48.828,38.086,11.719,-262.695,0
1485533517.910,160.645,49.316,40.039,56.641,44.434,0
1485533517.914,34.668,52.246,45.410,73.242,206.055,0
1485533517.918,-71.777,51.758,55.176,93.750,30.762,0
1485533517.921,-20.020,50.781,47.363,47.852,-43.945,0
1485533517.925,133.301,51.758,37.109,17.090,-268.066,0
1485533517.929,165.039,50.781,35.156,72.754,226.562,0
1485533517.933,49.316,50.781,42.969,84.473,642.578,0
1485533517.937,-62.988,49.805,51.758,78.125,179.688,0
1485533517.941,-32.715,51.270,45.410,44.922,-55.664,0
1485533517.945,114.746,48.340,37.109,11.230,-250.000,0
1485533517.949,169.922,48.340,34.180,48.828,-58.594,0
1485533517.953,60.059,47.363,40.527,67.871,98.145,0
1485533517.957,-71.289,45.410,51.758,86.426,-43.457,0
1485533517.960,-50.781,52.246,52.734,57.129,-8.301,0
1485533517.964,91.797,50.293,40.527,7.324,-178.711,0
1485533517.968,165.527,48.828,33.691,43.457,117.676,0
1485533517.972,84.961,49.805,43.945,57.617,212.402,0
1485533517.976,-55.176,52.246,50.781,83.008,186.035,0
1485533517.980,-61.523,56.152,44.922,66.895,427.734,0
1485533517.984,88.379,55.664,41.504,2.441,91.309,0
1485533517.988,186.035,48.828,40.527,29.297,-242.188,0
1485533517.992,106.934,47.852,37.109,74.219,389.648,0
1485533517.996,-35.645,48.828,51.270,89.844,495.117,0
1485533518.000,-68.359,49.316,57.617,69.824,-17.578,0
1485533518.003,64.453,46.387,44.434,8.789,-183.594,0
1485533518.007,177.246,41.992,40.039,32.227,-236.816,0
1485533518.011,124.512,47.363,41.016,67.871,-44.922,0
1485533518.015,-20.020,51.270,50.781,87.402,-15.137,0
1485533518.019,-84.961,50.293,56.641,88.867,0.977,0
1485533518.023,35.645,47.852,47.852,28.809,168.457,0
1485533518.027,162.109,42.480,42.969,26.367,64.453,0
1485533518.031,118.652,44.922,43.457,66.895,372.559,0
1485533518.035,-14.648,49.805,50.781,86.426,551.758,0
1485533518.039,-77.637,48.828,58.594,77.148,34.668,0
1485533518.042,21.973,44.922,52.246,24.414,-152.832,0
1485533518.046,152.344,41.016,41.016,20.020,-262.207,0
1485533518.050,136.719,43.457,40.039,49.316,-81.543,0
1485533518.054,9.277,48.828,46.875,72.266,-18.555,1
1485533518.058,-80.566,53.223,51.270,86.426,-17.090,0
1485533518.062,0.000,46.875,45.898,25.391,-42.480,0
1485533518.066,151.855,42.969,38.086,17.578,-251.465,0
1485533518.070,150.391,51.270,33.691,74.707,254.395,0
1485533518.074,26.367,50.781,41.992,85.449,559.082,0
1485533518.078,-72.266,47.852,50.293,88.379,96.680,0
1485533518.082,-21.484,49.805,43.945,52.246,-69.824,0
1485533518.085,133.301,46.387,34.668,25.879,-188.477,0
1485533518.089,170.410,45.410,31.250,61.523,73.242,0
1485533518.093,52.246,46.875,40.039,81.543,90.332,0
1485533518.097,-77.148,47.852,50.781,101.074,-36.621,0
1485533518.101,-39.551,51.758,44.922,51.758,15.137,0
1485533518.105,116.211,51.758,35.645,15.137,-201.172,0
1485533518.109,159.180,48.828,33.203,55.176,-52.246,0
1485533518.113,52.246,51.270,35.156,72.754,83.496,0
1485533518.117,-71.777,54.688,42.969,96.680,210.449,0
1485533518.121,-59.570,52.734,42.969,62.500,445.312,0
1485533518.125,94.727,46.875,39.551,6.836,-20.508,0
1485533518.128,161.133,46.875,34.180,51.758,-197.266,0
1485533518.132,60.059,50.781,33.691,88.867,562.012,0
1485533518.136,-68.359,50.293,47.852,85.449,498.535,0
1485533518.140,-64.941,53.223,51.758,55.176,-28.320,0
1485533518.144,79.590,47.363,43.457,16.113,-151.367,0
1485533518.148,171.875,43.945,37.598,49.316,30.273,0
1485533518.152,97.168,48.340,41.504,60.547,153.320,0
1485533518.156,-34.180,51.270,51.758,83.984,-63.477,0
1485533518.160,-57.129,50.781,51.758,82.031,24.414,0
1485533518.164,60.059,45.898,41.504,21.973,226.074,0
1485533518.167,173.340,44.434,39.062,37.598,10.742,0
1485533518.171,118.164,49.316,41.504,70.801,285.156,0
1485533518.175,-29.785,52.734,49.316,89.844,549.316,0
1485533518.179,-69.824,46.875,56.152,83.496,199.707,0
1485533518.183,46.875,43.457,50.781,16.602,-20.996,0
1485533518.187,175.293,41.992,43.945,32.227,-249.023,0
1485533518.191,126.465,42.480,42.969,66.406,-105.957,0
1485533518.195,-31.250,48.340,45.898,76.660,4.883,0
1485533518.199,-92.773,49.316,51.270,80.078,44.434,0
1485533518.203,13.184,45.410,47.363,18.555,18.555,0
1485533518.207,144.043,42.480,36.621,17.578,-93.750,0
1485533518.210,122.070,42.480,33.203,60.547,392.090,0
1485533518.214,-18.555,43.945,44.922,70.801,538.574,0
1485533518.218,-99.609,46.387,55.176,66.406,94.727,0
1485533518.222,-6.836,48.340,43.945,17.578,29.785,0
1485533518.226,137.695,45.898,36.621,9.766,-247.559,0
1485533518.230,135.742,46.387,37.109,48.828,-19.531,0
1485533518.234,12.207,47.363,43.945,63.477,110.840,0
1485533518.238,-82.031,50.293,52.734,88.867,10.742,0
1485533518.242,-14.160,51.758,49.316,39.551,100.098,0
1485533518.246,141.113,46.387,38.574,11.230,-220.215,0
1485533518.250,163.086,42.969,35.645,52.246,-85.938,0
1485533518.253,37.109,45.410,43.457,72.266,86.914,0
1485533518.257,-81.543,49.805,48.828,100.098,298.828,0
1485533518.261,-36.133,51.270,47.852,48.828,450.684,0
1485533518.265,129.883,45.410,41.992,2.930,-44.434,0
1485533518.269,169.922,49.805,34.668,60.547,10.742,0
1485533518.273,38.086,51.758,40.527,79.102,511.719,0
1485533518.277,-77.148,43.945,55.664,74.707,251.465,0
1485533518.281,-43.945,47.363,52.734,50.781,45.898,0
1485533518.285,104.492,46.875,45.410,5.859,-203.613,0
1485533518.289,170.410,45.898,41.504,48.828,-159.668,0
1485533518.292,68.848,47.363,41.992,71.777,74.219,0
1485533518.296,-62.988,54.199,52.734,89.355,-24.902,0
1485533518.300,-59.082,57.617,55.176,70.312,107.422,0
1485533518.304,82.520,49.805,47.363,20.508,114.258,0
1485533518.308,166.504,48.828,40.527,44.434,108.887,0
1485533518.312,82.520,55.176,41.504,65.918,537.109,0
1485533518.316,-55.664,48.828,53.223,68.359,415.039,0
1485533518.320,-70.801,45.410,54.688,59.082,62.012,0
1485533518.324,66.406,45.410,42.480,11.230,77.637,0
1485533518.328,167.969,43.945,40.527,24.414,-174.316,0
1485533518.332,104.980,50.293,46.387,64.941,-82.031,0
1485533518.335,-34.180,54.688,57.129,83.984,-4.395,0
1485533518.339,-75.684,51.758,58.105,72.266,104.980,0
1485533518.343,61.035,46.875,44.922,9.277,-62.500,0
1485533518.347,178.223,52.246,36.621,29.297,-392.578,0
1485533518.351,116.211,54.688,36.621,69.336,272.949,0
1485533518.355,-24.902,47.852,49.316,80.566,489.746,0
1485533518.359,-79.102,50.781,56.641,74.707,121.094,0
1485533518.363,30.273,47.363,49.316,14.160,-36.133,0
1485533518.367,160.156,43.945,41.016,17.578,-333.984,0
1485533518.371,131.836,47.363,40.039,44.434,-51.758,0
1485533518.374,-12.207,47.852,50.781,69.824,65.918,0
1485533518.378,-94.238,52.734,54.199,91.309,114.746,0
1485533518.382,1.953,50.781,42.969,19.043,158.203,0
1485533518.386,148.438,45.898,33.203,15.137,-181.641,0
1485533518.390,136.719,45.410,33.203,56.152,12.207,0
1485533518.394,-0.488,49.316,41.992,62.500,82.520,0
1485533518.398,-102.051,54.688,46.875,89.844,358.887,0
1485533518.402,-27.344,49.805,41.504,23.926,455.566,0
1485533518.406,140.137,45.898,39.062,-9.277,-286.621,0
1485533518.410,158.691,51.270,34.668,57.617,29.297,0
1485533518.414,21.484,49.805,38.574,77.637,582.031,0
1485533518.417,-71.777,50.781,51.758,73.730,224.609,0
1485533518.421,-10.254,53.711,48.340,39.062,55.664,0
1485533518.425,143.066,49.316,37.598,14.160,-303.711,0
1485533518.429,172.363,47.363,32.715,53.223,-129.395,0
1485533518.433,56.152,49.316,38.574,71.777,120.605,0
1485533518.437,-63.477,54.688,47.363,96.191,51.758,0
1485533518.441,-41.504,54.199,46.387,62.500,234.863,0
1485533518.445,105.469,43.457,42.969,20.996,99.609,0
1485533518.449,154.785,40.039,40.527,57.617,184.082,0
1485533518.453,52.246,42.969,40.039,76.172,555.664,0
1485533518.457,-77.637,41.992,51.270,73.730,328.613,0
1485533518.460,-66.895,41.504,50.293,45.410,45.410,0
1485533518.464,86.426,38.574,36.621,0.977,-261.230,0
1485533518.468,164.062,40.039,27.832,28.809,-238.770,0
1485533518.472,73.730,42.480,33.203,54.199,34.180,0
1485533518.476,-62.500,47.363,45.410,68.848,34.668,0
1485533518.480,-77.148,46.387,47.363,50.781,124.023,0
1485533518.484,66.406,41.504,44.922,7.324,-160.156,0
1485533518.488,167.969,44.434,40.039,31.738,-273.438,0
1485533518.492,96.191,49.316,36.621,58.105,167.480,0
1485533518.496,-42.480,50.781,47.363,85.449,325.684,1
1485533518.499,-74.219,50.781,54.199,72.266,305.176,0
1485533518.503,65.918,50.781,42.480,6.348,33.691,0
1485533518.507,177.246,47.363,33.203,28.809,-386.230,0
1485533518.511,119.141,50.781,30.273,76.172,276.855,0
1485533518.515,-14.160,52.246,40.527,89.355,631.348,0
1485533518.519,-65.430,53.223,50.781,75.195,147.949,0
1485533518.523,46.875,53.711,43.457,12.207,-125.488,0
1485533518.527,169.434,46.387,32.227,23.438,-298.828,0
1485533518.531,130.859,44.434,33.203,62.012,-99.121,0
1485533518.535,-9.766,47.363,42.969,83.984,70.312,0
1485533518.539,-86.914,52.246,45.410,100.098,380.371,0
1485533518.542,13.184,50.293,39.551,31.738,434.570,0
1485533518.546,161.133,42.969,36.621,12.695,-202.637,0
1485533518.550,139.160,47.363,35.645,68.359,132.812,0
1485533518.554,-1.953,51.758,42.969,89.844,592.285,0
1485533518.558,-84.961,52.246,54.688,87.891,343.262,0
1485533518.562,-2.441,49.805,48.340,40.039,224.609,0
1485533518.566,143.066,45.898,38.086,19.043,-272.461,0
1485533518.570,154.785,49.805,37.109,55.664,-88.867,0
1485533518.574,23.926,49.805,46.387,70.801,113.770,0
1485533518.578,-80.566,52.734,50.781,88.867,60.059,0
1485533518.582,-20.508,53.223,43.945,45.410,6.836,0
1485533518.585,122.559,46.875,37.598,16.113,-87.891,0
1485533518.589,157.227,47.363,35.645,55.664,253.418,0
1485533518.593,41.016,51.270,39.062,62.012,521.484,0
1485533518.597,-76.660,49.805,51.758,68.359,250.977,0
1485533518.601,-34.180,48.340,53.711,46.387,125.000,0
1485533518.605,123.047,40.527,43.945,5.859,-274.902,0
1485533518.609,166.992,41.016,36.621,50.781,-159.180,0
1485533518.613,57.617,46.875,46.387,70.312,93.750,0
1485533518.617,-63.477,51.758,54.688,93.750,172.363,0
1485533518.621,-44.434,52.246,53.223,69.824,288.086,0
1485533518.624,97.168,46.875,50.781,10.254,-278.320,0
1485533518.628,166.504,48.828,39.062,51.270,-261.230,0
1485533518.632,75.195,49.805,36.133,82.031,208.496,0
1485533518.636,-62.500,50.293,48.828,96.680,383.789,0
1485533518.640,-61.035,55.176,51.270,65.430,221.680,0
1485533518.644,91.309,52.246,42.480,12.695,-261.719,0
1485533518.648,175.293,50.293,41.016,49.316,-318.359,0
1485533518.652,95.215,55.176,43.457,73.242,275.391,0
1485533518.656,-37.598,55.176,51.270,77.148,291.992,0
1485533518.660,-67.871,55.176,53.711,71.289,9.277,0
1485533518.664,65.430,51.758,47.852,15.625,-198.242,0
1485533518.667,173.340,49.316,44.434,39.062,-355.469,0
1485533518.671,115.723,53.223,40.527,70.312,166.016,0
1485533518.675,-20.508,53.711,47.852,84.961,389.648,0
1485533518.679,-77.148,52.734,51.758,87.891,417.969,0
1485533518.683,49.805,52.246,41.504,14.648,286.133,0
1485533518.687,181.641,49.316,39.551,25.391,-212.891,0
1485533518.691,133.301,47.363,40.527,60.547,-28.320,0
1485533518.695,-7.812,49.316,44.434,79.590,124.512,0
1485533518.699,-75.195,53.223,52.734,99.121,-2.441,0
1485533518.703,29.297,52.734,48.828,35.156,-110.352,0
1485533518.706,170.410,47.852,40.527,33.203,-446.289,0
1485533518.710,130.859,54.199,34.180,83.496,132.812,0
1485533518.714,2.930,57.129,43.457,95.703,559.570,0
1485533518.718,-69.336,51.270,57.129,92.285,69.824,0
1485533518.722,-3.418,53.223,52.734,42.969,-85.938,0
1485533518.726,145.508,49.805,44.922,36.133,-66.895,0
1485533518.730,148.926,49.316,37.109,74.219,388.672,0
1485533518.734,14.648,50.293,38.574,81.055,686.035,0
1485533518.738,-78.613,48.828,52.734,82.031,246.582,0
1485533518.742,-12.695,48.828,50.781,38.574,-68.359,0
1485533518.746,133.789,45.898,37.109,18.555,-319.336,0
1485533518.749,152.344,47.363,32.715,56.641,-65.918,0
1485533518.753,36.621,48.828,39.551,64.453,169.922,0
1485533518.757,-74.219,50.781,44.922,79.590,15.625,0
1485533518.761,-35.156,53.223,39.551,42.969,17.578,0
1485533518.765,126.953,50.293,35.156,11.719,-309.082,0
1485533518.769,170.410,48.828,34.180,62.012,-85.938,0
1485533518.773,49.316,51.270,35.156,70.801,405.273,0
1485533518.777,-72.266,51.270,45.898,74.219,241.211,0
1485533518.781,-54.199,50.293,45.410,44.434,28.320,0
1485533518.785,91.309,47.363,34.668,2.930,-298.828,0
1485533518.789,158.203,47.363,31.250,48.340,-163.086,0
1485533518.792,59.082,48.340,31.250,75.684,453.125,0
1485533518.796,-62.012,47.852,42.480,77.637,363.281,0
1485533518.800,-55.664,49.805,46.387,52.246,47.363,0
1485533518.804,80.078,46.875,36.621,6.348,-257.812,0
1485533518.808,156.738,45.898,28.809,37.109,-195.801,0
1485533518.812,77.637,43.945,31.250,61.523,325.684,0
1485533518.816,-55.664,41.016,44.922,76.172,187.988,0
1485533518.820,-83.496,47.363,41.504,71.289,330.078,0
1485533518.824,62.500,46.875,36.621,6.836,172.852,0
1485533518.828,172.852,45.898,41.016,34.180,-325.195,0
1485533518.831,90.820,51.270,37.109,79.590,418.457,0
1485533518.835,-40.039,50.781,42.480,84.473,549.316,0
1485533518.839,-75.684,47.363,46.387,66.895,-23.438,0
1485533518.843,38.086,45.898,41.016,12.207,-161.133,0
1485533518.847,163.086,45.898,34.668,28.320,-338.379,0
1485533518.851,129.395,48.828,32.715,64.941,52.734,0
1485533518.855,-14.648,49.316,43.945,84.473,299.316,0
1485533518.859,-74.707,51.270,49.316,82.520,46.875,0
1485533518.863,36.621,50.781,41.016,26.855,-139.648,0
1485533518.867,168.457,49.316,37.598,37.598,-110.352,0
1485533518.871,141.602,49.316,35.156,77.637,465.332,0
1485533518.874,5.371,49.805,39.551,84.961,576.660,0
1485533518.878,-67.383,49.805,49.316,81.543,85.449,0
1485533518.882,17.090,48.340,42.480,29.297,-116.211,0
1485533518.886,164.062,51.270,36.621,31.250,-330.078,0
1485533518.890,165.527,48.828,35.156,60.059,-21.973,0
1485533518.894,24.414,43.457,39.551,68.848,71.289,0
1485533518.898,-83.008,46.875,45.898,91.309,-8.789,0
1485533518.902,-21.484,45.898,45.410,36.133,-60.547,0
1485533518.906,130.859,43.945,38.086,19.531,-332.520,0
1485533518.910,156.738,46.875,32.227,46.387,26.367,0
1485533518.914,35.645,50.293,37.109,63.965,354.492,0
1485533518.917,-78.613,51.758,45.898,93.262,350.586,0
1485533518.921,-31.738,49.316,43.945,41.504,354.980,2
1485533518.925,122.559,45.898,38.574,6.348,-200.195,0
1485533518.929,151.367,50.781,34.180,57.617,18.066,0
1485533518.933,41.016,52.246,38.574,68.848,651.367,0
1485533518.937,-69.824,47.852,51.758,68.848,210.449,0
1485533518.941,-49.316,49.805,51.270,42.969,-72.266,0
1485533518.945,103.516,48.340,41.504,12.695,-280.273,0
1485533518.949,165.527,49.805,31.738,56.152,-55.664,0
1485533518.953,68.848,49.316,37.598,71.289,130.859,0
1485533518.956,-51.270,49.316,51.758,100.098,-81.055,0
1485533518.960,-54.688,53.711,46.875,77.637,325.684,0
1485533518.964,83.008,49.316,41.016,8.301,86.426,0
1485533518.968,171.387,49.805,36.621,41.016,-153.320,0
1485533518.972,83.496,50.293,34.668,73.730,519.531,0
1485533518.976,-50.293,48.828,49.316,83.496,528.809,0
1485533518.980,-57.129,52.734,56.152,70.312,152.832,0
1485533518.984,67.871,51.270,50.293,10.254,-205.078,0
1485533518.988,161.621,48.828,41.504,33.203,-196.289,0
1485533518.992,98.633,46.875,41.504,66.406,62.500,0
1485533518.996,-42.480,48.828,54.688,82.520,-29.297,0
1485533518.999,-78.613,54.688,60.059,71.289,-24.414,0
1485533519.003,49.316,55.176,51.270,15.137,-130.371,0
1485533519.007,158.691,50.781,41.504,32.227,15.137,0
1485533519.011,107.422,52.246,36.133,58.105,579.590,0
1485533519.015,-21.973,56.641,46.875,66.406,479.492,0
1485533519.019,-78.125,56.641,56.641,66.895,75.684,0
1485533519.023,32.715,56.152,48.340,16.113,-8.789,0
1485533519.027,173.828,50.293,40.039,24.414,-145.020,0
1485533519.031,150.391,47.852,39.062,59.082,46.875,0
1485533519.035,0.488,51.270,50.293,76.660,24.902,0
1485533519.038,-85.449,50.781,54.688,85.938,4.883,0
1485533519.042,10.742,48.340,47.363,23.438,-84.961,0
1485533519.046,145.996,49.805,39.062,13.184,-231.445,0
1485533519.050,145.508,48.340,37.598,47.852,-0.977,0
1485533519.054,11.230,47.363,45.410,80.566,233.887,0
1485533519.058,-90.332,49.805,50.293,99.121,406.250,0
1485533519.062,-13.672,49.805,47.852,37.109,153.320,0
1485533519.066,137.695,48.340,44.434,16.602,-312.500,0
1485533519.070,144.043,52.246,36.133,70.312,145.508,0
1485533519.074,18.066,54.688,36.621,80.566,537.598,0
1485533519.078,-83.008,51.270,49.316,75.195,136.230,0
1485533519.081,-33.691,50.781,51.270,41.504,-55.176,0
1485533519.085,117.676,48.828,41.504,17.578,-193.359,0
1485533519.089,159.180,47.363,36.133,56.152,109.375,0
1485533519.093,47.363,45.898,43.457,69.336,80.078,0
1485533519.097,-77.148,45.898,52.246,89.844,-94.238,0
1485533519.101,-44.922,50.781,48.828,64.453,275.879,0
1485533519.105,108.887,47.852,41.504,12.207,174.805,0
1485533519.109,166.992,47.852,34.668,51.270,79.102,0
1485533519.113,60.547,49.805,37.598,80.566,487.305,0
1485533519.117,-58.594,47.363,51.758,75.684,257.324,0
1485533519.121,-44.922,50.293,52.246,57.129,-58.594,0
1485533519.124,91.309,48.828,42.969,15.137,-200.195,0
1485533519.128,164.062,50.781,35.156,45.410,-118.652,0
1485533519.132,88.379,51.270,40.039,67.383,42.480,0
1485533519.136,-54.688,47.363,52.734,82.520,-62.500,0
1485533519.140,-69.336,47.852,50.781,65.430,-8.301,0
1485533519.144,73.730,48.828,41.992,10.742,-119.141,0
1485533519.148,163.086,46.875,37.109,43.457,21.973,0
1485533519.152,94.727,43.945,35.645,64.941,559.570,0
1485533519.156,-39.551,42.969,44.922,65.430,451.172,0
1485533519.160,-73.242,46.875,48.340,54.199,-14.648,0
1485533519.163,53.711,42.969,38.574,0.488,-141.113,0
1485533519.167,165.039,37.109,32.227,19.043,-218.262,0
1485533519.171,108.398,41.016,37.109,54.199,-72.754,0
1485533519.175,-23.926,42.480,47.852,73.242,-27.344,0
1485533519.179,-76.172,46.387,47.852,79.102,10.742,0
1485533519.183,27.832,47.363,39.062,15.625,-42.969,0
1485533519.187,154.785,42.969,33.203,11.719,-209.961,0
1485533519.191,130.859,42.969,34.668,57.617,-67.383,0
1485533519.195,-11.230,47.363,40.039,93.750,251.953,0
1485533519.199,-83.496,53.223,48.828,94.727,395.508,0
1485533519.203,14.648,52.734,47.852,29.297,145.996,0
1485533519.206,153.320,45.410,36.133,12.207,-171.387,0
1485533519.210,147.461,48.828,34.668,53.711,283.691,0
1485533519.214,5.371,53.223,44.434,75.195,544.922,0
1485533519.218,-76.660,51.758,51.270,78.125,90.820,0
1485533519.222,4.395,50.781,46.875,32.227,15.137,0
1485533519.226,147.461,46.875,41.016,14.648,-204.102,0
1485533519.230,152.344,48.340,38.086,58.594,-32.715,0
1485533519.234,23.926,48.340,43.457,77.148,152.832,0
1485533519.238,-84.961,47.852,53.223,91.309,24.414,0
1485533519.242,-33.691,51.758,45.898,47.852,315.918,0
1485533519.246,138.672,50.293,37.598,12.207,104.492,0
1485533519.249,165.527,49.805,35.645,56.641,115.234,0
1485533519.253,37.598,50.293,41.016,70.312,540.527,0
1485533519.257,-64.941,49.805,53.223,69.336,200.195,0
1485533519.261,-34.668,50.293,50.781,41.504,-14.160,0
1485533519.265,117.188,48.340,43.945,13.184,-42.480,0
1485533519.269,164.062,51.270,37.598,50.781,106.934,0
1485533519.273,55.664,50.293,39.551,61.523,53.223,0
1485533519.277,-67.383,50.293,49.805,81.055,-56.641,0
1485533519.281,-49.805,51.758,49.316,61.035,72.266,0
1485533519.285,99.121,46.875,42.480,15.137,-175.293,0
1485533519.288,166.992,49.805,37.109,53.223,10.254,0
1485533519.292,79.590,53.223,40.527,76.172,598.633,0
1485533519.296,-46.875,50.781,53.711,73.242,322.754,0
1485533519.300,-49.805,53.223,56.152,54.199,23.926,0
1485533519.304,83.984,52.246,45.410,0.977,-159.668,0
1485533519.308,167.969,47.363,37.598,36.621,-265.137,0
1485533519.312,85.938,45.898,37.598,64.941,-27.832,0
1485533519.316,-50.293,49.316,45.410,75.195,-27.344,0
1485533519.320,-74.707,51.758,49.805,69.824,39.062,0
1485533519.324,50.293,47.363,42.480,11.719,38.086,0
1485533519.328,161.621,43.945,35.645,30.762,-97.656,0
1485533519.331,115.723,46.387,38.574,60.059,-44.922,0
1485533519.335,-21.484,51.270,47.363,88.379,273.438,0
1485533519.339,-70.312,52.734,47.852,80.566,491.211,0
1485533519.343,51.270,49.316,42.480,10.742,115.234,0
1485533519.347,170.898,45.410,36.621,26.855,-383.789,0
1485533519.351,123.535,47.363,30.762,72.266,236.816,0
1485533519.355,-14.160,51.270,39.551,83.496,563.477,0
1485533519.359,-70.801,53.223,48.340,77.148,112.305,0
1485533519.363,30.762,53.223,42.480,20.508,-10.742,0
1485533519.367,166.992,46.875,39.551,34.668,-280.273,0
1485533519.370,151.855,45.410,41.504,76.172,-99.609,0
1485533519.374,5.859,50.293,49.805,79.102,-7.812,0
1485533519.378,-89.355,56.152,52.734,91.797,35.156,0
1485533519.382,-3.418,53.223,44.922,34.668,307.129,0
1485533519.386,140.625,46.387,37.598,11.230,78.613,1
1485533519.390,144.043,50.781,34.180,59.082,323.242,0
1485533519.394,17.578,51.270,42.480,70.801,565.918,0
1485533519.398,-81.543,47.852,51.758,69.824,157.227,0
1485533519.402,-30.762,46.875,45.898,31.738,-1.953,0
1485533519.406,122.070,47.363,40.527,14.160,-313.477,0
1485533519.410,164.062,50.293,39.551,55.176,-126.953,0
1485533519.413,37.598,51.270,45.410,74.707,-0.977,0
1485533519.417,-75.195,53.711,53.711,97.168,-6.836,0
1485533519.421,-25.879,55.176,51.270,50.781,104.492,0
1485533519.425,123.047,51.758,44.922,15.137,-295.898,0
1485533519.429,162.598,52.734,39.551,68.359,86.914,0
1485533519.433,51.758,52.246,46.875,75.195,639.160,0
1485533519.437,-61.035,50.781,57.617,76.660,234.375,0
1485533519.441,-43.945,53.711,50.781,59.082,196.289,0
1485533519.445,97.656,48.340,43.457,16.602,-11.230,0
1485533519.449,165.039,47.363,41.992,54.199,-153.809,0
1485533519.453,78.613,55.664,44.434,81.055,33.203,0
1485533519.456,-52.246,57.617,55.664,102.539,3.906,0
1485533519.460,-60.547,53.711,50.781,76.172,165.039,0
1485533519.464,82.520,53.223,41.504,15.137,-171.875,0
1485533519.468,170.898,53.223,39.062,50.781,-231.445,0
1485533519.472,92.285,52.734,40.039,71.289,42.480,0
1485533519.476,-46.387,55.664,43.945,93.750,269.043,0
1485533519.480,-65.918,57.617,46.875,79.102,555.176,0
1485533519.484,77.637,55.176,45.898,14.160,98.633,0
1485533519.488,180.176,49.805,41.504,44.434,-390.137,0
1485533519.492,102.539,50.293,35.645,83.008,333.008,0
1485533519.495,-30.762,54.688,50.781,87.891,508.301,0
1485533519.499,-63.965,58.105,58.594,79.590,221.680,0
1485533519.503,51.758,52.246,45.410,19.043,98.145,0
1485533519.507,166.992,48.828,40.039,24.414,-340.820,0
1485533519.511,129.395,52.734,41.992,58.594,-137.695,0
1485533519.515,-7.324,55.176,52.734,81.055,-16.602,0
1485533519.519,-91.309,54.199,57.129,91.309,62.012,0
1485533519.523,14.160,51.758,45.410,31.738,183.594,0
1485533519.527,159.668,52.734,36.621,23.926,-152.832,0
1485533519.531,133.789,52.734,37.109,70.801,161.621,0
1485533519.535,-11.230,51.758,41.992,89.844,577.637,0
1485533519.538,-79.102,51.758,47.363,75.195,159.180,0
1485533519.542,17.090,53.711,44.434,23.926,-102.539,0
1485533519.546,159.668,51.758,40.039,22.949,-394.531,0
1485533519.550,157.227,49.316,38.574,56.641,-154.297,0
1485533519.554,26.367,54.199,48.828,70.801,9.277,0
1485533519.558,-73.730,57.129,57.129,97.168,187.500,0
1485533519.562,-0.977,54.199,49.805,38.086,226.562,0
1485533519.566,147.949,49.805,40.527,10.742,-322.754,0
1485533519.570,150.879,54.199,33.203,71.289,166.504,0
1485533519.574,36.133,56.152,39.062,81.055,625.000,0
1485533519.578,-60.547,53.711,52.246,80.078,243.652,0
1485533519.581,-19.043,54.199,48.828,46.875,15.137,0
1485533519.585,123.535,49.316,40.039,17.578,-337.402,0
1485533519.589,161.133,49.316,38.574,59.082,-121.582,0
1485533519.593,62.988,52.246,46.387,82.520,104.980,0
1485533519.597,-64.453,51.270,53.711,100.586,62.988,0
1485533519.601,-47.363,51.758,48.340,63.477,71.289,0
1485533519.605,112.793,47.852,39.062,19.531,-294.434,0
1485533519.609,163.086,51.758,34.180,53.223,-143.066,0
1485533519.613,65.918,55.664,39.062,70.312,110.840,0
1485533519.617,-62.988,55.176,46.875,95.215,371.094,0
1485533519.620,-64.941,55.176,48.828,67.383,599.121,0
1485533519.624,87.891,51.758,47.852,3.906,-92.285,0
1485533519.628,170.410,52.734,43.457,41.992,-302.734,0
1485533519.632,87.402,54.199,37.598,70.801,484.375,0
1485533519.636,-47.852,52.246,46.387,72.266,512.695,0
1485533519.640,-75.684,52.734,53.223,59.082,78.613,0
1485533519.644,58.594,50.781,42.480,7.812,-170.410,0
1485533519.648,159.668,47.852,31.250,23.438,-273.926,0
1485533519.652,95.215,49.316,35.156,62.988,65.918,0
1485533519.656,-40.039,51.758,51.758,83.984,275.391,0
1485533519.660,-68.848,55.176,52.734,72.754,197.754,0
1485533519.663,64.941,52.734,41.992,18.066,167.969,0
1485533519.667,176.270,53.223,38.086,18.066,-82.031,0
1485533519.671,125.488,54.688,39.551,76.172,293.457,0
1485533519.675,-16.602,51.270,49.316,94.238,621.094,0
1485533519.679,-79.590,54.688,55.664,62.500,262.695,0
1485533519.683,29.297,51.758,49.805,9.766,-75.195,0
1485533519.687,165.527,45.410,43.945,20.020,-385.742,0
1485533519.691,137.695,46.387,48.340,53.711,-147.461,0
1485533519.695,-6.348,46.387,58.105,78.613,84.961,0
1485533519.699,-91.797,45.898,58.105,87.891,139.160,0
1485533519.702,5.859,45.410,48.340,26.855,-97.656,0
1485533519.706,146.973,45.410,40.039,15.625,-388.672,0
1485533519.710,127.930,51.270,32.227,60.547,258.789,0
1485533519.714,-5.859,52.734,38.574,68.848,588.379,0
1485533519.718,-82.520,50.781,50.293,71.289,143.555,0
1485533519.722,-17.090,52.246,43.457,24.414,-42.969,0
1485533519.726,122.070,46.387,34.668,2.930,-368.652,0
1485533519.730,130.859,43.457,33.691,54.199,15.625,0
1485533519.734,15.625,47.852,38.574,62.012,367.188,0
1485533519.738,-72.266,49.805,44.922,62.012,242.188,0
1485533519.742,-27.832,47.363,42.969,23.926,74.707,0
1485533519.745,124.512,47.363,36.133,1.465,-330.078,0
1485533519.749,168.945,51.270,34.668,45.898,-39.551,0
1485533519.753,49.316,54.199,38.086,62.012,218.262,0
1485533519.757,-66.406,56.152,47.852,89.355,330.078,0
1485533519.761,-34.180,51.758,50.781,54.688,312.988,0
1485533519.765,100.586,43.457,41.992,5.859,-294.922,0
1485533519.769,154.297,46.387,33.691,53.223,-104.492,0
1485533519.773,54.199,50.293,39.551,73.730,642.090,0
1485533519.777,-69.336,50.293,51.758,65.430,352.539,0
1485533519.781,-54.688,52.246,49.805,49.805,-40.039,0
1485533519.785,88.379,50.781,41.016,10.742,-258.301,0
1485533519.788,163.574,49.805,33.691,43.457,-185.059,0
1485533519.792,75.195,50.293,37.109,64.453,166.504,0
1485533519.796,-56.152,54.199,49.805,80.566,263.672,0
1485533519.800,-55.176,56.641,57.129,75.195,182.617,0
1485533519.804,82.520,51.758,46.387,21.484,42.969,0
1485533519.808,169.434,50.293,34.668,34.668,-48.340,0
1485533519.812,94.238,55.176,37.109,69.824,443.359,0
1485533519.816,-41.016,51.270,51.270,76.660,495.117,0
1485533519.820,-59.570,47.852,53.223,63.965,-15.137,0
1485533519.824,69.824,49.316,43.945,12.695,-218.750,0
1485533519.827,174.805,50.781,43.945,35.645,-315.918,0
1485533519.831,118.652,50.781,42.969,69.336,6.836,0
1485533519.835,-20.996,53.223,49.805,86.914,50.293,0
1485533519.839,-72.266,56.152,54.688,89.355,-3.418,0
1485533519.843,52.734,53.711,48.828,23.926,-175.781,0
1485533519.847,185.059,55.176,42.969,38.574,-334.961,0
1485533519.851,150.879,54.199,35.645,74.219,72.266,0
1485533519.855,-10.254,48.828,42.480,90.820,371.094,0
1485533519.859,-88.379,50.781,50.293,96.680,264.648,0
1485533519.863,33.203,50.781,41.992,31.738,-31.738,0
1485533519.867,176.758,48.340,38.574,32.227,-278.320,0
1485533519.870,148.926,50.781,38.086,78.613,254.395,0
1485533519.874,9.277,50.781,44.922,94.727,531.738,0
1485533519.878,-70.801,52.734,53.223,92.773,47.852,0
1485533519.882,0.488,54.199,46.875,37.598,-83.008,0
1485533519.886,140.137,49.316,41.504,25.879,-295.898,0
1485533519.890,144.043,48.828,39.062,61.035,2.930,1
1485533519.894,23.926,51.758,44.922,77.148,136.719,0
1485533519.898,-75.684,54.688,49.316,106.445,276.855,0
1485533519.902,-9.277,55.176,44.922,45.410,382.812,0
1485533519.906,145.996,50.781,41.016,8.789,-249.512,0
1485533519.910,166.504,52.734,35.156,65.430,74.707,0
1485533519.913,40.527,49.316,38.086,82.031,675.781,0
1485533519.917,-69.336,46.387,51.270,78.613,217.285,0
1485533519.921,-25.879,49.805,51.270,43.945,-38.086,0
1485533519.925,126.953,46.387,43.457,8.789,-292.969,0
1485533519.929,162.598,44.922,34.668,48.340,-14.648,0
1485533519.933,60.059,48.828,39.062,62.988,198.730,0
1485533519.937,-48.340,53.711,52.734,84.473,-36.133,0
1485533519.941,-46.387,50.781,48.340,61.523,10.254,0
1485533519.945,94.727,48.828,36.133,15.137,4.883,0
1485533519.949,156.250,48.340,30.762,45.898,207.520,0
1485533519.952,54.688,48.828,33.203,59.570,587.891,0
1485533519.956,-63.965,47.363,46.387,64.941,359.863,0
1485533519.960,-64.453,50.293,52.734,49.805,22.461,0
1485533519.964,73.730,48.340,41.992,2.930,-208.496,0
1485533519.968,160.645,46.387,29.297,36.133,-154.785,0
1485533519.972,76.172,49.805,33.691,61.035,269.531,0
1485533519.976,-52.734,50.293,48.340,73.730,162.598,0
1485533519.980,-73.730,52.734,46.387,60.059,18.555,0
1485533519.984,59.082,51.270,33.691,0.488,-189.453,0
1485533519.988,165.039,47.363,31.738,25.879,-247.070,0
1485533519.992,102.051,47.363,36.133,58.594,183.594,0
1485533519.995,-38.574,47.363,45.410,81.055,415.039,0
1485533519.999,-76.660,50.781,48.828,72.266,308.594,0
1485533520.003,34.180,45.898,40.039,9.277,-68.848,0
1485533520.007,153.809,41.992,33.203,27.344,-309.570,0
1485533520.011,119.141,48.340,30.762,70.312,342.285,0
1485533520.015,-24.414,50.293,41.504,82.031,572.754,0
1485533520.019,-82.031,49.316,56.152,75.195,76.660,0
1485533520.023,23.926,46.875,45.410,19.531,-100.586,0
1485533520.027,154.297,42.480,29.785,20.020,-236.816,0
1485533520.031,130.859,40.527,32.227,51.270,41.504,0
1485533520.034,1.465,41.992,42.969,73.730,80.078,0
1485533520.038,-85.938,46.875,49.316,90.332,298.340,0
1485533520.042,-7.812,44.922,48.340,16.113,234.863,0
1485533520.046,137.207,41.016,40.039,9.277,-322.754,0
1485533520.050,128.418,49.316,33.691,63.965,210.449,0
1485533520.054,-2.441,51.270,40.527,71.777,600.586,0
1485533520.058,-82.031,49.316,53.223,77.148,130.859,0
1485533520.062,-16.113,47.852,50.293,34.180,-74.219,0
1485533520.066,126.465,42.969,39.551,20.020,-261.719,0
1485533520.070,150.391,44.434,36.133,56.641,-37.598,0
1485533520.074,38.086,47.852,41.992,74.219,93.262,0
1485533520.077,-68.848,51.758,50.293,104.004,94.238,0
1485533520.081,-20.508,52.734,50.293,58.105,30.273,0
1485533520.085,118.164,47.852,40.527,24.414,-21.973,0
1485533520.089,153.320,47.363,32.715,63.965,347.656,0
1485533520.093,49.805,49.316,38.574,65.430,561.035,0
1485533520.097,-57.129,47.363,53.223,71.289,197.266,0
1485533520.101,-32.715,50.293,53.711,55.664,-26.367,0
1485533520.105,108.887,47.852,42.969,15.625,-248.535,0
1485533520.109,172.852,49.805,36.133,54.199,-99.121,0
1485533520.113,78.125,52.734,41.016,71.777,70.801,0
1485533520.117,-51.758,51.270,53.711,88.867,-81.543,0
1485533520.120,-47.363,53.711,51.270,67.871,11.230,0
1485533520.124,94.238,49.316,43.457,11.719,-177.734,0
1485533520.128,172.363,48.340,37.598,46.875,-121.094,0
1485533520.132,82.520,52.246,39.062,83.984,245.605,0
1485533520.136,-61.035,54.688,49.805,83.008,388.184,0
1485533520.140,-78.125,54.199,51.270,69.824,320.801,0
1485533520.144,55.664,49.316,45.410,36.621,3.418,0
1485533520.148,163.086,49.805,41.016,36.133,-45.898,0
1485533520.152,102.539,51.758,39.062,62.012,522.461,0
1485533520.156,-29.785,53.223,49.805,73.242,458.496,0
1485533520.159,-62.012,52.246,58.105,64.941,-46.875,0
1485533520.163,53.711,50.781,47.852,17.578,-190.918,0
1485533520.167,170.898,53.223,39.062,41.992,-247.070,0
1485533520.171,126.953,51.758,40.039,77.148,-79.102,0
1485533520.175,-8.789,54.688,44.922,91.797,-61.523,0
1485533520.179,-62.988,59.082,45.898,100.098,231.445,0
1485533520.183,35.645,53.711,41.992,40.039,390.137,0
1485533520.187,171.387,47.852,38.574,20.508,-179.688,0
1485533520.191,129.883,47.852,34.668,69.336,176.758,0
1485533520.195,-12.207,49.316,43.457,83.496,583.008,0
1485533520.199,-71.289,47.852,55.664,67.383,40.527,0
1485533520.202,-0.488,45.898,44.922,40.527,-44.434,0
1485533520.206,133.301,43.945,30.273,18.066,-5.859,0
1485533520.210,140.625,44.434,30.762,29.785,113.770,0
1485533520.214,11.719,47.852,43.945,53.223,0.000,0
1485533520.218,-80.078,53.711,51.758,68.848,-52.246,0
1485533520.222,-18.066,53.223,48.828,40.039,26.367,0
1485533520.226,133.789,52.246,40.039,8.301,-11.230,0
1485533520.230,142.578,55.176,34.668,42.969,310.059,0
1485533520.234,8.789,53.711,43.945,70.312,524.414,0
1485533520.238,-77.637,56.641,54.199,73.242,93.262,0
1485533520.242,-21.484,57.129,51.270,41.016,-77.637,0
1485533520.245,132.324,48.340,41.992,17.090,-292.480,0
1485533520.249,170.898,52.246,34.180,51.758,-111.816,0
1485533520.253,55.664,56.641,41.016,67.383,43.457,0
1485533520.257,-66.406,56.641,51.270,88.379,-93.750,0
1485533520.261,-34.180,53.711,46.875,51.270,-51.270,0
1485533520.265,110.840,50.293,39.551,21.973,-87.891,0
1485533520.269,161.621,51.270,33.691,61.035,114.746,0
1485533520.273,64.453,52.246,38.086,73.242,249.512,0
1485533520.277,-63.965,52.246,47.852,83.496,291.992,0
1485533520.281,-53.223,52.246,47.852,57.617,183.594,0
1485533520.284,89.844,51.270,39.551,6.836,-103.027,0
1485533520.288,163.086,51.758,33.203,35.156,-56.641,0
1485533520.292,69.336,54.199,35.645,55.664,513.672,0
1485533520.296,-55.176,53.223,47.363,56.152,372.070,0
1485533520.300,-67.383,52.246,49.316,57.129,-0.977,0
1485533520.304,67.871,52.246,39.062,3.418,-110.840,0
1485533520.308,176.758,51.758,34.180,24.414,-216.797,0
1485533520.312,108.398,49.805,40.039,56.641,-43.457,0
1485533520.316,-38.574,51.758,45.410,76.172,-8.301,0
1485533520.320,-71.777,58.594,44.922,73.730,292.480,0
1485533520.324,54.688,56.641,42.480,14.160,379.395,0
1485533520.327,168.945,50.781,41.016,24.902,-21.484,0
1485533520.331,117.188,54.199,39.062,65.918,305.664,0
1485533520.335,-22.949,57.617,46.387,90.332,480.469,0
1485533520.339,-68.848,58.105,55.664,85.449,7.324,0
1485533520.343,47.852,56.641,46.875,27.344,-94.727,0
1485533520.347,166.992,50.781,40.039,34.668,-318.848,0
1485533520.351,126.465,50.293,41.016,67.871,-152.832,0
1485533520.355,-2.930,54.199,49.316,84.473,-38.086,0
1485533520.359,-76.172,57.129,57.129,94.238,4.395,0
1485533520.363,9.766,55.176,47.852,35.156,4.395,1
1485533520.366,156.738,52.734,41.016,28.320,-120.117,0
1485533520.370,153.320,58.105,40.039,69.824,367.676,0
1485533520.374,7.324,59.082,45.410,83.984,551.758,0
1485533520.378,-83.496,55.664,57.617,80.566,77.637,0
1485533520.382,-3.906,58.105,52.734,28.809,-27.344,0
1485533520.386,135.254,54.199,43.457,14.648,-32.227,0
1485533520.390,142.578,49.805,38.574,40.527,57.617,0
1485533520.394,25.391,52.734,42.969,53.223,-36.133,0
1485533520.398,-76.660,57.617,53.711,87.891,-18.555,0
1485533520.402,-30.273,57.617,48.828,31.738,116.699,0
1485533520.406,119.141,52.246,38.086,-5.859,-231.445,0
1485533520.409,160.645,56.152,34.180,45.898,-139.648,0
1485533520.413,44.922,58.105,37.598,65.918,277.832,0
1485533520.417,-73.730,56.152,50.781,78.613,344.727,0
1485533520.421,-37.598,56.152,53.223,41.504,224.121,0
1485533520.425,110.352,52.246,44.434,4.883,-271.484,0
1485533520.429,151.367,51.758,39.551,54.199,-106.934,0
1485533520.433,47.852,50.781,41.992,76.172,177.246,0
1485533520.437,-59.570,57.129,50.781,88.867,-46.875,0
1485533520.441,-41.504,60.547,50.781,66.406,139.648,0
1485533520.445,101.074,53.711,44.434,15.625,23.926,0
1485533520.449,162.598,52.246,38.086,50.781,-47.852,0
1485533520.452,70.801,50.781,39.062,71.777,381.348,0
1485533520.456,-57.617,48.340,52.246,81.055,226.562,0
1485533520.460,-70.312,50.293,53.711,76.172,375.977,0
1485533520.464,74.707,46.387,45.898,15.137,174.805,0
1485533520.468,178.223,46.875,39.551,43.945,-335.938,0
1485533520.472,98.633,55.664,37.109,83.984,362.793,0
1485533520.476,-32.715,57.617,47.852,87.402,454.102,0
1485533520.480,-60.547,59.082,56.641,69.824,67.871,0
1485533520.484,51.758,52.734,46.875,15.625,-133.789,0
1485533520.488,163.086,45.898,39.062,41.016,-319.336,0
1485533520.491,122.559,51.758,41.504,68.359,-105.469,0
1485533520.495,-20.508,55.664,49.316,84.473,13.672,0
1485533520.499,-77.148,56.152,53.223,87.891,241.699,0
1485533520.503,42.969,53.223,45.898,19.531,161.621,0
1485533520.507,159.668,49.316,40.527,28.809,17.578,0
1485533520.511,118.164,49.805,38.574,69.824,472.656,0
1485533520.515,-13.672,50.781,44.922,88.867,536.621,0
1485533520.519,-69.824,48.340,54.199,79.102,151.367,0
1485533520.523,30.762,48.340,50.293,13.184,-66.406,0
1485533520.527,156.250,45.410,42.969,23.926,-345.703,0
1485533520.531,131.836,41.992,41.016,57.129,-116.211,0
1485533520.534,-1.953,45.898,48.340,74.219,0.488,0
1485533520.538,-90.332,50.293,52.246,91.309,102.539,0
1485533520.542,0.488,49.805,43.945,23.926,31.250,0
1485533520.546,146.484,46.387,36.621,14.648,-361.816,0
1485533520.550,132.324,46.387,34.668,56.152,-97.168,0
1485533520.554,11.230,49.316,39.551,75.684,314.941,0
1485533520.558,-69.824,53.711,47.363,89.844,337.891,0
1485533520.562,-9.766,52.734,44.922,41.504,229.004,0
1485533520.566,143.066,47.363,40.527,13.184,-274.414,0
1485533520.570,168.945,49.805,36.133,71.289,-6.836,0
1485533520.574,41.992,51.270,36.133,85.938,561.523,0
1485533520.577,-62.012,50.293,48.340,73.242,251.465,0
1485533520.581,-22.949,50.293,51.270,45.410,44.434,0
1485533520.585,119.629,47.363,41.504,16.113,-300.293,0
1485533520.589,167.480,50.293,32.715,54.688,-95.703,0
1485533520.593,58.105,51.758,40.527,72.266,96.191,0
1485533520.597,-59.570,51.270,50.781,93.262,45.410,0
1485533520.601,-44.922,52.734,47.363,68.359,382.812,0
1485533520.605,100.098,52.246,43.945,11.230,-14.648,0
1485533520.609,166.016,52.246,38.574,46.387,-144.043,0
1485533520.613,63.965,53.223,36.621,73.242,541.016,0
1485533520.616,-56.152,51.758,45.898,74.707,419.922,0
1485533520.620,-54.199,53.711,45.898,59.082,261.719,0
1485533520.624,91.309,53.711,41.016,3.906,-77.637,0
1485533520.628,180.664,52.734,38.574,37.109,-248.535,0
1485533520.632,94.238,49.316,39.062,74.219,54.688,0
1485533520.636,-37.598,50.781,47.852,81.543,63.477,0
1485533520.640,-60.547,54.688,51.758,68.848,74.707,0
1485533520.644,62.988,52.734,46.387,20.996,-185.059,0
1485533520.648,167.480,54.199,34.180,45.898,-77.148,0
1485533520.652,102.051,55.664,31.738,78.613,525.879,0
1485533520.656,-28.809,52.246,47.363,81.543,529.785,0
1485533520.659,-60.059,52.246,49.805,64.453,124.023,0
1485533520.663,50.293,52.246,37.109,7.812,-155.762,0
1485533520.667,164.551,49.805,34.668,24.414,-325.195,0
1485533520.671,130.859,51.758,35.645,57.617,-94.238,0
1485533520.675,-12.207,49.805,43.945,81.055,46.387,0
1485533520.679,-91.309,48.828,51.758,87.891,234.375,0
1485533520.683,25.879,47.852,44.434,9.766,15.625,0
1485533520.687,156.250,46.875,34.668,7.812,-334.473,0
1485533520.691,122.070,44.922,34.180,49.805,-77.637,0
1485533520.695,-5.859,45.410,41.016,76.172,316.406,0
1485533520.698,-81.543,50.781,50.781,84.961,447.266,0
1485533520.702,10.254,49.316,51.270,22.949,67.871,0
1485533520.706,150.879,49.805,44.434,21.484,-366.211,0
1485533520.710,134.766,53.223,40.527,78.613,223.145,0
1485533520.714,18.066,51.758,47.852,81.055,611.816,0
1485533520.718,-63.965,53.223,61.523,83.496,145.020,0
1485533520.722,3.906,52.246,59.082,52.734,-75.684,0
1485533520.726,141.113,49.316,46.875,29.785,-354.492,0
1485533520.730,156.250,55.176,42.480,58.594,-114.746,0
1485533520.734,50.781,54.199,45.410,71.289,75.195,0
1485533520.738,-70.312,53.711,52.246,96.191,200.684,0
1485533520.741,-18.066,55.176,52.246,52.734,410.156,0
1485533520.745,131.836,46.875,42.480,7.812,1.465,0
1485533520.749,151.855,47.363,34.668,55.176,58.594,0
1485533520.753,44.434,51.758,42.480,78.125,556.152,0
1485533520.757,-56.152,50.293,60.059,83.496,273.438,0
1485533520.761,-30.762,52.246,54.688,58.105,-48.828,0
1485533520.765,95.703,49.316,44.434,16.602,-350.098,0
1485533520.769,157.227,50.781,38.574,53.711,-201.660,0
1485533520.773,67.871,54.199,42.480,65.430,83.496,0
1485533520.777,-62.012,53.711,54.199,79.590,0.000,0
1485533520.781,-47.363,54.199,52.246,62.988,-4.883,0
1485533520.784,95.215,53.711,43.457,19.043,-266.602,0
1485533520.788,160.156,50.781,36.621,51.270,9.277,0
1485533520.792,82.520,54.199,41.504,67.383,623.047,0
1485533520.796,-41.992,55.176,55.664,78.125,591.309,2
1485533520.800,-50.293,52.734,55.664,61.523,273.438,0
1485533520.804,68.359,50.293,45.410,-2.930,-203.125,0
1485533520.808,163.574,47.852,37.598,33.691,-305.176,0
1485533520.812,109.863,49.316,38.574,66.895,19.531,0
1485533520.816,-39.062,54.688,47.852,77.637,28.320,0
1485533520.820,-71.289,56.152,54.688,79.102,-6.836,0
1485533520.823,51.270,44.922,47.852,19.043,-205.566,0
1485533520.827,147.461,40.527,35.645,32.715,-380.371,0
1485533520.831,100.586,43.945,36.621,67.383,-68.848,0
1485533520.835,-25.391,44.434,46.875,86.426,309.570,0
1485533520.839,-85.449,45.898,51.270,81.543,378.906,0
1485533520.843,21.484,44.922,46.387,12.695,-34.668,0
1485533520.847,149.902,46.875,38.086,15.137,-451.660,0
1485533520.851,115.234,51.270,32.227,67.871,186.035,0
1485533520.855,-20.020,46.875,41.992,85.449,733.398,0
1485533520.859,-81.055,46.387,54.688,75.684,304.199,0
1485533520.863,-0.977,45.898,46.387,15.137,-113.770,0
1485533520.866,127.930,45.410,36.133,11.719,-360.840,0
1485533520.870,137.207,47.363,37.109,43.457,-71.289,0
1485533520.874,12.207,48.340,48.340,58.594,66.406,0
1485533520.878,-77.637,53.223,52.246,88.379,20.996,0
1485533520.882,-10.742,51.270,41.504,36.621,244.629,0
1485533520.886,129.883,43.945,36.621,3.906,33.691,0
1485533520.890,141.113,47.852,39.062,58.594,225.098,0
1485533520.894,18.555,51.270,44.922,74.707,583.008,0
1485533520.898,-72.266,49.805,57.129,76.172,169.434,0
1485533520.902,-22.461,51.270,57.129,48.340,-65.918,0
1485533520.905,115.723,48.340,47.363,11.230,-325.684,0
1485533520.909,148.438,44.922,38.086,38.086,-56.152,0
1485533520.913,43.945,46.387,42.969,61.035,252.930,0
1485533520.917,-77.148,49.805,55.176,88.867,186.523,0
1485533520.921,-47.852,49.316,53.223,51.270,157.227,0
1485533520.925,103.027,47.363,43.457,13.672,-254.395,0
1485533520.929,160.156,51.270,35.645,63.965,95.215,0
1485533520.933,63.477,51.758,36.133,65.918,647.461,0
1485533520.937,-50.781,48.828,51.758,71.777,229.004,0
1485533520.941,-39.062,51.270,56.641,66.406,-54.199,0
1485533520.945,88.867,46.387,46.387,21.484,-307.129,0
1485533520.948,162.598,45.410,36.133,51.270,-164.062,0
1485533520.952,87.402,48.828,39.551,73.730,153.809,0
1485533520.956,-40.039,50.781,53.223,92.285,7.812,0
1485533520.960,-42.480,52.246,55.664,76.660,21.973,0
1485533520.964,87.402,51.270,45.410,16.113,-233.887,0
1485533520.968,174.805,54.688,34.180,41.016,-230.469,0
1485533520.972,105.957,55.664,35.156,70.801,214.844,0
1485533520.976,-35.156,56.641,44.922,90.820,440.430,0
1485533520.980,-64.941,57.129,49.316,67.383,374.023,0
1485533520.984,55.176,51.758,45.410,2.441,-119.629,0
1485533520.988,161.621,48.828,41.992,36.133,-365.723,0
1485533520.991,108.398,51.270,36.621,82.031,399.902,0
1485533520.995,-26.855,50.781,46.875,90.820,549.805,0
1485533520.999,-74.219,53.711,58.105,83.984,4.395,0
1485533521.003,43.457,54.199,47.363,28.320,-170.410,0
1485533521.007,164.551,49.805,35.645,32.227,-278.320,0
1485533521.011,136.230,53.711,37.109,60.059,-3.906,0
1485533521.015,6.836,54.199,50.781,80.566,17.578,0
1485533521.019,-78.125,53.223,57.129,92.773,3.418,0
1485533521.023,6.348,50.781,47.363,29.297,205.078,0
1485533521.027,146.484,45.410,42.480,12.207,-70.312,0
1485533521.030,131.348,47.852,40.527,55.664,237.305,0
1485533521.034,1.465,51.758,48.340,71.289,578.613,0
1485533521.038,-64.941,54.199,63.965,73.242,87.891,0
1485533521.042,14.648,55.664,59.082,33.203,-120.605,0
1485533521.046,155.762,52.734,44.434,23.438,-306.641,0
1485533521.050,156.250,52.246,40.039,50.293,-19.043,0
1485533521.054,29.297,52.734,47.363,61.035,24.414,0
1485533521.058,-66.406,56.641,50.293,81.055,-49.316,0
1485533521.062,-18.555,54.199,49.316,32.715,-5.859,0
1485533521.066,124.512,46.387,40.527,3.418,-274.902,0
1485533521.070,150.879,46.387,32.227,65.918,266.113,0
1485533521.073,37.109,43.945,44.922,82.031,658.203,0
1485533521.077,-66.406,45.410,58.594,73.730,153.809,0
1485533521.081,-35.156,50.781,50.781,48.340,-21.973,0
1485533521.085,107.910,46.387,44.434,17.578,-254.883,0
1485533521.089,148.926,46.387,37.598,53.711,4.395,0
1485533521.093,47.852,47.363,38.574,75.195,242.676,0
1485533521.097,-65.918,48.340,52.246,86.426,-2.930,0
1485533521.101,-52.246,54.199,54.199,61.523,14.160,0
1485533521.105,97.656,50.781,43.945,20.508,-235.840,0
1485533521.109,170.898,49.316,37.109,50.293,-40.039,0
1485533521.113,72.754,54.688,40.039,70.312,146.484,0
1485533521.116,-62.988,56.641,46.875,93.262,208.496,0
1485533521.120,-58.105,54.688,50.293,74.219,379.395,0
1485533521.124,83.984,51.270,42.969,17.090,-116.699,0
1485533521.128,159.668,51.758,34.668,50.781,-190.918,0
1485533521.132,87.402,53.711,37.109,78.125,533.691,0
1485533521.136,-36.133,52.246,49.316,81.543,449.219,0
1485533521.140,-69.336,52.734,52.246,65.430,20.020,0
1485533521.144,58.594,52.734,40.039,15.625,-151.367,0
1485533521.148,165.527,53.711,28.809,39.551,-175.781,0
1485533521.152,107.910,53.711,34.180,61.523,94.727,0
1485533521.155,-16.113,54.199,48.340,84.473,15.137,0
1485533521.159,-69.336,54.199,48.340,90.332,2.930,0
1485533521.163,31.738,50.293,39.062,31.738,174.316,0
1485533521.167,154.297,45.898,33.203,26.367,79.590,0
1485533521.171,120.605,49.805,32.227,65.918,416.992,0
1485533521.175,-7.812,51.758,46.875,89.355,550.293,0
1485533521.179,-65.430,49.805,55.176,81.055,62.500,0
1485533521.183,20.996,47.852,44.434,28.809,-104.492,0
1485533521.187,150.879,46.387,37.598,26.855,-177.246,0
1485533521.191,139.648,49.316,39.062,62.012,7.324,0
1485533521.195,12.695,53.223,51.270,84.473,-19.531,0
1485533521.198,-64.941,55.176,60.547,99.121,-12.695,0
1485533521.202,3.906,50.781,48.828,39.062,-61.035,0
1485533521.206,140.625,49.805,40.527,20.996,-251.953,0
1485533521.210,145.996,53.711,40.039,69.336,293.945,0
1485533521.214,20.996,52.246,46.387,84.961,560.059,0
1485533521.218,-70.312,47.852,54.688,91.309,329.590,0
1485533521.222,-8.301,49.805,49.316,40.039,132.812,0
1485533521.226,133.301,46.875,40.039,16.602,-229.004,0
1485533521.230,153.809,44.922,36.133,66.406,132.324,0
1485533521.234,49.316,45.410,46.387,82.520,262.207,0
1485533521.237,-57.617,50.781,55.176,93.262,-39.062,0
1485533521.241,-21.484,55.176,53.223,58.594,-22.949,0
1485533521.245,125.000,51.758,44.922,25.879,-215.332,0
1485533521.249,165.039,53.711,34.668,66.406,52.246,0
1485533521.253,63.477,56.152,38.086,87.402,185.059,0
1485533521.257,-57.617,57.617,48.340,99.121,244.629,0
1485533521.261,-36.621,55.176,47.852,59.570,340.332,0
1485533521.265,104.492,50.781,43.945,13.672,-165.527,0
1485533521.269,154.785,52.734,37.109,54.688,45.410,0
1485533521.273,59.570,53.711,40.039,75.195,583.984,0
1485533521.277,-44.922,54.199,55.664,81.055,281.250,0
1485533521.280,-41.992,54.199,54.688,64.941,-11.230,0
1485533521.284,87.402,50.781,42.969,19.043,-128.906,2
1485533521.288,158.691,51.270,39.062,47.852,-125.488,0
1485533521.292,84.961,50.781,42.969,68.848,27.832,0
1485533521.296,-33.691,52.734,51.758,85.449,-49.316,0
1485533521.300,-64.453,57.617,51.270,78.125,28.320,0
1485533521.304,58.594,53.223,41.016,19.531,176.758,0
1485533521.308,166.992,50.781,37.598,27.344,31.250,0
1485533521.312,101.562,53.223,39.062,63.965,405.762,0
1485533521.316,-34.668,53.711,52.246,84.473,477.539,0
1485533521.320,-65.918,57.617,61.035,72.266,9.766,0
1485533521.323,47.363,53.711,48.340,13.184,-70.312,0
1485533521.327,159.180,49.316,42.969,25.391,-21.973,0
1485533521.331,123.047,46.875,48.828,56.152,47.852,0
1485533521.335,-12.207,48.828,51.270,73.242,-50.781,0
1485533521.339,-82.520,53.223,49.805,81.055,53.711,0
1485533521.343,20.020,54.199,44.434,20.508,61.035,0
1485533521.347,146.484,50.293,41.016,11.719,-259.277,0
1485533521.351,124.023,50.781,37.109,58.105,265.625,0
1485533521.355,5.371,54.199,42.969,77.148,459.473,0
1485533521.359,-78.125,54.199,54.199,79.590,36.133,0
1485533521.362,0.488,49.805,48.828,20.020,21.973,0
1485533521.366,145.508,46.875,39.551,17.090,-260.254,0
1485533521.370,145.020,52.734,39.062,60.547,101.562,0
1485533521.374,15.137,54.688,45.410,66.895,278.320,0
1485533521.378,-71.289,55.664,51.270,85.449,17.578,0
1485533521.382,-1.953,55.176,46.875,37.598,22.461,0
1485533521.386,136.230,52.246,37.598,18.066,-32.227,0
1485533521.390,155.273,50.293,37.109,49.805,97.168,0
1485533521.394,37.598,50.781,43.945,70.801,14.160,0
1485533521.398,-74.219,53.223,51.270,102.051,276.855,0
1485533521.402,-33.691,51.758,48.340,41.992,424.316,0
1485533521.405,124.023,45.898,41.504,1.953,-233.887,0
1485533521.409,156.738,46.875,35.156,63.477,-38.574,0
1485533521.413,39.551,47.852,40.039,81.055,550.781,0
1485533521.417,-52.734,49.316,53.223,79.102,191.406,0
1485533521.421,-28.320,51.270,47.363,53.711,50.781,0
1485533521.425,111.816,46.387,40.039,14.648,-199.219,0
1485533521.429,173.340,47.852,38.574,52.734,-120.117,0
1485533521.433,65.918,50.293,42.480,70.801,116.211,0
1485533521.437,-58.594,54.688,54.199,84.961,-47.363,0
1485533521.441,-52.734,56.641,50.293,61.523,98.145,0
1485533521.445,75.195,52.246,33.203,8.789,117.188,0
1485533521.448,145.508,48.828,29.297,40.527,137.695,0
1485533521.452,65.430,51.270,36.133,60.059,502.441,0
1485533521.456,-51.758,50.781,42.480,65.918,330.078,0
1485533521.460,-60.547,50.781,45.898,61.035,59.082,0
1485533521.464,69.824,48.340,39.551,8.789,-125.977,0
1485533521.468,162.598,42.969,36.621,34.668,-271.484,0
1485533521.472,94.727,43.457,40.039,68.359,-34.668,0
1485533521.476,-41.992,48.340,45.410,83.008,-25.391,0
1485533521.480,-77.637,54.199,46.387,74.219,66.406,0
1485533521.484,49.805,50.293,41.992,8.301,-101.074,0
1485533521.487,163.086,45.898,39.551,31.738,-320.801,0
1485533521.491,117.676,49.805,35.645,66.406,72.754,0
1485533521.495,-14.648,49.805,40.039,74.707,201.172,0
1485533521.499,-66.895,52.246,47.363,81.543,75.195,0
1485533521.503,33.691,51.270,44.434,27.832,148.926,0
1485533521.507,162.109,45.898,37.598,23.926,-181.152,0
1485533521.511,131.348,48.828,27.832,63.477,224.121,0
1485533521.515,-8.301,49.805,34.180,78.125,577.148,0
1485533521.519,-70.312,50.781,50.781,75.684,117.676,0
1485533521.523,10.742,52.246,43.945,16.602,-32.715,0
1485533521.527,142.578,45.898,35.645,17.578,-298.828,0
