timestamps,TP9,AF7,AF8,TP10,Right AUX,Marker
1485533771.431,59.570,33.691,42.480,64.941,-120.605,0
1485533771.435,14.160,34.668,44.434,76.660,129.883,0
1485533771.439,1.465,36.621,43.945,65.918,114.258,0
1485533771.443,48.828,38.086,40.527,36.621,-171.387,0
1485533771.447,67.871,30.762,31.738,37.109,-265.137,0
1485533771.451,57.129,39.062,41.504,71.777,65.430,0
1485533771.455,29.297,55.176,56.152,95.215,598.633,0
1485533771.459,-10.742,34.668,41.992,71.777,612.305,0
1485533771.463,21.973,23.926,33.203,36.133,-71.289,0
1485533771.467,62.988,29.297,35.645,46.387,-317.383,0
1485533771.470,56.641,30.273,42.969,69.336,-187.012,0
1485533771.474,22.461,31.250,41.016,75.195,115.723,0
1485533771.478,1.953,35.156,33.691,85.449,150.391,0
1485533771.482,25.879,36.621,44.434,62.012,-147.949,0
1485533771.486,62.012,32.227,44.922,52.734,-234.375,0
1485533771.490,64.453,33.691,34.668,64.453,-59.570,0
1485533771.494,35.645,38.574,36.133,66.895,281.250,0
1485533771.498,4.395,41.504,44.922,84.473,491.699,0
1485533771.502,16.602,40.527,45.410,64.453,372.070,0
1485533771.506,64.941,37.109,39.062,46.387,18.555,0
1485533771.509,77.148,31.250,37.598,49.805,-269.043,0
1485533771.513,49.316,40.039,44.922,71.777,131.836,0
1485533771.517,24.902,55.176,62.012,97.656,694.824,0
1485533771.521,20.020,36.621,46.387,46.387,177.246,0
1485533771.525,48.340,24.414,24.902,26.855,-274.902,0
1485533771.529,70.312,27.832,31.738,48.828,-250.977,0
1485533771.533,42.969,33.691,37.598,62.012,15.137,0
1485533771.537,6.348,39.062,25.879,76.172,257.812,0
1485533771.541,9.766,36.133,35.156,64.941,-23.438,0
1485533771.545,48.828,34.668,44.922,45.410,33.203,0
1485533771.549,68.848,37.109,35.156,47.363,173.340,0
1485533771.552,46.875,39.551,37.598,51.270,145.508,0
1485533771.556,2.930,41.992,41.016,68.359,612.793,0
1485533771.560,-5.371,40.039,39.062,58.105,411.621,0
1485533771.564,43.945,38.574,37.598,32.227,-260.254,0
1485533771.568,71.777,40.039,40.527,46.387,-257.812,0
1485533771.572,42.480,33.203,35.156,55.664,-148.438,0
1485533771.576,14.160,47.363,48.828,83.008,61.035,0
1485533771.580,10.254,45.898,52.246,74.219,27.832,0
1485533771.584,25.879,27.344,31.250,24.902,-190.430,0
1485533771.588,62.988,30.273,20.996,36.133,-184.082,0
1485533771.592,56.152,33.691,17.578,59.082,42.969,0
1485533771.595,13.184,40.527,35.156,75.195,632.324,0
1485533771.599,2.930,43.457,46.387,75.195,608.398,0
1485533771.603,48.828,39.062,39.551,39.551,-160.156,0
1485533771.607,89.844,38.086,39.062,41.992,-243.652,0
1485533771.611,67.383,36.133,43.945,62.012,-13.184,0
1485533771.615,18.066,38.574,41.992,68.848,118.164,0
1485533771.619,2.930,46.387,45.898,70.801,87.891,0
1485533771.623,30.762,40.039,42.480,43.457,-126.953,0
1485533771.627,58.105,34.668,34.668,39.062,-170.410,0
1485533771.631,65.430,47.363,47.363,63.477,-203.125,0
1485533771.634,23.438,40.039,44.922,69.336,-5.859,0
1485533771.638,-19.043,31.738,31.738,65.430,389.160,0
1485533771.642,11.719,34.668,39.062,41.504,328.613,0
1485533771.646,64.941,34.668,37.109,35.156,24.902,0
1485533771.650,69.336,36.133,30.762,56.641,-318.848,0
1485533771.654,25.391,36.133,39.551,75.684,129.395,0
1485533771.658,-3.906,39.551,46.387,70.312,668.457,0
1485533771.662,22.461,37.598,48.340,42.480,35.645,0
1485533771.666,63.965,33.203,38.086,41.992,-243.652,0
1485533771.670,73.242,34.668,38.574,61.523,-99.121,0
1485533771.674,37.598,37.109,49.316,79.102,77.637,2
1485533771.677,0.000,40.039,48.340,81.055,177.734,0
1485533771.681,21.484,44.434,50.293,65.430,-80.078,0
1485533771.685,76.660,53.711,51.758,67.383,105.469,0
1485533771.689,82.520,41.992,42.480,65.918,146.973,0
1485533771.693,38.086,31.250,35.156,68.848,49.316,0
1485533771.697,-0.488,37.598,40.527,77.637,666.016,0
1485533771.701,4.395,35.645,42.480,51.270,385.742,0
1485533771.705,54.688,35.156,21.484,37.598,-195.801,0
1485533771.709,82.031,36.133,25.391,56.152,-267.578,0
1485533771.713,46.387,35.156,44.922,77.148,-135.742,0
1485533771.716,9.277,39.551,51.270,94.238,200.684,0
1485533771.720,16.602,39.062,47.363,75.684,0.488,0
1485533771.724,59.570,35.645,43.457,43.457,-201.172,0
1485533771.728,83.984,37.109,43.945,54.199,-73.730,0
1485533771.732,59.082,41.992,37.598,66.895,134.277,0
1485533771.736,8.789,45.410,37.109,76.660,680.176,0
1485533771.740,29.297,54.199,53.223,79.590,504.883,0
1485533771.744,79.590,48.340,48.340,48.828,-168.945,0
1485533771.748,72.754,27.344,27.344,37.109,-234.375,0
1485533771.752,50.781,29.785,31.250,52.734,-250.000,0
1485533771.756,20.508,36.621,33.691,72.266,48.828,0
1485533771.759,6.348,37.598,37.109,67.871,91.309,0
1485533771.763,37.598,38.086,26.855,41.016,-151.855,0
1485533771.767,74.707,40.527,22.949,48.340,-247.070,0
1485533771.771,61.523,42.969,41.504,69.336,-295.410,0
1485533771.775,17.578,43.945,47.852,85.449,-6.836,0
1485533771.779,-7.812,41.992,49.805,83.984,369.141,0
1485533771.783,30.273,37.109,43.457,51.270,281.250,0
1485533771.787,62.500,31.738,34.180,45.898,172.363,0
1485533771.791,49.316,30.273,38.574,52.246,-105.469,0
1485533771.795,8.789,35.156,40.527,73.242,239.746,0
1485533771.799,-7.812,43.945,53.223,82.031,663.574,0
1485533771.802,21.484,32.715,48.340,36.621,28.809,0
1485533771.806,51.270,20.020,28.320,32.715,-231.934,0
1485533771.810,55.664,26.367,28.809,56.641,-313.965,0
1485533771.814,12.207,31.738,38.574,71.777,-2.441,0
1485533771.818,-18.066,34.668,48.828,83.496,167.969,0
1485533771.822,16.602,37.598,40.527,53.223,-62.500,0
1485533771.826,57.129,31.250,18.066,40.039,133.789,0
1485533771.830,52.734,23.926,24.902,51.270,97.656,0
1485533771.834,18.066,31.250,38.086,61.523,211.914,0
1485533771.838,-15.137,37.109,41.992,72.754,703.613,0
1485533771.841,12.207,32.715,45.410,43.945,187.500,0
1485533771.845,60.059,32.227,38.574,41.504,-65.918,0
1485533771.849,75.195,33.691,34.668,65.430,-113.281,0
1485533771.853,45.898,42.969,49.805,83.496,-40.039,0
1485533771.857,2.930,39.062,47.363,87.891,234.863,0
1485533771.861,3.906,27.344,29.785,54.199,-3.906,0
1485533771.865,43.457,26.367,30.762,34.668,-214.355,0
1485533771.869,62.012,24.414,35.156,49.805,-333.984,0
1485533771.873,26.367,27.832,31.250,65.918,64.453,0
1485533771.877,-12.695,34.180,33.203,73.730,714.355,0
1485533771.881,2.441,39.062,38.574,53.711,401.367,0
1485533771.884,49.316,38.086,29.297,35.645,-201.660,0
1485533771.888,75.195,34.180,34.180,55.176,-385.742,0
1485533771.892,50.781,33.203,38.086,69.824,-240.723,0
1485533771.896,9.766,39.062,41.992,83.496,132.812,0
1485533771.900,10.742,42.969,46.387,69.336,60.059,0
1485533771.904,45.898,31.738,36.621,38.086,-31.738,0
1485533771.908,75.684,28.320,33.691,48.828,-108.887,0
1485533771.912,51.758,35.645,37.109,58.594,-125.000,0
1485533771.916,6.348,39.551,41.992,71.777,75.684,0
1485533771.920,6.348,50.293,55.176,81.055,351.074,0
1485533771.924,41.504,43.457,44.922,37.598,167.480,0
1485533771.927,77.148,28.320,27.832,31.738,-263.672,0
1485533771.931,62.500,31.738,34.180,63.965,-382.324,0
1485533771.935,2.441,37.109,36.621,80.078,345.703,0
1485533771.939,-13.184,38.574,41.016,69.824,702.637,0
1485533771.943,32.227,39.551,38.574,33.691,-74.707,0
1485533771.947,74.707,42.480,33.203,33.691,-321.289,0
1485533771.951,62.988,39.062,41.016,59.570,-293.945,0
1485533771.955,14.160,34.668,31.738,67.871,1.953,0
1485533771.959,-6.836,36.621,31.738,73.730,188.477,0
1485533771.963,24.902,32.227,45.898,51.270,109.863,0
1485533771.966,55.176,27.344,38.574,40.527,175.293,0
1485533771.970,55.664,31.250,44.922,56.641,43.945,0
1485533771.974,31.250,46.387,64.941,85.938,351.562,0
1485533771.978,-13.672,42.480,55.664,73.242,713.379,0
1485533771.982,0.977,29.785,39.551,37.109,106.445,0
1485533771.986,57.129,32.227,36.133,41.016,-270.996,0
1485533771.990,64.453,32.227,32.715,51.758,-343.750,0
1485533771.994,23.926,30.273,41.016,71.777,1.953,0
1485533771.998,-17.090,27.832,51.758,75.195,285.156,0
1485533772.002,-1.465,25.879,48.828,55.176,55.176,0
1485533772.006,45.898,23.438,36.621,34.668,-206.055,0
1485533772.009,60.059,25.391,37.109,52.734,-354.492,0
1485533772.013,28.320,32.227,41.016,82.031,210.449,0
1485533772.017,-9.766,38.574,37.109,75.195,785.645,0
1485533772.021,9.277,41.992,43.457,51.758,318.359,0
1485533772.025,49.805,34.668,47.363,46.387,-68.848,0
1485533772.029,67.383,29.785,41.016,54.199,-315.430,0
1485533772.033,38.086,34.668,43.945,73.242,-111.816,0
1485533772.037,-0.977,34.668,47.363,88.867,314.453,0
1485533772.041,0.488,30.273,43.457,66.895,111.816,0
1485533772.045,62.500,47.363,48.828,55.176,-173.340,0
1485533772.048,85.449,40.527,41.504,61.523,-300.293,0
1485533772.052,43.945,24.902,28.320,64.941,-128.418,0
1485533772.056,6.836,36.133,37.598,93.262,210.938,0
1485533772.060,-2.441,34.180,42.480,85.938,430.664,0
1485533772.064,42.969,33.691,38.574,45.410,207.520,0
1485533772.068,88.379,37.109,35.156,58.105,-245.117,0
1485533772.072,67.871,38.574,39.551,91.309,-307.129,0
1485533772.076,22.949,40.039,41.992,98.145,480.469,0
1485533772.080,20.508,41.504,32.715,77.148,651.855,0
1485533772.084,50.293,38.574,33.203,44.434,101.562,0
1485533772.088,85.938,37.109,43.457,50.293,-158.691,0
1485533772.091,60.059,37.109,50.781,68.848,-293.945,0
1485533772.095,7.324,41.504,54.688,86.426,106.934,0
1485533772.099,13.672,52.246,57.129,92.285,235.840,0
1485533772.103,35.156,38.574,39.551,47.852,-112.793,0
1485533772.107,58.594,24.902,19.531,37.598,27.832,0
1485533772.111,63.965,26.855,27.832,51.758,107.422,0
1485533772.115,18.066,32.227,34.668,64.941,423.340,0
1485533772.119,0.000,40.039,40.527,72.266,770.996,0
1485533772.123,44.434,40.527,43.945,41.504,140.625,0
1485533772.127,85.938,36.621,38.574,39.062,-268.066,0
1485533772.131,70.801,34.180,40.039,64.453,-327.148,0
1485533772.134,28.320,39.062,46.875,77.637,14.160,0
1485533772.138,16.602,43.945,50.293,84.961,262.207,0
1485533772.142,41.016,42.480,44.434,63.965,84.961,0
1485533772.146,75.195,40.527,40.527,53.711,-220.215,0
1485533772.150,76.172,41.016,31.738,70.312,-401.855,1
1485533772.154,45.898,51.270,38.086,102.539,293.945,0
1485533772.158,7.812,43.945,47.852,94.238,803.711,0
1485533772.162,21.973,30.762,41.992,41.992,86.914,0
1485533772.166,77.148,31.738,42.480,40.039,-311.523,0
1485533772.170,84.473,29.297,41.992,56.641,-357.422,0
1485533772.173,37.598,33.203,40.039,70.801,-6.348,0
1485533772.177,10.254,38.086,41.504,82.031,376.465,0
1485533772.181,22.461,38.574,44.434,62.012,49.805,0
1485533772.185,63.477,40.039,45.410,41.016,-252.441,0
1485533772.189,80.566,39.062,44.434,57.129,-351.562,0
1485533772.193,31.250,34.180,37.598,74.707,-25.391,0
1485533772.197,-2.930,39.062,41.992,80.566,370.605,0
1485533772.201,18.555,41.504,47.852,60.059,306.152,0
1485533772.205,55.176,32.715,40.527,43.945,193.359,0
1485533772.209,67.871,32.715,31.738,51.758,-0.977,0
1485533772.213,41.992,35.645,33.203,59.570,-65.430,0
1485533772.216,-2.441,37.598,43.945,74.219,647.461,0
1485533772.220,-0.977,36.133,46.875,50.293,468.750,0
1485533772.224,58.594,41.992,50.293,46.875,-280.762,0
1485533772.228,93.750,48.828,57.129,69.824,-337.402,0
1485533772.232,53.711,33.203,38.086,63.965,-172.363,0
1485533772.236,5.371,31.738,36.621,72.266,289.551,0
1485533772.240,4.883,37.598,43.457,66.895,224.121,0
1485533772.244,44.434,35.156,39.551,41.992,-174.316,0
1485533772.248,76.660,35.645,35.156,55.664,-13.184,0
1485533772.252,64.941,37.598,33.203,69.336,190.918,0
1485533772.256,10.742,41.504,41.992,83.008,647.461,0
1485533772.259,5.859,43.457,46.875,73.730,652.832,0
1485533772.263,58.105,43.945,38.574,37.109,-164.551,0
1485533772.267,82.520,43.945,35.645,45.898,-376.953,0
1485533772.271,64.453,43.457,32.227,65.918,-304.199,0
1485533772.275,33.203,57.129,54.688,102.051,84.961,0
1485533772.279,7.324,54.688,66.895,93.262,220.215,0
1485533772.283,28.809,30.762,34.180,32.715,-161.621,0
1485533772.287,72.754,26.855,24.414,34.668,-312.988,0
1485533772.291,60.547,29.297,29.785,58.105,-320.801,0
1485533772.295,7.324,33.203,31.738,70.312,420.410,0
1485533772.298,-11.719,38.574,38.086,70.801,692.383,0
1485533772.302,31.738,34.668,41.504,45.898,-102.051,0
1485533772.306,73.730,33.203,33.691,43.945,-313.477,0
1485533772.310,73.242,38.574,33.691,59.082,-310.059,0
1485533772.314,30.762,42.480,39.062,80.566,175.293,0
1485533772.318,3.418,41.016,45.898,82.520,481.934,0
1485533772.322,26.855,34.668,48.340,41.016,-28.320,0
1485533772.326,61.035,30.273,44.434,32.227,-301.758,0
1485533772.330,60.059,31.250,28.320,46.387,-251.953,0
1485533772.334,28.320,35.645,27.344,59.570,230.469,0
1485533772.338,-2.930,36.621,31.250,68.359,339.844,0
1485533772.341,2.441,38.574,22.949,50.781,198.242,0
1485533772.345,50.781,37.109,31.250,33.203,128.906,0
1485533772.349,76.660,36.621,43.945,51.758,-295.410,0
1485533772.353,43.945,46.387,55.176,91.309,2.441,0
1485533772.357,-12.695,36.621,49.805,88.867,753.418,0
1485533772.361,10.742,29.785,42.969,45.410,228.516,0
1485533772.365,66.406,35.156,35.645,35.156,-341.797,0
1485533772.369,69.824,36.621,35.645,57.617,-363.281,0
1485533772.373,33.203,38.086,35.645,72.754,-41.016,0
1485533772.377,6.348,42.969,39.062,84.473,444.336,0
1485533772.380,26.855,45.898,44.434,73.730,100.098,0
1485533772.384,63.965,42.480,34.180,46.875,-273.926,0
1485533772.388,79.102,40.039,33.203,60.547,-2.441,0
1485533772.392,61.035,43.457,39.551,75.684,283.691,0
1485533772.396,22.461,47.363,49.805,90.332,688.965,0
1485533772.400,22.949,43.945,58.105,78.613,463.867,0
1485533772.404,68.848,37.109,36.621,42.480,-234.863,0
1485533772.408,94.727,35.645,28.809,59.082,-328.125,0
1485533772.412,59.082,37.598,47.363,75.195,-151.367,0
1485533772.416,3.418,35.645,47.852,77.148,187.012,0
1485533772.420,12.207,49.316,62.500,92.285,103.516,0
1485533772.423,37.598,44.922,54.199,54.688,-159.668,0
1485533772.427,51.758,27.832,28.320,30.273,-259.766,0
1485533772.431,46.875,35.156,30.762,58.594,-130.859,0
1485533772.435,2.930,36.621,41.992,76.172,294.922,0
1485533772.439,-10.254,37.109,48.828,77.148,486.328,0
1485533772.443,33.691,33.203,40.527,41.016,120.117,0
1485533772.447,66.895,29.785,35.156,40.527,-254.395,0
1485533772.451,49.805,30.273,35.645,64.453,-281.738,0
1485533772.455,1.953,37.598,37.598,81.055,385.254,0
1485533772.459,-21.484,43.457,39.062,83.496,648.926,0
1485533772.463,24.902,42.969,26.855,45.898,-75.195,0
1485533772.466,67.871,37.109,29.785,41.016,-297.852,0
1485533772.470,57.129,36.133,41.016,62.012,-194.824,0
1485533772.474,15.137,39.551,45.898,69.336,168.945,0
1485533772.478,-9.277,38.574,52.734,78.125,232.910,0
1485533772.482,7.812,35.156,41.016,56.152,167.969,0
1485533772.486,63.477,36.621,33.691,42.480,123.535,0
1485533772.490,84.961,44.434,46.387,65.430,-214.355,0
1485533772.494,20.020,34.668,39.551,82.031,211.426,0
1485533772.498,-17.090,27.832,31.738,76.660,852.539,0
1485533772.502,18.555,28.809,39.062,35.156,227.539,0
1485533772.505,64.941,30.762,35.645,29.785,-281.250,0
1485533772.509,76.660,32.715,37.109,49.805,-250.977,0
1485533772.513,35.156,40.039,41.504,61.035,79.590,0
1485533772.517,-7.324,44.434,43.945,67.871,282.715,0
1485533772.521,6.348,36.133,45.410,54.199,-59.570,0
1485533772.525,60.547,35.156,43.457,39.551,-239.746,0
1485533772.529,71.289,36.621,28.320,48.340,7.324,0
1485533772.533,30.762,34.668,26.367,66.895,316.406,0
1485533772.537,-4.395,38.574,51.758,74.219,662.598,0
1485533772.541,13.672,38.574,54.688,48.340,350.586,0
1485533772.545,56.641,28.809,39.062,29.785,-125.000,0
1485533772.548,90.332,38.574,41.992,48.340,-276.367,0
1485533772.552,71.777,51.758,53.711,73.242,-40.527,0
1485533772.556,12.695,37.598,43.945,71.289,255.371,0
1485533772.560,11.230,36.133,40.527,48.828,-13.672,0
1485533772.564,53.223,34.668,37.109,28.809,-225.098,0
1485533772.568,72.266,29.297,30.762,43.945,-251.953,0
1485533772.572,53.711,32.227,36.621,60.059,-190.430,0
1485533772.576,11.230,34.668,39.551,83.496,257.812,0
1485533772.580,-0.977,35.156,41.504,73.242,337.402,0
1485533772.584,48.828,33.691,43.945,40.039,-187.012,0
1485533772.588,81.055,34.180,27.344,51.270,-272.461,0
1485533772.591,67.383,35.645,26.367,60.547,-267.090,0
1485533772.595,22.461,43.457,42.480,80.078,369.141,0
1485533772.599,4.395,43.945,47.363,76.660,613.770,0
1485533772.603,51.758,38.086,49.316,43.945,-164.062,0
1485533772.607,81.543,39.062,44.434,52.246,-323.242,0
1485533772.611,67.871,38.574,39.062,72.754,-36.133,0
1485533772.615,29.785,38.574,46.875,84.961,234.375,0
1485533772.619,1.953,37.109,47.363,81.055,79.102,0
1485533772.623,40.039,43.457,45.898,65.918,133.301,0
1485533772.627,91.309,47.363,50.781,65.918,92.285,0
1485533772.630,70.801,29.785,37.109,62.012,-291.992,0
1485533772.634,22.461,30.273,33.691,83.984,225.098,0
1485533772.638,-2.441,37.598,39.062,84.961,664.551,0
1485533772.642,33.203,41.016,41.504,47.363,-78.613,0
1485533772.646,73.730,39.551,43.945,53.711,-315.430,0
1485533772.650,82.520,34.668,32.715,73.242,-261.719,0
1485533772.654,46.387,36.133,39.062,81.543,20.508,1
1485533772.658,-2.930,34.668,54.688,99.609,206.055,0
1485533772.662,22.461,34.180,50.781,70.801,-128.906,0
1485533772.666,70.801,35.645,44.922,44.434,-199.707,0
1485533772.670,71.777,36.133,41.992,64.453,52.734,0
1485533772.673,34.180,39.551,43.457,80.078,426.758,0
1485533772.677,-0.488,42.969,43.945,83.008,734.863,0
1485533772.681,25.879,43.945,47.852,53.711,153.320,0
1485533772.685,76.660,52.246,55.176,55.176,-275.391,0
1485533772.689,85.449,41.992,44.922,66.406,-279.785,0
1485533772.693,46.387,30.273,32.715,68.848,-51.758,0
1485533772.697,3.418,38.086,40.527,85.449,266.113,0
1485533772.701,10.742,38.574,41.016,65.918,-54.199,0
1485533772.705,50.293,35.645,32.227,48.340,-245.117,0
1485533772.709,77.148,33.203,36.133,61.035,-243.652,0
1485533772.712,43.457,32.715,30.273,74.219,-118.164,0
1485533772.716,-3.906,39.551,36.621,91.797,333.008,0
1485533772.720,7.324,37.109,50.781,64.453,386.230,0
1485533772.724,56.152,31.250,41.016,37.598,-98.145,0
1485533772.728,70.801,30.273,40.039,60.059,-93.750,0
1485533772.732,51.758,31.250,41.504,65.430,6.348,0
1485533772.736,13.184,35.645,42.969,76.660,523.926,0
1485533772.740,7.812,37.109,44.922,64.941,651.367,0
1485533772.744,49.805,30.762,34.668,36.621,-128.418,0
1485533772.748,88.379,41.504,41.016,64.941,-220.215,0
1485533772.752,64.453,46.875,49.316,79.590,-170.410,0
1485533772.755,-6.348,30.273,36.621,72.754,80.566,0
1485533772.759,-15.137,29.785,37.598,72.266,118.164,0
1485533772.763,27.344,31.738,27.344,47.852,131.348,0
1485533772.767,73.242,30.273,27.832,53.223,159.180,0
1485533772.771,68.359,35.645,39.551,69.824,-246.582,0
1485533772.775,11.719,43.945,32.227,90.820,325.684,0
1485533772.779,-15.625,40.039,31.738,88.379,719.727,0
1485533772.783,27.344,33.691,45.898,36.621,-125.000,0
1485533772.787,73.730,34.668,42.480,43.945,-83.008,0
1485533772.791,69.336,36.621,37.598,63.965,10.254,0
1485533772.795,19.043,37.109,40.527,72.754,12.695,0
1485533772.798,0.000,41.992,48.340,84.961,146.973,0
1485533772.802,30.762,41.992,42.480,61.035,-130.371,0
1485533772.806,67.871,36.621,32.227,51.758,-147.949,0
1485533772.810,62.500,35.156,34.180,57.129,-10.254,0
1485533772.814,25.879,34.668,40.527,72.266,416.016,0
1485533772.818,7.324,45.410,62.500,94.727,693.848,0
1485533772.822,20.996,39.551,53.223,48.340,90.332,0
1485533772.826,54.688,22.461,23.438,32.715,-205.078,0
1485533772.830,61.035,26.367,28.320,59.082,-308.105,0
1485533772.834,29.297,31.250,22.949,63.477,-13.672,0
1485533772.837,0.488,34.668,17.578,74.219,243.652,0
1485533772.841,22.949,39.551,37.598,59.082,-95.215,0
1485533772.845,64.453,34.668,40.527,45.410,-160.645,0
1485533772.849,65.430,28.320,36.621,58.105,-88.379,0
1485533772.853,37.109,34.180,38.086,65.918,62.988,0
1485533772.857,-0.977,41.016,42.969,78.125,429.688,0
1485533772.861,5.371,37.109,45.898,58.105,263.672,0
1485533772.865,59.570,32.227,37.109,38.086,-90.820,0
1485533772.869,79.590,38.086,37.598,54.688,-296.875,0
1485533772.873,39.062,42.969,36.621,73.730,-184.570,0
1485533772.877,-5.371,39.062,30.273,93.750,609.375,0
1485533772.880,14.160,40.527,38.574,70.801,405.762,0
1485533772.884,71.777,47.852,50.781,53.223,-176.270,0
1485533772.888,88.379,35.156,31.738,60.547,-268.066,0
1485533772.892,51.758,30.762,18.555,62.012,-210.938,0
1485533772.896,4.883,40.527,30.762,79.102,145.508,0
1485533772.900,2.441,42.480,30.273,78.125,99.121,0
1485533772.904,40.039,37.109,31.250,43.457,102.051,0
1485533772.908,76.172,35.645,33.691,45.410,183.594,0
1485533772.912,57.129,37.598,33.691,65.918,-63.965,0
1485533772.916,10.254,42.969,38.574,83.984,434.570,0
1485533772.919,9.277,45.410,41.504,75.684,610.840,0
1485533772.923,56.152,39.062,39.551,38.086,-104.004,0
1485533772.927,86.426,37.109,33.203,41.016,-260.254,0
1485533772.931,63.965,39.551,32.715,70.312,-298.340,0
1485533772.935,14.160,40.039,41.504,85.449,11.719,0
1485533772.939,1.953,42.480,44.922,68.848,143.555,0
1485533772.943,38.574,34.668,32.715,37.109,-62.012,0
1485533772.947,95.215,43.457,36.133,53.223,-222.656,0
1485533772.951,79.102,49.316,45.410,74.219,-59.082,0
1485533772.955,9.766,31.250,34.668,62.012,355.957,0
1485533772.959,3.906,32.715,26.855,63.477,236.816,0
1485533772.962,23.926,31.250,26.367,41.016,-61.523,0
1485533772.966,50.293,25.391,34.668,30.762,33.203,0
1485533772.970,50.293,28.809,41.504,43.945,-247.559,0
1485533772.974,5.859,35.645,39.062,62.500,159.180,0
1485533772.978,-17.090,39.551,42.480,68.848,666.016,0
1485533772.982,13.184,35.645,46.875,35.156,65.918,0
1485533772.986,57.617,33.203,38.574,34.668,-215.332,0
1485533772.990,68.359,36.133,38.086,53.223,-348.145,0
1485533772.994,16.602,40.039,41.992,63.477,-21.484,0
1485533772.998,-20.508,41.992,41.016,73.730,484.375,0
1485533773.002,12.695,36.133,39.062,48.340,398.926,0
1485533773.005,60.547,32.715,37.109,31.738,-32.227,0
1485533773.009,76.172,33.691,38.086,46.875,-399.902,0
1485533773.013,34.180,36.621,41.016,66.406,-13.672,0
1485533773.017,0.488,49.316,49.316,94.727,687.012,0
1485533773.021,17.578,40.527,42.969,57.129,298.340,0
1485533773.025,52.246,27.832,31.738,25.391,-13.672,0
1485533773.029,77.148,30.762,37.109,43.457,-208.008,0
1485533773.033,41.504,32.227,39.551,57.617,-129.395,0
1485533773.037,-3.418,33.203,46.387,77.148,261.719,0
1485533773.041,6.348,30.273,45.898,55.664,57.617,0
1485533773.044,51.270,27.832,31.738,37.598,96.680,0
1485533773.048,79.590,33.691,37.109,55.664,63.477,0
1485533773.052,49.805,37.109,46.387,66.406,-166.504,0
1485533773.056,-6.348,34.668,41.504,73.730,528.320,0
1485533773.060,-7.812,33.691,42.969,48.828,571.777,0
1485533773.064,42.480,32.715,37.598,26.855,-172.852,0
1485533773.068,64.941,30.273,33.203,44.922,-345.215,0
1485533773.072,38.574,30.762,41.504,59.570,-232.422,0
1485533773.076,1.953,38.574,39.551,72.754,88.379,0
1485533773.080,-5.371,36.621,39.062,66.406,160.156,0
1485533773.084,47.363,41.992,60.059,42.969,43.945,0
1485533773.087,69.824,36.621,49.805,43.457,-149.902,0
1485533773.091,27.832,27.832,31.250,54.688,13.184,0
1485533773.095,-5.859,39.551,46.387,77.637,663.086,0
1485533773.099,-11.719,39.062,49.316,68.359,694.824,0
1485533773.103,36.133,35.156,39.062,32.715,-43.457,0
1485533773.107,75.684,33.691,38.086,41.992,-310.059,0
1485533773.111,62.012,35.156,38.574,61.523,-275.391,0
1485533773.115,21.484,40.039,45.898,83.008,24.902,2
1485533773.119,6.348,41.504,50.293,82.520,230.957,0
1485533773.123,47.363,41.016,49.316,46.875,-75.684,0
1485533773.127,69.824,37.598,43.457,42.480,-320.801,0
1485533773.130,45.898,38.086,41.016,61.523,-345.215,0
1485533773.134,16.113,47.363,38.574,77.148,39.062,0
1485533773.138,-10.254,44.922,35.156,78.125,500.977,0
1485533773.142,20.020,42.969,52.246,55.664,360.352,0
1485533773.146,78.125,44.922,52.246,53.711,-54.688,0
1485533773.150,66.895,28.809,31.738,51.270,-372.070,0
1485533773.154,15.625,30.762,34.668,62.988,53.223,0
1485533773.158,-9.766,38.574,45.410,77.148,411.133,0
1485533773.162,20.996,35.156,41.504,47.363,2.441,0
1485533773.166,72.266,34.668,35.156,41.016,-242.676,0
1485533773.169,84.961,38.574,36.621,63.477,-374.023,0
1485533773.173,35.645,41.992,40.527,82.520,60.059,0
1485533773.177,-6.348,40.527,49.316,89.844,790.039,0
1485533773.181,25.391,37.109,46.875,53.711,290.039,0
1485533773.185,65.918,32.227,33.691,41.504,31.250,0
1485533773.189,77.637,31.738,34.668,55.664,95.703,0
1485533773.193,51.270,37.598,38.086,70.312,56.641,0
1485533773.197,0.000,38.574,42.480,80.078,676.758,0
1485533773.201,14.160,38.574,36.621,58.594,472.168,0
1485533773.205,70.801,38.574,30.762,46.875,-221.680,0
1485533773.209,79.102,30.273,40.039,43.945,-403.320,0
1485533773.212,55.664,43.945,54.688,76.172,-205.078,0
1485533773.216,11.230,50.293,62.500,105.469,213.867,0
1485533773.220,-7.324,27.344,42.480,61.523,116.699,0
1485533773.224,44.434,27.344,35.645,27.832,-206.543,0
1485533773.228,78.613,36.133,32.227,43.945,-262.695,0
1485533773.232,45.898,38.086,34.668,64.453,61.035,0
1485533773.236,0.488,35.645,46.875,79.102,751.465,0
1485533773.240,8.301,37.109,43.457,70.801,582.520,0
1485533773.244,58.594,40.039,37.109,43.945,-206.055,0
1485533773.248,88.867,41.992,36.621,54.688,-339.355,0
1485533773.251,65.430,42.480,37.109,69.336,-234.863,0
1485533773.255,19.043,43.457,42.969,76.172,86.914,0
1485533773.259,5.371,41.016,40.039,74.219,350.098,0
1485533773.263,45.410,35.645,34.180,38.574,105.957,0
1485533773.267,81.543,32.715,35.645,33.691,-287.109,0
1485533773.271,62.500,33.691,41.504,61.523,-280.273,0
1485533773.275,16.113,37.598,50.781,80.078,110.840,0
1485533773.279,-3.906,37.598,49.805,76.172,487.305,0
1485533773.283,34.180,38.574,41.504,41.504,325.684,0
1485533773.287,89.844,48.340,48.340,52.246,-79.102,0
1485533773.291,75.195,38.574,45.898,62.012,-393.066,0
1485533773.294,12.695,31.250,28.809,69.824,278.320,0
1485533773.298,-1.465,36.621,40.527,74.707,727.051,0
1485533773.302,35.645,30.762,45.410,44.922,-85.449,0
1485533773.306,72.754,29.785,34.180,45.410,-369.141,0
1485533773.310,68.848,33.203,34.668,66.406,-320.312,0
1485533773.314,23.438,36.133,41.504,82.520,27.344,0
1485533773.318,6.348,41.016,50.293,88.379,425.293,0
1485533773.322,29.785,41.992,45.898,56.152,165.527,0
1485533773.326,55.664,39.551,24.902,43.945,14.160,0
1485533773.330,66.406,38.574,27.832,54.688,-4.395,0
1485533773.334,25.879,37.109,41.016,64.941,217.773,0
1485533773.337,-15.137,42.480,46.875,77.637,723.145,0
1485533773.341,16.113,41.016,51.270,45.898,124.512,0
1485533773.345,64.941,34.668,43.945,42.969,-358.887,0
1485533773.349,70.801,30.762,38.574,63.965,-364.258,0
1485533773.353,40.527,39.551,45.410,84.961,0.977,0
1485533773.357,26.367,57.617,64.453,99.609,341.797,0
1485533773.361,26.855,40.039,48.340,58.105,-48.828,0
1485533773.365,49.316,28.809,31.250,41.992,-327.148,0
1485533773.369,68.359,34.180,35.156,59.570,-374.512,0
1485533773.373,36.621,35.156,30.273,72.754,56.641,0
1485533773.376,-13.672,41.016,30.762,83.496,764.648,0
1485533773.380,-1.953,41.504,40.039,54.199,358.887,0
1485533773.384,58.105,36.621,41.016,32.715,-239.746,0
1485533773.388,79.590,38.086,35.645,55.176,-191.895,0
1485533773.392,51.270,44.434,28.320,69.336,-126.465,0
1485533773.396,11.230,44.922,39.062,80.566,196.777,0
1485533773.400,16.113,44.922,53.711,68.848,57.129,0
1485533773.404,55.664,41.992,45.410,41.992,-237.793,0
1485533773.408,75.195,38.086,37.109,52.734,-304.199,0
1485533773.412,54.199,41.016,37.598,62.500,-181.641,0
1485533773.416,5.859,42.969,48.340,80.566,177.734,0
1485533773.419,11.230,51.270,56.641,83.984,382.324,0
1485533773.423,48.340,42.480,38.574,39.551,176.758,0
1485533773.427,58.594,26.367,25.879,33.691,-167.969,0
1485533773.431,49.805,30.273,30.273,50.293,-301.270,0
1485533773.435,-0.488,38.086,35.156,69.824,425.293,0
1485533773.439,-19.043,38.086,43.457,70.801,689.453,0
1485533773.443,34.668,32.227,41.504,36.133,-112.305,0
1485533773.447,72.754,30.762,33.691,41.504,-326.660,0
1485533773.451,62.012,34.668,26.367,62.988,-243.652,0
1485533773.455,20.996,38.574,40.039,82.520,117.188,0
1485533773.459,-3.906,37.109,55.664,75.684,163.086,0
1485533773.462,28.320,33.203,42.969,46.875,-144.531,0
1485533773.466,68.359,30.762,34.668,48.828,57.129,0
1485533773.470,79.590,43.945,50.293,69.824,-12.695,0
1485533773.474,28.809,46.875,45.898,90.820,262.695,0
1485533773.478,-10.742,35.156,35.156,78.125,724.121,0
1485533773.482,35.156,36.621,44.434,42.480,59.082,0
1485533773.486,73.242,35.645,36.621,46.387,-305.664,0
1485533773.490,71.289,36.133,26.367,63.965,-289.551,0
1485533773.494,35.156,40.039,30.273,75.684,168.945,0
1485533773.498,9.277,43.457,42.969,82.520,399.414,0
1485533773.501,22.461,40.039,38.574,63.965,-65.430,0
1485533773.505,61.035,34.180,35.156,49.805,-284.668,0
1485533773.509,65.918,34.668,26.855,44.434,-287.598,0
1485533773.513,20.996,38.574,20.996,64.941,267.578,0
1485533773.517,-13.672,41.504,40.039,81.543,812.012,0
1485533773.521,11.230,35.645,49.316,54.688,235.840,0
1485533773.525,57.617,28.320,42.969,34.668,-291.504,0
1485533773.529,67.383,32.227,38.086,51.758,-289.551,0
1485533773.533,39.551,39.551,41.016,74.219,38.086,0
1485533773.537,3.418,41.504,46.875,94.727,305.664,0
1485533773.541,14.160,37.109,38.574,66.895,4.883,0
1485533773.544,69.336,44.434,40.527,52.734,-225.586,0
1485533773.548,81.543,38.086,37.109,65.430,-258.789,0
1485533773.552,34.180,25.879,20.508,57.129,44.922,0
1485533773.556,-0.488,38.086,35.156,81.543,343.262,0
1485533773.560,2.930,40.527,47.363,71.289,406.250,0
1485533773.564,51.270,34.668,25.879,37.598,203.613,0
1485533773.568,83.008,32.715,20.996,53.711,-149.414,0
1485533773.572,58.105,38.086,44.434,67.383,-176.758,0
1485533773.576,15.137,43.945,51.270,80.566,538.086,0
1485533773.580,8.789,41.504,49.316,64.941,608.887,0
1485533773.583,55.176,35.156,43.945,39.062,-200.684,0
1485533773.587,81.055,33.691,34.180,48.340,-248.535,0
1485533773.591,56.641,35.156,37.598,58.594,-122.070,0
1485533773.595,13.672,38.086,43.457,86.914,162.109,0
1485533773.599,-1.953,38.574,43.945,83.008,272.461,0
1485533773.603,42.480,32.715,41.504,47.363,-138.672,0
1485533773.607,75.195,32.715,38.086,59.570,-36.621,0
1485533773.611,55.176,35.645,37.109,72.754,200.684,0
1485533773.615,13.184,36.133,37.598,95.703,570.312,2
1485533773.619,13.184,47.852,57.617,100.098,653.809,0
1485533773.623,50.293,45.410,51.758,52.734,-101.074,0
1485533773.626,68.359,22.949,13.184,41.992,-316.895,0
1485533773.630,58.105,27.344,26.855,62.500,-183.105,0
1485533773.634,15.625,36.621,48.340,77.148,123.047,0
1485533773.638,2.930,35.645,52.246,79.102,197.754,0
1485533773.642,35.156,31.738,43.945,48.828,-136.230,0
1485533773.646,74.707,31.738,39.062,46.875,-255.371,0
1485533773.650,73.730,33.691,39.551,61.523,-216.797,0
1485533773.654,20.508,33.203,36.133,83.496,346.191,0
1485533773.658,-4.883,35.156,47.363,82.520,775.391,0
1485533773.662,31.250,36.133,49.316,35.645,89.355,0
1485533773.666,80.078,36.621,39.551,38.574,-305.664,0
1485533773.669,84.473,38.086,40.527,59.082,-178.223,0
1485533773.673,47.852,35.645,36.133,65.918,224.121,0
1485533773.677,22.949,48.340,49.805,91.797,308.105,0
1485533773.681,38.086,58.105,55.176,74.707,-71.289,0
1485533773.685,68.848,34.180,31.250,44.434,-232.910,0
1485533773.689,75.684,28.320,32.715,57.129,-204.590,0
1485533773.693,41.016,39.062,37.598,65.430,51.758,0
1485533773.697,1.465,42.969,43.945,80.566,256.836,0
1485533773.701,10.254,38.574,52.246,66.406,241.211,0
1485533773.705,56.152,35.645,45.898,52.734,143.066,0
1485533773.708,83.008,36.621,46.387,63.965,-87.402,0
1485533773.712,49.805,36.621,45.410,74.707,-132.812,0
1485533773.716,-4.883,38.086,42.480,94.238,574.707,0
1485533773.720,-0.488,39.551,47.363,70.312,474.121,0
1485533773.724,47.363,39.062,43.945,39.551,-255.859,0
1485533773.728,67.383,35.645,40.039,56.641,-203.613,0
1485533773.732,38.574,37.598,41.016,63.965,131.836,0
1485533773.736,3.418,42.480,49.805,75.195,280.273,0
1485533773.740,7.324,37.598,41.504,66.406,1.465,0
1485533773.744,52.246,41.992,44.922,49.316,-223.145,0
1485533773.748,83.008,48.828,60.547,70.801,27.344,0
1485533773.751,59.570,29.785,42.969,56.641,38.086,0
1485533773.755,0.977,29.297,43.457,75.684,431.641,0
1485533773.759,-10.742,36.621,46.387,74.219,624.512,0
1485533773.763,40.039,32.715,35.645,27.832,-151.855,0
1485533773.767,62.988,33.691,29.297,37.109,-231.445,0
1485533773.771,61.035,41.992,34.180,55.176,-198.730,0
1485533773.775,24.414,42.969,47.852,77.637,20.508,0
1485533773.779,-1.953,36.133,56.152,77.148,157.715,0
1485533773.783,31.738,31.738,49.316,42.480,-169.922,0
1485533773.787,63.965,29.785,39.062,42.969,-193.359,0
1485533773.791,54.199,31.738,40.527,55.664,-20.996,0
1485533773.794,6.348,34.180,48.828,78.125,473.145,0
1485533773.798,-17.090,37.598,45.410,81.543,678.223,0
1485533773.802,25.391,38.574,33.203,43.945,-17.090,0
1485533773.806,64.941,36.133,32.715,38.574,-187.500,0
1485533773.810,63.477,39.551,39.551,58.594,-144.531,0
1485533773.814,35.645,49.316,54.688,89.355,208.008,0
1485533773.818,1.465,40.527,56.152,84.961,447.754,0
1485533773.822,24.902,29.297,39.062,39.062,-134.277,0
1485533773.826,64.941,33.203,30.273,30.273,-217.773,0
1485533773.830,55.664,35.156,33.691,50.781,-225.098,0
1485533773.833,13.672,38.086,37.109,67.871,14.648,0
1485533773.837,-11.719,43.945,42.969,74.219,277.832,0
1485533773.841,23.926,46.875,43.457,53.223,200.195,0
1485533773.845,66.406,39.551,34.668,37.598,137.695,0
1485533773.849,66.895,34.180,34.180,47.852,-46.875,0
1485533773.853,29.297,38.574,40.527,65.430,230.957,0
1485533773.857,-3.906,42.480,42.969,77.148,457.520,0
1485533773.861,18.555,41.504,40.039,51.758,10.742,0
1485533773.865,63.965,36.621,35.156,39.551,-201.172,0
1485533773.869,79.102,34.180,39.062,55.176,-279.297,0
1485533773.873,39.551,35.156,43.457,69.824,-143.555,0
1485533773.876,8.301,49.805,57.617,89.844,348.633,0
1485533773.880,21.973,47.852,57.129,71.289,98.633,0
1485533773.884,52.246,29.785,31.250,38.574,-166.992,0
1485533773.888,72.754,32.227,30.273,54.688,62.500,0
1485533773.892,47.363,37.598,36.621,74.707,134.766,0
1485533773.896,-0.977,42.480,38.574,92.285,649.414,0
1485533773.900,2.930,41.504,44.434,71.289,623.535,0
1485533773.904,53.223,36.133,44.922,35.645,-152.344,0
1485533773.908,78.613,36.621,37.598,52.246,-122.070,0
1485533773.912,57.129,37.598,39.551,64.941,-116.699,0
1485533773.915,14.648,39.062,41.992,77.637,9.277,0
1485533773.919,7.324,44.922,34.180,76.172,80.078,0
1485533773.923,43.457,39.551,33.691,34.668,-132.812,0
1485533773.927,74.707,35.156,39.551,44.434,-218.262,0
1485533773.931,57.129,37.598,41.016,68.359,-338.379,0
1485533773.935,7.324,39.062,42.480,84.473,410.156,0
1485533773.939,-11.230,41.016,49.316,80.078,631.348,0
1485533773.943,30.273,32.715,48.340,41.992,-108.887,0
1485533773.947,80.078,38.574,48.340,56.152,-221.191,0
1485533773.951,73.242,49.805,58.594,88.379,-270.996,0
1485533773.955,8.301,32.715,50.781,84.961,108.887,0
1485533773.958,-13.672,29.785,44.434,73.242,263.184,0
1485533773.962,21.973,31.738,41.992,45.898,-99.121,0
1485533773.966,65.918,30.762,40.039,50.293,-49.316,0
1485533773.970,71.289,33.691,36.133,66.406,-127.930,0
1485533773.974,26.855,39.551,38.086,71.777,22.949,0
1485533773.978,-3.906,43.457,44.922,75.195,209.473,0
1485533773.982,18.066,38.086,45.410,56.641,208.496,0
1485533773.986,63.477,34.668,32.227,42.480,146.973,0
1485533773.990,74.219,33.203,26.855,51.270,-331.055,0
1485533773.994,23.926,34.668,41.504,76.172,68.359,0
1485533773.998,-17.090,36.621,53.711,76.172,731.445,0
1485533774.001,17.090,34.668,49.316,41.992,215.820,0
1485533774.005,66.895,34.180,42.969,43.457,-174.316,0
1485533774.009,77.148,36.133,43.457,57.617,-285.156,0
1485533774.013,28.809,36.133,34.668,67.871,-31.250,0
1485533774.017,-4.395,51.270,50.293,91.797,344.238,0
1485533774.021,18.066,54.688,53.711,60.059,133.789,0
1485533774.025,55.176,27.832,27.832,13.184,27.344,0
1485533774.029,62.988,21.973,28.809,41.016,78.613,0
1485533774.033,21.973,27.344,34.668,60.059,231.934,0
1485533774.037,-10.254,32.715,40.039,75.195,448.242,0
1485533774.040,15.625,35.645,35.156,59.082,119.141,0
1485533774.044,49.805,34.668,26.367,37.598,-193.848,0
1485533774.048,62.012,35.645,41.016,51.758,-340.820,0
1485533774.052,38.086,35.645,45.898,60.059,-267.090,0
1485533774.056,-9.766,38.574,42.969,70.312,474.121,0
1485533774.060,-5.371,38.574,44.922,51.758,409.668,0
1485533774.064,48.828,33.203,36.133,31.250,-196.289,0
1485533774.068,70.801,30.273,31.738,39.551,-295.410,2
1485533774.072,59.082,40.527,45.898,63.477,-279.297,0
1485533774.076,31.738,54.199,57.617,95.215,231.934,0
1485533774.080,4.395,40.527,42.969,56.641,314.941,0
1485533774.083,32.715,29.785,33.203,20.020,47.852,0
1485533774.087,67.871,34.668,31.738,38.086,4.883,0
1485533774.091,53.223,34.668,34.180,45.898,-352.051,0
1485533774.095,-2.930,35.645,39.062,73.242,291.016,0
1485533774.099,-8.789,39.062,28.809,76.172,610.840,0
1485533774.103,44.434,37.109,31.738,53.223,-133.301,0
1485533774.107,73.730,33.203,40.527,61.523,-321.777,0
1485533774.111,60.547,32.227,40.039,68.848,-305.176,0
1485533774.115,12.207,36.621,40.527,79.590,7.324,0
1485533774.119,-14.160,36.621,45.898,82.520,189.453,0
1485533774.123,22.461,32.227,42.480,50.293,181.152,0
1485533774.126,62.988,29.297,33.203,51.270,226.562,0
1485533774.130,55.664,32.227,33.203,58.105,-162.598,0
1485533774.134,12.695,36.621,38.086,68.848,201.660,0
1485533774.138,-9.766,35.156,36.621,73.730,707.520,0
1485533774.142,35.645,34.180,34.180,43.457,205.566,0
1485533774.146,82.520,44.922,43.457,43.457,-73.242,0
1485533774.150,63.477,35.156,41.992,51.758,-347.656,0
1485533774.154,8.789,26.855,24.414,59.570,-1.465,0
1485533774.158,-12.695,37.598,33.691,65.918,308.594,0
1485533774.162,19.531,33.691,40.527,40.527,-20.508,0
1485533774.165,64.941,30.762,34.180,39.062,-237.793,0
1485533774.169,65.918,32.227,40.527,56.152,-72.266,0
1485533774.173,30.273,34.180,41.992,69.824,312.988,0
1485533774.177,2.930,38.574,39.062,82.520,716.309,0
1485533774.181,32.227,40.039,40.527,44.434,243.652,0
1485533774.185,74.707,37.109,39.551,34.180,-297.363,0
1485533774.189,78.125,34.668,42.969,59.082,-372.559,0
1485533774.193,47.363,36.133,41.016,79.102,-119.629,0
1485533774.197,13.184,40.527,40.039,89.844,218.750,0
1485533774.201,14.160,36.621,36.621,62.500,227.051,0
1485533774.205,65.430,41.016,45.410,59.082,36.621,0
1485533774.208,94.727,41.504,47.363,69.824,-339.355,0
1485533774.212,47.363,31.250,25.879,69.824,-173.828,0
1485533774.216,-6.348,33.203,31.250,80.566,399.902,0
1485533774.220,-6.836,32.227,36.621,51.758,501.953,0
1485533774.224,42.480,31.250,35.156,25.879,-94.238,0
1485533774.228,61.035,27.344,38.574,44.434,-302.734,0
1485533774.232,33.691,27.344,40.527,58.105,-182.617,0
1485533774.236,-9.277,32.715,41.992,76.660,486.816,0
1485533774.240,3.906,37.598,42.480,63.965,635.254,0
1485533774.244,56.152,36.621,39.062,38.086,-198.242,0
1485533774.247,74.707,35.156,35.645,49.316,-346.191,0
1485533774.251,55.176,41.016,42.480,70.312,-280.273,0
1485533774.255,9.277,43.457,56.152,92.773,26.855,0
1485533774.259,8.789,39.551,49.316,81.543,273.926,0
1485533774.263,42.969,39.062,29.785,51.270,185.059,0
1485533774.267,68.848,38.574,22.461,58.594,132.324,0
1485533774.271,67.871,37.109,25.391,64.453,-127.441,0
1485533774.275,5.859,36.621,34.180,82.520,317.383,0
1485533774.279,-2.441,47.852,55.176,88.867,733.398,0
1485533774.283,49.316,41.504,55.664,45.410,-75.195,0
1485533774.287,66.895,23.438,33.691,43.457,-333.984,0
1485533774.290,63.965,25.391,40.039,65.430,-304.688,0
1485533774.294,21.973,28.320,47.852,79.590,47.852,0
1485533774.298,-4.883,32.227,47.852,84.473,317.383,0
1485533774.302,37.598,36.621,47.852,55.176,-80.078,0
1485533774.306,70.801,34.668,37.598,50.293,-272.949,0
1485533774.310,63.477,33.203,30.762,59.570,-38.086,0
1485533774.314,30.273,34.668,35.645,76.660,432.617,0
1485533774.318,-4.395,35.645,41.992,82.520,850.098,0
1485533774.322,39.551,38.086,37.109,46.387,376.465,0
1485533774.326,87.891,33.691,23.438,42.969,-219.727,0
1485533774.330,92.773,46.387,47.363,72.754,-365.234,0
1485533774.333,58.105,48.828,53.711,83.008,20.508,0
1485533774.337,1.465,32.715,41.016,76.172,398.926,0
1485533774.341,24.414,33.691,41.504,44.434,19.531,0
1485533774.345,62.500,31.250,31.250,29.785,-256.836,0
1485533774.349,58.105,32.715,33.691,51.758,-339.844,0
1485533774.353,24.414,34.180,36.621,71.777,-49.316,0
1485533774.357,-12.207,34.668,41.504,87.891,569.824,0
1485533774.361,16.602,38.574,41.992,56.152,364.746,0
1485533774.365,61.035,34.668,34.668,34.180,-179.199,0
1485533774.369,74.219,35.156,36.133,57.129,-352.539,0
1485533774.372,41.016,38.086,35.645,71.289,-174.805,0
1485533774.376,-5.371,38.574,38.574,87.402,665.039,0
1485533774.380,12.695,39.062,41.016,62.500,590.820,0
1485533774.384,60.059,34.668,38.574,34.668,-214.844,0
1485533774.388,80.566,34.180,40.527,54.199,-335.449,0
1485533774.392,50.781,31.738,37.598,68.848,-173.828,0
1485533774.396,11.230,49.316,58.594,92.773,256.348,0
1485533774.400,12.695,49.805,59.570,75.195,184.570,0
1485533774.404,36.133,22.949,30.762,40.039,49.316,0
1485533774.408,62.012,26.367,31.250,42.969,132.812,0
1485533774.412,37.109,30.762,39.062,41.016,-165.039,0
1485533774.415,-15.625,31.738,44.434,70.801,444.336,0
1485533774.419,-4.395,36.621,47.852,63.965,650.879,0
1485533774.423,57.617,39.062,41.992,32.715,-225.586,0
1485533774.427,79.102,41.016,45.410,53.223,-372.070,0
1485533774.431,53.223,36.621,49.805,65.430,-279.297,0
1485533774.435,8.301,35.156,36.133,76.660,119.141,0
1485533774.439,-14.648,34.180,38.086,75.684,410.645,0
1485533774.443,43.945,44.434,57.129,49.805,40.527,0
1485533774.447,82.520,42.480,45.898,56.152,-268.555,0
1485533774.451,54.199,26.367,32.715,63.477,-72.754,0
1485533774.455,11.719,33.691,37.109,76.172,576.172,0
1485533774.458,-8.301,39.551,40.527,70.801,728.516,0
1485533774.462,38.574,36.133,41.016,34.180,-68.848,0
1485533774.466,83.008,37.598,34.668,41.992,-339.844,0
1485533774.470,77.637,41.504,33.203,58.594,-319.824,0
1485533774.474,26.367,40.527,40.527,75.195,98.145,0
1485533774.478,-2.441,41.504,53.711,83.496,298.828,0
1485533774.482,42.969,43.457,43.945,52.734,-154.785,0
1485533774.486,78.125,42.969,29.297,47.363,-307.129,0
1485533774.490,69.336,40.527,34.180,65.918,-301.270,0
1485533774.494,27.344,38.574,38.574,82.520,146.484,1
1485533774.497,-10.254,38.574,31.738,83.984,563.477,0
1485533774.501,18.066,38.086,37.109,49.316,308.105,0
1485533774.505,69.824,36.133,46.875,41.504,76.660,0
1485533774.509,77.637,37.598,44.434,62.500,-238.770,0
1485533774.513,51.758,53.711,57.617,99.609,35.156,0
1485533774.517,11.230,52.246,56.641,92.773,770.996,0
1485533774.521,18.066,31.738,38.574,45.410,256.348,0
1485533774.525,69.336,32.715,32.227,45.898,-304.199,0
1485533774.529,82.520,38.086,33.203,65.430,-308.594,0
1485533774.533,49.805,42.480,36.133,76.172,-16.113,0
1485533774.537,4.883,42.480,43.457,85.938,310.059,0
1485533774.540,26.855,37.109,43.457,74.707,9.277,0
1485533774.544,77.148,34.668,31.250,52.734,1.953,0
1485533774.548,91.309,36.621,30.273,49.805,106.445,0
1485533774.552,61.035,40.527,37.109,61.523,-50.293,0
1485533774.556,17.090,44.922,45.410,78.613,585.449,0
1485533774.560,28.809,47.363,49.316,55.176,511.230,0
1485533774.564,61.035,42.969,28.809,29.785,-297.852,0
1485533774.568,83.496,48.340,37.598,61.523,-333.008,0
1485533774.572,57.129,44.922,54.688,75.684,-163.086,0
1485533774.576,-3.906,28.320,38.574,67.383,181.152,0
1485533774.579,-0.977,28.320,40.527,54.688,118.652,0
1485533774.583,45.898,28.320,38.086,26.855,-245.117,0
1485533774.587,71.289,31.738,33.203,45.898,-309.082,0
1485533774.591,44.434,35.156,35.156,65.430,76.172,0
1485533774.595,3.418,37.598,45.410,86.914,718.262,0
1485533774.599,-1.465,38.086,50.293,82.520,623.047,0
1485533774.603,49.316,35.156,44.434,42.480,-187.500,0
1485533774.607,85.938,36.621,41.016,55.176,-364.746,0
1485533774.611,62.012,34.180,35.156,70.312,-232.910,0
1485533774.615,12.207,33.203,35.156,89.844,146.484,0
1485533774.619,-5.859,36.133,40.527,89.844,202.637,0
1485533774.622,47.363,48.828,41.504,59.082,-199.707,0
1485533774.626,93.750,50.293,41.504,63.965,-315.430,0
1485533774.630,54.688,29.297,34.180,58.594,-247.070,0
1485533774.634,5.859,34.180,36.621,71.777,159.180,0
1485533774.638,-3.418,40.527,46.875,87.891,479.492,0
1485533774.642,25.879,35.156,44.922,50.781,305.176,0
1485533774.646,69.336,34.668,33.203,39.062,-103.027,0
1485533774.650,77.148,37.109,35.645,61.523,-301.758,0
1485533774.654,18.066,41.016,38.574,75.195,339.355,0
1485533774.658,-22.949,41.992,34.668,68.359,872.070,0
1485533774.662,16.602,35.645,39.551,46.387,406.738,0
1485533774.665,61.035,32.715,36.621,47.363,69.336,0
1485533774.669,68.359,35.156,32.715,59.082,81.543,0
1485533774.673,30.762,38.574,42.969,73.730,384.766,0
1485533774.677,0.977,40.039,44.922,84.961,555.176,0
1485533774.681,19.531,35.645,40.527,62.012,259.277,0
1485533774.685,50.781,27.832,36.133,45.410,305.176,0
1485533774.689,70.801,35.645,43.457,55.176,282.227,0
1485533774.693,45.898,51.270,56.641,81.543,295.898,0
1485533774.697,-6.836,37.598,43.945,82.031,567.383,0
1485533774.701,-0.977,32.715,36.133,39.551,295.898,0
1485533774.704,42.969,34.180,31.738,21.484,39.551,0
1485533774.708,62.500,30.762,34.180,33.203,21.973,0
1485533774.712,32.227,33.203,36.621,51.270,144.531,0
1485533774.716,-11.719,35.156,43.945,70.801,653.320,0
1485533774.720,-1.953,36.133,50.293,57.617,500.977,0
1485533774.724,54.199,36.133,46.875,38.574,-25.391,0
1485533774.728,68.359,31.250,45.410,53.711,3.418,0
1485533774.732,37.109,29.297,31.738,67.383,266.602,0
1485533774.736,13.184,52.246,40.527,82.520,776.855,0
1485533774.740,8.301,51.758,58.594,69.336,644.531,0
1485533774.744,39.062,26.367,42.969,29.785,-41.016,0
1485533774.747,78.125,28.809,38.574,43.945,-61.523,0
1485533774.751,58.105,32.715,44.434,60.547,32.227,0
1485533774.755,10.742,35.645,50.781,76.660,208.984,0
1485533774.759,1.465,37.109,54.199,74.219,260.254,0
1485533774.763,38.086,33.691,48.828,41.992,-21.484,0
1485533774.767,71.777,31.738,41.016,49.316,-51.270,0
1485533774.771,55.176,32.715,44.922,64.941,-15.625,0
1485533774.775,4.395,31.738,44.922,72.266,215.332,0
1485533774.779,-15.137,32.227,40.039,75.195,543.945,0
1485533774.783,23.926,29.785,40.039,40.527,400.391,0
1485533774.787,64.453,29.785,26.855,33.203,40.039,0
1485533774.790,64.453,35.156,31.250,63.477,0.488,0
1485533774.794,18.066,39.551,51.758,82.520,399.902,0
1485533774.798,6.348,45.898,58.105,77.637,384.766,0
1485533774.802,48.340,50.781,62.500,61.035,-64.453,0
1485533774.806,68.359,39.062,37.598,47.852,-120.605,0
1485533774.810,52.734,30.762,24.414,48.340,-127.930,0
1485533774.814,16.113,34.668,33.691,80.566,320.312,0
1485533774.818,4.395,39.062,43.457,87.891,738.770,0
1485533774.822,43.945,37.109,42.969,44.434,107.422,0
1485533774.826,66.895,34.668,30.762,46.875,131.348,0
1485533774.829,69.336,37.598,34.180,58.594,117.188,0
1485533774.833,30.273,38.574,42.480,79.590,155.273,0
1485533774.837,-3.906,41.504,44.922,90.332,762.207,0
1485533774.841,28.320,41.992,48.828,45.898,274.414,0
1485533774.845,67.871,37.109,34.668,44.922,-193.848,0
1485533774.849,72.754,37.109,26.367,66.895,-14.648,0
1485533774.853,41.992,39.062,38.086,74.219,257.324,0
1485533774.857,17.578,52.734,58.105,99.121,327.148,0
1485533774.861,13.184,49.805,59.570,70.801,63.965,0
1485533774.865,43.457,30.762,30.273,34.180,-24.414,0
1485533774.869,66.895,32.227,26.855,55.176,-75.684,0
1485533774.872,27.344,36.133,36.621,70.801,173.828,0
1485533774.876,-17.090,40.039,40.039,73.730,784.180,0
1485533774.880,6.348,39.062,47.852,53.223,464.355,0
1485533774.884,63.965,40.527,47.363,37.598,-157.715,0
1485533774.888,80.566,40.039,38.574,45.410,-139.160,0
1485533774.892,49.805,36.621,40.527,61.523,-82.031,0
1485533774.896,14.160,40.527,44.922,83.008,194.336,0
1485533774.900,15.625,42.969,48.828,62.500,124.023,0
1485533774.904,52.734,41.016,37.598,45.898,-188.965,0
1485533774.908,74.707,37.598,25.391,62.988,20.020,0
1485533774.911,49.316,39.551,39.551,64.941,105.957,0
1485533774.915,5.371,40.527,54.199,83.984,125.977,0
1485533774.919,1.953,41.992,55.176,70.312,405.273,0
1485533774.923,41.992,40.527,46.387,27.344,320.801,2
1485533774.927,84.473,49.316,51.270,59.570,63.965,0
1485533774.931,65.918,45.410,50.293,79.102,-279.785,0
1485533774.935,3.418,29.297,33.691,76.172,361.816,0
1485533774.939,-4.395,34.180,37.109,72.754,726.562,0
1485533774.943,38.086,36.621,40.039,45.898,-40.039,0
1485533774.947,70.801,36.133,38.574,59.570,-153.809,0
1485533774.951,62.500,36.621,38.086,67.871,-144.531,0
1485533774.954,26.367,40.039,44.434,81.543,133.301,0
1485533774.958,16.602,43.457,54.199,85.449,244.141,0
1485533774.962,48.340,43.457,40.039,49.316,-55.664,0
1485533774.966,74.707,36.133,28.809,51.270,150.391,0
1485533774.970,80.566,38.574,42.480,70.312,188.477,0
1485533774.974,40.527,41.992,46.875,79.102,438.965,0
1485533774.978,16.602,44.434,46.875,83.008,725.098,0
1485533774.982,50.293,44.922,45.410,53.223,87.402,0
1485533774.986,97.168,51.270,49.316,54.688,-150.391,0
1485533774.990,94.727,41.992,41.504,63.477,-207.031,0
1485533774.994,20.508,26.367,27.832,65.918,69.824,0
1485533774.997,-14.648,36.133,40.527,70.801,332.520,0
1485533775.001,12.207,36.621,39.551,42.480,-8.789,0
1485533775.005,48.828,31.738,36.621,33.691,-101.562,0
1485533775.009,59.082,34.180,34.668,51.758,-211.914,0
1485533775.013,16.602,39.551,24.414,67.383,171.387,0
1485533775.017,-25.391,43.945,43.457,78.125,801.270,0
1485533775.021,0.977,43.457,56.152,47.363,274.414,0
1485533775.025,52.734,40.527,44.434,29.297,-92.285,0
1485533775.029,70.312,41.016,43.945,47.363,-4.395,0
1485533775.033,37.109,42.969,46.875,72.754,-47.852,0
1485533775.036,-2.441,38.086,44.922,87.891,236.328,0
1485533775.040,17.090,44.922,55.176,69.336,101.562,0
1485533775.044,57.129,49.805,51.270,57.617,-102.051,0
1485533775.048,63.965,34.180,35.645,55.664,-202.148,0
1485533775.052,46.387,36.133,37.109,65.430,-166.504,0
1485533775.056,17.090,41.016,41.992,80.078,168.457,0
1485533775.060,24.414,40.527,43.945,64.453,381.348,0
1485533775.064,59.570,40.039,36.621,33.691,259.766,0
1485533775.068,81.543,41.016,28.809,46.387,-82.031,0
1485533775.072,57.129,41.016,37.598,69.824,-276.367,0
1485533775.076,6.348,39.062,48.340,88.867,460.449,0
1485533775.079,12.695,41.504,46.875,72.266,649.414,0
1485533775.083,69.336,42.969,40.527,47.852,-57.129,0
1485533775.087,82.031,42.969,35.645,55.664,11.719,0
1485533775.091,60.547,39.062,41.016,61.035,-99.121,0
1485533775.095,37.109,52.734,52.246,94.238,51.758,0
1485533775.099,28.320,57.129,62.012,98.145,188.477,0
1485533775.103,40.039,31.738,35.645,40.039,-108.398,0
1485533775.107,67.871,30.762,22.949,44.922,83.008,0
1485533775.111,68.359,34.668,31.738,65.918,-36.621,0
1485533775.115,18.066,34.180,33.691,80.566,301.270,0
1485533775.119,-2.930,34.180,42.480,82.520,735.352,0
1485533775.122,50.293,30.762,41.992,39.551,47.852,0
1485533775.126,91.797,32.227,34.180,47.363,-220.215,0
1485533775.130,77.637,35.156,35.645,73.242,-296.875,0
1485533775.134,23.926,36.621,39.551,94.238,64.453,0
1485533775.138,2.930,39.062,45.898,93.262,252.930,0
1485533775.142,39.551,36.621,45.410,57.617,-42.480,0
1485533775.146,88.867,48.340,49.805,74.219,9.766,0
1485533775.150,91.797,42.969,46.875,81.055,-185.547,0
1485533775.154,22.949,23.926,29.297,73.730,262.695,0
1485533775.158,-4.883,30.762,34.180,79.590,821.777,0
1485533775.161,39.551,31.250,33.691,41.016,221.680,0
1485533775.165,71.289,28.320,22.949,36.621,-159.180,0
1485533775.169,71.777,30.273,32.715,62.988,-275.391,0
1485533775.173,34.180,34.668,42.969,74.219,76.172,0
1485533775.177,7.324,41.504,47.363,76.660,382.324,0
1485533775.181,32.715,43.457,46.387,50.781,99.121,0
1485533775.185,80.078,38.086,40.527,40.527,-109.863,0
1485533775.189,86.426,32.227,42.480,53.223,-271.973,0
1485533775.193,36.621,30.273,40.039,63.965,-13.672,0
1485533775.197,-4.395,31.250,36.133,75.195,345.703,0
1485533775.201,16.113,45.898,50.293,75.195,438.965,0
1485533775.204,53.711,41.016,43.945,46.387,321.777,0
1485533775.208,58.594,20.020,22.949,37.109,-88.867,0
1485533775.212,39.062,31.250,31.738,60.059,-188.965,0
1485533775.216,-11.719,40.527,40.527,76.172,592.773,0
1485533775.220,3.418,38.086,38.086,51.758,612.793,0
1485533775.224,59.570,34.180,30.273,27.344,-133.301,0
1485533775.228,73.242,30.273,40.039,48.340,-285.156,0
1485533775.232,41.992,30.273,48.340,59.082,-188.965,0
1485533775.236,-8.301,34.180,51.758,78.125,171.875,0
1485533775.240,-7.324,35.645,47.852,62.500,232.910,0
1485533775.243,40.527,35.156,35.156,29.785,-107.910,0
1485533775.247,58.105,28.320,28.320,43.945,30.762,0
1485533775.251,52.734,40.527,45.410,62.012,137.207,0
1485533775.255,6.836,47.363,51.758,78.125,513.672,0
1485533775.259,-18.066,27.832,33.203,48.828,693.359,0
1485533775.263,33.203,24.902,41.016,11.719,100.098,0
1485533775.267,71.289,27.832,29.785,31.738,-151.367,0
1485533775.271,62.988,33.203,18.555,53.223,-234.863,0
1485533775.275,2.441,37.109,41.016,66.895,110.352,0
1485533775.279,-17.578,36.621,51.758,69.336,273.438,0
1485533775.283,27.832,36.133,40.039,42.480,-40.527,0
1485533775.286,67.383,38.086,36.133,39.062,-157.715,0
1485533775.290,63.965,38.086,41.504,53.223,-270.020,0
1485533775.294,11.230,42.480,32.715,78.613,354.980,0
1485533775.298,-16.602,41.016,34.180,65.918,823.242,0
1485533775.302,27.832,28.809,39.062,22.461,61.035,0
1485533775.306,78.125,39.551,49.805,52.246,-293.945,0
1485533775.310,71.777,44.922,55.176,73.242,-286.621,0
1485533775.314,5.859,26.855,31.250,68.848,88.379,0
1485533775.318,-25.391,30.273,23.926,71.777,351.562,0
1485533775.322,9.277,34.180,42.480,40.039,129.883,0
1485533775.326,60.547,32.715,45.410,32.227,-105.469,0
1485533775.329,62.500,31.738,33.691,47.852,-311.523,0
1485533775.333,12.695,30.762,40.039,65.918,49.316,0
1485533775.337,-12.207,31.738,49.316,82.031,403.320,0
1485533775.341,19.531,30.273,43.945,53.711,291.504,0
1485533775.345,62.500,29.785,41.504,41.504,176.758,1
1485533775.349,55.176,28.809,41.504,52.246,-153.320,0
1485533775.353,28.809,38.574,46.875,83.008,-70.312,0
1485533775.357,10.254,50.781,58.594,110.840,728.027,0
1485533775.361,18.555,35.645,46.875,60.059,385.742,0
1485533775.365,61.523,30.762,26.367,36.133,-266.602,0
1485533775.368,76.172,34.668,24.414,53.711,-271.484,0
1485533775.372,37.109,37.109,42.480,64.941,-76.660,0
1485533775.376,-6.836,39.062,47.852,80.566,302.734,0
1485533775.380,0.977,36.133,42.969,61.035,321.777,0
1485533775.384,55.664,36.133,35.156,33.203,101.074,0
1485533775.388,77.148,38.086,34.668,43.457,46.875,0
1485533775.392,37.598,39.062,36.133,57.617,182.129,0
1485533775.396,-7.324,36.621,38.574,71.289,700.195,0
1485533775.400,-0.977,35.645,35.156,49.316,599.121,0
1485533775.404,77.637,51.758,45.410,34.180,-201.660,0
1485533775.408,99.121,49.316,57.129,57.129,-294.434,0
1485533775.411,37.109,27.832,24.902,49.805,-207.520,0
1485533775.415,7.812,34.668,20.508,63.965,139.648,0
1485533775.419,4.395,39.551,41.504,64.453,197.754,0
1485533775.423,40.039,34.668,41.504,41.992,-181.641,0
1485533775.427,79.102,32.715,34.180,48.828,-275.391,0
1485533775.431,55.176,37.109,34.668,62.988,-256.836,0
1485533775.435,-4.883,41.016,39.551,78.125,431.152,0
1485533775.439,-4.395,43.945,43.945,73.730,812.012,0
1485533775.443,48.828,40.527,47.852,45.410,132.324,0
1485533775.447,82.520,29.297,41.992,41.016,-242.188,0
1485533775.451,80.566,39.062,47.363,67.383,-307.617,0
1485533775.454,31.738,50.293,52.246,84.961,151.855,0
1485533775.458,-4.883,34.180,40.039,56.152,347.168,0
1485533775.462,20.508,28.320,27.344,28.809,-125.977,0
1485533775.466,56.641,28.809,21.973,35.156,-283.203,0
1485533775.470,50.293,30.762,34.668,53.223,-267.578,0
1485533775.474,6.836,34.668,40.039,72.754,159.180,0
1485533775.478,-12.207,38.086,45.898,81.543,381.348,0
1485533775.482,18.555,39.062,45.410,52.246,172.363,0
1485533775.486,61.035,35.156,41.992,40.527,135.742,0
1485533775.490,71.777,34.180,41.504,46.387,-189.941,0
1485533775.493,27.832,44.434,37.109,66.406,143.066,0
1485533775.497,-9.766,43.457,39.551,71.289,829.590,0
1485533775.501,44.434,48.828,55.176,49.316,193.359,0
1485533775.505,87.402,44.434,51.270,48.828,-299.805,0
1485533775.509,53.223,26.855,30.762,41.504,-316.406,0
1485533775.513,20.508,33.203,19.043,61.523,32.715,0
1485533775.517,-0.488,39.551,30.273,83.008,410.645,0
1485533775.521,7.324,37.598,43.457,50.293,15.625,0
1485533775.525,54.199,33.691,39.062,33.203,-208.008,0
1485533775.529,73.242,37.109,37.598,55.664,6.836,0
1485533775.533,35.156,37.109,35.645,71.777,301.758,0
1485533775.536,-1.465,37.109,38.574,87.402,778.809,0
1485533775.540,27.832,40.039,41.992,57.617,387.695,0
1485533775.544,78.613,35.156,39.551,40.527,-285.156,0
1485533775.548,82.520,33.691,39.551,66.895,-278.809,0
1485533775.552,42.969,35.645,36.133,68.359,-146.973,0
1485533775.556,-11.719,38.086,36.621,81.543,396.973,0
1485533775.560,9.766,47.363,52.246,76.660,353.027,0
1485533775.564,53.223,37.109,30.273,36.621,-206.055,0
1485533775.568,61.035,27.344,18.555,43.457,-316.895,0
1485533775.572,42.969,32.715,38.086,61.523,-178.711,0
1485533775.575,-6.348,38.086,38.574,71.777,408.203,0
1485533775.579,-15.625,38.086,43.945,62.500,386.719,0
1485533775.583,38.086,35.156,45.898,41.016,-224.609,0
1485533775.587,68.848,34.668,40.527,50.293,-308.105,0
1485533775.591,42.480,37.109,40.527,56.641,-259.766,0
1485533775.595,-10.254,40.039,41.504,67.383,371.582,0
1485533775.599,-12.207,40.527,46.387,63.477,479.980,0
1485533775.603,33.691,36.621,43.457,49.805,-83.008,0
1485533775.607,64.941,30.273,36.621,45.898,-173.340,0
1485533775.611,74.707,47.363,54.199,76.660,-177.246,0
1485533775.615,31.250,52.246,55.176,100.098,251.465,0
1485533775.618,-15.625,35.156,41.992,64.453,376.953,0
1485533775.622,23.926,32.715,30.762,44.434,293.457,0
1485533775.626,74.219,34.180,18.066,39.551,269.531,0
1485533775.630,66.895,37.109,34.180,44.922,-139.648,0
1485533775.634,19.531,38.574,42.480,75.684,295.410,0
1485533775.638,16.113,43.457,48.828,76.660,747.559,0
1485533775.642,64.941,41.504,47.363,33.691,-25.879,0
1485533775.646,94.238,35.156,40.527,33.691,-396.973,0
1485533775.650,88.867,41.992,42.969,63.477,-277.344,0
1485533775.654,41.992,46.387,35.156,76.660,173.340,0
1485533775.658,0.488,43.945,41.016,80.078,334.473,0
1485533775.661,17.578,43.457,46.387,58.105,-59.082,0
1485533775.665,67.383,40.039,36.133,49.805,-189.453,0
1485533775.669,65.430,36.621,37.109,70.312,42.969,0
1485533775.673,17.090,35.156,30.273,79.590,476.562,0
1485533775.677,-0.977,42.969,40.527,77.637,798.340,0
1485533775.681,44.922,54.688,68.848,69.336,295.898,0
1485533775.685,64.941,38.574,50.781,46.875,-177.734,0
1485533775.689,73.242,28.809,30.273,39.551,-239.258,0
1485533775.693,42.969,36.621,37.109,64.941,49.316,0
1485533775.697,-6.836,39.551,39.551,74.219,325.195,0
1485533775.700,11.230,38.086,37.109,46.875,-4.395,0
1485533775.704,60.059,35.156,33.203,29.785,-182.617,0
1485533775.708,77.148,39.062,32.227,53.223,-105.957,0
1485533775.712,38.086,41.504,38.086,62.988,12.695,0
1485533775.716,-5.859,42.480,43.945,77.148,391.602,0
1485533775.720,4.395,38.086,48.340,58.594,420.410,0
1485533775.724,46.387,37.109,36.621,30.273,-91.797,0
1485533775.728,69.336,51.270,39.062,51.270,-271.973,0
1485533775.732,31.738,38.574,42.480,60.059,-78.125,0
1485533775.736,-23.438,25.879,36.621,74.707,634.277,0
1485533775.740,-13.184,30.273,38.574,55.176,604.980,0
1485533775.743,43.457,29.785,37.598,26.855,-225.586,0
1485533775.747,76.172,33.203,35.156,50.781,-266.602,0
1485533775.751,49.316,36.621,38.086,64.941,-90.332,0
1485533775.755,3.906,38.086,45.410,71.777,133.789,0
1485533775.759,4.395,40.527,41.016,66.406,150.879,0
1485533775.763,39.551,42.969,33.203,49.316,87.402,0
1485533775.767,70.801,37.598,36.621,59.082,172.852,0
1485533775.771,62.012,34.668,38.086,73.242,-72.754,0
1485533775.775,15.137,39.551,43.457,95.215,363.281,0
1485533775.779,13.184,53.711,61.035,99.609,708.496,0
1485533775.783,56.641,46.875,55.664,58.594,-85.449,0
1485533775.786,76.172,28.809,30.273,42.480,-291.016,0
1485533775.790,70.312,36.133,34.668,63.477,-106.934,0
1485533775.794,22.461,41.504,44.922,86.426,261.230,0
1485533775.798,-0.977,41.504,45.898,83.496,254.883,0
1485533775.802,42.480,41.016,39.551,45.410,-173.340,1
1485533775.806,76.660,41.016,34.180,45.898,-219.238,0
1485533775.810,77.637,39.062,33.691,63.477,60.059,0
1485533775.814,36.133,40.039,28.320,75.195,472.656,0
1485533775.818,-9.766,40.527,38.086,84.473,732.910,0
1485533775.822,29.785,38.086,53.223,45.410,89.355,0
1485533775.825,75.684,36.133,41.992,43.945,-295.410,0
1485533775.829,76.660,32.227,35.645,62.500,-195.801,0
1485533775.833,32.227,37.598,45.410,80.078,147.949,0
1485533775.837,17.578,54.199,58.594,101.074,312.988,0
1485533775.841,30.762,40.039,42.480,54.688,-60.547,0
1485533775.845,62.500,30.762,28.320,37.109,-212.891,0
1485533775.849,83.008,36.133,31.250,61.523,-156.738,0
1485533775.853,48.340,37.109,31.250,81.543,212.891,0
1485533775.857,17.090,43.945,46.387,101.074,542.969,0
1485533775.861,37.598,42.969,53.223,66.406,366.211,0
1485533775.865,77.637,38.086,28.809,44.434,-42.969,0
1485533775.868,84.473,38.086,18.555,55.664,-162.598,0
1485533775.872,41.992,40.039,39.551,72.266,-101.074,0
1485533775.876,-10.742,39.062,48.828,90.332,570.312,0
1485533775.880,6.836,36.133,42.480,51.758,475.586,0
1485533775.884,58.594,35.156,34.668,30.762,-277.832,0
1485533775.888,68.848,34.668,33.203,53.223,-215.332,0
1485533775.892,36.133,37.109,36.621,65.430,-121.582,0
1485533775.896,-2.441,37.109,40.039,76.660,112.793,0
1485533775.900,16.113,47.852,62.500,76.660,90.332,0
1485533775.904,62.012,43.457,53.223,50.781,44.922,0
1485533775.907,52.734,20.996,23.926,38.086,232.422,0
1485533775.911,35.156,26.855,33.691,47.852,41.504,0
1485533775.915,-2.930,34.668,29.785,71.289,434.082,0
1485533775.919,-8.789,36.621,27.832,64.941,562.988,0
1485533775.923,47.852,35.156,39.551,41.504,-214.355,0
1485533775.927,70.312,32.227,36.621,58.105,-225.586,0
1485533775.931,56.152,32.227,36.621,68.359,-185.059,0
1485533775.935,19.531,37.109,43.457,90.820,95.215,0
1485533775.939,7.324,38.086,47.852,82.031,187.012,0
1485533775.943,43.457,34.180,41.016,40.039,-203.125,0
1485533775.947,70.312,37.598,35.156,59.082,-173.828,0
1485533775.950,60.059,39.551,38.086,65.430,9.766,0
1485533775.954,4.883,36.621,38.086,79.590,517.090,0
1485533775.958,-12.695,37.598,31.250,73.730,712.891,0
1485533775.962,46.387,47.363,46.387,38.574,-42.969,0
1485533775.966,72.266,40.527,44.922,43.945,-239.258,0
1485533775.970,55.176,26.855,28.809,45.898,-48.340,0
1485533775.974,22.949,32.227,38.574,67.871,201.172,0
1485533775.978,-0.488,36.133,45.410,79.590,255.371,0
1485533775.982,27.832,37.109,44.922,44.434,-95.215,0
1485533775.986,74.219,37.598,38.574,35.645,-104.980,0
1485533775.990,75.195,36.133,36.133,58.594,-156.738,0
1485533775.993,26.855,38.574,45.410,74.219,76.172,0
1485533775.997,-1.465,45.410,49.805,76.660,567.871,0
1485533776.001,24.902,42.969,37.598,42.480,331.543,0
1485533776.005,83.008,37.598,28.320,30.273,-7.812,0
1485533776.009,85.938,38.574,25.879,50.293,-212.402,0
1485533776.013,32.227,42.480,35.645,65.918,-4.395,0
1485533776.017,-0.488,45.410,42.969,76.660,728.516,0
1485533776.021,32.715,53.223,57.129,62.012,316.406,0
1485533776.025,61.523,37.598,49.316,48.340,-220.703,0
1485533776.029,58.105,23.926,35.156,51.758,-56.152,0
1485533776.032,31.738,33.203,38.086,67.871,39.062,0
1485533776.036,0.488,37.598,44.922,80.566,243.652,0
1485533776.040,17.578,40.039,49.316,61.035,71.777,0
1485533776.044,57.129,35.156,40.039,46.387,103.027,0
1485533776.048,71.289,37.109,36.133,54.199,219.727,0
1485533776.052,53.223,41.504,38.086,66.406,-93.262,0
1485533776.056,6.836,40.039,34.180,98.633,527.832,0
1485533776.060,4.883,38.574,38.574,75.195,587.891,0
1485533776.064,51.758,33.203,47.852,39.551,-167.969,0
1485533776.068,78.125,44.922,57.129,62.988,-205.566,0
1485533776.072,51.758,41.992,54.688,77.148,-199.707,0
1485533776.075,1.465,30.273,39.551,83.496,125.488,0
1485533776.079,0.977,32.227,43.457,75.684,140.137,0
1485533776.083,51.758,30.762,43.945,47.852,-166.504,0
1485533776.087,80.078,36.133,43.945,62.500,-57.617,0
1485533776.091,54.199,37.598,41.016,73.242,141.602,0
1485533776.095,14.160,39.551,39.062,82.031,637.695,0
1485533776.099,8.789,42.480,41.992,75.195,681.641,0
1485533776.103,54.199,37.109,32.227,47.363,-42.480,0
1485533776.107,86.914,35.645,38.574,58.594,-214.844,0
1485533776.111,65.918,40.039,51.270,78.613,-266.602,0
1485533776.114,16.113,39.551,40.039,80.566,65.430,0
1485533776.118,0.000,41.992,45.410,74.707,227.051,0
1485533776.122,60.059,47.852,62.012,66.895,-132.324,0
1485533776.126,74.707,32.227,40.527,53.223,-164.551,0
1485533776.130,29.297,21.973,24.902,58.105,-142.090,0
1485533776.134,0.488,29.297,33.203,79.590,136.230,0
1485533776.138,-9.277,32.715,32.715,80.078,530.762,0
1485533776.142,19.043,32.227,33.203,47.363,307.129,0
1485533776.146,59.570,29.785,34.180,46.387,235.352,0
1485533776.150,63.965,31.250,28.320,56.152,12.695,0
1485533776.154,21.973,33.691,30.273,74.707,145.996,0
1485533776.157,-13.184,36.133,44.434,84.961,743.164,0
1485533776.161,26.367,36.621,44.434,37.598,171.387,0
1485533776.165,73.730,33.203,38.086,31.250,-242.188,0
1485533776.169,64.453,31.738,37.598,51.758,-299.805,0
1485533776.173,18.555,33.691,37.598,68.848,-23.926,0
1485533776.177,2.441,46.875,54.688,90.820,301.270,0
1485533776.181,25.879,37.598,45.898,54.688,7.324,0
1485533776.185,52.246,19.531,24.414,34.668,89.844,0
1485533776.189,64.453,27.832,36.621,51.758,120.605,0
1485533776.193,30.762,30.273,40.527,63.965,-14.160,0
1485533776.197,-13.672,31.738,38.086,83.984,632.324,0
1485533776.200,7.324,34.180,33.203,48.340,449.219,0
1485533776.204,52.246,34.668,27.344,35.156,-49.805,0
1485533776.208,69.824,35.645,33.691,52.246,-112.793,0
1485533776.212,46.875,36.133,41.016,62.012,-207.520,0
1485533776.216,1.953,37.109,52.246,78.125,151.367,0
1485533776.220,10.254,39.551,50.781,61.035,86.426,0
1485533776.224,55.176,38.086,38.086,38.574,-179.688,2
1485533776.228,76.660,35.156,37.109,55.176,-279.785,0
1485533776.232,42.480,35.156,40.527,75.195,-30.273,0
1485533776.236,-6.836,39.062,43.945,78.613,640.625,0
1485533776.239,16.602,52.734,55.176,65.430,566.406,0
1485533776.243,71.777,40.527,43.945,40.039,-172.363,0
1485533776.247,79.102,25.879,22.461,50.781,-316.406,0
1485533776.251,48.340,31.250,29.297,63.477,-265.625,0
1485533776.255,7.324,38.086,46.875,72.754,63.965,0
1485533776.259,17.090,42.480,49.805,72.266,129.883,0
1485533776.263,60.059,40.039,39.551,47.363,-24.414,0
1485533776.267,80.566,39.062,39.551,47.363,-133.301,0
1485533776.271,56.152,41.016,42.480,62.012,-322.266,0
1485533776.275,17.578,42.969,38.574,76.660,54.688,0
1485533776.279,6.348,39.551,42.480,75.195,472.656,0
1485533776.282,46.875,47.363,58.594,55.176,335.449,0
1485533776.286,85.938,44.434,46.875,50.293,-81.543,0
1485533776.290,70.801,28.809,25.391,45.898,-415.039,0
1485533776.294,17.090,39.551,27.832,77.148,195.312,0
1485533776.298,-4.883,43.945,30.273,78.613,751.465,0
1485533776.302,45.898,37.598,39.551,34.180,79.590,0
1485533776.306,87.891,32.715,39.551,35.156,-275.391,0
1485533776.310,73.730,33.691,34.180,53.711,-282.715,0
1485533776.314,26.855,36.621,36.621,76.660,102.539,0
1485533776.318,11.230,38.086,48.828,80.566,341.797,0
1485533776.322,43.945,40.039,42.969,41.992,87.891,0
1485533776.325,83.984,39.062,38.086,38.574,159.180,0
1485533776.329,75.684,35.645,41.016,57.617,82.031,0
1485533776.333,32.715,38.086,42.480,78.613,238.281,0
1485533776.337,-6.348,36.621,41.992,85.449,784.668,0
1485533776.341,37.598,46.875,58.594,62.500,356.934,0
1485533776.345,88.867,43.457,44.922,51.758,-276.367,0
1485533776.349,59.082,26.367,20.996,47.852,-345.215,0
1485533776.353,12.207,33.203,36.621,69.336,-60.547,0
1485533776.357,-15.625,36.133,40.039,89.844,327.148,0
1485533776.361,2.930,37.598,41.504,63.477,102.051,0
1485533776.364,53.711,35.645,42.969,44.434,-224.609,0
1485533776.368,69.824,34.668,38.086,57.129,-287.109,0
1485533776.372,33.691,35.156,42.480,78.125,78.125,0
1485533776.376,2.930,37.598,47.852,90.332,723.633,0
1485533776.380,10.742,38.086,53.711,60.547,655.273,0
1485533776.384,52.734,37.109,49.805,46.875,41.504,0
1485533776.388,73.730,33.203,33.691,55.664,-283.691,0
1485533776.392,57.617,47.852,38.086,79.102,-230.957,0
1485533776.396,13.184,52.246,45.898,101.074,157.227,0
1485533776.400,-3.418,28.320,36.621,67.383,183.594,0
1485533776.404,43.945,28.809,33.203,40.527,-196.289,0
1485533776.407,64.453,32.715,37.109,53.223,-299.805,0
1485533776.411,44.434,31.738,42.969,68.359,-264.648,0
1485533776.415,8.301,37.598,46.875,90.332,107.910,0
1485533776.419,0.488,41.016,50.781,83.496,464.355,0
1485533776.423,42.480,36.621,41.504,41.504,228.027,0
1485533776.427,77.637,37.109,33.203,52.734,-96.680,0
1485533776.431,59.570,40.527,44.922,75.684,-345.215,0
1485533776.435,11.719,41.992,43.457,86.914,297.363,0
1485533776.439,-5.371,41.016,43.457,68.848,865.234,0
1485533776.443,39.062,39.551,38.086,35.645,196.289,0
1485533776.446,82.031,37.598,21.484,39.551,-259.766,0
1485533776.450,68.848,42.969,45.410,62.988,-292.969,0
1485533776.454,25.879,53.223,67.383,90.332,134.766,0
1485533776.458,-2.930,40.527,49.316,69.336,368.652,0
1485533776.462,35.156,35.645,39.551,36.621,-92.773,0
1485533776.466,68.359,37.109,33.691,45.898,-3.906,0
1485533776.470,54.199,34.180,34.180,48.828,73.730,0
1485533776.474,18.066,42.480,42.480,67.383,308.594,0
1485533776.478,-3.906,45.898,43.457,66.895,786.621,0
1485533776.482,39.551,36.621,42.969,27.832,132.324,0
1485533776.486,76.660,30.273,41.504,35.645,-300.293,0
1485533776.489,67.871,35.645,32.715,53.223,-294.434,0
1485533776.493,27.344,40.039,33.203,75.195,67.383,0
1485533776.497,-3.418,40.039,48.340,80.566,434.082,0
1485533776.501,24.414,41.504,51.270,42.480,214.355,0
1485533776.505,65.918,40.527,45.410,36.133,-149.414,0
1485533776.509,73.242,38.086,41.504,57.129,-316.406,0
1485533776.513,42.480,49.316,54.199,85.449,170.898,0
1485533776.517,-1.953,42.480,50.293,78.613,826.172,0
1485533776.521,9.766,26.855,38.086,38.086,338.867,0
1485533776.525,64.453,29.297,28.320,36.133,-291.992,0
1485533776.529,78.613,35.645,31.250,45.898,-321.777,0
1485533776.532,43.945,40.527,43.945,65.430,-90.332,0
1485533776.536,1.465,41.504,36.621,83.984,380.859,0
1485533776.540,13.672,37.109,32.715,65.430,148.926,0
1485533776.544,62.988,31.250,43.457,46.875,-265.137,0
1485533776.548,80.078,30.762,42.969,67.383,-233.887,0
1485533776.552,43.457,33.203,40.527,81.055,-12.695,0
1485533776.556,7.324,38.086,52.246,85.938,299.805,0
1485533776.560,9.766,33.691,53.223,74.707,390.137,0
1485533776.564,62.988,44.434,44.434,62.500,245.605,0
1485533776.568,87.891,45.898,43.457,71.289,-2.930,0
1485533776.571,41.992,27.344,31.250,58.594,-278.809,0
1485533776.575,0.977,35.645,29.297,74.707,470.703,0
1485533776.579,12.207,35.645,38.574,63.965,665.039,0
1485533776.583,54.688,27.832,45.410,32.715,-189.453,0
1485533776.587,81.543,28.320,32.227,49.805,-318.359,0
1485533776.591,54.688,32.715,28.320,61.523,-231.445,0
1485533776.595,0.488,37.109,44.434,75.195,192.383,0
1485533776.599,-2.930,40.527,52.246,66.406,247.559,0
1485533776.603,30.762,38.574,44.434,33.691,-198.730,0
1485533776.607,53.223,32.715,29.297,41.992,-2.930,0
1485533776.611,57.129,41.016,41.016,64.453,61.523,0
1485533776.614,15.137,49.316,56.152,90.820,409.180,0
1485533776.618,-17.578,29.785,41.992,74.219,729.004,0
1485533776.622,31.250,20.996,37.109,31.738,-74.707,0
1485533776.626,71.777,27.344,37.109,47.363,-382.812,0
1485533776.630,58.594,33.203,34.668,65.430,-300.781,0
1485533776.634,11.230,38.086,38.086,77.148,168.457,0
1485533776.638,0.488,43.457,41.016,80.078,360.840,0
1485533776.642,35.156,42.480,43.457,46.875,-127.930,0
1485533776.646,76.660,39.551,37.598,47.363,-293.457,0
1485533776.650,67.383,38.086,25.391,72.754,-286.621,0
1485533776.654,12.207,39.551,33.691,84.961,355.957,0
1485533776.657,-13.184,40.039,47.852,73.242,853.027,0
1485533776.661,22.949,36.133,47.363,42.480,136.230,0
1485533776.665,76.660,36.133,41.016,46.875,-269.531,0
1485533776.669,73.730,33.691,39.062,59.570,-275.879,0
1485533776.673,39.062,49.805,60.547,83.984,103.027,0
1485533776.677,9.277,51.758,62.012,93.262,526.855,0
1485533776.681,16.602,31.738,37.109,49.316,41.504,0
1485533776.685,56.152,34.668,32.715,41.504,-278.809,0
1485533776.689,70.312,35.645,38.574,65.430,-290.527,0
1485533776.693,33.203,35.156,25.391,68.848,14.160,0
1485533776.696,-4.395,37.598,20.996,68.848,346.191,0
1485533776.700,10.742,41.504,40.527,50.293,307.129,2
1485533776.704,54.688,40.527,40.039,30.273,128.906,0
1485533776.708,78.613,38.574,37.598,47.363,-179.199,0
1485533776.712,43.945,43.457,41.504,64.453,-123.535,0
1485533776.716,-4.883,42.480,40.039,73.242,660.156,0
1485533776.720,18.066,59.082,51.758,64.941,542.969,0
1485533776.724,69.824,53.223,50.781,41.016,-247.559,0
1485533776.728,68.848,27.344,26.855,34.180,-265.137,0
1485533776.732,30.762,39.551,29.785,50.293,-126.953,0
1485533776.736,-12.207,40.039,40.527,70.312,286.621,0
1485533776.739,-4.883,37.109,40.527,64.453,197.754,0
1485533776.743,53.711,41.504,38.574,41.016,-227.539,0
1485533776.747,72.266,42.480,33.203,55.664,38.086,0
1485533776.751,47.363,42.969,30.273,61.035,194.824,0
1485533776.755,6.836,41.504,41.504,65.918,525.391,0
1485533776.759,0.488,43.457,44.922,54.688,684.570,0
1485533776.763,50.781,41.016,41.504,27.344,-34.668,0
1485533776.767,75.684,32.227,40.527,42.969,-318.848,0
1485533776.771,47.363,34.180,48.828,65.430,-221.191,0
1485533776.775,1.953,37.598,48.828,81.543,137.207,0
1485533776.778,-3.418,47.852,52.734,79.590,180.664,0
1485533776.782,46.875,54.688,57.617,52.734,-191.406,0
1485533776.786,72.266,33.691,33.691,38.086,-308.594,0
1485533776.790,55.176,31.250,28.809,52.734,-254.395,0
1485533776.794,10.742,41.504,37.598,78.125,442.871,0
1485533776.798,-10.254,39.551,28.320,69.824,785.156,0
1485533776.802,33.203,32.715,23.438,28.320,-25.391,0
1485533776.806,70.801,30.273,39.062,52.734,-348.633,0
1485533776.810,72.754,35.645,43.945,77.148,-272.949,0
1485533776.814,19.043,36.621,48.828,85.449,109.863,0
1485533776.818,-9.766,36.133,50.781,84.961,284.668,0
1485533776.821,35.156,37.109,43.457,45.898,-138.184,0
1485533776.825,74.707,34.668,40.039,40.527,-284.668,0
1485533776.829,61.523,39.062,36.621,62.500,-222.168,0
1485533776.833,13.184,41.016,32.227,76.660,121.094,0
1485533776.837,3.418,48.340,45.898,86.426,335.449,0
1485533776.841,36.133,50.293,53.223,62.012,188.477,0
1485533776.845,52.246,27.832,35.645,34.180,150.391,0
1485533776.849,61.035,28.320,32.227,39.062,-99.609,0
1485533776.853,24.902,36.133,32.227,62.012,27.832,0
1485533776.857,-9.277,37.598,40.527,73.730,724.121,0
1485533776.861,16.602,38.086,49.805,44.434,352.539,0
1485533776.864,54.199,34.180,48.340,45.898,-311.523,0
1485533776.868,67.871,32.715,36.133,66.406,-255.859,0
1485533776.872,34.180,35.645,37.109,74.219,-56.641,0
1485533776.876,1.465,35.645,50.293,88.867,210.938,0
1485533776.880,15.625,35.645,45.410,63.477,3.906,0
1485533776.884,55.176,30.762,37.598,49.805,-253.906,0
1485533776.888,82.520,34.668,37.598,70.312,102.539,0
1485533776.892,70.312,49.316,46.875,72.266,89.844,0
1485533776.896,11.719,41.016,38.086,81.543,492.676,0
1485533776.900,3.906,35.156,38.086,60.059,688.965,0
1485533776.903,59.082,37.598,30.762,26.367,-182.617,0
1485533776.907,71.289,32.715,19.531,44.434,-316.895,0
1485533776.911,43.945,35.156,38.086,62.012,14.160,0
1485533776.915,13.672,39.062,45.410,71.289,307.617,0
1485533776.919,3.906,37.109,41.016,56.152,119.629,0
1485533776.923,50.293,35.645,35.156,38.574,-189.941,0
1485533776.927,93.750,39.062,35.156,54.688,-196.289,0
1485533776.931,70.801,41.504,45.410,63.477,-168.945,0
1485533776.935,15.625,41.016,43.457,84.473,472.656,0
1485533776.939,5.371,41.016,41.016,74.219,673.340,0
1485533776.943,55.664,36.133,42.480,31.738,-135.254,0
1485533776.946,81.055,31.250,37.109,55.664,-222.656,0
1485533776.950,66.406,41.016,47.363,87.402,-177.246,0
1485533776.954,14.648,35.645,40.039,92.773,181.152,0
1485533776.958,0.000,29.297,34.668,69.336,340.820,0
1485533776.962,43.945,27.344,39.062,27.832,-117.676,0
1485533776.966,75.195,24.414,34.180,39.062,-230.957,0
1485533776.970,55.176,30.273,36.621,61.523,-15.625,0
1485533776.974,9.766,36.621,38.574,68.359,363.770,0
1485533776.978,-9.277,39.062,39.551,68.359,327.637,0
1485533776.982,35.156,39.551,42.480,46.387,217.773,0
1485533776.986,88.379,40.039,37.598,47.363,105.957,0
1485533776.989,78.613,39.551,36.133,55.664,-257.324,0
1485533776.993,30.762,44.434,36.133,73.242,57.617,0
1485533776.997,-0.977,43.945,30.273,78.613,764.648,0
1485533777.001,55.176,51.758,38.574,47.852,179.199,0
1485533777.005,88.867,45.410,37.598,37.598,-288.574,0
1485533777.009,68.359,30.273,25.391,34.180,-181.152,0
1485533777.013,26.855,37.598,31.250,57.129,8.301,0
1485533777.017,-12.695,38.574,40.527,77.637,324.219,0
1485533777.021,12.695,34.180,40.039,44.922,-4.395,0
1485533777.025,54.688,31.738,36.621,34.668,-217.773,0
1485533777.028,63.477,34.180,37.598,61.035,110.840,0
1485533777.032,20.508,39.551,36.621,72.266,287.598,0
1485533777.036,-25.879,41.992,41.504,76.660,708.984,0
1485533777.040,-1.465,41.504,48.828,51.270,440.918,0
1485533777.044,52.246,38.574,47.363,44.434,-246.582,0
1485533777.048,67.383,38.086,29.785,60.547,-200.195,0
1485533777.052,34.668,40.039,27.344,77.148,-166.016,0
1485533777.056,-0.977,39.062,44.922,86.426,120.117,0
1485533777.060,15.625,43.945,56.152,70.312,44.434,0
1485533777.064,62.500,51.758,57.617,59.082,-228.027,0
1485533777.068,79.102,34.668,35.645,57.129,-185.547,0
1485533777.071,46.387,31.250,34.180,61.523,-260.742,0
1485533777.075,-16.602,39.551,44.434,80.078,425.293,0
1485533777.079,-5.371,33.691,42.480,54.688,585.449,0
1485533777.083,41.992,29.785,36.621,27.344,-244.629,0
1485533777.087,47.852,36.133,28.809,54.688,-52.734,0
1485533777.091,36.621,41.504,37.109,62.988,36.621,0
1485533777.095,9.766,44.434,38.574,75.195,103.516,0
1485533777.099,1.465,40.527,40.039,74.219,180.664,0
1485533777.103,30.273,36.133,50.781,42.969,-206.543,0
1485533777.107,61.035,38.574,43.457,45.898,-230.957,0
1485533777.110,62.012,40.527,50.293,70.312,-261.719,1
1485533777.114,21.973,50.781,60.547,89.355,48.828,0
1485533777.118,-2.930,41.992,45.410,70.801,204.102,0
1485533777.122,26.367,30.762,26.855,30.273,130.371,0
1485533777.126,68.359,32.227,27.344,43.457,166.992,0
1485533777.130,69.336,33.203,37.109,73.242,-249.023,0
1485533777.134,9.277,37.598,35.645,82.031,196.777,0
1485533777.138,-13.184,41.016,41.016,77.148,785.645,0
1485533777.142,41.504,39.551,35.645,38.574,64.453,0
1485533777.146,75.684,36.133,26.855,52.734,-67.383,0
1485533777.150,61.035,33.203,43.457,76.172,39.062,0
1485533777.153,19.043,33.203,51.270,80.566,109.863,0
1485533777.157,-9.277,39.551,52.734,81.055,296.387,0
1485533777.161,32.715,40.039,48.828,49.316,-77.637,0
1485533777.165,74.707,32.715,29.297,44.434,-146.973,0
1485533777.169,77.148,44.434,39.062,75.195,4.395,0
1485533777.173,38.574,48.828,48.340,88.379,281.250,0
1485533777.177,-8.301,34.180,33.691,68.359,743.164,0
1485533777.181,15.137,30.273,39.551,44.922,354.492,0
1485533777.185,61.035,27.344,37.109,47.363,-17.090,0
1485533777.189,77.148,30.273,35.645,59.570,-186.523,0
1485533777.193,36.133,32.715,44.922,72.754,-114.258,0
1485533777.196,-5.371,39.062,41.504,83.008,283.203,0
1485533777.200,14.648,41.504,45.898,63.965,25.391,0
1485533777.204,63.965,41.016,48.340,58.594,-64.453,0
1485533777.208,78.125,36.621,39.062,64.453,29.785,0
1485533777.212,44.434,31.738,44.434,73.242,-111.328,0
1485533777.216,5.371,35.645,45.898,98.633,290.039,0
1485533777.220,12.695,37.109,44.434,81.055,309.570,0
1485533777.224,65.430,38.086,42.969,58.594,-68.359,0
1485533777.228,79.102,32.715,39.551,66.406,-122.070,0
1485533777.232,56.152,35.645,49.805,81.055,-272.461,0
1485533777.235,23.438,51.270,62.988,111.328,447.266,0
1485533777.239,2.930,38.086,49.316,79.102,672.363,0
1485533777.243,49.316,31.738,36.621,29.297,-55.176,0
1485533777.247,82.520,35.645,28.809,44.922,-137.207,0
1485533777.251,56.641,33.691,24.902,61.035,-180.664,0
1485533777.255,9.766,34.180,42.480,68.359,89.844,0
1485533777.259,-0.488,37.109,44.922,62.012,200.684,0
1485533777.263,40.527,38.574,36.133,44.434,206.055,0
1485533777.267,63.965,34.180,37.598,55.664,245.117,0
1485533777.271,43.457,35.156,43.945,66.895,-208.984,0
1485533777.275,7.324,39.551,48.340,87.891,257.812,0
1485533777.278,7.812,42.969,47.852,84.961,740.234,0
1485533777.282,47.363,41.016,42.969,42.480,3.906,0
1485533777.286,74.707,35.645,32.227,51.270,-263.184,0
1485533777.290,73.242,39.551,36.133,74.707,-292.969,0
1485533777.294,20.996,41.504,44.434,89.844,85.449,0
1485533777.298,19.043,51.270,48.828,90.820,288.574,0
1485533777.302,79.102,55.176,39.551,53.223,-20.508,0
1485533777.306,76.660,31.250,22.461,43.945,-117.188,0
1485533777.310,55.176,30.762,32.715,62.012,-19.531,0
1485533777.314,23.926,41.992,38.574,72.266,411.621,0
1485533777.318,-2.930,40.527,45.898,77.637,755.371,0
1485533777.321,23.438,37.109,49.805,36.133,192.871,0
1485533777.325,62.500,35.156,39.551,38.086,-108.887,0
1485533777.329,66.406,35.645,35.156,53.711,-248.047,0
1485533777.333,20.996,41.504,38.574,66.406,-21.484,0
1485533777.337,-9.766,44.922,45.898,82.520,327.637,0
1485533777.341,24.414,41.504,42.969,44.434,7.324,0
1485533777.345,69.824,36.621,33.203,33.203,-161.133,0
1485533777.349,74.219,43.945,37.598,54.688,-277.344,0
1485533777.353,49.805,55.176,46.875,81.543,-100.586,0
1485533777.357,-2.930,39.551,39.062,87.402,428.711,0
1485533777.360,0.000,30.273,37.109,46.387,469.727,0
1485533777.364,59.570,34.180,36.133,27.832,4.883,0
1485533777.368,66.406,37.598,41.992,54.199,-300.293,0
1485533777.372,33.203,40.039,46.875,64.941,-218.262,0
1485533777.376,-0.977,40.039,45.898,71.777,557.617,0
1485533777.380,5.371,37.598,49.805,49.805,598.145,0
1485533777.384,59.082,33.203,43.457,30.273,0.000,0
1485533777.388,81.055,31.738,37.109,49.805,-184.570,0
1485533777.392,41.504,31.250,38.086,71.289,-196.289,0
1485533777.396,0.488,36.621,42.969,75.195,157.715,0
1485533777.400,15.137,42.480,50.781,60.059,140.625,0
1485533777.403,54.688,35.156,43.457,41.992,119.141,0
1485533777.407,81.055,33.203,27.832,49.316,41.504,0
1485533777.411,62.988,36.621,39.062,64.941,-313.477,0
1485533777.415,3.418,36.621,53.223,74.707,368.164,0
1485533777.419,3.906,48.828,58.594,68.848,726.074,0
1485533777.423,59.570,37.109,49.316,36.621,-112.793,0
1485533777.427,69.824,16.602,25.391,30.273,-343.750,0
1485533777.431,53.711,24.902,34.668,55.664,-269.531,0
1485533777.435,20.996,33.691,42.480,75.195,96.680,0
1485533777.439,13.184,35.645,43.457,67.871,271.973,0
1485533777.442,59.082,33.203,41.016,47.363,10.742,0
1485533777.446,88.379,32.227,38.574,54.688,-177.734,0
1485533777.450,66.406,33.203,38.574,74.707,8.789,0
1485533777.454,22.461,37.598,44.434,91.797,448.242,0
1485533777.458,10.742,45.410,50.781,88.379,354.004,0
1485533777.462,44.434,42.480,35.156,51.270,-100.098,0
1485533777.466,79.590,30.762,21.973,48.340,-264.648,0
1485533777.470,75.195,38.086,43.945,74.707,-346.680,0
1485533777.474,25.391,47.852,53.223,92.773,138.672,0
1485533777.478,-8.789,29.297,43.945,73.242,782.715,0
1485533777.482,25.879,23.926,44.922,26.855,160.645,0
1485533777.485,69.824,26.855,36.133,29.297,-268.066,0
1485533777.489,63.965,28.809,35.645,53.711,-304.688,0
1485533777.493,12.695,37.109,40.527,71.289,23.926,0
1485533777.497,-12.695,40.527,45.898,75.684,570.312,0
1485533777.501,12.695,36.133,45.410,47.852,395.020,0
1485533777.505,44.434,32.227,39.062,39.551,20.508,0
1485533777.509,60.059,33.691,40.527,54.688,-283.691,0
1485533777.513,34.668,39.551,39.062,81.543,-91.797,0
1485533777.517,-9.277,44.922,33.691,83.496,718.262,0
1485533777.521,22.949,41.016,48.340,45.410,401.367,0
1485533777.525,71.289,34.668,50.293,41.504,-277.832,0
1485533777.528,67.383,33.691,44.922,60.059,-298.340,0
1485533777.532,28.809,32.227,40.527,67.383,-111.328,0
1485533777.536,14.648,48.340,51.270,92.773,302.734,0
1485533777.540,33.691,48.340,54.199,74.219,125.488,0
1485533777.544,47.363,24.414,30.762,38.574,28.320,0
1485533777.548,62.500,25.879,31.250,49.316,137.695,0
1485533777.552,36.133,34.180,40.039,63.477,-131.348,0
1485533777.556,-8.301,41.016,47.363,83.496,473.633,0
1485533777.560,4.883,40.527,44.434,64.941,769.043,0
1485533777.564,59.082,36.133,40.527,40.039,22.461,0
1485533777.567,79.590,33.691,34.180,49.316,-284.180,0
1485533777.571,42.969,33.203,31.250,62.012,-252.441,0
1485533777.575,6.836,37.109,43.457,71.777,164.551,0
1485533777.579,10.742,36.133,48.828,68.359,218.262,0
1485533777.583,53.711,32.227,44.434,44.434,-218.750,0
1485533777.587,81.543,35.645,40.039,52.246,-247.559,0
1485533777.591,51.270,35.645,43.457,74.707,-18.066,0
1485533777.595,5.371,37.598,43.457,84.473,602.051,0
1485533777.599,5.859,35.156,45.410,62.012,685.547,0
1485533777.603,52.734,43.457,58.105,42.480,-100.098,0
1485533777.607,71.289,44.434,55.176,58.105,-162.109,0
1485533777.610,43.457,23.438,33.691,55.664,-208.008,1
1485533777.614,1.465,27.832,33.203,70.312,81.055,0
1485533777.618,-10.254,36.133,33.203,68.359,477.539,0
1485533777.622,32.715,37.109,29.297,35.645,118.652,0
1485533777.626,67.383,31.250,35.156,39.551,-277.832,0
1485533777.630,48.340,27.344,40.527,60.059,-335.938,0
1485533777.634,2.441,34.668,45.898,77.148,113.770,0
1485533777.638,-18.555,41.016,51.758,81.055,568.359,0
1485533777.642,23.438,37.109,47.363,34.668,293.457,0
1485533777.646,61.523,35.645,33.203,34.180,-90.820,0
1485533777.650,59.082,37.109,34.668,56.152,-349.121,0
1485533777.653,21.973,41.992,38.086,70.312,118.164,0
1485533777.657,-12.207,44.434,42.480,76.660,786.621,0
1485533777.661,22.461,37.598,40.039,41.016,141.113,0
1485533777.665,77.637,37.109,31.738,45.410,-373.047,0
1485533777.669,74.707,38.574,26.855,56.152,-344.727,0
1485533777.673,44.434,55.664,35.645,80.566,3.906,0
1485533777.677,12.207,55.176,51.270,100.586,521.484,0
1485533777.681,24.902,30.762,37.598,46.875,210.938,0
1485533777.685,70.801,32.715,34.180,39.062,61.035,0
1485533777.689,83.008,38.574,35.645,57.617,-4.395,0
1485533777.692,53.711,39.551,37.109,71.777,-43.457,0
1485533777.696,14.648,40.039,37.109,84.473,422.852,0
1485533777.700,26.367,42.480,36.621,55.176,80.566,0
1485533777.704,66.895,38.574,34.180,41.504,-319.824,0
1485533777.708,75.684,32.715,32.227,53.223,-333.984,0
1485533777.712,32.227,31.250,38.574,77.148,-208.008,0
1485533777.716,-11.230,35.645,42.969,82.520,420.898,0
1485533777.720,15.137,35.156,32.227,54.688,256.348,0
1485533777.724,62.988,33.203,36.133,50.781,-323.242,0
1485533777.728,65.430,36.133,46.875,65.430,-299.316,0
1485533777.732,39.062,34.180,36.621,67.383,41.504,0
1485533777.735,9.766,45.898,52.246,98.145,731.934,0
1485533777.739,19.531,57.617,61.035,88.867,579.102,0
1485533777.743,50.781,33.203,31.738,37.109,-243.164,0
1485533777.747,73.242,24.902,28.320,52.246,-347.656,0
1485533777.751,46.875,29.785,34.668,69.336,-222.656,0
1485533777.755,5.371,31.738,44.434,81.055,125.488,0
1485533777.759,4.395,33.691,44.922,67.871,122.070,0
1485533777.763,48.340,32.715,35.645,39.551,-252.930,0
1485533777.767,81.055,33.203,36.133,48.340,-315.430,0
1485533777.771,55.176,36.621,28.320,63.965,-223.633,0
1485533777.774,13.184,41.504,40.039,84.961,182.129,0
1485533777.778,0.488,46.387,55.664,87.891,457.520,0
1485533777.782,38.086,44.434,45.410,52.246,180.176,0
1485533777.786,78.125,34.180,30.273,44.434,-160.156,0
1485533777.790,75.684,42.480,44.922,71.777,-335.449,0
1485533777.794,31.250,53.711,62.500,104.492,293.945,0
1485533777.798,0.000,37.109,40.527,69.336,771.973,0
1485533777.802,29.297,29.785,36.621,33.691,-6.836,0
1485533777.806,70.801,28.809,36.621,50.781,-325.684,0
1485533777.810,65.430,30.273,30.762,55.664,-251.465,0
1485533777.814,17.578,35.156,35.156,74.707,179.199,0
1485533777.817,-3.906,37.109,43.945,82.520,392.090,0
1485533777.821,34.180,36.621,46.387,43.457,-122.070,0
1485533777.825,72.266,33.691,25.879,40.039,-17.578,0
1485533777.829,73.242,35.156,25.879,55.176,115.234,0
1485533777.833,30.273,40.527,50.293,77.637,200.684,0
1485533777.837,-5.859,43.945,52.734,90.332,746.582,0
1485533777.841,30.762,39.062,44.922,44.922,270.508,0
1485533777.845,78.125,30.762,36.621,33.691,-325.684,0
1485533777.849,92.285,44.434,55.664,68.848,-301.758,0
1485533777.853,42.480,53.223,59.082,88.379,3.906,0
1485533777.857,-12.695,38.086,32.715,77.148,325.684,0
1485533777.860,18.555,36.133,36.621,54.688,-9.766,0
1485533777.864,70.801,33.691,33.203,38.086,-284.668,0
1485533777.868,72.266,31.250,26.367,52.734,-231.934,0
1485533777.872,33.203,36.133,35.156,66.406,151.367,0
1485533777.876,-4.883,39.062,42.969,75.684,772.949,0
1485533777.880,14.160,36.621,33.691,59.570,503.418,0
1485533777.884,65.918,33.203,34.180,35.645,-253.906,0
1485533777.888,90.820,34.180,45.898,57.617,-302.246,0
1485533777.892,58.105,37.598,39.062,71.289,-118.164,0
1485533777.896,2.930,39.062,41.016,74.219,165.039,0
1485533777.899,17.578,39.062,45.410,62.988,70.312,0
1485533777.903,68.848,34.180,37.109,45.410,-263.672,0
1485533777.907,77.637,31.250,33.203,54.199,-312.500,0
1485533777.911,47.363,34.180,35.645,69.336,-69.336,0
1485533777.915,17.090,36.621,42.480,84.473,264.160,0
1485533777.919,3.418,37.109,45.410,71.777,350.098,0
1485533777.923,39.062,36.621,40.039,40.527,184.570,0
1485533777.927,84.473,47.852,41.504,52.734,-104.492,0
1485533777.931,55.176,41.992,33.203,56.641,-221.680,0
1485533777.935,-5.371,28.320,30.762,66.406,429.199,0
1485533777.939,-5.859,32.227,43.457,68.848,697.266,0
1485533777.942,47.852,30.762,41.992,33.691,-119.629,0
1485533777.946,76.172,31.250,33.691,44.922,-320.801,0
1485533777.950,49.805,32.227,33.691,65.430,-173.828,0
1485533777.954,11.719,34.180,38.574,82.520,177.734,0
1485533777.958,5.371,41.016,43.945,79.590,240.723,0
1485533777.962,36.621,36.621,39.551,45.898,-164.062,0
1485533777.966,72.266,33.203,35.156,52.734,-23.438,0
1485533777.970,63.965,35.156,42.480,66.406,141.113,0
1485533777.974,9.766,36.621,36.133,78.613,426.758,0
1485533777.978,-14.648,38.574,31.738,74.707,678.223,0
1485533777.982,27.344,34.668,41.016,31.738,-3.906,0
1485533777.985,75.684,45.898,50.781,54.199,-334.473,0
1485533777.989,72.754,45.898,50.781,69.336,-257.812,0
1485533777.993,19.043,33.691,40.527,68.359,112.305,0
1485533777.997,-12.695,39.062,47.363,78.125,366.211,0
1485533778.001,16.113,38.086,40.039,46.875,-88.867,0
1485533778.005,64.941,34.180,32.227,44.434,-250.488,0
1485533778.009,59.570,30.762,33.691,51.758,-171.875,0
1485533778.013,13.672,34.180,35.645,62.012,185.547,0
1485533778.017,-14.648,40.527,44.922,66.895,790.039,0
1485533778.021,6.836,37.109,39.062,34.668,325.195,0
1485533778.024,57.129,31.250,32.715,36.133,-261.230,0
1485533778.028,58.594,32.715,40.527,50.781,-68.848,0
1485533778.032,21.484,36.621,42.480,60.547,206.055,0
1485533778.036,4.883,39.062,47.852,81.543,341.797,0
1485533778.040,26.855,39.062,48.340,62.012,13.184,0
1485533778.044,51.270,32.227,33.691,34.180,-247.070,0
1485533778.048,69.336,43.945,38.574,57.129,-180.176,0
1485533778.052,44.922,43.457,43.457,66.895,-102.539,0
1485533778.056,-12.207,32.227,35.645,72.266,156.250,0
1485533778.060,-2.441,35.156,42.480,66.895,370.605,0
1485533778.064,49.316,33.203,41.016,41.016,194.824,0
1485533778.067,69.824,33.691,32.715,46.387,-16.602,0
1485533778.071,42.969,37.109,27.344,73.730,-216.309,0
1485533778.075,-6.348,41.016,37.598,92.285,420.410,0
1485533778.079,-7.324,38.574,47.363,61.523,680.664,0
1485533778.083,44.434,32.715,43.457,33.691,-160.645,0
1485533778.087,71.289,33.203,41.504,49.805,-187.012,0
1485533778.091,49.316,33.691,41.504,59.570,84.473,0
1485533778.095,26.855,48.340,54.688,90.820,233.398,0
1485533778.099,21.484,51.270,56.152,80.566,116.211,0
1485533778.103,36.133,29.297,28.320,25.391,-199.219,0
1485533778.106,67.383,27.344,25.391,40.527,53.223,0
1485533778.110,54.199,33.691,31.250,58.594,55.664,0
1485533778.114,11.230,37.598,24.902,83.008,343.750,0
1485533778.118,-5.859,39.062,31.738,79.102,730.469,1
1485533778.122,39.062,36.133,45.410,37.109,-31.250,0
1485533778.126,83.008,33.203,41.016,54.688,-210.938,0
1485533778.130,70.801,35.156,45.898,68.848,-181.641,0
1485533778.134,20.996,37.598,50.781,74.219,70.801,0
1485533778.138,5.371,38.574,54.199,78.125,273.438,0
1485533778.142,34.180,31.738,43.945,42.969,-153.320,0
1485533778.146,72.266,33.691,38.574,36.133,-202.148,0
1485533778.149,81.055,50.781,47.363,69.336,-38.574,0
1485533778.153,14.160,37.598,39.062,93.750,361.816,0
1485533778.157,-25.879,25.879,23.438,81.055,783.691,0
1485533778.161,23.926,32.227,29.297,36.621,147.949,0
1485533778.165,64.453,31.250,39.062,43.457,-249.512,0
1485533778.169,66.406,30.273,41.504,63.965,-233.398,0
1485533778.173,32.715,35.156,48.340,81.055,-61.035,0
1485533778.177,2.441,41.992,55.664,92.285,280.762,0
1485533778.181,32.227,42.969,49.805,55.176,-40.039,0
1485533778.185,69.336,38.086,29.785,41.016,-177.734,0
1485533778.189,67.871,35.645,27.832,55.176,-177.246,0
1485533778.192,29.785,38.086,34.180,74.707,-85.938,0
1485533778.196,-1.465,41.992,40.039,86.914,270.020,0
1485533778.200,20.996,39.551,43.457,64.453,291.504,0
1485533778.204,63.965,32.227,27.344,46.387,206.543,0
1485533778.208,90.332,42.969,39.062,72.266,167.969,0
1485533778.212,60.547,49.805,58.594,79.590,-129.883,0
1485533778.216,-18.066,32.715,39.062,71.777,486.816,0
1485533778.220,-7.812,34.668,36.621,44.922,567.871,0
1485533778.224,52.734,36.133,42.969,25.391,-210.449,0
1485533778.228,69.824,33.203,44.434,54.199,-231.934,0
1485533778.231,59.082,34.668,41.992,72.754,-251.953,0
1485533778.235,7.324,35.645,36.621,83.496,118.164,0
1485533778.239,3.418,36.621,39.551,68.359,238.770,0
1485533778.243,52.246,36.621,36.621,45.410,-144.531,0
1485533778.247,60.059,33.691,34.180,60.547,103.516,0
1485533778.251,46.875,35.156,29.297,64.453,71.777,0
1485533778.255,0.000,40.527,40.039,83.008,385.254,0
1485533778.259,-5.371,38.574,57.617,66.895,654.297,0
1485533778.263,50.781,35.645,46.387,28.809,-125.977,0
1485533778.267,74.219,33.203,34.180,52.734,-161.133,0
1485533778.271,65.430,41.992,51.758,78.125,-191.895,0
1485533778.274,21.973,42.480,59.570,88.379,9.277,0
1485533778.278,-1.465,32.227,45.410,66.895,148.926,0
1485533778.282,44.434,34.180,37.109,33.691,-187.988,0
1485533778.286,83.008,35.156,29.297,41.992,-238.281,0
1485533778.290,67.871,38.086,32.227,56.641,-344.727,0
1485533778.294,19.043,40.527,40.527,76.660,311.035,0
1485533778.298,-0.977,44.434,48.828,77.637,791.504,0
1485533778.302,42.480,42.969,39.062,39.551,43.457,0
1485533778.306,77.148,33.691,20.508,39.551,-244.629,0
1485533778.310,64.941,34.180,36.133,46.875,-297.363,0
1485533778.314,24.414,39.551,47.363,63.477,37.598,0
1485533778.317,1.465,36.621,44.922,69.824,335.938,0
1485533778.321,40.527,45.898,56.152,46.387,-90.820,0
1485533778.325,66.895,39.551,35.645,43.945,-48.340,0
1485533778.329,54.688,25.391,15.137,49.805,-20.020,0
1485533778.333,21.484,33.203,34.668,64.453,29.785,0
1485533778.337,-6.836,39.551,40.039,75.684,344.727,0
1485533778.341,15.137,37.598,34.180,43.945,256.348,0
1485533778.345,63.477,31.250,29.297,34.180,226.562,0
1485533778.349,74.707,31.250,32.715,53.223,-22.949,0
1485533778.353,30.762,35.156,34.180,75.684,-159.180,0
1485533778.356,-15.137,39.062,41.992,84.473,630.859,0
1485533778.360,13.184,36.621,48.340,42.480,445.801,0
1485533778.364,62.012,31.738,41.992,38.574,-232.910,0
1485533778.368,71.289,34.668,39.551,57.617,-293.457,0
1485533778.372,43.945,38.574,40.527,71.777,-205.078,0
1485533778.376,1.465,34.180,42.969,86.426,171.387,0
1485533778.380,19.531,31.738,44.434,58.594,73.730,0
1485533778.384,80.566,45.898,52.246,56.152,-35.645,0
1485533778.388,77.637,41.504,39.062,60.547,196.777,0
1485533778.392,41.016,29.785,25.391,53.711,26.855,0
1485533778.396,8.301,36.133,35.156,75.684,466.797,0
1485533778.399,3.906,39.062,34.180,59.082,685.547,0
1485533778.403,64.941,39.062,29.785,38.574,-102.539,0
1485533778.407,91.309,36.621,40.039,59.082,-302.734,0
1485533778.411,56.641,35.645,40.527,69.336,-251.465,0
1485533778.415,6.836,36.621,41.016,79.102,82.031,0
1485533778.419,7.324,36.133,45.898,71.289,206.055,0
1485533778.423,57.617,34.180,41.504,41.016,-85.938,0
1485533778.427,71.777,32.715,39.551,51.758,-262.207,0
1485533778.431,41.016,35.156,42.969,69.336,-158.203,0
1485533778.435,-2.930,41.016,42.480,81.055,602.539,0
1485533778.438,1.465,41.992,41.016,67.383,727.051,0
1485533778.442,49.316,37.598,38.086,35.156,134.277,0
1485533778.446,68.848,34.180,40.527,52.734,49.805,0
1485533778.450,51.758,34.180,40.039,65.918,-129.395,0
1485533778.454,26.367,50.293,43.457,93.262,77.148,0
1485533778.458,9.277,47.363,48.828,87.402,265.137,0
1485533778.462,22.949,25.879,36.621,37.598,-75.195,0
1485533778.466,61.523,28.320,26.855,43.457,-270.508,0
1485533778.470,58.594,34.180,27.832,67.871,-333.008,0
1485533778.474,13.672,37.109,36.621,86.426,66.895,0
1485533778.478,-5.371,39.062,40.039,75.195,342.285,0
1485533778.481,41.992,36.621,38.574,42.480,183.105,0
1485533778.485,74.707,36.133,39.062,41.016,142.578,0
1485533778.489,55.176,37.598,36.621,56.641,-214.844,0
1485533778.493,8.301,39.551,32.227,75.195,-5.371,0
1485533778.497,-17.090,38.086,45.898,78.613,723.145,0
1485533778.501,21.484,33.203,43.457,41.504,436.523,0
1485533778.505,72.754,30.762,25.391,38.574,-40.527,0
1485533778.509,95.703,41.992,52.734,70.312,-341.309,0
1485533778.513,42.969,40.527,53.223,85.938,-138.672,0
1485533778.517,-13.672,29.785,37.109,80.566,337.402,0
1485533778.521,23.438,33.691,43.457,48.828,115.723,0
1485533778.524,69.824,33.203,35.645,40.039,-218.262,0
1485533778.528,60.059,34.668,29.297,55.664,-5.859,0
1485533778.532,25.879,32.227,35.645,66.895,237.305,0
1485533778.536,-12.207,33.203,48.340,76.660,703.125,0
1485533778.540,1.953,37.109,51.270,52.246,533.203,0
1485533778.544,67.871,36.133,33.203,47.363,-246.094,0
1485533778.548,85.449,35.645,28.809,61.523,-350.586,0
1485533778.552,55.664,38.574,43.457,70.801,-209.961,0
1485533778.556,15.137,41.504,49.805,88.379,153.320,0
1485533778.560,13.672,41.016,51.270,71.777,198.730,0
1485533778.563,47.852,34.180,43.457,49.805,-3.418,0
1485533778.567,79.590,37.598,45.898,67.871,-185.059,0
1485533778.571,67.383,46.387,55.176,81.055,-286.133,0
1485533778.575,-3.906,33.691,38.574,79.590,473.145,0
1485533778.579,-3.418,28.809,34.180,56.152,660.645,0
1485533778.583,55.664,28.320,37.109,33.691,-169.434,2
1485533778.587,74.219,29.785,39.062,55.176,-313.477,0
1485533778.591,53.223,32.715,41.016,71.777,-271.484,0
1485533778.595,13.672,37.598,30.762,83.008,146.484,0
1485533778.599,9.277,39.551,29.297,70.801,304.688,0
1485533778.603,53.223,34.668,38.086,42.480,-193.359,0
1485533778.606,85.938,31.250,37.598,54.199,-342.773,0
1485533778.610,66.406,33.203,36.133,67.383,-306.152,0
1485533778.614,20.020,38.574,41.016,79.102,122.070,0
1485533778.618,5.371,42.480,47.363,86.914,340.820,0
1485533778.622,45.410,37.598,41.992,53.223,88.379,0
1485533778.626,82.031,34.668,33.691,43.945,187.500,0
1485533778.630,66.895,36.133,41.016,62.988,-33.203,0
1485533778.634,9.766,37.109,50.781,86.914,181.152,0
1485533778.638,-11.719,36.133,50.781,77.148,792.480,0
1485533778.642,51.758,45.410,47.363,49.805,67.871,0
1485533778.646,103.516,48.340,42.480,64.453,-391.602,0
1485533778.649,77.148,32.227,30.273,70.801,-345.215,0
1485533778.653,29.785,33.203,30.273,82.031,20.508,0
1485533778.657,7.324,39.551,37.109,78.613,446.777,0
1485533778.661,28.320,38.574,39.551,44.434,103.027,0
1485533778.665,52.734,36.621,34.668,39.062,-228.516,0
1485533778.669,52.246,34.668,32.715,55.176,-32.227,0
1485533778.673,25.879,37.109,39.551,65.918,279.785,0
1485533778.677,1.465,41.504,44.922,74.219,772.461,0
1485533778.681,26.855,38.086,48.340,42.969,453.125,0
1485533778.685,68.359,38.086,47.363,33.691,-251.465,0
1485533778.688,77.637,39.551,27.832,56.641,-339.844,0
1485533778.692,44.434,41.992,32.227,79.102,-141.113,0
1485533778.696,3.906,41.504,51.270,83.008,332.031,0
1485533778.700,18.066,42.480,49.316,60.059,104.492,0
1485533778.704,75.195,45.410,49.316,57.617,-296.387,0
1485533778.708,71.289,30.762,38.574,56.152,-307.617,0
1485533778.712,25.879,25.391,37.598,58.594,-193.359,0
1485533778.716,-5.859,30.762,41.992,79.590,382.812,0
1485533778.720,5.371,32.227,47.852,54.688,364.746,0
1485533778.724,49.805,27.832,44.922,35.645,-210.938,0
1485533778.728,73.730,30.762,38.086,56.152,-286.621,0
1485533778.731,48.828,37.109,44.434,65.430,-285.645,0
1485533778.735,5.859,38.574,32.227,89.355,433.105,0
1485533778.739,15.137,42.480,31.738,71.289,715.332,0
1485533778.743,68.848,39.551,47.363,37.598,-117.676,0
1485533778.747,76.660,30.273,40.039,52.734,-333.496,0
1485533778.751,53.223,31.738,41.992,67.871,-213.379,0
1485533778.755,23.438,37.598,50.781,84.473,216.309,0
1485533778.759,14.160,34.668,50.293,65.430,275.391,0
1485533778.763,54.199,40.527,50.781,47.363,29.785,0
1485533778.767,82.520,48.828,50.781,72.266,209.473,0
1485533778.770,56.641,35.645,40.527,68.359,-63.965,0
1485533778.774,10.742,36.133,37.598,78.125,331.543,0
1485533778.778,-2.930,36.133,45.410,74.707,762.695,0
1485533778.782,50.781,30.762,35.645,42.480,-93.750,0
1485533778.786,80.078,33.203,28.809,56.641,-363.770,0
1485533778.790,59.570,35.156,44.922,75.684,-290.039,0
1485533778.794,11.230,36.621,49.316,92.285,181.641,0
1485533778.798,-1.465,41.992,54.688,91.309,508.301,0
1485533778.802,43.457,41.992,46.387,41.992,-76.172,0
1485533778.806,72.266,38.086,39.551,40.527,-305.176,0
1485533778.810,60.547,37.598,42.480,66.406,-8.789,0
1485533778.813,23.438,41.504,45.410,79.102,489.258,0
1485533778.817,-6.836,38.574,47.852,63.477,812.500,0
1485533778.821,41.504,44.922,55.176,34.668,126.465,0
1485533778.825,79.590,38.086,42.969,41.992,-333.008,0
1485533778.829,51.758,27.344,17.578,39.551,-310.059,0
1485533778.833,15.625,36.133,31.738,61.035,74.707,0
1485533778.837,-6.348,39.062,52.246,82.031,396.484,0
1485533778.841,19.043,37.109,41.504,45.410,-51.758,0
1485533778.845,65.430,33.203,34.180,29.785,-253.418,0
1485533778.849,64.941,33.203,39.062,52.246,-267.578,0
1485533778.853,26.367,39.062,45.410,69.824,6.348,0
1485533778.856,-7.324,40.527,45.898,77.637,512.695,0
1485533778.860,3.418,37.109,45.410,53.223,367.676,0
1485533778.864,59.082,34.180,42.480,41.504,106.445,0
1485533778.868,75.195,28.809,34.668,46.387,31.738,0
1485533778.872,53.711,45.898,50.781,83.496,2.930,0
1485533778.876,4.883,53.223,61.035,104.980,636.230,0
1485533778.880,-5.859,31.738,28.809,43.457,526.367,0
1485533778.884,49.316,27.832,27.832,30.273,-256.348,0
1485533778.888,65.430,32.227,42.969,55.664,-276.367,0
1485533778.892,35.645,35.645,40.039,69.824,-103.516,0
1485533778.895,-0.488,35.645,43.457,81.055,223.633,0
1485533778.899,5.371,35.645,45.410,59.082,109.863,0
1485533778.903,48.828,32.715,41.016,41.992,19.043,0
1485533778.907,76.660,32.715,40.039,52.734,146.484,0
1485533778.911,51.758,36.621,44.922,66.406,-137.207,0
1485533778.915,3.906,38.574,44.922,91.309,419.922,0
1485533778.919,2.441,36.621,43.945,71.289,705.078,0
1485533778.923,52.734,34.180,38.086,30.762,-191.895,0
1485533778.927,65.918,32.227,33.203,40.039,-361.328,0
1485533778.931,43.457,42.480,34.180,65.918,-204.590,0
1485533778.935,17.578,52.734,44.434,83.008,147.949,0
1485533778.938,-1.953,34.668,40.039,55.664,183.105,0
1485533778.942,41.504,30.273,34.180,20.996,-222.656,0
1485533778.946,69.824,32.227,33.203,34.180,-265.137,0
1485533778.950,41.016,31.250,31.250,51.758,12.695,0
1485533778.954,3.418,35.645,35.645,71.289,551.270,0
1485533778.958,-1.953,35.645,41.992,71.777,737.305,0
1485533778.962,41.992,32.715,41.504,46.387,-17.578,0
1485533778.966,78.613,34.668,35.645,45.410,-349.609,0
1485533778.970,59.570,38.574,38.574,49.316,-256.836,0
1485533778.974,-2.441,40.527,41.992,65.430,155.273,0
1485533778.978,-17.090,39.062,48.828,68.359,300.293,0
1485533778.981,20.020,35.156,48.340,41.992,-161.133,0
1485533778.985,65.430,44.434,36.133,57.617,-277.344,0
1485533778.989,62.500,38.086,29.297,62.988,-231.934,0
1485533778.993,11.230,30.273,32.227,69.336,102.539,1
1485533778.997,-9.766,39.551,43.945,91.309,534.668,0
1485533779.001,23.926,37.109,45.898,55.176,307.617,0
1485533779.005,72.754,35.156,36.621,42.480,-133.301,0
1485533779.009,72.266,35.156,35.645,66.406,-259.277,0
1485533779.013,32.715,37.109,41.016,82.520,-30.762,0
1485533779.017,-5.371,41.992,48.340,90.820,689.453,0
1485533779.020,13.672,39.062,50.293,56.641,376.953,0
1485533779.024,63.477,33.691,40.527,43.457,-326.172,0
1485533779.028,64.941,31.250,41.504,64.941,-261.719,0
1485533779.032,30.273,35.156,46.387,82.031,88.379,0
1485533779.036,1.465,40.039,48.340,87.891,345.703,0
1485533779.040,14.160,39.062,34.668,61.035,10.742,0
1485533779.044,62.988,37.598,27.832,53.223,44.922,0
1485533779.048,95.703,46.875,53.711,71.289,77.637,0
1485533779.052,60.547,41.016,48.828,63.965,-111.328,0
1485533779.056,-1.953,35.156,35.156,68.359,220.703,0
1485533779.060,-0.488,38.086,42.480,62.500,156.250,0
1485533779.063,52.246,34.668,34.668,34.180,-251.953,0
1485533779.067,79.590,35.156,29.297,42.969,-193.359,0
1485533779.071,55.664,38.574,41.504,66.406,-199.707,0
1485533779.075,6.836,48.340,49.316,87.891,388.184,0
1485533779.079,-0.488,47.363,45.898,67.383,620.605,0
1485533779.083,47.363,37.109,34.180,41.016,-89.844,0
1485533779.087,75.195,35.156,23.926,57.129,-195.801,0
1485533779.091,61.035,39.062,38.086,70.312,31.250,0
1485533779.095,16.602,40.039,43.457,82.520,583.984,0
1485533779.099,18.555,53.223,54.688,69.336,654.785,0
1485533779.102,63.965,47.363,51.758,36.621,-181.641,0
1485533779.106,72.754,30.273,25.879,42.480,-335.449,0
1485533779.110,58.594,37.598,31.738,64.453,-243.652,0
1485533779.114,7.812,38.086,37.109,85.449,52.734,0
1485533779.118,-8.789,40.039,41.016,73.730,210.449,0
1485533779.122,32.227,36.133,44.922,38.086,-221.191,0
1485533779.126,66.406,31.250,41.504,51.270,-292.969,0
1485533779.130,55.664,38.086,30.762,59.570,-262.207,0
1485533779.134,16.113,42.969,25.391,76.172,86.426,0
1485533779.138,3.418,43.457,41.016,86.426,516.602,0
1485533779.142,39.551,44.922,42.969,41.992,192.383,0
1485533779.145,68.848,41.504,35.645,41.992,-155.273,0
1485533779.149,51.758,33.691,33.691,56.152,-143.555,0
1485533779.153,17.578,39.062,36.621,70.801,199.219,0
1485533779.157,9.277,55.176,48.828,89.844,711.914,0
1485533779.161,27.832,40.527,40.527,32.715,151.367,0
1485533779.165,55.176,28.809,29.297,25.879,-332.031,0
1485533779.169,62.988,32.227,34.668,55.664,-233.887,0
1485533779.173,29.785,32.715,34.180,73.730,-45.410,0
1485533779.177,-1.465,40.527,41.016,87.891,255.371,0
1485533779.181,25.879,37.109,31.738,57.617,-104.492,0
1485533779.185,65.918,27.832,21.484,55.664,-42.480,0
1485533779.188,64.941,25.879,37.109,64.453,155.273,0
1485533779.192,34.180,28.809,45.410,70.312,-89.355,0
1485533779.196,-9.277,33.691,44.434,84.473,579.102,0
1485533779.200,18.066,34.668,42.969,56.641,496.582,0
1485533779.204,62.988,33.691,41.504,42.969,-296.875,0
1485533779.208,65.430,36.133,36.621,65.430,-190.430,0
1485533779.212,44.922,37.598,40.039,85.449,-25.391,0
1485533779.216,14.648,49.805,56.152,106.934,184.082,0
1485533779.220,21.484,41.016,45.410,73.730,57.129,0
1485533779.224,54.199,23.926,33.203,44.922,-251.953,0
1485533779.227,63.477,27.832,38.086,68.848,-200.684,0
1485533779.231,41.992,34.180,26.855,74.707,35.156,0
1485533779.235,1.953,41.504,20.508,86.914,668.945,0
1485533779.239,16.602,41.992,36.621,72.754,613.281,0
1485533779.243,65.918,34.180,42.969,46.387,-179.199,0
1485533779.247,80.566,34.668,40.527,53.711,-214.355,0
1485533779.251,59.082,39.551,43.945,72.754,-187.500,0
1485533779.255,18.066,43.457,44.434,82.031,86.914,0
1485533779.259,11.230,40.527,44.922,71.777,158.203,0
1485533779.263,45.410,34.180,46.387,50.293,-177.734,0
1485533779.267,91.797,49.316,59.570,62.012,-133.789,0
1485533779.270,71.777,48.828,56.152,82.031,-83.496,0
1485533779.274,15.137,32.227,33.691,79.590,163.086,0
1485533779.278,7.812,40.039,26.367,77.637,490.234,0
1485533779.282,47.852,39.062,33.203,45.410,163.574,0
1485533779.286,78.125,35.156,42.480,49.316,-147.461,0
1485533779.290,66.895,39.062,43.457,68.848,-264.160,0
1485533779.294,16.602,41.504,43.457,73.730,308.105,0
1485533779.298,-2.441,41.992,47.852,70.312,566.895,0
1485533779.302,47.363,39.062,47.852,46.875,-104.492,0
1485533779.306,76.660,37.109,38.086,42.480,-169.434,0
1485533779.310,63.477,38.574,41.504,53.711,-264.648,0
1485533779.313,21.973,35.156,42.969,81.543,109.375,0
1485533779.317,-3.418,38.086,46.875,84.961,579.590,0
1485533779.321,43.945,50.781,53.711,52.734,5.371,0
1485533779.325,65.918,37.598,35.645,47.852,104.980,0
1485533779.329,42.969,23.926,19.043,48.340,220.215,0
1485533779.333,6.348,30.273,30.273,62.500,101.074,0
1485533779.337,-15.625,34.668,44.434,71.289,693.359,0
1485533779.341,22.949,32.715,50.293,39.062,331.055,0
1485533779.345,61.035,29.297,43.457,32.227,-191.895,0
1485533779.349,74.219,33.203,39.062,55.176,-233.887,0
1485533779.352,30.762,34.180,46.387,70.312,-142.578,0
1485533779.356,-6.348,38.574,51.270,73.730,224.609,0
1485533779.360,22.949,43.457,55.176,55.664,18.555,0
1485533779.364,67.383,37.598,42.969,41.992,-178.711,0
1485533779.368,79.590,35.156,34.180,54.688,-190.918,0
1485533779.372,37.109,35.645,32.227,66.895,51.758,0
1485533779.376,0.000,40.039,42.969,78.613,737.305,0
1485533779.380,19.531,49.316,63.965,58.594,523.438,0
1485533779.384,58.105,35.156,44.922,33.203,-149.414,0
1485533779.388,68.848,26.855,32.227,55.664,13.672,0
1485533779.392,40.039,32.227,43.945,64.941,-71.289,0
1485533779.395,5.371,37.109,49.805,72.266,44.922,0
1485533779.399,9.277,39.551,49.316,66.406,66.895,0
1485533779.403,52.734,35.645,45.898,36.621,-181.641,0
1485533779.407,74.707,33.691,43.457,44.922,-237.793,0
1485533779.411,45.410,36.133,47.363,63.965,-294.434,0
1485533779.415,7.812,40.039,52.734,78.125,76.172,0
1485533779.419,3.418,38.086,34.668,67.871,402.832,0
1485533779.423,37.598,35.156,27.344,40.527,307.129,0
1485533779.427,70.312,34.668,36.621,43.945,12.207,0
1485533779.431,68.848,42.969,46.875,63.965,-358.398,0
1485533779.434,20.020,54.688,56.152,90.820,304.199,0
1485533779.438,-12.695,38.574,39.551,61.035,742.188,0
1485533779.442,44.922,29.297,36.133,26.367,2.930,0
1485533779.446,82.031,36.133,36.133,41.504,-47.852,0
1485533779.450,60.059,38.574,36.621,50.781,-155.273,0
1485533779.454,-1.953,35.156,42.969,73.242,75.684,0
1485533779.458,-18.555,35.645,43.457,69.336,311.523,0
1485533779.462,33.691,38.574,46.387,35.156,-84.961,0
1485533779.466,76.660,37.598,37.109,47.852,100.098,1
1485533779.470,68.848,41.992,23.438,60.059,-27.344,0
1485533779.474,9.766,45.410,35.645,79.590,115.723,0
1485533779.477,-16.113,43.457,45.410,78.613,780.273,0
1485533779.481,33.691,40.039,43.945,33.203,225.098,0
1485533779.485,78.125,38.574,40.039,40.527,-196.289,0
1485533779.489,72.266,42.969,41.992,55.664,-276.855,0
1485533779.493,21.484,40.527,45.898,79.102,3.418,0
1485533779.497,1.953,47.852,60.547,103.027,335.449,0
1485533779.501,36.621,53.223,60.059,62.500,35.645,0
1485533779.505,58.105,35.645,32.227,34.180,9.766,0
1485533779.509,63.965,30.273,34.180,47.852,-129.883,0
1485533779.513,21.484,33.691,45.898,71.777,91.309,0
1485533779.517,-11.719,38.086,35.156,81.055,777.832,0
1485533779.520,20.996,37.109,21.484,47.852,419.922,0
1485533779.524,71.777,32.715,29.785,35.156,-232.422,0
1485533779.528,78.613,29.297,44.434,53.711,-338.867,0
1485533779.532,38.086,30.762,45.410,72.754,-212.402,0
1485533779.536,1.465,38.086,47.363,91.797,176.270,0
1485533779.540,19.043,38.574,46.875,66.406,129.395,0
1485533779.544,64.941,36.621,42.969,47.363,-187.012,0
1485533779.548,76.172,37.109,38.086,56.152,-310.547,0
1485533779.552,40.527,36.621,37.598,55.664,-240.234,0
1485533779.556,16.113,50.293,56.152,91.797,140.625,0
1485533779.559,13.672,45.898,55.664,83.008,398.438,0
1485533779.563,38.574,23.926,33.691,38.086,229.004,0
1485533779.567,65.430,30.762,20.996,55.176,-17.578,0
1485533779.571,46.875,36.133,26.855,63.965,-336.914,0
1485533779.575,0.488,38.574,42.480,79.590,339.844,0
1485533779.579,7.324,41.504,45.898,66.406,750.488,0
1485533779.583,60.547,36.133,44.922,35.645,-90.332,0
1485533779.587,74.219,31.738,39.551,56.641,-333.008,0
1485533779.591,55.664,32.715,38.086,78.613,-271.973,0
1485533779.595,20.020,39.062,43.457,83.496,110.840,0
1485533779.599,4.395,38.086,43.457,64.453,290.039,0
1485533779.602,41.992,34.668,39.551,41.504,-108.398,0
1485533779.606,67.383,34.668,32.227,51.758,24.414,0
1485533779.610,65.430,45.898,48.828,74.707,108.398,0
1485533779.614,21.973,51.270,49.805,101.074,344.727,0
1485533779.618,-13.184,31.250,23.926,71.777,737.305,0
1485533779.622,37.109,27.832,32.227,28.809,200.684,0
1485533779.626,68.359,29.785,37.109,43.457,-215.332,0
1485533779.630,56.152,28.809,39.062,59.082,-369.629,0
1485533779.634,24.902,36.621,41.016,75.684,22.949,0
1485533779.638,12.207,42.969,51.270,76.660,349.121,0
1485533779.641,36.133,38.574,50.781,40.039,-97.168,0
1485533779.645,72.754,36.133,33.691,46.387,-330.078,0
1485533779.649,67.383,36.621,32.715,66.406,-336.914,0
1485533779.653,23.926,38.086,37.109,78.125,169.434,0
1485533779.657,-1.953,41.504,43.945,82.031,824.219,0
1485533779.661,32.227,36.621,38.086,34.180,229.980,0
1485533779.665,79.590,43.457,39.551,39.062,-327.148,0
1485533779.669,79.102,48.828,40.039,66.895,-333.984,0
1485533779.673,21.484,33.203,23.438,62.500,-94.238,0
1485533779.677,-10.254,33.691,36.621,77.637,329.590,0
1485533779.681,21.973,35.645,44.922,59.570,222.656,0
1485533779.684,62.988,33.203,40.039,39.062,-134.277,0
1485533779.688,67.871,34.668,38.086,48.340,-339.844,0
1485533779.692,28.809,39.062,34.668,58.594,-181.641,0
1485533779.696,1.953,39.551,32.227,77.637,254.883,0
1485533779.700,16.113,37.598,35.156,60.059,353.516,0
1485533779.704,63.965,36.133,34.668,49.805,195.801,0
1485533779.708,75.195,34.668,31.250,53.711,-85.938,0
1485533779.712,35.156,37.109,29.785,59.082,-315.430,0
1485533779.716,-5.371,43.457,36.133,74.219,508.301,0
1485533779.720,5.859,43.945,33.691,47.363,618.164,0
1485533779.724,57.129,36.621,28.809,32.715,-270.508,0
1485533779.727,78.125,31.738,37.109,42.480,-352.539,0
1485533779.731,57.129,47.363,60.547,76.172,-254.395,0
1485533779.735,9.277,50.293,59.570,92.285,112.305,0
1485533779.739,-5.859,30.762,34.668,54.688,339.355,0
1485533779.743,33.203,29.297,28.809,25.391,-39.062,0
1485533779.747,59.570,32.715,33.691,37.109,18.555,0
1485533779.751,41.992,34.180,39.551,57.617,130.859,0
1485533779.755,-2.441,40.039,37.109,77.148,498.047,0
1485533779.759,-5.859,38.574,41.992,59.570,693.359,0
1485533779.763,47.852,30.762,43.945,30.762,-136.719,0
1485533779.766,77.148,31.738,42.969,46.875,-346.680,0
1485533779.770,55.176,34.180,48.828,59.570,-291.992,0
1485533779.774,16.113,38.086,41.504,76.172,127.930,0
1485533779.778,0.000,39.551,32.227,69.336,296.387,0
1485533779.782,33.203,34.180,34.180,38.574,-166.016,0
1485533779.786,87.891,46.387,50.293,62.500,-295.898,0
1485533779.790,66.895,48.828,58.594,77.637,-316.895,0
1485533779.794,-4.883,30.273,41.992,79.102,355.957,0
1485533779.798,-6.348,31.738,40.039,75.195,867.676,0
1485533779.802,41.992,29.297,39.062,31.738,94.238,0
1485533779.806,67.383,26.855,40.527,42.969,-276.367,0
1485533779.809,63.965,32.227,47.852,62.012,-288.574,0
1485533779.813,30.273,39.551,43.457,80.566,97.656,0
1485533779.817,7.812,40.527,45.410,89.355,432.129,0
1485533779.821,37.109,33.203,47.363,50.293,-84.473,0
1485533779.825,81.055,31.738,31.250,45.898,-295.410,0
1485533779.829,81.543,32.715,24.414,66.406,-310.547,0
1485533779.833,27.344,36.621,41.992,86.914,24.414,0
1485533779.837,-11.230,36.621,57.129,87.402,424.316,0
1485533779.841,14.648,34.180,51.270,61.035,323.242,0
1485533779.845,59.082,34.668,51.758,57.617,188.477,0
1485533779.849,51.758,30.762,46.875,58.105,-150.391,0
1485533779.852,16.602,43.945,53.223,83.008,-109.863,0
1485533779.856,-11.719,54.199,56.641,101.562,708.984,0
1485533779.860,8.789,32.715,37.109,46.387,472.656,0
1485533779.864,64.941,22.949,32.227,27.832,-257.812,0
1485533779.868,71.777,29.785,35.645,51.758,-277.832,0
1485533779.872,35.645,35.156,39.062,70.801,-115.234,0
1485533779.876,0.000,38.574,39.551,78.125,279.297,0
1485533779.880,17.578,39.062,43.457,54.688,99.609,0
1485533779.884,60.547,34.180,35.156,46.387,-258.789,1
1485533779.888,74.219,37.598,20.508,67.383,36.621,0
1485533779.891,52.246,41.504,38.086,74.707,64.453,0
1485533779.895,3.906,41.992,50.781,92.285,501.953,0
1485533779.899,9.766,43.945,47.852,72.754,628.418,0
1485533779.903,58.594,36.621,44.434,37.598,-212.891,0
1485533779.907,75.195,38.574,38.086,52.734,-319.824,0
1485533779.911,45.410,50.781,49.805,74.219,-223.145,0
1485533779.915,-14.648,36.133,42.480,74.219,224.609,0
1485533779.919,-11.230,30.273,33.691,50.781,304.688,0
1485533779.923,39.551,33.203,37.109,33.203,-166.992,0
1485533779.927,63.477,29.297,34.668,50.293,-172.852,0
1485533779.931,46.387,32.715,36.133,65.918,-209.961,0
1485533779.934,5.859,38.574,43.945,83.984,474.609,0
1485533779.938,2.441,39.551,42.969,67.383,657.715,0
1485533779.942,51.758,37.109,34.180,33.691,-188.965,0
1485533779.946,75.684,37.598,40.039,50.293,-326.172,0
1485533779.950,55.664,36.621,42.480,64.453,-301.270,0
1485533779.954,5.859,36.133,44.922,84.473,286.133,0
1485533779.958,1.953,42.480,50.781,86.914,524.902,0
1485533779.962,47.363,42.969,47.852,42.969,-179.688,0
1485533779.966,79.102,37.109,41.992,43.945,-328.613,0
1485533779.970,65.430,34.668,40.527,62.012,-280.273,0
1485533779.973,30.273,45.898,49.805,88.867,179.688,0
1485533779.977,15.137,56.152,60.547,92.773,422.852,0
1485533779.981,29.785,37.598,41.992,42.480,184.082,0
1485533779.985,74.707,32.227,33.691,35.645,89.355,0
1485533779.989,73.730,34.180,26.367,52.246,-217.285,0
1485533779.993,27.344,36.133,25.391,78.125,67.383,0
1485533779.997,2.441,42.480,43.457,83.496,759.766,0
1485533780.001,40.527,40.527,50.293,39.062,230.957,0
1485533780.005,84.473,42.969,48.828,41.504,-347.656,0
1485533780.009,78.125,44.434,49.805,62.012,-282.227,0
1485533780.013,38.574,41.016,49.805,76.172,-7.324,0
1485533780.016,6.348,42.969,48.340,94.238,297.363,0
1485533780.020,41.016,47.363,46.875,69.824,-30.762,0
1485533780.024,80.566,40.527,39.551,54.199,-269.043,0
1485533780.028,88.379,44.922,55.176,86.914,66.406,0
1485533780.032,52.246,42.969,58.105,91.797,154.785,0
1485533780.036,-3.418,33.691,41.504,88.379,606.934,0
1485533780.040,20.996,36.133,34.180,62.012,541.992,0
1485533780.044,67.871,33.203,27.832,39.551,-254.395,0
1485533780.048,71.777,36.133,40.527,59.570,-259.766,0
1485533780.052,45.898,41.016,46.387,73.242,-97.168,0
1485533780.056,14.160,42.969,47.363,92.773,187.012,0
1485533780.059,21.484,42.969,48.828,70.801,65.430,0
1485533780.063,58.594,41.016,43.457,45.410,-276.367,0
1485533780.067,81.055,40.527,44.922,62.500,-242.676,0
1485533780.071,55.176,41.992,45.898,72.754,-95.215,0
1485533780.075,18.066,45.410,42.480,87.402,299.316,0
1485533780.079,20.020,42.969,46.387,71.289,336.426,0
1485533780.083,53.711,36.133,40.039,41.504,-183.105,0
1485533780.087,67.871,37.109,31.738,49.316,-254.883,0
1485533780.091,63.477,52.734,45.898,75.684,-157.227,0
1485533780.095,12.695,47.363,39.062,92.285,488.281,0
1485533780.098,-16.602,28.320,28.320,57.129,665.527,0
1485533780.102,39.551,25.879,35.156,24.414,-161.133,0
1485533780.106,63.965,26.367,38.574,46.387,-293.457,0
1485533780.110,52.246,33.691,43.945,64.453,-143.066,0
1485533780.114,10.742,36.621,43.945,69.824,201.172,0
1485533780.118,-5.371,38.574,45.898,71.289,257.324,0
1485533780.122,38.574,40.527,38.086,46.875,113.281,0
1485533780.126,70.801,38.086,32.715,42.969,74.219,0
1485533780.130,64.941,37.109,36.133,53.711,-177.246,0
1485533780.134,13.672,35.645,41.992,74.219,247.559,0
1485533780.138,-15.625,35.645,44.922,76.660,781.250,0
1485533780.141,34.668,33.203,32.227,40.527,116.211,0
1485533780.145,79.590,31.738,28.809,39.551,-314.941,0
1485533780.149,59.570,33.691,48.340,56.641,-166.504,0
1485533780.153,28.320,46.875,52.734,92.773,265.625,0
1485533780.157,4.883,41.016,44.434,86.426,362.305,0
1485533780.161,16.113,24.414,34.668,31.250,-98.633,0
1485533780.165,59.082,28.320,27.344,27.344,-207.031,0
1485533780.169,48.828,33.203,30.762,50.293,83.496,0
1485533780.173,5.371,33.203,37.598,63.477,298.828,0
1485533780.177,-13.672,32.227,37.109,65.430,715.820,0
1485533780.181,16.113,33.691,40.039,33.691,337.891,0
1485533780.184,64.941,33.691,33.691,32.227,-329.102,0
1485533780.188,71.289,33.203,31.738,50.293,-216.797,0
1485533780.192,26.855,39.062,44.922,66.406,-74.219,0
1485533780.196,1.953,41.992,31.250,82.031,190.430,0
1485533780.200,19.043,36.133,27.344,53.223,19.531,0
1485533780.204,52.734,37.598,39.062,38.574,-274.414,0
1485533780.208,59.082,39.062,37.598,49.316,-194.824,0
1485533780.212,30.273,44.434,46.875,68.848,121.582,0
1485533780.216,4.883,55.664,56.152,89.844,608.398,0
1485533780.220,6.348,37.109,41.992,46.387,344.727,0
1485533780.223,46.875,24.902,28.320,31.250,-249.512,0
1485533780.227,70.312,31.250,27.344,47.363,-197.266,0
1485533780.231,47.363,33.691,39.062,54.688,-187.988,0
1485533780.235,0.977,37.598,47.852,73.730,206.055,0
1485533780.239,0.000,36.621,46.387,58.105,264.160,0
1485533780.243,43.945,32.715,35.645,38.086,-242.676,0
