timestamps,TP9,AF7,AF8,TP10,Right AUX,Marker
1485534338.235,44.434,20.996,42.480,88.867,-88.867,0
1485534338.239,25.391,24.414,43.945,82.031,166.016,0
1485534338.243,29.785,31.738,36.133,46.875,104.492,0
1485534338.247,53.711,28.809,38.574,43.945,-172.852,0
1485534338.251,53.711,26.367,44.922,65.430,-417.969,0
1485534338.255,34.180,30.762,39.551,92.285,227.539,0
1485534338.259,24.902,34.668,38.086,88.379,544.922,0
1485534338.263,20.996,25.879,37.109,36.621,336.914,0
1485534338.267,33.203,22.949,34.668,31.738,422.852,0
1485534338.271,57.129,29.785,42.480,57.129,-87.402,0
1485534338.275,44.434,30.273,40.527,84.473,-240.234,0
1485534338.278,23.926,31.250,26.855,96.191,297.363,0
1485534338.282,42.969,50.781,51.758,77.637,388.184,0
1485534338.286,63.965,40.527,63.477,61.523,-106.445,0
1485534338.290,50.781,16.113,29.785,54.688,-457.031,0
1485534338.294,38.086,23.926,37.598,80.078,-214.844,0
1485534338.298,29.785,27.832,50.293,102.539,158.691,0
1485534338.302,25.879,29.785,34.668,72.754,307.617,0
1485534338.306,41.992,27.832,30.273,52.734,491.211,0
1485534338.310,63.477,23.926,31.738,66.406,67.871,0
1485534338.314,60.547,32.227,32.227,92.285,-259.766,0
1485534338.317,46.387,38.574,42.480,112.305,131.836,0
1485534338.321,40.527,37.109,49.805,85.449,91.797,0
1485534338.325,48.828,33.203,39.062,52.734,-128.906,0
1485534338.329,56.641,32.715,32.227,62.012,-377.930,0
1485534338.333,58.105,33.691,40.039,85.449,-331.543,0
1485534338.337,41.016,33.691,43.457,103.516,218.750,0
1485534338.341,23.926,34.668,30.762,78.613,358.887,0
1485534338.345,40.039,34.180,25.879,41.504,-96.680,0
1485534338.349,58.105,31.250,35.156,49.805,-50.293,0
1485534338.353,62.500,36.133,42.480,74.707,103.027,0
1485534338.357,52.246,44.922,55.664,106.934,140.625,0
1485534338.360,26.367,32.227,42.480,81.055,-21.973,0
1485534338.364,20.020,22.461,24.902,36.133,291.992,0
1485534338.368,50.781,27.832,27.344,38.086,293.457,0
1485534338.372,60.547,27.344,32.715,60.059,-352.051,0
1485534338.376,45.410,34.668,34.180,90.332,-20.996,0
1485534338.380,34.668,39.551,46.387,86.426,101.074,0
1485534338.384,34.180,31.738,44.922,55.176,89.355,0
1485534338.388,54.688,29.297,30.762,43.945,-224.121,0
1485534338.392,54.688,29.785,32.227,70.312,-447.754,0
1485534338.396,44.434,31.738,31.738,99.609,292.969,0
1485534338.400,31.250,32.715,29.297,90.332,415.039,0
1485534338.403,20.508,26.855,36.133,55.664,267.090,0
1485534338.407,44.922,24.414,36.621,38.574,313.477,0
1485534338.411,58.594,27.344,41.016,56.152,-211.426,0
1485534338.415,44.922,30.762,41.992,85.938,-83.984,0
1485534338.419,28.809,34.180,45.898,89.355,104.004,0
1485534338.423,23.438,29.785,41.016,46.387,140.625,0
1485534338.427,52.734,33.203,43.945,37.598,-104.980,0
1485534338.431,64.941,44.922,52.246,71.777,-374.512,0
1485534338.435,27.344,35.156,33.203,78.613,88.379,0
1485534338.439,11.719,26.855,26.855,79.590,197.754,0
1485534338.442,24.414,26.367,29.297,62.500,322.754,0
1485534338.446,48.828,25.879,22.461,44.922,533.203,0
1485534338.450,59.082,27.344,33.203,51.758,-20.508,0
1485534338.454,43.945,29.785,39.551,80.566,-137.695,0
1485534338.458,20.508,30.762,38.574,91.309,299.805,0
1485534338.462,21.973,30.273,29.785,64.941,240.723,0
1485534338.466,41.992,27.344,18.555,46.875,-46.387,0
1485534338.470,52.734,29.785,37.598,60.547,-343.262,0
1485534338.474,50.293,32.715,48.340,79.102,-132.324,0
1485534338.478,40.039,37.109,39.551,88.867,131.836,0
1485534338.482,22.461,38.086,36.621,58.594,51.758,0
1485534338.485,33.203,32.715,35.645,34.180,-114.258,0
1485534338.489,56.641,33.691,37.598,51.270,-37.109,0
1485534338.493,44.922,32.715,36.133,62.500,202.637,0
1485534338.497,24.414,28.320,43.945,84.473,218.750,0
1485534338.501,21.484,33.691,51.758,79.590,-12.207,0
1485534338.505,39.551,47.363,46.875,51.270,288.574,0
1485534338.509,44.922,29.785,34.180,43.457,270.508,0
1485534338.513,39.551,16.602,29.785,63.477,-184.570,0
1485534338.517,28.320,27.344,42.480,90.820,254.883,0
1485534338.521,20.996,29.297,43.457,79.102,193.359,0
1485534338.525,28.320,27.344,39.062,42.480,-91.797,0
1485534338.528,48.340,26.855,29.297,51.758,-288.574,0
1485534338.532,48.828,28.320,18.555,83.496,-255.859,0
1485534338.536,30.762,33.203,36.621,95.703,360.352,0
1485534338.540,24.414,29.785,45.410,76.172,320.801,0
1485534338.544,24.414,26.855,38.086,33.691,265.137,0
1485534338.548,46.875,29.297,35.156,30.762,319.336,0
1485534338.552,57.129,28.320,38.574,53.711,-169.922,0
1485534338.556,50.781,34.180,43.457,86.426,-31.250,0
1485534338.560,43.457,35.156,44.434,93.750,43.457,0
1485534338.564,37.598,28.320,39.062,53.711,50.293,1
1485534338.567,65.430,28.809,39.062,48.340,-212.402,0
1485534338.571,70.312,30.762,34.668,68.359,-321.777,0
1485534338.575,61.035,40.527,40.039,101.562,114.258,0
1485534338.579,40.527,33.691,37.598,92.285,141.602,0
1485534338.583,19.043,22.949,23.438,42.480,362.305,0
1485534338.587,45.898,26.855,33.691,43.457,487.793,0
1485534338.591,59.082,25.391,36.133,60.547,-75.195,0
1485534338.595,35.645,25.391,34.668,87.402,-101.074,0
1485534338.599,20.996,29.297,31.738,101.074,30.273,0
1485534338.603,24.902,30.762,30.273,77.637,133.301,0
1485534338.607,44.922,27.344,33.203,55.664,-22.949,0
1485534338.610,58.105,30.762,37.109,62.988,-308.594,0
1485534338.614,43.945,33.203,44.922,85.449,-71.289,0
1485534338.618,27.832,33.203,48.828,96.191,74.707,0
1485534338.622,23.438,32.715,41.504,68.359,145.020,0
1485534338.626,35.156,24.414,36.621,43.457,7.324,0
1485534338.630,46.387,25.879,36.133,57.129,35.156,0
1485534338.634,41.016,33.691,34.668,82.031,333.496,0
1485534338.638,29.297,32.227,46.875,87.891,250.977,0
1485534338.642,20.508,30.273,54.199,71.289,27.344,0
1485534338.646,37.109,42.480,46.875,54.688,383.301,0
1485534338.649,41.504,31.250,27.344,37.598,277.344,0
1485534338.653,28.320,19.531,28.320,56.641,-184.082,0
1485534338.657,18.555,28.809,24.902,81.543,60.547,0
1485534338.661,14.648,30.762,19.043,62.012,104.004,0
1485534338.665,29.297,29.297,32.715,34.668,-49.316,0
1485534338.669,52.734,28.809,32.715,44.434,-216.309,0
1485534338.673,43.457,23.438,33.691,68.848,-192.383,0
1485534338.677,20.508,23.438,46.875,93.750,335.449,0
1485534338.681,17.090,27.832,53.711,76.172,260.254,0
1485534338.685,27.344,26.855,40.527,38.574,280.273,0
1485534338.689,49.316,25.879,32.715,40.527,398.926,0
1485534338.692,48.828,28.320,31.250,59.570,-25.879,0
1485534338.696,29.297,29.297,26.855,80.566,79.590,0
1485534338.700,21.484,32.227,33.203,68.359,89.355,0
1485534338.704,30.762,29.785,31.250,39.062,1.953,0
1485534338.708,48.340,29.297,24.902,46.387,-202.148,0
1485534338.712,46.387,29.785,34.180,63.965,-294.922,0
1485534338.716,48.828,46.875,48.340,100.098,-56.641,0
1485534338.720,41.016,46.875,37.109,101.074,51.270,0
1485534338.724,17.090,21.484,22.949,44.922,400.391,0
1485534338.728,38.086,23.926,25.391,35.156,457.520,0
1485534338.732,52.734,28.320,28.320,56.641,-180.176,0
1485534338.735,43.945,30.273,31.250,89.355,-143.066,0
1485534338.739,36.621,32.715,33.691,95.703,82.520,0
1485534338.743,39.551,33.203,37.598,61.523,140.625,0
1485534338.747,61.035,32.715,37.109,55.664,-83.496,0
1485534338.751,66.895,35.645,38.574,72.266,-172.363,0
1485534338.755,56.152,35.645,43.945,89.844,22.461,0
1485534338.759,37.598,28.809,47.852,94.238,51.758,0
1485534338.763,34.180,26.855,43.457,62.500,175.781,0
1485534338.767,54.199,29.785,34.668,43.945,18.066,0
1485534338.771,60.547,34.180,39.062,69.824,-42.969,0
1485534338.774,43.457,30.762,41.992,88.867,237.305,0
1485534338.778,41.504,46.387,45.410,104.004,167.480,0
1485534338.782,43.457,50.781,33.691,82.520,119.629,0
1485534338.786,35.645,27.832,15.625,38.574,498.047,0
1485534338.790,57.129,24.902,31.738,45.898,86.426,0
1485534338.794,51.270,25.879,37.598,77.637,-260.254,0
1485534338.798,28.320,24.902,42.969,87.402,53.223,0
1485534338.802,22.949,27.832,48.828,59.570,93.262,0
1485534338.806,35.156,28.809,42.969,39.551,-56.641,0
1485534338.810,47.363,27.832,31.250,53.711,-153.809,0
1485534338.814,40.039,27.832,28.809,77.637,-22.461,0
1485534338.817,23.926,32.227,37.109,90.820,358.398,0
1485534338.821,30.273,36.133,38.086,67.871,277.832,0
1485534338.825,40.039,33.203,39.551,34.668,344.727,0
1485534338.829,54.688,32.227,45.410,41.504,250.000,0
1485534338.833,59.570,30.273,42.969,70.312,-346.191,0
1485534338.837,44.922,31.738,41.016,89.844,-49.316,0
1485534338.841,35.645,35.645,42.969,80.566,56.641,0
1485534338.845,36.621,24.902,33.691,43.457,-47.852,0
1485534338.849,70.312,32.715,35.645,58.105,-275.879,0
1485534338.853,61.523,37.109,41.504,82.520,-345.215,0
1485534338.857,22.461,16.602,34.180,83.984,71.777,0
1485534338.860,15.137,22.949,36.621,74.707,83.496,0
1485534338.864,15.625,28.320,33.691,37.598,378.418,0
1485534338.868,37.109,24.902,36.621,38.086,422.852,0
1485534338.872,45.898,21.484,37.598,66.895,-216.309,0
1485534338.876,24.414,25.391,36.133,88.379,-103.516,0
1485534338.880,11.230,31.738,41.016,82.520,79.590,0
1485534338.884,21.484,31.738,34.668,45.898,166.992,0
1485534338.888,47.852,32.715,35.645,43.945,-90.332,0
1485534338.892,48.828,31.250,38.574,68.359,-411.133,0
1485534338.896,29.297,29.785,38.086,90.332,-109.375,0
1485534338.899,25.391,33.203,42.480,91.797,96.191,0
1485534338.903,26.855,30.762,43.457,48.340,190.918,0
1485534338.907,44.434,24.414,32.715,36.133,-31.738,0
1485534338.911,57.617,24.902,21.973,64.941,-24.414,0
1485534338.915,41.992,31.250,36.621,87.891,238.770,0
1485534338.919,23.438,34.180,47.363,92.285,74.219,0
1485534338.923,19.531,32.227,36.133,58.594,283.203,0
1485534338.927,52.246,46.875,48.340,53.711,555.664,0
1485534338.931,67.871,45.410,49.316,55.664,-63.477,0
1485534338.935,36.621,28.320,28.320,58.105,-221.191,0
1485534338.939,20.020,31.250,34.180,73.242,51.270,0
1485534338.942,12.207,21.973,28.320,46.875,225.098,0
1485534338.946,29.785,21.484,29.297,28.320,83.008,0
1485534338.950,48.340,27.344,34.180,43.457,-384.277,0
1485534338.954,36.621,30.273,34.180,68.359,-209.473,0
1485534338.958,21.973,35.156,43.945,90.332,335.449,0
1485534338.962,24.902,38.574,34.668,65.430,413.574,0
1485534338.966,43.457,38.574,16.602,33.691,518.066,0
1485534338.970,71.777,33.691,30.762,51.270,131.348,0
1485534338.974,73.730,33.203,45.898,82.031,-284.180,0
1485534338.978,47.363,35.156,48.828,99.121,43.945,0
1485534338.981,33.691,29.785,48.828,78.613,130.371,0
1485534338.985,51.270,30.273,36.621,50.293,197.266,0
1485534338.989,70.801,29.785,34.180,59.570,-41.016,0
1485534338.993,60.059,27.832,38.086,77.637,-299.805,0
1485534338.997,37.109,35.156,41.016,96.680,-16.113,0
1485534339.001,23.926,31.250,39.551,77.637,146.973,0
1485534339.005,46.387,40.039,51.758,60.059,275.879,0
1485534339.009,63.477,38.574,51.758,61.523,-17.578,0
1485534339.013,50.293,23.926,25.391,64.453,-332.031,0
1485534339.017,39.062,32.227,37.598,97.656,-24.414,0
1485534339.021,25.391,31.250,42.969,86.914,98.145,0
1485534339.024,18.555,23.926,19.531,43.945,352.051,0
1485534339.028,41.992,26.367,28.320,39.062,99.609,0
1485534339.032,55.176,28.320,47.363,67.871,-383.301,0
1485534339.036,32.715,27.832,46.875,93.750,-42.480,0
1485534339.040,19.043,32.227,49.316,83.496,180.176,0
1485534339.044,35.156,36.133,42.969,38.574,222.168,2
1485534339.048,60.547,41.504,38.086,40.039,-55.176,0
1485534339.052,55.176,41.504,39.551,67.383,-10.742,0
1485534339.056,37.109,40.527,42.969,86.914,254.883,0
1485534339.060,25.391,30.762,41.992,92.285,115.234,0
1485534339.064,41.992,39.551,44.434,71.777,409.668,0
1485534339.067,60.059,41.504,48.340,59.082,308.594,0
1485534339.071,51.270,21.973,36.133,63.477,-323.242,0
1485534339.075,39.062,27.344,31.738,86.914,-119.629,0
1485534339.079,25.879,32.715,40.527,96.191,120.605,0
1485534339.083,22.461,34.668,34.180,63.965,408.203,0
1485534339.087,42.969,37.598,22.949,41.504,329.590,0
1485534339.091,57.129,30.273,36.133,59.570,-311.035,0
1485534339.095,41.992,27.344,41.504,93.262,-145.508,0
1485534339.099,28.320,37.598,44.434,103.516,411.133,0
1485534339.103,22.949,28.809,43.945,70.312,626.953,0
1485534339.106,41.504,22.461,40.039,44.434,531.738,0
1485534339.110,57.129,28.320,40.527,56.641,-72.266,0
1485534339.114,43.457,28.809,42.969,89.355,-254.395,0
1485534339.118,32.227,35.156,48.340,111.328,88.867,0
1485534339.122,19.043,34.180,41.016,73.242,298.828,0
1485534339.126,49.316,40.039,41.016,47.363,65.918,0
1485534339.130,79.590,43.457,49.805,76.660,-400.879,0
1485534339.134,47.363,23.926,34.180,79.102,-273.926,0
1485534339.138,26.367,25.391,24.902,88.867,77.637,0
1485534339.142,22.949,32.227,21.973,74.219,241.699,0
1485534339.146,37.598,28.320,31.250,42.480,159.180,0
1485534339.149,51.270,26.855,38.574,49.316,-146.484,0
1485534339.153,51.270,30.273,41.504,73.730,-280.273,0
1485534339.157,29.785,34.180,47.852,99.609,61.523,0
1485534339.161,17.578,35.645,51.270,78.613,177.246,0
1485534339.165,30.762,30.273,41.504,35.645,379.395,0
1485534339.169,57.129,26.855,36.133,41.504,167.480,0
1485534339.173,60.059,28.320,45.410,69.824,-323.730,0
1485534339.177,34.180,33.203,43.945,90.820,37.598,0
1485534339.181,20.996,35.645,38.086,78.125,273.926,0
1485534339.185,32.715,23.438,36.621,35.156,130.859,0
1485534339.189,64.453,37.109,45.898,53.223,-249.023,0
1485534339.192,62.988,41.016,43.945,76.660,-60.059,0
1485534339.196,36.621,25.391,22.949,73.730,310.547,0
1485534339.200,25.879,32.227,35.645,75.684,177.734,0
1485534339.204,27.832,29.785,37.598,47.852,395.508,0
1485534339.208,51.758,26.855,28.809,46.387,334.473,0
1485534339.212,60.547,27.832,37.109,69.824,-288.574,0
1485534339.216,37.109,31.738,42.969,91.797,-115.234,0
1485534339.220,12.207,34.668,45.410,91.797,248.047,0
1485534339.224,16.113,29.297,38.086,56.152,332.520,0
1485534339.228,43.945,29.297,36.621,41.992,-154.297,0
1485534339.231,53.223,33.691,38.574,63.477,-492.188,0
1485534339.235,31.738,29.297,34.180,86.914,-119.629,0
1485534339.239,17.578,33.203,31.250,90.820,390.137,0
1485534339.243,22.461,33.203,36.621,54.688,573.730,0
1485534339.247,42.969,29.785,37.598,30.762,404.297,0
1485534339.251,56.641,34.180,34.180,43.945,-213.867,0
1485534339.255,45.898,41.992,38.574,74.219,-209.961,0
1485534339.259,37.598,47.363,50.781,97.656,181.152,0
1485534339.263,16.602,27.832,29.785,62.500,308.594,0
1485534339.267,35.156,15.625,20.020,36.133,-36.133,0
1485534339.271,61.523,22.461,34.180,53.711,-452.148,0
1485534339.274,41.504,31.738,36.621,83.984,-162.109,0
1485534339.278,26.367,36.133,40.039,97.168,291.992,0
1485534339.282,29.785,30.762,46.387,64.453,469.727,0
1485534339.286,43.945,27.832,44.922,31.250,271.484,0
1485534339.290,57.617,24.902,36.133,42.480,-126.465,0
1485534339.294,52.734,30.273,35.645,71.289,-166.992,0
1485534339.298,35.645,36.621,43.945,93.262,188.477,0
1485534339.302,31.738,36.621,43.457,79.102,230.469,0
1485534339.306,42.480,36.621,28.320,46.387,449.707,0
1485534339.310,67.871,34.180,26.367,48.340,138.184,0
1485534339.313,71.777,37.109,44.434,78.613,-326.172,0
1485534339.317,43.457,33.203,41.504,88.867,126.953,0
1485534339.321,35.645,42.969,34.668,82.031,238.770,0
1485534339.325,49.805,44.922,34.668,56.152,-21.484,0
1485534339.329,54.688,21.484,20.996,38.086,-333.984,0
1485534339.333,44.434,27.832,30.273,63.477,-29.785,0
1485534339.337,22.949,31.738,38.086,85.938,422.852,0
1485534339.341,22.461,29.297,38.086,72.754,286.133,0
1485534339.345,35.645,33.691,42.480,42.969,393.555,0
1485534339.349,53.711,30.762,43.457,47.852,258.789,0
1485534339.353,53.711,26.367,38.086,69.336,-306.152,0
1485534339.356,30.273,32.715,38.086,91.797,13.184,0
1485534339.360,21.484,35.645,38.574,82.031,204.590,0
1485534339.364,31.738,35.645,38.574,40.039,20.020,0
1485534339.368,47.363,31.738,39.551,40.527,-272.949,0
1485534339.372,48.828,28.809,37.598,64.453,-399.902,0
1485534339.376,33.691,32.715,31.250,92.773,24.902,0
1485534339.380,24.414,35.156,39.062,93.262,429.688,0
1485534339.384,28.809,31.250,44.434,50.781,599.121,0
1485534339.388,64.453,42.969,52.246,48.828,352.051,0
1485534339.392,81.543,49.316,62.012,75.684,-268.555,0
1485534339.396,32.227,22.949,37.109,78.125,-66.406,0
1485534339.399,10.254,20.020,37.598,79.102,368.652,0
1485534339.403,22.949,24.902,43.945,49.316,323.242,0
1485534339.407,48.340,26.855,39.551,37.598,-143.555,0
1485534339.411,53.223,31.738,37.598,64.941,-435.059,0
1485534339.415,39.551,32.227,37.598,89.844,-66.895,0
1485534339.419,20.020,29.785,43.945,94.238,154.297,0
1485534339.423,16.602,27.832,42.480,69.336,233.398,0
1485534339.427,39.551,24.414,36.133,49.805,253.906,0
1485534339.431,53.711,28.809,36.133,64.453,-118.652,0
1485534339.435,44.922,35.156,35.156,93.262,-101.562,0
1485534339.438,35.156,40.039,42.480,101.074,127.441,0
1485534339.442,25.879,37.109,47.852,70.801,199.707,0
1485534339.446,29.297,31.738,40.039,38.574,465.332,0
1485534339.450,53.223,33.203,42.480,49.316,5.859,0
1485534339.454,55.664,37.109,44.434,79.102,-208.008,0
1485534339.458,31.738,34.668,45.898,86.914,276.367,0
1485534339.462,18.066,28.320,43.945,71.289,298.828,0
1485534339.466,30.273,26.367,34.180,37.598,-28.320,0
1485534339.470,72.754,44.434,48.340,59.570,-391.113,0
1485534339.474,73.730,45.898,55.176,93.262,74.707,0
1485534339.478,26.855,27.832,40.039,86.914,442.871,0
1485534339.481,21.484,29.785,36.133,70.801,60.547,0
1485534339.485,34.180,28.320,29.297,37.109,370.117,0
1485534339.489,51.270,24.414,33.203,33.203,237.305,0
1485534339.493,56.641,23.438,27.344,66.895,-259.766,0
1485534339.497,44.922,29.297,29.297,95.215,70.312,0
1485534339.501,26.367,29.785,48.828,83.008,138.184,0
1485534339.505,31.738,26.855,46.875,47.363,-49.316,0
1485534339.509,59.082,28.809,43.457,48.828,-341.797,0
1485534339.513,57.129,33.691,36.133,78.125,-313.477,0
1485534339.517,39.551,33.203,36.133,102.051,135.742,0
1485534339.521,27.832,33.203,40.039,85.449,517.578,0
1485534339.524,40.527,35.156,34.180,40.527,371.094,0
1485534339.528,56.152,26.855,31.250,41.016,-243.164,0
1485534339.532,58.594,30.273,38.574,73.242,-336.914,0
1485534339.536,56.641,47.363,51.758,107.910,40.527,0
1485534339.540,26.855,37.109,45.410,89.355,106.445,2
1485534339.544,18.555,20.020,29.785,36.133,188.965,0
1485534339.548,42.969,20.020,28.320,36.621,-87.402,0
1485534339.552,49.316,23.438,37.109,62.012,-337.402,0
1485534339.556,43.457,29.785,28.320,89.844,18.555,0
1485534339.560,30.762,30.273,31.250,99.121,72.754,0
1485534339.563,21.973,29.785,41.016,65.430,277.344,0
1485534339.567,41.504,29.785,36.133,43.457,499.023,0
1485534339.571,63.965,32.227,40.527,60.547,-39.551,0
1485534339.575,56.152,35.645,44.922,97.168,63.965,0
1485534339.579,38.086,39.551,47.363,109.375,299.316,0
1485534339.583,29.785,31.250,45.410,72.754,317.871,0
1485534339.587,44.922,27.832,44.434,54.199,237.793,0
1485534339.591,70.801,32.227,45.898,68.848,-288.574,0
1485534339.595,57.617,33.691,42.480,90.332,-109.375,0
1485534339.599,38.086,33.203,41.504,104.004,87.402,0
1485534339.603,32.715,28.320,37.598,72.266,223.145,0
1485534339.606,43.457,27.344,28.320,43.457,-2.930,0
1485534339.610,73.730,41.016,40.527,73.242,-358.398,0
1485534339.614,66.895,50.293,53.223,100.586,122.559,0
1485534339.618,31.738,33.203,31.250,89.355,311.523,0
1485534339.622,18.066,26.367,22.949,62.012,174.805,0
1485534339.626,40.039,26.367,40.527,35.156,142.578,0
1485534339.630,58.594,26.367,47.852,46.875,-245.117,0
1485534339.634,48.828,30.762,42.969,76.660,-71.777,0
1485534339.638,36.621,33.203,48.828,97.656,208.496,0
1485534339.642,17.578,32.227,48.340,78.125,115.723,0
1485534339.645,29.785,28.809,34.180,40.039,229.980,0
1485534339.649,51.758,26.367,33.691,43.945,-73.730,0
1485534339.653,46.875,28.320,35.645,67.383,-260.254,0
1485534339.657,30.273,31.250,39.062,92.773,52.734,0
1485534339.661,22.949,32.715,45.410,91.309,385.254,0
1485534339.665,27.344,29.785,36.133,48.340,616.211,0
1485534339.669,52.246,29.785,42.480,46.387,266.602,0
1485534339.673,73.242,33.203,49.316,78.613,-262.207,0
1485534339.677,56.152,38.086,33.691,106.934,-71.777,0
1485534339.681,29.785,33.203,37.109,92.773,141.113,0
1485534339.685,53.223,40.039,51.758,57.129,55.176,0
1485534339.688,79.590,45.898,50.781,59.570,-279.785,0
1485534339.692,56.641,28.320,31.738,58.594,-161.133,0
1485534339.696,34.180,27.344,32.227,81.543,275.879,0
1485534339.700,21.973,25.879,39.551,83.984,305.664,0
1485534339.704,31.250,22.461,42.480,44.434,141.113,0
1485534339.708,44.922,21.973,37.598,42.969,93.750,0
1485534339.712,53.223,26.855,32.227,61.523,-13.672,0
1485534339.716,49.805,27.832,34.180,87.891,-81.055,0
1485534339.720,38.574,30.762,41.992,99.609,11.719,0
1485534339.724,27.832,31.250,41.504,67.871,336.914,0
1485534339.728,44.922,28.320,32.227,46.875,419.434,0
1485534339.731,63.477,29.785,34.668,62.988,-177.734,0
1485534339.735,48.340,25.879,39.551,89.844,-180.664,0
1485534339.739,25.391,29.297,32.227,93.262,48.828,0
1485534339.743,18.555,35.645,33.691,59.082,208.008,0
1485534339.747,50.293,34.668,44.922,38.574,-40.039,0
1485534339.751,59.570,30.762,41.016,60.547,-321.289,0
1485534339.755,37.598,25.879,39.062,83.984,129.395,0
1485534339.759,34.668,43.945,58.105,107.422,453.125,0
1485534339.763,35.156,52.734,58.105,90.332,504.395,0
1485534339.767,31.738,28.320,31.738,38.086,533.691,0
1485534339.770,42.969,23.438,23.926,38.086,4.883,0
1485534339.774,35.645,26.367,28.809,68.359,-238.281,0
1485534339.778,21.484,30.762,36.133,87.402,27.832,0
1485534339.782,14.648,35.645,37.598,63.477,226.074,0
1485534339.786,26.855,34.180,33.203,30.762,67.871,0
1485534339.790,45.410,38.086,32.715,41.016,-288.086,0
1485534339.794,40.039,33.691,38.086,69.824,-255.371,0
1485534339.798,31.250,31.738,29.785,90.820,19.043,0
1485534339.802,28.320,37.598,38.086,75.195,376.953,0
1485534339.806,29.297,33.203,44.434,34.668,588.379,0
1485534339.810,43.945,30.273,32.227,42.969,247.070,0
1485534339.813,47.363,29.297,30.762,76.172,-137.207,0
1485534339.817,37.109,23.926,42.480,94.727,1.465,0
1485534339.821,29.785,31.250,57.617,89.355,111.328,0
1485534339.825,54.199,43.457,57.129,63.965,-15.137,0
1485534339.829,64.941,34.180,39.062,55.664,-236.816,0
1485534339.833,56.641,26.367,33.203,68.848,-276.367,0
1485534339.837,42.969,29.785,38.574,103.027,-50.293,0
1485534339.841,24.414,35.156,45.898,95.215,131.836,0
1485534339.845,32.715,36.133,47.852,50.781,38.086,0
1485534339.849,46.875,26.855,28.809,52.246,125.488,0
1485534339.853,46.387,24.414,21.484,71.777,77.148,0
1485534339.856,38.086,31.738,43.457,86.914,-12.695,0
1485534339.860,24.414,31.738,51.270,91.309,4.883,0
1485534339.864,18.555,28.809,38.574,51.758,347.656,0
1485534339.868,37.598,29.785,38.574,33.691,404.785,0
1485534339.872,54.688,30.273,42.969,63.965,-102.051,0
1485534339.876,40.527,28.809,42.969,86.426,-55.176,0
1485534339.880,19.531,33.691,47.852,78.125,73.242,0
1485534339.884,19.531,31.738,47.363,41.504,167.969,0
1485534339.888,47.852,25.879,41.992,33.203,-54.199,0
1485534339.892,54.688,22.949,33.691,52.734,-304.199,0
1485534339.895,38.086,39.062,42.969,81.543,133.301,0
1485534339.899,23.926,49.805,50.781,88.867,437.500,0
1485534339.903,-0.488,26.367,29.785,42.480,440.918,0
1485534339.907,20.508,26.367,24.902,18.066,496.582,0
1485534339.911,46.387,30.273,28.809,41.016,-39.062,0
1485534339.915,48.828,29.785,26.367,78.125,-257.812,0
1485534339.919,33.691,32.227,42.480,89.355,-43.457,0
1485534339.923,15.137,32.227,43.945,54.199,227.539,0
1485534339.927,33.691,25.879,31.738,27.832,75.195,0
1485534339.931,53.711,26.367,33.691,45.898,-200.684,0
1485534339.935,47.363,30.273,41.992,63.965,-160.645,0
1485534339.938,30.273,29.297,41.504,78.125,-24.414,0
1485534339.942,17.090,30.273,34.668,56.152,387.695,0
1485534339.946,32.227,25.391,28.320,29.297,645.996,0
1485534339.950,62.012,23.438,35.156,41.504,20.996,1
1485534339.954,61.035,28.320,44.922,68.359,-374.023,0
1485534339.958,34.180,31.250,50.781,90.332,-56.641,0
1485534339.962,15.137,29.297,49.805,72.754,165.527,0
1485534339.966,27.344,24.902,41.504,30.762,101.562,0
1485534339.970,70.801,34.668,42.969,59.082,-324.219,0
1485534339.974,75.684,37.109,41.016,95.703,-351.074,0
1485534339.977,39.062,24.414,39.062,92.773,-34.668,0
1485534339.981,20.508,24.902,38.086,76.660,159.668,0
1485534339.985,29.297,24.414,35.156,42.480,98.145,0
1485534339.989,55.176,23.926,33.691,44.922,-17.578,0
1485534339.993,51.758,26.367,32.715,65.430,107.910,0
1485534339.997,29.297,27.344,43.945,85.449,223.633,0
1485534340.001,19.043,28.809,47.363,78.125,180.664,0
1485534340.005,25.391,26.367,31.738,26.367,202.637,0
1485534340.009,55.176,27.344,33.691,29.785,-163.086,0
1485534340.013,62.012,35.645,40.039,67.383,-428.711,0
1485534340.017,44.922,36.133,36.621,82.520,-97.656,0
1485534340.020,32.715,32.227,41.016,84.961,48.340,0
1485534340.024,25.879,28.809,37.598,41.016,440.430,0
1485534340.028,57.129,29.297,39.062,33.691,269.043,0
1485534340.032,82.031,40.527,41.016,79.590,-406.250,0
1485534340.036,42.969,33.203,28.809,93.262,160.645,0
1485534340.040,11.719,28.320,37.598,77.148,476.074,0
1485534340.044,11.230,28.809,38.574,47.363,561.035,0
1485534340.048,34.180,21.484,38.086,40.039,419.922,0
1485534340.052,55.176,20.996,40.527,61.035,-331.543,0
1485534340.056,46.875,30.273,44.922,89.844,-255.859,0
1485534340.060,28.809,33.691,50.293,104.492,73.242,0
1485534340.063,22.461,26.367,43.457,71.777,294.922,0
1485534340.067,39.551,29.297,39.551,44.922,-44.922,0
1485534340.071,56.641,36.133,39.062,62.500,-469.727,0
1485534340.075,43.945,31.738,37.109,77.637,-234.863,0
1485534340.079,25.391,30.273,39.551,92.285,44.434,0
1485534340.083,23.438,32.227,39.551,76.660,554.688,0
1485534340.087,43.457,33.203,38.086,45.410,614.258,0
1485534340.091,62.500,33.691,38.086,56.152,-185.059,0
1485534340.095,54.199,32.227,26.855,83.008,-301.270,0
1485534340.099,34.668,35.156,44.922,102.051,18.066,0
1485534340.102,23.926,37.109,56.152,77.637,309.082,0
1485534340.106,41.504,32.715,40.527,41.016,226.074,0
1485534340.110,71.777,46.875,52.734,70.801,-333.984,0
1485534340.114,65.918,46.387,59.570,87.891,-312.500,0
1485534340.118,35.645,27.832,43.945,88.379,51.270,0
1485534340.122,23.438,32.227,36.133,74.707,406.738,0
1485534340.126,38.086,28.809,31.250,35.156,139.160,0
1485534340.130,51.758,21.973,30.273,47.852,-48.828,0
1485534340.134,48.340,28.809,35.645,69.336,29.297,0
1485534340.138,28.320,33.203,40.039,77.148,23.926,0
1485534340.142,17.578,36.133,40.527,66.406,174.805,0
1485534340.145,25.391,35.645,27.344,33.203,546.387,0
1485534340.149,42.480,32.227,20.020,36.133,216.309,0
1485534340.153,44.434,30.273,40.527,64.453,-360.352,0
1485534340.157,18.555,29.785,48.828,82.031,-14.648,0
1485534340.161,12.695,30.762,44.434,70.801,230.957,0
1485534340.165,22.461,27.832,41.504,24.414,173.340,0
1485534340.169,36.133,26.367,37.598,20.508,-270.996,0
1485534340.173,42.480,30.762,35.645,56.641,-391.113,0
1485534340.177,39.551,42.969,53.711,100.098,246.582,0
1485534340.181,19.531,35.156,52.734,87.891,617.188,0
1485534340.185,10.254,19.043,35.156,22.461,499.023,0
1485534340.188,42.480,19.531,35.156,27.344,-37.109,0
1485534340.192,51.758,26.855,38.086,57.129,-414.062,0
1485534340.196,35.156,31.738,41.504,74.219,-90.820,0
1485534340.200,17.090,28.320,42.480,79.102,131.836,0
1485534340.204,14.648,26.855,38.574,43.457,487.793,0
1485534340.208,39.551,23.926,29.785,26.367,208.008,0
1485534340.212,49.316,24.414,21.484,46.387,-421.875,0
1485534340.216,35.156,32.715,33.203,71.289,-177.246,0
1485534340.220,17.090,35.645,53.223,79.590,133.789,0
1485534340.224,9.277,36.133,53.223,47.852,557.617,0
1485534340.227,32.715,31.250,39.551,22.949,400.879,0
1485534340.231,51.758,29.785,41.992,41.992,-287.598,0
1485534340.235,42.480,29.297,47.363,75.684,-215.820,0
1485534340.239,26.367,28.809,47.363,88.379,95.703,0
1485534340.243,17.578,28.320,39.551,58.105,453.613,0
1485534340.247,34.180,27.344,35.156,36.133,221.680,0
1485534340.251,56.152,31.250,42.480,51.270,-407.715,0
1485534340.255,47.363,31.738,44.434,78.613,-247.070,0
1485534340.259,27.344,33.203,43.457,92.285,109.375,0
1485534340.263,35.645,47.852,48.340,82.520,388.672,0
1485534340.267,52.734,41.504,44.434,52.246,84.961,0
1485534340.270,46.387,22.949,35.156,51.270,-131.836,0
1485534340.274,40.039,25.879,41.504,76.660,122.070,0
1485534340.278,30.273,28.320,44.434,96.680,142.578,0
1485534340.282,21.484,24.414,39.062,83.496,365.723,0
1485534340.286,32.715,21.973,36.621,44.922,196.777,0
1485534340.290,54.199,21.484,37.598,51.758,-392.090,0
1485534340.294,59.570,24.414,43.457,83.496,-311.523,0
1485534340.298,48.340,34.668,48.828,100.098,51.758,0
1485534340.302,29.297,35.645,42.969,78.613,274.414,0
1485534340.306,34.668,36.621,37.598,38.574,382.324,0
1485534340.309,54.688,36.621,44.922,40.039,-117.676,0
1485534340.313,49.805,32.715,38.574,64.453,-376.953,0
1485534340.317,30.273,35.156,39.062,80.078,334.961,0
1485534340.321,11.230,31.250,36.133,74.707,444.824,0
1485534340.325,17.090,27.832,22.461,28.809,445.312,0
1485534340.329,37.598,25.391,28.809,15.137,373.535,0
1485534340.333,62.012,36.621,51.270,63.965,-195.801,0
1485534340.337,49.316,32.227,50.781,92.773,-91.309,0
1485534340.341,20.020,20.020,33.691,79.590,380.371,0
1485534340.345,33.203,23.926,37.598,48.340,271.484,0
1485534340.349,58.594,26.855,41.504,49.805,-375.977,0
1485534340.352,67.383,32.227,41.992,79.590,-438.965,0
1485534340.356,58.594,29.785,47.363,99.121,-64.453,0
1485534340.360,37.598,27.344,48.828,95.703,156.250,0
1485534340.364,33.691,31.250,40.039,56.152,538.574,0
1485534340.368,58.105,30.762,41.992,37.109,327.148,0
1485534340.372,67.871,24.902,42.969,60.059,-396.484,1
1485534340.376,50.781,25.391,24.414,90.820,-155.273,0
1485534340.380,29.785,32.227,26.367,97.168,154.297,0
1485534340.384,18.555,35.156,43.945,53.223,293.457,0
1485534340.388,42.480,36.621,39.551,29.785,-77.637,0
1485534340.392,56.641,30.273,39.551,50.293,-436.523,0
1485534340.395,35.645,27.344,45.898,76.172,-153.809,0
1485534340.399,9.766,30.273,48.340,86.426,301.270,0
1485534340.403,5.371,27.344,47.363,56.641,543.945,0
1485534340.407,34.180,25.879,41.016,36.621,-11.719,0
1485534340.411,43.457,28.320,37.109,55.176,-164.551,0
1485534340.415,28.809,28.320,44.434,76.660,223.145,0
1485534340.419,41.016,41.016,60.059,113.281,178.223,0
1485534340.423,39.062,48.828,54.199,105.469,306.641,0
1485534340.427,35.645,33.203,29.297,41.504,524.414,0
1485534340.431,62.988,27.832,28.320,46.387,-137.695,0
1485534340.434,58.105,26.367,22.461,81.055,-273.926,0
1485534340.438,40.527,25.879,29.785,99.121,121.094,0
1485534340.442,30.762,27.344,43.457,80.078,302.734,0
1485534340.446,42.480,31.250,36.621,33.203,126.953,0
1485534340.450,67.383,28.320,36.621,44.922,-425.781,0
1485534340.454,60.059,26.855,42.480,68.848,-314.453,0
1485534340.458,32.715,34.180,41.016,79.102,395.508,0
1485534340.462,20.996,33.691,35.156,69.336,613.281,0
1485534340.466,31.250,32.715,29.297,28.320,565.430,0
1485534340.470,55.176,30.762,33.691,29.785,87.891,0
1485534340.474,51.758,28.320,42.480,62.500,-351.074,0
1485534340.477,29.785,31.738,39.062,85.938,38.574,0
1485534340.481,16.602,26.855,39.551,84.473,187.500,0
1485534340.485,25.879,29.297,41.504,53.223,16.602,0
1485534340.489,52.734,36.621,40.527,56.152,-383.789,0
1485534340.493,44.434,22.949,40.527,68.848,-357.910,0
1485534340.497,25.879,21.973,43.945,80.078,66.406,0
1485534340.501,8.789,27.344,35.645,77.148,141.113,0
1485534340.505,9.277,25.879,30.762,44.922,464.355,0
1485534340.509,35.156,27.832,32.227,35.645,248.535,0
1485534340.513,52.246,25.391,36.621,60.059,-367.188,0
1485534340.517,42.969,26.367,40.527,98.633,28.809,0
1485534340.520,24.414,30.762,35.645,93.750,381.836,0
1485534340.524,30.273,31.738,32.715,43.457,265.137,0
1485534340.528,57.617,29.785,36.621,37.598,-218.750,0
1485534340.532,58.594,32.227,41.016,68.359,-407.715,0
1485534340.536,48.340,37.109,39.062,93.262,-81.055,0
1485534340.540,41.992,36.133,35.645,93.262,190.430,0
1485534340.544,31.250,31.738,39.551,53.711,318.848,0
1485534340.548,50.781,32.715,40.039,30.762,-182.129,0
1485534340.552,51.270,33.203,36.133,46.875,-166.504,0
1485534340.556,40.527,32.227,31.738,77.637,365.723,0
1485534340.559,33.691,32.227,37.109,85.449,152.344,0
1485534340.563,27.344,45.898,44.434,63.965,323.242,0
1485534340.567,48.828,48.340,47.363,49.316,464.355,0
1485534340.571,52.734,20.508,34.180,42.969,-229.980,0
1485534340.575,39.062,18.555,27.344,71.289,-145.020,0
1485534340.579,25.879,28.320,35.156,92.773,281.738,0
1485534340.583,20.020,28.809,36.133,69.824,378.418,0
1485534340.587,44.922,25.391,42.969,42.969,-26.855,0
1485534340.591,66.406,26.367,34.180,57.617,-455.566,0
1485534340.595,51.758,33.691,17.578,76.660,-167.480,0
1485534340.599,35.156,36.621,37.109,95.215,279.297,0
1485534340.602,24.414,36.133,51.270,81.055,518.555,0
1485534340.606,41.504,33.691,44.434,35.645,554.199,0
1485534340.610,65.430,32.227,35.156,41.992,-31.738,0
1485534340.614,47.363,33.203,41.504,68.359,-217.773,0
1485534340.618,33.691,37.109,52.246,88.379,65.918,0
1485534340.622,27.832,38.574,45.898,87.891,179.688,0
1485534340.626,34.180,34.668,41.992,39.062,53.223,0
1485534340.630,56.152,33.691,39.062,33.691,-410.645,0
1485534340.634,53.711,35.645,40.039,68.848,-267.090,0
1485534340.638,47.852,49.316,53.711,103.516,222.168,0
1485534340.641,33.203,41.016,41.504,82.520,229.492,0
1485534340.645,20.020,22.949,22.461,22.949,145.020,0
1485534340.649,40.527,30.273,20.020,26.367,-91.797,0
1485534340.653,50.781,31.738,21.973,55.664,-220.215,0
1485534340.657,34.668,27.344,44.922,85.449,31.250,0
1485534340.661,24.414,30.762,59.082,84.473,42.969,0
1485534340.665,30.762,31.250,46.875,44.922,395.508,0
1485534340.669,53.223,31.250,38.086,39.551,166.016,0
1485534340.673,61.035,32.227,39.551,65.430,-326.660,0
1485534340.677,47.852,30.762,42.480,89.844,-45.410,0
1485534340.681,27.832,29.297,40.039,93.750,118.652,0
1485534340.684,28.320,31.738,39.062,52.734,91.309,0
1485534340.688,54.688,33.691,42.480,40.039,-254.883,0
1485534340.692,58.594,32.715,30.273,60.547,-29.785,0
1485534340.696,40.039,28.320,35.645,78.613,385.742,0
1485534340.700,32.227,31.738,52.246,87.402,128.906,0
1485534340.704,25.879,34.668,27.344,55.664,368.164,0
1485534340.708,42.969,34.668,19.531,31.738,418.457,0
1485534340.712,60.547,34.180,39.062,50.781,-208.496,0
1485534340.716,55.176,37.598,47.852,81.055,-134.277,0
1485534340.720,48.828,46.875,62.988,105.957,34.668,0
1485534340.724,24.902,33.691,46.387,67.383,228.027,0
1485534340.727,28.809,20.020,33.691,35.156,-93.750,0
1485534340.731,47.852,23.926,40.527,58.594,-386.719,0
1485534340.735,49.805,26.367,39.551,83.008,-102.539,0
1485534340.739,32.227,27.344,44.434,100.586,273.926,0
1485534340.743,20.996,28.320,53.711,73.730,616.211,0
1485534340.747,41.016,25.391,41.504,34.180,489.258,0
1485534340.751,63.965,24.902,29.785,46.875,-118.652,0
1485534340.755,52.246,26.855,40.039,83.984,-32.715,0
1485534340.759,37.109,27.344,43.945,105.469,123.047,0
1485534340.763,26.367,28.320,30.273,79.102,249.023,0
1485534340.766,30.762,28.320,36.133,41.992,78.125,0
1485534340.770,50.293,29.785,46.875,55.664,-313.477,0
1485534340.774,48.828,30.762,44.434,76.660,-193.359,0
1485534340.778,27.832,36.133,51.758,100.586,-59.082,0
1485534340.782,21.484,44.434,60.547,92.285,202.148,0
1485534340.786,30.762,25.879,47.852,40.039,242.188,0
1485534340.790,35.156,16.602,29.297,30.273,7.812,0
1485534340.794,35.156,23.926,31.738,57.617,-135.742,0
1485534340.798,29.297,22.949,40.039,83.008,-50.293,1
1485534340.802,13.184,23.438,36.621,77.637,106.934,0
1485534340.806,20.020,21.973,29.297,41.992,510.742,0
1485534340.809,49.316,26.367,34.180,45.898,264.648,0
1485534340.813,57.617,31.250,25.879,69.824,-117.676,0
1485534340.817,47.852,30.762,28.320,89.355,75.195,0
1485534340.821,44.922,32.715,48.340,94.727,155.273,0
1485534340.825,51.270,29.785,45.410,57.129,95.703,0
1485534340.829,62.500,28.320,43.457,54.199,-208.496,0
1485534340.833,62.500,26.855,44.434,84.473,22.461,0
1485534340.837,41.992,25.391,39.551,103.027,210.449,0
1485534340.841,28.320,28.809,40.527,107.910,25.879,0
1485534340.845,31.250,32.715,37.598,67.383,429.199,0
1485534340.849,49.316,28.809,35.156,40.039,408.691,0
1485534340.852,61.523,24.902,38.574,60.547,-284.668,0
1485534340.856,44.434,25.391,42.480,90.332,-195.801,0
1485534340.860,20.996,22.949,41.992,93.262,85.938,0
1485534340.864,28.320,34.668,35.156,52.734,188.477,0
1485534340.868,58.105,44.434,40.039,45.410,-139.648,0
1485534340.872,47.852,22.949,35.156,54.199,-238.770,0
1485534340.876,32.715,20.020,33.203,66.406,-61.523,0
1485534340.880,18.066,26.367,35.645,78.613,257.324,0
1485534340.884,13.184,28.809,32.227,55.176,681.152,0
1485534340.888,38.574,28.809,35.156,38.574,451.660,0
1485534340.891,49.805,24.902,37.109,47.363,-246.582,0
1485534340.895,40.039,28.809,43.457,68.848,-284.180,0
1485534340.899,29.785,34.180,50.293,88.379,-5.859,0
1485534340.903,21.484,33.691,43.945,71.289,269.043,0
1485534340.907,34.668,29.785,33.691,39.551,44.434,0
1485534340.911,56.641,30.273,36.133,49.316,-387.695,0
1485534340.915,53.711,35.156,37.109,78.125,-258.789,0
1485534340.919,29.297,36.621,37.109,95.215,-39.062,0
1485534340.923,16.602,34.180,42.969,73.730,290.527,0
1485534340.927,40.039,33.691,41.992,38.574,310.059,0
1485534340.931,57.129,27.832,40.039,49.316,56.641,0
1485534340.934,54.199,32.715,49.805,84.473,95.215,0
1485534340.938,48.828,47.363,67.383,104.980,47.852,0
1485534340.942,8.301,32.715,47.363,74.219,202.148,0
1485534340.946,8.301,21.973,25.391,28.320,607.422,0
1485534340.950,46.875,26.367,36.621,37.109,95.703,0
1485534340.954,40.527,24.414,42.480,58.594,-372.070,0
1485534340.958,30.273,30.762,47.852,79.102,-75.195,0
1485534340.962,31.250,31.250,51.270,83.496,190.918,0
1485534340.966,37.598,24.414,40.039,41.992,112.305,0
1485534340.970,59.570,27.832,27.344,38.574,-292.480,0
1485534340.973,51.270,31.250,34.180,67.383,-53.223,0
1485534340.977,35.156,30.762,50.781,86.914,303.711,0
1485534340.981,31.250,30.762,52.734,83.984,156.250,0
1485534340.985,28.809,35.645,45.410,46.875,453.125,0
1485534340.989,45.410,36.133,41.504,41.016,467.285,0
1485534340.993,62.988,30.762,41.992,68.359,-144.531,0
1485534340.997,46.875,26.367,38.574,90.820,-149.414,0
1485534341.001,37.598,42.969,57.129,102.051,83.496,0
1485534341.005,48.828,44.434,67.383,63.477,84.961,0
1485534341.009,55.176,21.973,41.992,33.203,-235.840,0
1485534341.013,53.711,23.438,37.598,58.594,-447.266,0
1485534341.016,36.133,27.832,34.668,86.426,-170.410,0
1485534341.020,20.508,31.250,30.762,91.309,300.781,0
1485534341.024,15.625,34.180,41.504,53.711,692.871,0
1485534341.028,37.598,33.203,41.504,34.668,370.117,0
1485534341.032,57.617,33.691,41.992,59.082,-377.930,0
1485534341.036,45.898,37.598,43.945,78.125,-249.512,0
1485534341.040,33.691,38.574,48.828,88.867,64.941,0
1485534341.044,27.832,33.691,47.363,58.105,237.305,0
1485534341.048,40.039,31.738,45.898,29.785,109.863,0
1485534341.052,55.176,31.738,42.480,46.387,-157.715,0
1485534341.056,46.875,29.785,34.180,60.547,-187.012,0
1485534341.059,23.438,35.645,37.109,80.078,27.832,0
1485534341.063,17.578,39.551,41.504,69.824,354.004,0
1485534341.067,33.691,28.809,31.250,33.691,265.625,0
1485534341.071,49.805,27.832,18.066,37.598,-35.645,0
1485534341.075,67.871,45.410,41.504,75.195,-89.844,0
1485534341.079,46.387,38.574,45.410,91.309,-78.125,0
1485534341.083,17.578,25.391,29.297,60.059,340.820,0
1485534341.087,32.227,26.367,33.691,22.949,566.895,0
1485534341.091,60.547,28.320,32.227,29.785,-181.641,0
1485534341.095,58.594,29.297,31.738,62.500,-392.578,0
1485534341.098,41.992,28.809,36.133,84.961,-33.691,0
1485534341.102,21.484,28.320,36.133,71.777,297.363,0
1485534341.106,26.855,25.391,35.156,43.945,338.379,0
1485534341.110,57.617,24.902,34.180,54.688,-157.715,0
1485534341.114,49.805,26.367,38.086,79.102,-52.734,0
1485534341.118,25.391,30.273,40.039,91.797,284.180,0
1485534341.122,13.184,32.227,35.156,77.637,330.566,0
1485534341.126,25.391,36.621,40.527,40.527,433.105,0
1485534341.130,63.477,50.781,58.594,53.223,-140.137,0
1485534341.134,58.105,38.574,47.363,69.824,-389.160,0
1485534341.138,29.785,20.508,34.668,82.031,-80.078,0
1485534341.141,23.438,25.391,42.969,92.773,196.289,0
1485534341.145,30.762,23.438,37.109,46.875,322.266,0
1485534341.149,58.105,25.879,31.250,31.250,-185.547,0
1485534341.153,64.941,29.785,39.551,69.824,-406.250,0
1485534341.157,43.457,36.621,33.203,98.633,-115.723,0
1485534341.161,25.879,40.527,23.926,99.121,473.145,0
1485534341.165,32.715,30.273,38.086,50.781,582.520,0
1485534341.169,56.152,28.320,47.852,41.504,-75.684,0
1485534341.173,69.336,35.645,49.805,79.102,-330.566,0
1485534341.177,48.340,33.691,45.898,88.379,29.297,0
1485534341.181,24.414,29.297,47.852,88.379,174.805,0
1485534341.184,28.809,39.062,55.176,66.406,523.926,0
1485534341.188,32.227,28.320,39.062,28.809,384.766,0
1485534341.192,38.086,21.973,33.203,41.016,-345.703,0
1485534341.196,38.086,29.785,37.109,78.125,-227.539,0
1485534341.200,22.949,31.738,36.621,92.285,113.770,0
1485534341.204,15.137,30.273,42.480,58.594,323.730,0
1485534341.208,38.086,28.809,36.621,34.668,150.391,0
1485534341.212,56.152,35.156,35.156,48.828,-14.648,1
1485534341.216,54.199,36.621,50.781,70.312,-81.543,0
1485534341.220,24.414,31.738,51.758,86.914,-4.395,0
1485534341.223,8.301,35.156,43.457,63.965,504.395,0
1485534341.227,40.039,37.598,40.039,35.645,181.641,0
1485534341.231,54.688,33.203,38.574,49.805,-471.680,0
1485534341.235,47.363,33.691,41.992,75.684,-267.578,0
1485534341.239,37.598,29.297,44.922,92.285,9.766,0
1485534341.243,25.879,24.902,41.504,74.707,511.719,0
1485534341.247,59.570,41.992,58.594,62.012,221.191,0
1485534341.251,74.219,35.645,48.340,56.152,-459.961,0
1485534341.255,49.805,20.020,25.391,66.406,7.812,0
1485534341.259,33.691,31.250,37.109,89.844,469.238,0
1485534341.263,20.020,35.156,36.133,68.848,643.066,0
1485534341.266,37.109,30.273,17.090,37.598,802.246,0
1485534341.270,58.105,26.367,23.438,36.133,340.332,0
1485534341.274,51.270,20.996,39.062,62.012,-236.328,0
1485534341.278,35.156,24.414,45.410,95.215,-51.270,0
1485534341.282,18.555,31.250,47.363,89.844,334.473,0
1485534341.286,31.250,28.809,34.668,45.410,287.598,0
1485534341.290,60.547,22.949,33.203,46.875,-305.664,0
1485534341.294,61.035,27.344,40.039,72.754,-451.660,0
1485534341.298,44.434,35.645,44.434,91.797,-62.500,0
1485534341.302,22.949,35.156,41.992,82.520,479.980,0
1485534341.305,43.945,46.387,49.316,56.152,749.023,0
1485534341.309,73.242,41.992,49.805,44.922,136.719,0
1485534341.313,56.641,21.973,20.508,44.434,-413.086,0
1485534341.317,40.039,22.461,20.996,78.613,-85.938,0
1485534341.321,20.996,26.367,36.133,77.637,279.297,0
1485534341.325,28.320,26.367,38.086,34.180,198.730,0
1485534341.329,61.523,24.414,40.039,34.180,-321.777,0
1485534341.333,64.941,27.832,39.551,62.988,-422.363,0
1485534341.337,44.922,29.297,42.969,86.426,-142.090,0
1485534341.341,12.207,30.273,43.945,83.496,229.980,0
1485534341.345,15.137,36.621,42.480,45.410,304.688,0
1485534341.348,48.340,46.875,54.199,45.898,25.391,0
1485534341.352,44.434,36.621,49.316,59.082,-38.574,0
1485534341.356,25.391,25.391,35.645,69.336,-40.039,0
1485534341.360,11.230,29.297,38.574,80.566,67.383,0
1485534341.364,0.977,24.902,31.738,46.387,566.406,0
1485534341.368,21.973,29.297,20.996,23.926,252.441,0
1485534341.372,41.992,31.250,32.715,44.434,-466.797,0
1485534341.376,32.715,25.879,49.316,72.266,-217.285,0
1485534341.380,20.996,33.203,51.758,95.215,105.957,0
1485534341.384,15.137,34.668,47.852,69.824,517.090,0
1485534341.388,39.062,29.785,44.434,38.574,186.035,0
1485534341.391,60.059,31.738,44.434,57.617,-487.793,0
1485534341.395,44.434,31.738,47.363,85.938,27.832,0
1485534341.399,25.391,36.133,48.828,98.145,467.773,0
1485534341.403,20.508,36.621,41.992,72.754,627.930,0
1485534341.407,40.039,33.203,39.551,41.992,511.719,0
1485534341.411,76.660,41.504,54.199,55.664,-255.859,0
1485534341.415,59.082,29.297,41.504,70.312,-359.375,0
1485534341.419,31.738,19.531,24.414,85.449,47.363,0
1485534341.423,21.973,25.879,38.574,71.777,395.020,0
1485534341.427,36.133,26.367,48.828,40.527,82.520,0
1485534341.430,60.547,25.391,46.387,52.734,-481.445,0
1485534341.434,53.711,25.391,42.480,70.312,-328.613,0
1485534341.438,38.086,30.762,44.922,93.750,33.691,0
1485534341.442,20.508,32.715,48.828,87.891,471.680,0
1485534341.446,31.250,29.785,40.527,40.039,693.359,0
1485534341.450,55.664,33.203,36.621,38.086,45.898,0
1485534341.454,46.387,32.715,38.086,69.824,-382.324,0
1485534341.458,23.926,30.762,35.645,86.426,10.742,0
1485534341.462,27.832,45.898,44.434,91.797,497.070,0
1485534341.466,54.688,48.340,57.129,64.453,241.211,0
1485534341.470,55.664,29.297,34.668,40.039,-409.180,0
1485534341.473,51.270,25.391,24.902,62.012,-376.465,0
1485534341.477,41.016,24.902,34.668,84.473,-13.184,0
1485534341.481,24.902,29.297,48.340,88.867,215.332,0
1485534341.485,28.809,31.738,50.293,53.711,135.254,0
1485534341.489,53.223,29.297,35.645,43.457,-6.348,0
1485534341.493,57.617,29.785,46.387,66.406,-72.754,0
1485534341.497,39.551,30.273,52.734,82.520,23.438,0
1485534341.501,29.785,30.273,45.410,90.332,69.824,0
1485534341.505,26.367,26.367,41.504,50.293,448.730,0
1485534341.509,48.340,27.344,37.109,24.902,316.406,0
1485534341.513,62.500,27.344,39.062,56.641,-422.363,0
1485534341.516,52.246,41.504,58.105,96.191,-172.852,0
1485534341.520,36.621,46.387,60.547,103.516,303.711,0
1485534341.524,23.926,27.344,42.969,52.734,306.152,0
1485534341.528,41.992,25.879,34.668,29.297,-263.672,0
1485534341.532,51.758,28.320,24.902,57.617,-479.980,0
1485534341.536,39.551,30.273,31.738,84.473,189.453,0
1485534341.540,28.809,33.691,44.922,92.773,376.953,0
1485534341.544,22.461,31.250,46.875,65.918,459.473,0
1485534341.548,37.598,22.949,40.039,34.180,439.941,0
1485534341.552,61.035,24.902,41.504,45.898,-324.219,0
1485534341.555,54.199,31.738,49.805,75.684,-211.914,0
1485534341.559,35.645,34.668,54.199,92.773,104.980,0
1485534341.563,22.949,35.156,42.480,73.730,303.711,0
1485534341.567,40.527,29.785,35.156,32.227,-10.742,0
1485534341.571,63.965,32.715,38.574,52.246,-500.488,0
1485534341.575,69.336,49.316,53.223,97.656,-252.441,0
1485534341.579,42.480,37.598,45.898,105.957,177.734,0
1485534341.583,17.578,22.461,24.902,78.125,632.812,0
1485534341.587,32.715,28.809,28.320,34.668,626.465,0
1485534341.591,56.152,23.926,33.203,37.109,-160.156,0
1485534341.595,43.945,19.043,33.203,67.383,-252.930,0
1485534341.598,27.832,31.738,41.504,82.520,139.160,0
1485534341.602,14.160,39.062,54.688,68.359,272.949,0
1485534341.606,20.996,32.227,46.387,25.391,92.285,0
1485534341.610,50.293,29.785,35.645,26.855,-415.039,0
1485534341.614,47.363,33.691,37.598,54.688,-269.043,0
1485534341.618,28.809,34.180,38.086,75.195,29.297,0
1485534341.622,22.949,47.363,53.711,84.473,227.539,0
1485534341.626,19.531,39.062,41.504,37.598,147.949,0
1485534341.630,30.762,17.090,17.578,17.090,-59.570,0
1485534341.634,37.109,25.391,35.645,46.387,141.602,0
1485534341.637,23.438,29.785,40.527,71.777,373.535,0
1485534341.641,14.160,30.273,37.109,74.219,349.609,0
1485534341.645,19.531,31.738,39.551,43.457,568.848,0
1485534341.649,46.387,31.250,40.527,32.227,230.957,0
1485534341.653,54.199,30.273,40.527,54.688,-384.766,0
1485534341.657,41.992,26.855,47.852,84.961,-72.754,0
1485534341.661,29.297,35.645,49.316,92.773,144.531,1
1485534341.665,30.762,34.668,46.387,55.664,120.605,0
1485534341.669,53.223,25.391,44.922,36.621,-276.855,0
1485534341.673,56.152,29.297,35.645,63.477,-360.840,0
1485534341.677,33.203,29.785,19.531,78.125,234.375,0
1485534341.680,34.180,46.875,46.387,96.191,378.418,0
1485534341.684,34.180,48.340,59.570,75.195,538.086,0
1485534341.688,34.668,22.461,32.227,28.320,382.324,0
1485534341.692,56.641,23.926,38.574,45.898,-308.105,0
1485534341.696,41.016,30.273,50.293,83.008,-5.859,0
1485534341.700,20.996,33.203,44.922,93.750,238.770,0
1485534341.704,24.414,36.621,44.434,65.430,244.629,0
1485534341.708,41.992,28.809,51.270,36.621,-128.418,0
1485534341.712,56.152,26.367,44.922,56.641,-404.297,0
1485534341.716,44.922,29.785,37.109,78.125,-124.023,0
1485534341.720,30.762,30.762,42.969,97.168,20.020,0
1485534341.723,20.996,34.180,32.715,80.078,586.426,0
1485534341.727,41.504,36.133,35.645,34.668,573.242,0
1485534341.731,81.055,42.969,62.500,58.105,-231.445,0
1485534341.735,64.453,30.762,53.223,77.148,-228.027,0
1485534341.739,34.180,22.949,38.574,81.543,5.859,0
1485534341.743,30.762,27.832,34.180,73.242,317.871,0
1485534341.747,46.387,27.832,38.086,36.621,70.801,0
1485534341.751,63.477,26.855,41.504,39.551,-429.688,0
1485534341.755,59.570,27.344,43.457,64.941,-51.270,0
1485534341.759,34.180,27.832,47.852,88.867,133.301,0
1485534341.762,16.113,30.762,40.039,81.055,292.480,0
1485534341.766,33.691,31.738,39.062,44.434,163.086,0
1485534341.770,46.387,29.785,35.156,45.898,-18.555,0
1485534341.774,39.062,28.809,20.020,64.941,117.676,0
1485534341.778,31.738,28.320,38.574,84.961,-5.859,0
1485534341.782,23.926,38.574,68.359,93.750,202.148,0
1485534341.786,11.230,25.391,46.875,41.504,603.516,0
1485534341.790,39.062,15.625,27.832,26.855,145.020,0
1485534341.794,60.547,24.902,43.457,70.801,-314.453,0
1485534341.798,45.410,27.344,47.852,103.516,-88.867,0
1485534341.802,27.344,25.879,39.551,108.887,137.207,0
1485534341.805,32.227,32.715,32.227,59.082,186.035,0
1485534341.809,64.941,34.180,37.598,43.945,-209.473,0
1485534341.813,62.988,32.715,41.016,68.848,-140.137,0
1485534341.817,36.133,35.645,30.273,86.914,325.684,0
1485534341.821,23.438,38.574,38.574,90.332,481.934,0
1485534341.825,20.996,41.016,48.828,44.922,687.012,0
1485534341.829,42.969,34.180,42.969,26.855,306.641,0
1485534341.833,59.570,29.785,36.133,55.664,-303.711,0
1485534341.837,48.340,36.621,45.410,85.449,-214.844,0
1485534341.841,41.504,47.852,59.082,108.887,46.875,0
1485534341.845,27.832,34.180,41.992,65.430,198.242,0
1485534341.848,38.574,23.438,29.297,26.367,-177.734,0
1485534341.852,51.270,23.926,34.180,46.875,-366.699,0
1485534341.856,43.945,22.461,36.621,78.125,-213.867,0
1485534341.860,38.574,32.227,47.852,98.633,-24.902,0
1485534341.864,27.344,33.691,38.574,72.266,626.953,0
1485534341.868,51.270,31.250,29.785,40.527,346.191,0
1485534341.872,65.918,29.785,41.504,63.477,-185.547,0
1485534341.876,44.434,24.902,42.969,81.543,40.527,0
1485534341.880,33.691,29.785,50.781,92.285,-59.082,0
1485534341.884,22.949,38.574,52.734,82.520,395.996,0
1485534341.887,41.016,30.273,38.574,42.480,240.723,0
1485534341.891,66.406,32.227,38.574,55.176,-354.980,0
1485534341.895,61.523,39.062,48.828,87.891,-248.535,0
1485534341.899,27.832,24.902,40.527,94.238,-25.391,0
1485534341.903,13.672,22.949,31.250,72.754,357.910,0
1485534341.907,36.621,25.879,36.621,37.109,118.652,0
1485534341.911,60.547,22.949,33.203,43.945,2.930,0
1485534341.915,56.641,24.902,25.391,69.336,88.867,0
1485534341.919,40.527,33.203,43.457,90.820,-100.586,0
1485534341.923,24.902,37.598,51.270,89.844,318.848,0
1485534341.927,35.645,38.086,41.016,41.504,581.543,0
1485534341.930,61.035,32.715,36.621,35.645,119.141,0
1485534341.934,59.082,33.691,40.527,70.801,-80.078,0
1485534341.938,45.410,35.156,45.898,88.867,-82.520,0
1485534341.942,30.273,31.738,46.875,83.984,230.957,0
1485534341.946,34.180,27.344,44.434,45.410,191.406,0
1485534341.950,56.152,31.250,42.480,43.457,-328.125,0
1485534341.954,75.684,46.387,54.688,89.355,-313.477,0
1485534341.958,53.711,39.062,53.223,104.492,203.125,0
1485534341.962,26.855,29.785,36.133,85.449,531.250,0
1485534341.966,33.691,29.297,29.297,48.828,696.289,0
1485534341.969,54.688,28.809,32.227,31.738,264.648,0
1485534341.973,65.918,35.156,37.109,55.664,-340.820,0
1485534341.977,45.898,36.133,40.527,82.520,-170.898,0
1485534341.981,28.320,34.668,43.945,86.914,135.254,0
1485534341.985,29.297,32.715,42.480,58.105,139.648,0
1485534341.989,42.480,30.273,38.086,50.781,-124.512,0
1485534341.993,56.152,32.227,41.504,62.500,-145.996,0
1485534341.997,48.340,30.273,50.781,81.543,-125.488,0
1485534342.001,24.414,28.320,49.805,103.027,106.445,0
1485534342.005,31.250,41.504,61.523,80.566,374.512,0
1485534342.009,39.551,32.227,44.922,44.434,175.293,0
1485534342.012,38.086,15.137,8.301,50.781,-257.324,0
1485534342.016,40.527,23.926,20.996,83.984,-199.707,0
1485534342.020,30.762,26.855,45.410,99.121,110.352,0
1485534342.024,16.113,23.438,45.410,66.406,524.414,0
1485534342.028,28.809,29.297,43.457,36.621,417.969,0
1485534342.032,55.176,31.250,48.340,48.828,-273.926,0
1485534342.036,53.711,30.273,45.898,76.172,-243.164,0
1485534342.040,34.180,32.715,46.387,100.098,58.105,0
1485534342.044,31.250,35.645,48.340,75.684,384.766,0
1485534342.048,54.199,32.715,42.480,48.828,83.496,0
1485534342.052,65.430,30.762,39.551,66.406,-95.215,0
1485534342.055,57.617,40.039,38.086,79.102,244.629,0
1485534342.059,37.598,39.062,41.504,90.820,207.520,0
1485534342.063,30.762,47.852,48.340,93.262,458.008,0
1485534342.067,44.434,44.922,38.086,51.758,656.738,0
1485534342.071,52.734,19.531,37.598,33.203,-144.531,0
1485534342.075,47.852,20.508,50.293,67.383,-416.992,0
1485534342.079,35.156,28.809,44.434,85.449,-120.605,0
1485534342.083,21.973,30.273,38.086,78.613,345.215,0
1485534342.087,33.203,25.879,45.410,41.992,247.559,0
1485534342.091,59.570,23.438,36.621,35.156,-396.973,0
1485534342.094,54.199,26.367,30.273,71.289,-332.031,0
1485534342.098,37.109,34.668,41.016,101.074,207.031,0
1485534342.102,27.832,38.086,51.270,96.191,594.727,0
1485534342.106,33.203,33.691,47.363,46.387,644.531,0
1485534342.110,54.199,35.156,39.551,40.039,100.098,0
1485534342.114,58.105,28.320,39.551,68.359,-305.176,0
1485534342.118,54.199,35.156,37.598,97.168,-163.574,0
1485534342.122,43.945,51.758,47.363,112.305,176.270,0
1485534342.126,28.320,31.250,45.898,50.781,287.598,0
1485534342.130,54.199,26.855,43.457,32.227,-264.648,0
1485534342.134,55.176,30.273,41.504,61.035,-453.613,0
1485534342.137,27.832,27.344,45.898,77.148,-164.551,2
1485534342.141,19.531,31.738,53.711,87.891,151.367,0
1485534342.145,23.438,32.227,48.828,50.293,423.828,0
1485534342.149,41.992,36.133,40.039,34.180,34.668,0
1485534342.153,52.246,32.227,37.109,59.082,-382.324,0
1485534342.157,44.922,32.715,37.598,78.613,-173.828,0
1485534342.161,25.391,30.762,34.668,83.984,35.156,0
1485534342.165,30.273,41.992,34.668,68.359,567.383,0
1485534342.169,54.199,45.898,39.062,42.480,472.656,0
1485534342.173,50.781,22.461,33.691,35.156,-328.613,0
1485534342.177,43.457,27.832,31.250,75.195,-245.117,0
1485534342.180,30.762,35.645,40.527,98.633,91.309,0
1485534342.184,19.043,31.250,48.340,58.105,314.941,0
1485534342.188,35.645,27.832,40.527,29.785,-95.215,0
1485534342.192,55.176,30.762,31.738,58.594,-141.113,0
1485534342.196,47.852,30.273,37.109,76.172,93.262,0
1485534342.200,33.203,37.598,45.410,92.285,-47.852,0
1485534342.204,15.625,40.039,45.410,78.125,518.066,0
1485534342.208,35.645,32.715,41.504,42.480,516.113,0
1485534342.212,63.477,27.832,45.410,59.082,-347.168,0
1485534342.216,58.594,33.203,43.457,83.984,-329.590,0
1485534342.219,56.152,47.363,51.758,110.352,3.418,0
1485534342.223,20.020,30.762,52.734,86.914,395.996,0
1485534342.227,9.766,16.113,35.645,30.762,283.691,0
1485534342.231,45.410,25.391,35.156,41.016,-233.887,0
1485534342.235,48.828,30.273,37.109,67.871,-270.020,0
1485534342.239,38.086,30.762,40.039,85.938,211.426,0
1485534342.243,28.809,34.180,44.434,79.102,726.074,0
1485534342.247,32.227,29.785,40.527,38.574,633.301,0
1485534342.251,56.641,26.367,43.457,43.945,-194.824,0
1485534342.255,59.082,33.691,45.898,77.637,-420.410,0
1485534342.259,38.574,35.156,47.852,88.867,-124.023,0
1485534342.262,20.020,31.738,38.574,76.660,370.605,0
1485534342.266,35.645,26.855,28.320,37.109,267.578,0
1485534342.270,72.266,37.109,49.805,47.852,-435.059,0
1485534342.274,69.824,41.992,58.105,84.961,-403.809,0
1485534342.278,39.551,25.879,42.480,90.332,-120.117,0
1485534342.282,22.461,25.879,43.945,89.355,284.180,0
1485534342.286,33.691,25.391,42.969,47.363,394.043,0
1485534342.290,55.176,24.902,37.598,36.621,56.152,0
1485534342.294,60.059,25.879,39.062,75.684,-83.984,0
1485534342.298,53.223,27.344,39.062,92.285,-89.355,0
1485534342.301,33.203,30.273,43.945,83.496,157.715,0
1485534342.305,24.902,30.762,40.527,45.410,722.168,0
1485534342.309,42.480,30.273,35.645,29.785,277.344,0
1485534342.313,56.641,30.762,38.574,54.688,-443.359,0
1485534342.317,53.223,36.133,38.574,88.379,-177.734,0
1485534342.321,43.945,40.527,42.480,110.840,206.543,0
1485534342.325,26.855,20.996,37.109,62.012,279.785,0
1485534342.329,39.062,15.137,39.062,38.086,-236.816,0
1485534342.333,51.270,23.438,39.551,60.547,-125.977,0
1485534342.337,41.992,26.367,38.086,77.148,208.984,0
1485534342.341,22.949,28.320,44.922,93.262,100.098,0
1485534342.344,11.719,31.738,43.945,63.965,577.637,0
1485534342.348,36.133,31.250,39.551,31.250,423.828,0
1485534342.352,62.500,27.832,32.715,43.457,-417.480,0
1485534342.356,51.758,29.297,37.109,68.848,-319.336,0
1485534342.360,25.391,33.691,44.922,94.727,104.004,0
1485534342.364,16.113,32.227,46.387,70.801,402.832,0
1485534342.368,35.156,27.832,42.969,32.227,-73.730,0
1485534342.372,49.805,28.320,39.551,50.293,-509.766,0
1485534342.376,41.504,30.762,23.926,68.848,-251.953,0
1485534342.380,42.969,41.504,41.992,100.098,324.707,0
1485534342.384,36.133,46.875,62.012,94.727,836.426,0
1485534342.387,27.344,25.391,38.574,36.621,553.223,0
1485534342.391,52.734,17.578,33.203,36.133,-275.879,0
1485534342.395,52.246,23.438,36.133,65.918,-331.543,0
1485534342.399,33.203,27.832,40.527,86.914,16.602,0
1485534342.403,20.020,29.785,38.086,72.754,455.078,0
1485534342.407,37.598,31.738,40.039,31.250,135.742,0
1485534342.411,58.594,26.855,38.574,35.645,-495.117,0
1485534342.415,53.223,27.344,33.691,62.500,-316.895,0
1485534342.419,37.598,34.668,43.457,90.332,-22.949,0
1485534342.423,28.809,35.156,36.621,88.379,391.602,0
1485534342.426,43.457,36.621,31.250,49.805,419.922,0
1485534342.430,62.988,31.250,39.062,45.898,-107.422,0
1485534342.434,68.359,40.527,52.734,81.055,-326.172,0
1485534342.438,44.922,44.434,66.895,102.539,-13.672,0
1485534342.442,3.418,24.414,42.969,86.426,418.945,0
1485534342.446,7.324,25.879,31.250,42.969,728.516,0
1485534342.450,39.062,29.297,36.621,29.297,222.168,0
1485534342.454,49.316,27.832,40.039,58.594,-404.297,0
1485534342.458,37.598,31.738,41.504,87.402,-148.926,0
1485534342.462,23.926,33.691,43.457,96.680,399.902,0
1485534342.466,27.344,28.809,42.969,57.129,317.871,0
1485534342.469,50.293,26.367,40.039,41.992,-364.258,0
1485534342.473,49.805,24.414,41.504,61.035,-127.930,0
1485534342.477,33.203,24.902,33.203,81.055,334.961,0
1485534342.481,29.785,26.367,37.109,95.703,250.488,0
1485534342.485,22.949,27.344,45.410,61.035,575.684,0
1485534342.489,45.898,36.133,52.246,39.551,340.332,0
1485534342.493,69.336,43.945,62.988,68.848,-414.551,0
1485534342.497,31.738,31.738,40.527,72.754,-153.809,0
1485534342.501,11.230,29.785,33.203,77.637,195.801,0
1485534342.505,18.555,30.273,37.109,54.199,216.309,0
1485534342.509,36.621,23.926,39.062,32.715,-208.496,0
1485534342.512,48.340,22.949,42.969,47.363,-495.117,0
1485534342.516,39.062,25.879,43.457,65.918,-197.266,0
1485534342.520,19.531,26.367,41.016,83.496,321.777,0
1485534342.524,7.812,31.738,39.062,58.594,787.598,0
1485534342.528,30.273,34.180,29.785,23.438,439.941,0
1485534342.532,59.082,30.762,27.832,46.387,-405.762,0
1485534342.536,51.270,31.250,38.086,82.031,-292.969,0
1485534342.540,27.832,27.344,42.969,93.750,89.844,0
1485534342.544,30.762,44.922,57.129,82.520,371.582,0
1485534342.548,56.641,50.293,62.500,54.688,-22.461,0
1485534342.551,53.711,20.508,43.457,50.293,-521.973,0
1485534342.555,45.898,18.555,36.621,79.590,-257.812,0
1485534342.559,36.133,28.809,47.852,100.098,65.430,0
1485534342.563,20.508,32.715,49.316,86.426,401.855,1
1485534342.567,24.902,29.785,41.992,46.387,340.820,0
1485534342.571,47.852,28.809,40.039,48.828,-196.777,0
1485534342.575,51.270,30.273,43.457,74.219,-305.664,0
1485534342.579,25.879,28.320,39.551,89.355,121.094,0
1485534342.583,12.207,33.691,27.344,86.426,610.840,0
1485534342.587,29.297,37.109,32.715,46.387,626.465,0
1485534342.591,59.082,34.180,44.922,37.109,-138.184,0
1485534342.594,65.430,35.156,49.805,68.848,-394.531,0
1485534342.598,62.988,41.504,53.711,102.051,-29.785,0
1485534342.602,36.621,33.203,44.434,94.238,321.289,0
1485534342.606,28.809,30.762,37.109,40.527,219.238,0
1485534342.610,62.988,33.203,37.109,40.527,-366.211,0
1485534342.614,60.059,25.879,31.250,68.848,-23.926,0
1485534342.618,39.062,26.855,41.992,81.543,374.023,0
1485534342.622,28.320,32.227,51.758,97.656,226.562,0
1485534342.626,29.297,34.668,41.504,70.312,605.469,0
1485534342.630,59.570,34.668,41.016,44.434,201.172,0
1485534342.633,77.148,33.691,41.992,64.941,-479.980,0
1485534342.637,61.523,33.203,27.832,88.867,-18.555,0
1485534342.641,43.457,41.992,47.363,104.980,415.527,0
1485534342.645,46.875,52.246,72.754,79.590,199.707,0
1485534342.649,53.711,33.691,51.270,40.527,-322.754,0
1485534342.653,53.711,23.926,34.180,57.617,-294.434,0
1485534342.657,46.875,30.762,36.621,81.055,-32.227,0
1485534342.661,28.320,35.156,45.898,94.238,348.633,0
1485534342.665,22.949,34.668,44.922,66.895,812.988,0
1485534342.669,48.828,29.297,37.109,37.109,354.004,0
1485534342.673,69.824,32.227,44.434,56.152,-374.023,0
1485534342.676,56.152,38.574,50.781,79.102,-154.785,0
1485534342.680,37.598,34.668,52.246,98.633,106.445,0
1485534342.684,31.250,32.227,34.668,76.172,224.609,0
1485534342.688,48.340,27.832,30.762,46.387,-137.207,0
1485534342.692,63.477,29.297,46.875,61.523,-447.754,0
1485534342.696,52.734,35.156,46.875,84.473,-87.402,0
1485534342.700,39.551,35.156,50.781,105.957,285.645,0
1485534342.704,31.250,32.227,51.270,81.055,401.855,0
1485534342.708,43.457,30.273,46.875,41.504,219.238,0
1485534342.712,59.082,24.902,47.852,57.617,-53.711,0
1485534342.716,61.523,36.621,55.664,85.938,-52.734,0
1485534342.719,42.480,38.086,55.176,96.191,-57.617,0
1485534342.723,9.277,20.020,31.738,73.730,432.617,0
1485534342.727,20.508,19.043,27.832,34.180,592.773,0
1485534342.731,47.852,19.531,24.414,41.016,-239.258,0
1485534342.735,47.363,24.414,27.344,68.848,-253.906,0
1485534342.739,39.551,27.832,53.711,87.891,1.465,0
1485534342.743,24.414,25.879,50.293,83.496,334.961,0
1485534342.747,30.762,27.832,39.062,41.016,175.293,0
1485534342.751,53.711,28.320,39.551,41.016,-429.688,0
1485534342.755,45.898,29.297,40.527,71.289,18.066,0
1485534342.758,36.133,34.180,48.828,93.750,331.543,0
1485534342.762,32.227,33.203,48.340,95.215,374.512,0
1485534342.766,28.320,25.879,32.227,35.645,652.832,0
1485534342.770,63.477,37.109,44.434,31.250,1.465,0
1485534342.774,72.266,44.434,54.199,75.684,-337.402,0
1485534342.778,29.785,26.855,41.504,78.125,-58.105,0
1485534342.782,13.672,26.367,51.758,79.590,176.758,0
1485534342.786,20.020,27.832,42.480,44.922,205.566,0
1485534342.790,47.852,23.926,26.367,35.156,-355.469,0
1485534342.794,49.805,22.949,39.062,49.805,-339.355,0
1485534342.798,30.762,28.320,50.781,68.848,-47.363,0
1485534342.801,9.766,34.180,47.363,88.867,345.703,0
1485534342.805,4.883,31.738,43.945,52.246,845.215,0
1485534342.809,40.039,29.297,42.969,32.227,266.113,0
1485534342.813,61.035,27.344,40.039,58.105,-338.867,0
1485534342.817,47.363,32.715,44.922,80.078,87.891,0
1485534342.821,41.016,51.758,68.359,102.051,202.637,0
1485534342.825,21.973,36.621,59.570,63.965,148.438,0
1485534342.829,27.832,18.066,31.738,22.949,-215.332,0
1485534342.833,50.781,27.344,36.133,51.270,-354.492,0
1485534342.837,41.992,29.297,34.668,83.496,-111.328,0
1485534342.841,25.391,25.391,29.785,93.750,30.273,0
1485534342.844,18.066,23.926,41.504,72.266,226.562,0
1485534342.848,32.227,22.949,44.922,45.898,129.883,0
1485534342.852,51.270,27.832,43.457,51.758,39.062,0
1485534342.856,51.758,31.738,48.828,81.543,-41.504,0
1485534342.860,36.621,26.855,46.875,100.586,-78.125,0
1485534342.864,25.391,41.504,55.176,88.379,614.258,0
1485534342.868,33.691,43.457,56.152,48.828,522.461,0
1485534342.872,42.480,17.090,31.738,38.574,-254.883,0
1485534342.876,43.945,16.602,30.762,66.895,-101.562,0
1485534342.880,32.715,32.227,40.039,92.285,-9.766,0
1485534342.883,20.996,36.133,36.621,78.613,287.598,0
1485534342.887,37.598,30.273,26.855,41.016,55.176,0
1485534342.891,51.758,25.879,36.621,52.734,-411.133,0
1485534342.895,45.898,29.785,47.852,74.707,89.844,0
1485534342.899,34.668,34.180,44.922,92.285,208.008,0
1485534342.903,18.555,38.086,47.363,90.332,400.879,0
1485534342.907,20.996,36.621,47.852,44.922,681.641,0
1485534342.911,43.457,25.391,36.133,31.250,-30.762,0
1485534342.915,62.500,41.992,48.340,67.871,-263.672,0
1485534342.919,40.527,42.480,47.852,88.867,-116.211,0
1485534342.923,6.836,22.461,29.297,81.543,302.734,0
1485534342.926,20.996,25.391,33.203,38.086,265.137,0
1485534342.930,49.805,28.809,36.621,23.438,-296.387,0
1485534342.934,47.852,28.809,33.203,48.828,-130.859,0
1485534342.938,31.738,31.250,21.973,69.336,6.348,0
1485534342.942,16.113,30.762,34.668,80.566,408.203,0
1485534342.946,14.160,26.855,52.246,40.527,812.500,0
1485534342.950,46.875,22.949,45.898,18.555,148.926,0
1485534342.954,53.711,28.809,42.480,44.922,-351.562,0
1485534342.958,41.016,29.297,45.898,71.777,-177.734,0
1485534342.962,37.109,39.551,56.152,93.262,145.508,0
1485534342.965,23.926,36.621,48.828,52.734,225.098,0
1485534342.969,39.062,18.066,32.227,24.414,-207.520,0
1485534342.973,49.316,29.297,36.621,51.270,-330.078,0
1485534342.977,39.551,35.645,41.504,71.777,-173.828,0
1485534342.981,31.738,32.715,36.133,93.750,96.680,0
1485534342.985,31.250,32.227,44.434,58.105,239.746,0
1485534342.989,50.293,29.297,52.734,31.250,152.344,0
1485534342.993,55.664,27.344,39.551,54.688,152.344,0
1485534342.997,44.434,30.762,41.504,66.895,147.949,0
1485534343.001,29.297,35.156,47.852,83.008,100.098,0
1485534343.005,20.996,31.738,49.805,70.312,434.570,0
1485534343.008,38.086,26.367,41.992,28.320,137.695,0
1485534343.012,61.035,32.227,45.410,41.504,-404.785,0
1485534343.016,68.848,43.945,61.035,84.473,-263.672,0
1485534343.020,30.762,27.832,49.805,89.844,-84.961,0
1485534343.024,1.953,18.555,41.504,67.383,541.992,0
1485534343.028,29.297,26.367,40.527,34.180,369.141,0
1485534343.032,57.617,30.273,26.367,42.480,-392.578,0
1485534343.036,50.781,36.133,30.762,74.707,13.184,0
1485534343.040,35.645,39.551,53.223,88.867,203.125,0
1485534343.044,25.391,34.668,49.316,73.730,496.582,1
1485534343.048,35.156,32.715,41.016,32.227,570.312,0
1485534343.051,62.988,33.691,41.504,41.016,-91.797,0
1485534343.055,64.941,32.227,49.805,74.219,-218.750,0
1485534343.059,41.992,35.156,54.199,96.191,-108.398,0
1485534343.063,25.879,33.691,49.805,93.262,394.531,0
1485534343.067,46.875,34.180,49.316,51.270,200.684,0
1485534343.071,78.613,44.434,58.594,52.246,-351.562,0
1485534343.075,57.617,31.250,46.875,66.406,-208.496,0
1485534343.079,31.738,21.973,31.738,82.520,-96.191,0
1485534343.083,18.066,32.715,21.484,88.867,517.090,0
1485534343.087,25.879,32.227,29.785,40.039,720.215,0
1485534343.090,62.988,26.367,46.387,33.691,-122.559,0
1485534343.094,67.871,25.391,43.945,68.848,-396.484,0
1485534343.098,50.781,31.250,43.945,83.008,-199.219,0
1485534343.102,34.180,38.086,47.852,83.008,226.074,0
1485534343.106,37.109,33.203,51.758,49.805,325.195,0
1485534343.110,52.734,26.855,50.781,33.203,-125.000,0
1485534343.114,65.430,37.598,50.781,61.035,-241.699,0
1485534343.118,56.152,43.945,61.523,93.262,-207.520,0
1485534343.122,19.531,23.926,47.363,90.820,153.809,0
1485534343.126,15.137,16.113,32.715,49.805,300.293,0
1485534343.130,29.785,20.996,20.020,32.227,83.008,0
1485534343.133,45.410,24.902,27.344,57.617,-36.621,0
1485534343.137,40.039,26.855,55.664,81.543,-135.742,0
1485534343.141,23.926,25.879,65.918,97.656,93.750,0
1485534343.145,21.484,26.367,60.547,61.523,370.117,0
1485534343.149,43.945,27.832,50.293,35.156,-76.660,0
1485534343.153,62.988,30.762,45.410,61.035,-426.758,0
1485534343.157,49.316,33.691,54.199,83.496,-235.840,0
1485534343.161,29.297,35.645,56.152,103.027,-8.789,0
1485534343.165,14.160,32.227,36.621,70.801,597.656,0
1485534343.169,41.992,41.016,48.340,48.340,543.945,0
1485534343.173,61.035,38.086,51.270,70.312,-168.457,0
1485534343.176,39.062,23.438,21.973,73.730,57.617,0
1485534343.180,31.250,30.273,32.227,95.703,226.562,0
1485534343.184,14.648,30.273,46.875,82.520,584.473,0
1485534343.188,29.297,29.297,45.898,39.062,516.602,0
1485534343.192,60.547,31.738,45.898,51.758,-342.773,0
1485534343.196,60.059,32.227,47.852,84.473,-358.887,0
1485534343.200,35.156,35.156,48.828,105.469,-75.684,0
1485534343.204,20.508,36.133,49.805,91.797,355.957,0
1485534343.208,43.945,35.645,43.945,46.875,48.828,0
1485534343.212,64.941,31.738,39.062,46.387,-490.723,0
1485534343.215,56.152,26.855,41.992,73.242,-359.375,0
1485534343.219,40.039,32.715,48.828,103.027,-127.930,0
1485534343.223,26.367,34.668,47.852,93.750,591.797,0
1485534343.227,46.875,45.898,50.293,56.641,750.977,0
1485534343.231,75.684,45.898,50.293,53.223,-189.453,0
1485534343.235,61.523,24.414,39.551,73.242,-426.758,0
1485534343.239,51.758,27.344,42.480,97.656,-183.594,0
1485534343.243,30.762,38.086,44.434,89.844,334.961,0
1485534343.247,35.156,40.527,42.480,45.898,256.836,0
1485534343.251,62.988,31.738,40.039,39.551,-491.211,0
1485534343.255,55.176,31.738,37.109,71.289,-442.871,0
1485534343.258,40.527,36.621,39.062,90.820,-167.480,0
1485534343.262,23.438,35.156,46.387,91.309,325.195,0
1485534343.266,27.832,34.668,45.410,49.805,348.145,0
1485534343.270,55.664,38.574,45.410,40.039,-30.273,0
1485534343.274,70.801,44.922,58.594,74.219,-96.680,0
1485534343.278,46.875,34.180,45.410,86.914,-189.453,0
1485534343.282,20.996,31.738,23.438,88.867,122.070,0
1485534343.286,15.137,31.738,29.297,51.758,750.000,0
1485534343.290,39.062,27.832,36.133,27.832,273.926,0
1485534343.294,63.965,32.227,33.691,58.594,-421.875,0
1485534343.297,51.270,39.062,40.527,84.961,-213.379,0
1485534343.301,28.809,35.645,54.688,95.703,133.301,0
1485534343.305,20.996,28.320,44.922,69.824,345.703,0
1485534343.309,41.016,28.809,38.574,36.621,-220.703,0
1485534343.313,52.734,32.227,41.016,54.688,-480.957,0
1485534343.317,45.898,31.738,35.156,88.867,87.402,0
1485534343.321,35.645,31.250,36.133,92.773,304.199,0
1485534343.325,39.551,45.898,55.176,77.637,685.059,0
1485534343.329,48.340,42.480,42.480,39.062,449.707,0
1485534343.333,45.898,21.973,20.020,29.297,-407.715,0
1485534343.337,39.551,20.508,32.715,65.918,-288.574,0
1485534343.340,20.996,22.949,46.875,91.797,36.621,0
1485534343.344,9.766,27.832,49.316,76.660,424.316,0
1485534343.348,32.227,29.297,41.016,37.598,105.469,0
1485534343.352,60.059,26.367,43.457,49.805,-435.059,0
1485534343.356,55.176,26.855,41.992,76.172,-332.520,0
1485534343.360,43.457,35.156,37.109,94.727,-20.996,0
1485534343.364,26.367,35.156,45.898,79.590,737.305,0
1485534343.368,28.320,27.344,53.223,31.738,517.578,0
1485534343.372,58.594,31.250,46.387,42.969,-413.086,0
1485534343.376,54.688,29.297,30.762,69.824,-373.535,0
1485534343.380,44.922,42.969,48.340,93.262,-73.730,0
1485534343.383,29.297,49.805,63.965,89.355,499.512,0
1485534343.387,18.555,22.949,39.062,35.156,211.426,0
1485534343.391,47.363,22.461,40.039,38.574,-443.359,0
1485534343.395,55.664,32.715,42.969,73.242,-274.902,0
1485534343.399,33.691,31.738,48.828,89.844,-38.574,0
1485534343.403,18.066,28.809,50.781,89.355,524.414,0
1485534343.407,35.156,29.297,43.945,57.617,423.340,0
1485534343.411,55.664,34.180,44.434,45.410,-18.555,0
1485534343.415,52.246,33.203,42.480,61.523,158.203,0
1485534343.419,43.457,31.250,42.969,83.008,34.668,0
1485534343.422,15.625,33.691,46.387,88.867,365.234,0
1485534343.426,25.879,46.387,54.688,62.012,791.992,0
1485534343.430,56.152,39.551,38.574,41.016,-11.230,0
1485534343.434,48.340,21.973,28.320,55.664,-443.359,0
1485534343.438,38.574,25.879,46.387,84.961,-177.734,0
1485534343.442,28.320,32.715,48.340,91.797,319.824,0
1485534343.446,23.926,35.156,48.828,57.129,390.625,0
1485534343.450,46.387,31.738,46.387,42.969,-319.824,0
1485534343.454,58.105,30.273,42.969,61.523,-427.246,0
1485534343.458,40.039,32.227,47.852,75.684,47.363,0
1485534343.462,20.020,28.809,43.945,87.891,618.164,0
1485534343.465,22.949,34.180,41.504,60.547,642.578,0
1485534343.469,56.152,46.387,55.176,50.293,-152.344,0
1485534343.473,51.758,30.762,43.945,59.570,-459.961,0
1485534343.477,31.250,21.484,18.555,66.895,-222.168,0
1485534343.481,24.902,30.762,21.484,88.867,121.582,0
1485534343.485,23.438,33.691,42.480,62.500,579.590,0
1485534343.489,50.781,32.715,44.922,34.180,53.711,0
1485534343.493,64.453,31.250,41.992,42.480,-453.613,0
1485534343.497,48.340,33.691,42.969,62.988,-115.234,0
1485534343.501,23.926,36.133,48.340,84.473,165.039,0
1485534343.505,17.578,35.645,44.434,59.082,520.020,0
1485534343.508,40.039,33.691,37.598,30.273,229.004,1
1485534343.512,65.430,34.180,41.992,56.641,-312.988,0
1485534343.516,60.547,30.273,33.203,73.730,-261.719,0
1485534343.520,47.363,45.410,42.480,96.680,56.152,0
1485534343.524,28.320,52.734,57.129,91.309,727.539,0
1485534343.528,16.602,23.438,36.133,25.879,502.930,0
1485534343.532,45.410,19.043,20.996,35.645,-373.535,0
1485534343.536,45.410,21.973,28.320,69.336,-315.918,0
1485534343.540,25.879,23.926,49.805,87.402,62.500,0
1485534343.544,25.391,30.762,58.105,87.891,477.539,0
1485534343.547,34.668,28.320,49.316,45.410,100.586,0
1485534343.551,55.176,29.297,41.992,48.828,-211.426,0
1485534343.555,57.617,33.203,39.551,81.543,106.445,0
1485534343.559,46.387,34.180,43.457,98.145,157.715,0
1485534343.563,27.832,34.668,48.340,94.238,520.508,0
1485534343.567,27.832,31.738,43.457,52.734,682.617,0
1485534343.571,58.105,28.809,39.551,44.434,-174.805,0
1485534343.575,59.570,29.297,37.109,69.336,-391.602,0
1485534343.579,52.246,44.922,53.711,102.539,-12.695,0
1485534343.583,27.344,38.086,56.152,101.074,562.012,0
1485534343.587,28.320,25.391,38.086,47.852,349.121,0
1485534343.590,60.059,29.297,23.926,45.898,-411.133,0
1485534343.594,61.035,24.414,19.043,71.289,-347.656,0
1485534343.598,51.270,26.367,35.645,92.773,187.500,0
1485534343.602,35.645,29.297,48.828,102.051,602.051,0
1485534343.606,27.344,30.762,44.434,61.523,807.617,0
1485534343.610,52.246,31.250,40.527,39.551,119.141,0
1485534343.614,61.035,24.902,46.387,66.406,-451.660,0
1485534343.618,48.340,31.738,54.199,87.891,-123.047,0
1485534343.622,42.480,54.199,70.312,111.328,248.535,0
1485534343.626,34.180,39.551,62.012,79.102,290.039,0
1485534343.629,41.992,18.555,39.551,38.574,-263.672,0
1485534343.633,56.152,25.879,34.180,62.988,-443.848,0
1485534343.637,44.434,28.320,27.344,85.449,-177.734,0
1485534343.641,25.391,34.180,27.832,98.633,319.824,0
1485534343.645,21.973,36.621,44.922,75.195,858.887,0
1485534343.649,49.316,28.809,51.270,43.457,279.297,0
1485534343.653,65.918,24.414,46.875,66.406,-458.496,0
1485534343.657,49.316,26.367,43.945,87.402,-202.637,0
1485534343.661,33.203,29.785,51.270,105.469,133.789,0
1485534343.665,27.832,31.250,56.152,87.402,324.707,0
1485534343.669,41.992,28.809,55.176,44.434,-112.793,0
1485534343.672,56.641,24.902,47.363,58.594,-455.078,0
1485534343.676,65.430,41.504,56.152,97.656,-207.031,0
1485534343.680,37.109,40.527,54.199,104.492,81.055,0
1485534343.684,8.789,20.996,39.062,68.359,340.820,0
1485534343.688,28.809,21.973,40.039,35.156,-31.738,0
1485534343.692,38.086,22.461,34.668,47.852,-123.047,0
1485534343.696,42.480,23.438,32.227,66.406,60.547,0
1485534343.700,35.645,27.832,36.621,82.031,115.234,0
1485534343.704,20.020,35.156,40.039,79.102,729.004,0
1485534343.708,43.457,37.109,47.852,36.133,574.707,0
1485534343.712,68.848,30.273,46.387,41.016,-319.824,0
1485534343.715,56.152,25.879,43.457,72.754,-320.312,0
1485534343.719,41.016,32.715,52.246,96.680,-25.879,0
1485534343.723,23.438,31.738,47.852,90.820,381.348,0
1485534343.727,36.133,37.109,45.410,47.363,178.223,0
1485534343.731,74.707,54.688,57.129,53.223,-465.820,0
1485534343.735,60.059,38.086,48.340,67.871,-258.301,0
1485534343.739,34.668,25.879,37.598,80.566,179.688,0
1485534343.743,26.367,31.738,40.039,88.379,614.746,0
1485534343.747,25.879,29.297,41.992,44.922,770.508,0
1485534343.751,47.363,24.902,38.086,24.902,-65.918,0
1485534343.754,61.035,30.273,27.832,58.594,-373.535,0
1485534343.758,46.387,31.250,35.645,85.449,55.176,0
1485534343.762,31.738,31.738,47.852,90.820,394.531,0
1485534343.766,27.832,34.668,46.875,54.199,282.227,0
1485534343.770,51.270,28.809,46.387,34.180,-371.094,0
1485534343.774,61.035,29.785,41.504,49.316,-366.211,0
1485534343.778,44.434,32.715,37.598,72.754,-105.957,0
1485534343.782,46.875,49.316,59.570,101.562,142.090,0
1485534343.786,45.410,49.316,62.012,68.359,426.270,0
1485534343.790,49.316,25.879,40.039,23.926,-54.688,0
1485534343.794,65.918,27.832,39.551,50.781,-356.934,0
1485534343.797,59.082,27.832,38.086,76.172,-105.957,0
1485534343.801,38.574,25.879,29.297,85.938,41.992,0
1485534343.805,22.461,35.156,26.855,54.688,662.109,0
1485534343.809,45.410,35.645,36.621,18.555,381.836,0
1485534343.813,65.918,31.738,35.645,46.387,-393.555,0
1485534343.817,54.688,36.621,39.551,78.125,-15.137,0
1485534343.821,32.715,33.203,43.457,89.844,250.977,0
1485534343.825,33.691,42.480,60.059,82.031,227.051,0
1485534343.829,54.688,45.898,59.082,55.176,-173.828,0
1485534343.833,47.363,21.973,25.879,41.992,-116.211,0
1485534343.837,41.504,23.438,31.250,62.012,91.309,0
1485534343.840,38.086,30.273,42.969,90.332,-79.590,0
1485534343.844,20.508,25.391,31.250,70.312,582.520,0
1485534343.848,26.855,26.855,25.391,27.832,551.270,0
1485534343.852,54.199,33.691,34.180,40.039,-305.664,0
1485534343.856,45.410,29.785,45.898,64.941,-244.141,0
1485534343.860,22.461,26.367,54.199,89.355,-4.395,0
1485534343.864,16.602,30.762,49.805,88.379,353.027,0
1485534343.868,33.691,27.832,46.387,40.039,41.016,0
1485534343.872,52.734,22.949,45.898,42.480,-450.195,0
1485534343.876,67.383,41.016,49.805,80.078,-88.379,0
1485534343.879,46.387,39.062,43.457,94.727,265.137,0
1485534343.883,14.160,24.414,34.668,89.355,692.871,0
1485534343.887,31.250,31.738,43.457,44.434,629.395,0
1485534343.891,57.617,27.344,41.504,27.832,-224.121,0
1485534343.895,52.734,24.902,38.086,59.082,-312.988,0
1485534343.899,39.551,26.367,44.434,83.984,-140.137,0
1485534343.903,29.297,34.668,35.645,98.633,348.145,0
1485534343.907,40.039,40.039,36.133,54.688,262.695,0
1485534343.911,56.641,30.273,45.898,41.016,-428.711,0
1485534343.915,60.059,28.320,42.480,70.801,-270.020,0
1485534343.919,48.340,34.180,41.016,86.426,-17.578,0
1485534343.922,26.855,36.133,40.039,89.355,289.551,0
1485534343.926,22.461,34.668,50.781,60.547,502.930,0
1485534343.930,61.035,42.969,58.594,54.199,-120.605,0
1485534343.934,58.594,33.203,40.039,67.871,-141.113,0
1485534343.938,35.645,23.438,34.668,81.543,88.379,0
1485534343.942,27.832,32.227,42.480,95.215,74.219,0
1485534343.946,19.531,34.180,42.480,68.359,695.312,0
1485534343.950,48.340,31.250,45.898,47.363,241.211,0
1485534343.954,70.312,30.762,35.645,68.848,-389.648,0
1485534343.958,59.082,33.691,36.133,85.938,-241.699,0
1485534343.961,39.551,34.180,51.270,104.004,92.773,0
1485534343.965,31.738,33.203,53.711,83.008,286.133,0
1485534343.969,52.246,34.180,45.898,49.805,-186.035,0
1485534343.973,56.641,36.621,38.086,65.918,-60.547,0
1485534343.977,44.434,34.668,36.621,81.543,209.961,0
1485534343.981,52.246,48.340,57.617,111.328,50.293,0
1485534343.985,37.109,49.805,61.523,94.727,582.031,0
1485534343.989,39.551,25.391,38.086,31.738,458.008,0
1485534343.993,58.105,25.879,37.109,42.969,-288.574,0
1485534343.997,48.828,28.809,39.062,67.871,6.348,0
1485534344.001,39.062,33.203,34.668,88.867,135.742,0
1485534344.004,28.320,41.016,35.156,74.707,250.000,0
1485534344.008,44.434,37.598,39.551,38.574,-36.133,0
1485534344.012,58.594,32.227,37.598,47.852,-380.371,2
1485534344.016,50.293,31.250,40.039,64.941,-262.695,0
1485534344.020,33.691,33.203,45.410,91.309,132.324,0
1485534344.024,14.648,31.250,45.410,82.520,759.277,0
1485534344.028,21.973,29.785,44.922,34.668,555.664,0
1485534344.032,54.199,33.203,43.945,49.805,-246.582,0
1485534344.036,58.594,33.203,42.969,74.219,-363.770,0
1485534344.040,60.059,49.805,64.941,108.887,-165.039,0
1485534344.044,37.598,43.945,68.359,109.863,347.656,0
1485534344.047,19.531,16.602,29.785,37.109,144.043,0
1485534344.051,45.898,25.391,12.695,33.203,-324.219,0
1485534344.055,47.852,32.715,29.785,61.523,-133.301,0
1485534344.059,32.227,32.715,48.340,81.055,-126.465,0
1485534344.063,12.695,30.762,48.340,87.402,336.426,0
1485534344.067,23.438,26.855,42.969,50.293,528.320,0
1485534344.071,49.316,24.902,45.898,38.086,-91.797,0
1485534344.075,50.781,26.855,55.176,60.547,-306.152,0
1485534344.079,42.969,26.367,49.316,85.938,-202.148,0
1485534344.083,21.484,34.180,41.016,101.562,284.668,0
1485534344.086,15.625,35.645,41.992,64.941,787.598,0
1485534344.090,53.711,31.738,43.945,31.738,122.070,0
1485534344.094,63.477,29.785,41.504,49.805,-332.031,0
1485534344.098,62.988,38.086,45.410,94.727,-181.641,0
1485534344.102,47.852,41.504,46.387,117.188,246.582,0
1485534344.106,19.531,25.391,41.992,60.059,416.016,0
1485534344.110,45.410,25.391,46.387,36.133,-167.480,0
1485534344.114,53.223,30.762,44.922,68.359,-82.031,0
1485534344.118,43.945,31.250,40.527,83.008,211.426,0
1485534344.122,30.762,33.203,46.387,92.285,145.996,0
1485534344.126,20.508,37.598,46.875,62.500,680.664,0
1485534344.129,48.340,35.645,41.992,27.344,407.715,0
1485534344.133,62.988,31.738,39.551,50.293,-366.699,0
1485534344.137,53.223,33.203,36.133,81.055,-279.785,0
1485534344.141,34.180,32.227,43.457,98.145,40.039,0
1485534344.145,23.926,29.297,43.945,71.289,292.969,0
1485534344.149,46.875,29.785,37.109,34.668,-46.387,0
1485534344.153,62.012,30.273,35.156,55.176,-380.859,0
1485534344.157,64.941,42.480,52.734,92.285,-310.547,0
1485534344.161,30.762,37.109,51.270,101.074,216.309,0
1485534344.165,8.301,25.879,42.969,73.730,849.609,0
1485534344.169,29.297,26.367,44.922,35.156,512.695,0
1485534344.172,50.293,24.414,36.133,40.039,-157.227,0
1485534344.176,58.594,28.320,39.551,68.848,-241.211,0
1485534344.180,46.387,36.621,46.875,96.680,-80.078,0
1485534344.184,22.461,34.180,45.898,83.008,327.637,0
1485534344.188,34.668,30.273,45.410,40.039,82.031,0
1485534344.192,62.988,32.715,41.992,47.852,-384.766,0
1485534344.196,61.523,35.645,26.855,74.707,-371.582,0
1485534344.200,41.504,38.086,33.691,103.027,-175.781,0
1485534344.204,21.484,36.133,51.758,98.633,365.723,0
1485534344.208,22.949,28.809,41.016,47.852,468.262,0
1485534344.211,62.988,42.480,55.176,62.988,-109.375,0
1485534344.215,68.848,43.945,66.406,94.238,-345.703,0
1485534344.219,24.902,20.996,48.340,86.426,-226.562,0
1485534344.223,8.789,25.391,38.574,87.402,382.812,0
1485534344.227,19.531,29.785,27.832,41.992,835.938,0
1485534344.231,43.457,30.762,35.645,23.926,125.977,0
1485534344.235,51.270,31.738,42.480,55.664,-352.051,0
1485534344.239,33.691,33.203,40.039,76.660,-270.020,0
1485534344.243,12.695,32.715,48.828,84.473,296.387,0
1485534344.247,18.066,27.344,53.223,46.875,401.367,0
1485534344.251,45.898,26.855,34.668,32.227,-302.734,0
1485534344.254,54.688,29.297,29.785,62.500,-150.879,0
1485534344.258,46.875,31.738,47.363,79.102,67.871,0
1485534344.262,29.297,31.738,51.758,91.797,224.609,0
1485534344.266,11.230,31.738,41.016,58.105,840.820,0
1485534344.270,41.992,37.598,41.016,22.461,187.500,0
1485534344.274,73.242,46.387,56.641,58.105,-471.680,0
1485534344.278,34.180,33.203,43.945,71.777,-235.840,0
1485534344.282,3.418,23.438,31.250,76.172,154.297,0
1485534344.286,15.625,26.367,38.574,59.082,434.082,0
1485534344.290,42.480,26.367,40.527,27.344,23.438,0
1485534344.293,54.688,28.320,39.551,42.480,-340.820,0
1485534344.297,46.387,30.762,26.855,70.801,-291.504,0
1485534344.301,29.297,36.621,31.250,93.750,358.887,0
1485534344.305,14.648,35.645,42.969,70.312,764.648,0
1485534344.309,38.574,28.809,37.109,33.691,0.977,0
1485534344.313,61.523,30.273,37.598,41.992,-497.559,0
1485534344.317,53.223,31.250,41.016,64.453,-266.602,0
1485534344.321,34.180,29.785,39.062,88.379,-28.809,0
1485534344.325,23.438,42.480,51.270,78.613,661.133,0
1485534344.329,39.062,44.922,62.012,33.691,410.156,0
1485534344.333,43.945,24.414,35.645,25.879,-458.496,0
1485534344.336,40.527,28.809,18.066,58.105,-275.879,0
1485534344.340,37.109,33.203,31.250,86.426,155.762,0
1485534344.344,20.996,27.344,38.574,66.406,482.910,0
1485534344.348,28.809,31.250,21.484,20.508,308.105,0
1485534344.352,55.176,35.645,31.250,37.598,-48.340,0
1485534344.356,48.828,31.738,47.852,61.035,-188.477,0
1485534344.360,35.156,33.691,48.828,81.543,-167.969,0
1485534344.364,19.043,35.156,51.758,88.379,580.566,0
1485534344.368,26.367,33.203,44.434,37.598,633.301,0
1485534344.372,55.664,34.668,42.480,30.273,-329.102,0
1485534344.376,56.641,33.691,45.410,62.988,-409.668,0
1485534344.379,40.039,35.156,47.363,86.914,-133.301,0
1485534344.383,30.762,44.434,57.129,95.215,450.684,0
1485534344.387,22.461,32.227,44.434,35.645,277.832,0
1485534344.391,33.691,21.484,29.297,21.973,-450.684,0
1485534344.395,52.246,25.391,34.180,53.223,-81.055,0
1485534344.399,45.410,29.297,37.109,73.730,97.168,0
1485534344.403,17.090,30.762,41.992,96.680,412.598,0
1485534344.407,19.531,32.715,43.945,53.711,817.871,0
1485534344.411,50.781,32.227,41.504,29.297,-56.152,0
1485534344.415,60.059,24.902,41.992,66.895,-437.500,0
1485534344.418,54.199,30.762,46.387,88.379,-193.848,0
1485534344.422,26.855,36.133,46.387,95.215,353.027,2
1485534344.426,19.531,29.785,41.992,61.035,459.961,0
1485534344.430,56.152,41.504,52.246,47.363,-285.156,0
1485534344.434,69.336,54.199,62.500,76.660,-413.086,0
1485534344.438,38.574,34.180,41.016,81.543,-169.922,0
1485534344.442,10.254,20.508,27.832,86.914,460.938,0
1485534344.446,10.742,23.926,39.062,55.664,951.172,0
1485534344.450,43.945,26.367,33.691,26.367,210.449,0
1485534344.454,64.453,23.926,24.414,44.922,-443.359,0
1485534344.458,58.105,25.879,41.992,63.965,-270.508,0
1485534344.461,38.574,29.785,49.316,86.426,170.410,0
1485534344.465,30.762,29.785,43.457,68.848,497.070,0
1485534344.469,56.641,26.855,39.062,35.645,-113.281,0
1485534344.473,70.312,30.762,38.086,52.734,-484.375,0
1485534344.477,60.059,33.203,41.992,79.102,-284.668,0
1485534344.481,38.574,27.832,43.945,96.191,91.797,0
1485534344.485,30.273,34.180,44.922,84.961,432.129,0
1485534344.489,52.246,43.945,56.641,60.059,208.984,0
1485534344.493,50.293,29.297,43.945,53.223,-66.406,0
1485534344.497,45.898,21.484,35.156,76.172,-156.250,0
1485534344.501,38.086,22.949,35.156,96.680,-41.504,0
1485534344.504,22.949,27.832,28.809,87.402,663.574,0
1485534344.508,42.969,30.273,43.457,47.363,540.527,0
1485534344.512,67.383,29.297,47.852,43.945,-373.535,0
1485534344.516,65.430,38.086,42.480,71.289,-351.074,0
1485534344.520,46.387,36.133,48.340,100.098,-15.137,0
1485534344.524,20.996,30.273,45.898,97.656,486.816,0
1485534344.528,32.715,30.273,40.527,48.828,237.305,0
1485534344.532,60.547,28.320,35.156,46.875,-389.160,0
1485534344.536,56.641,32.227,35.156,68.848,13.672,0
1485534344.540,42.480,31.738,47.363,86.914,217.285,0
1485534344.543,29.297,36.621,53.223,92.773,538.574,0
1485534344.547,40.527,49.316,61.523,56.641,709.961,0
1485534344.551,50.293,31.250,44.434,32.715,-103.027,0
1485534344.555,48.828,17.090,29.297,51.270,-368.652,0
1485534344.559,46.387,27.832,41.504,89.355,-135.254,0
1485534344.563,15.137,27.344,41.504,95.215,448.730,0
1485534344.567,15.137,24.414,44.434,54.688,345.703,0
1485534344.571,41.992,22.461,42.969,39.062,-381.836,0
1485534344.575,47.852,22.949,40.527,64.453,-410.645,0
1485534344.579,46.387,31.250,49.316,90.820,-156.250,0
1485534344.583,32.227,30.762,51.758,101.074,523.926,0
1485534344.586,28.809,32.715,41.504,64.941,873.047,0
1485534344.590,51.270,34.180,44.434,45.898,-15.625,0
1485534344.594,58.594,25.391,50.781,71.289,-494.629,0
1485534344.598,46.875,25.879,44.434,84.961,-245.605,0
1485534344.602,21.484,27.344,34.180,94.727,224.609,0
1485534344.606,32.715,43.945,56.152,85.449,355.469,0
1485534344.610,61.035,41.992,65.430,57.617,-299.805,0
1485534344.614,49.316,17.578,37.598,54.199,-445.312,0
1485534344.618,43.945,27.832,37.598,69.336,-205.078,0
1485534344.622,38.086,39.551,40.039,87.402,196.777,0
1485534344.625,31.250,32.227,52.734,76.172,374.023,0
1485534344.629,46.875,24.414,51.758,37.598,90.332,0
1485534344.633,58.594,28.320,34.180,45.410,-125.977,0
1485534344.637,51.758,36.133,38.574,73.242,-244.629,0
1485534344.641,36.133,38.574,41.992,95.215,216.309,0
1485534344.645,19.043,38.086,38.574,70.801,571.777,0
1485534344.649,37.109,31.250,34.180,29.785,-104.980,0
1485534344.653,58.594,26.855,21.973,42.480,-489.746,0
1485534344.657,68.359,46.875,52.734,88.867,-241.699,0
1485534344.661,52.246,49.805,66.406,113.281,-1.465,0
1485534344.665,11.719,25.391,36.621,71.289,651.367,0
1485534344.668,28.809,21.973,43.457,27.832,441.406,0
1485534344.672,52.734,24.902,42.480,37.109,-412.598,0
1485534344.676,47.363,26.367,30.762,63.965,86.914,0
1485534344.680,43.457,27.832,36.133,87.891,300.293,0
1485534344.684,23.438,33.203,42.480,86.914,587.891,0
1485534344.688,34.180,33.691,41.992,45.410,579.590,0
1485534344.692,64.453,29.785,36.133,34.668,-385.742,0
1485534344.696,66.406,37.598,35.156,63.965,-421.387,0
1485534344.700,47.363,34.180,42.969,96.191,8.789,0
1485534344.704,24.414,25.879,42.969,98.145,526.367,0
1485534344.708,35.156,23.926,42.480,53.223,190.430,0
1485534344.711,54.688,23.926,47.363,41.016,-448.242,0
1485534344.715,47.852,28.809,44.922,59.082,-318.359,0
1485534344.719,45.898,44.434,60.547,93.750,-58.105,0
1485534344.723,30.273,42.969,54.199,104.492,588.867,0
1485534344.727,20.020,26.367,32.227,43.945,796.875,0
1485534344.731,53.223,25.879,35.645,24.902,-149.902,0
1485534344.735,60.059,32.715,37.109,60.059,-415.039,0
1485534344.739,44.922,41.016,42.480,82.520,-112.305,0
1485534344.743,33.691,42.480,49.316,98.145,332.520,0
1485534344.747,28.320,29.785,49.805,65.430,343.750,0
1485534344.750,44.922,26.855,48.340,37.598,-338.867,0
1485534344.754,59.570,35.156,42.480,56.152,-387.207,0
1485534344.758,45.898,35.645,29.297,78.125,-76.660,0
1485534344.762,26.855,37.598,33.691,93.262,491.699,0
1485534344.766,22.461,33.691,44.434,62.012,465.820,0
1485534344.770,54.688,43.457,58.105,47.852,18.555,0
1485534344.774,62.500,40.039,49.316,57.129,-20.020,0
1485534344.778,41.016,22.949,30.762,64.453,-95.215,0
1485534344.782,25.391,26.855,42.969,88.867,37.598,0
1485534344.786,5.859,29.785,42.480,59.082,703.613,0
1485534344.790,25.391,33.203,39.551,15.625,272.949,0
1485534344.793,46.387,33.691,42.969,34.180,-487.305,0
1485534344.797,40.039,33.691,43.945,66.406,-198.242,0
1485534344.801,23.926,37.109,46.387,93.750,66.406,0
1485534344.805,14.648,35.645,44.434,72.754,280.762,0
1485534344.809,32.227,30.762,38.086,30.762,-170.410,0
1485534344.813,50.781,28.320,38.574,55.176,-459.473,0
1485534344.817,38.574,30.273,34.668,86.426,117.188,0
1485534344.821,24.902,31.250,36.133,102.539,461.914,0
1485534344.825,22.949,32.227,46.387,100.586,795.410,0
1485534344.829,37.109,32.227,48.828,49.805,455.078,0
1485534344.833,79.102,40.527,62.988,62.500,-406.738,0
1485534344.836,60.547,33.203,50.293,85.938,-259.766,0
1485534344.840,21.973,17.090,37.598,90.332,20.996,0
1485534344.844,20.020,19.531,42.480,86.914,317.871,0
1485534344.848,31.250,22.461,36.621,42.480,1.953,0
1485534344.852,46.875,26.855,35.645,40.039,-445.801,0
1485534344.856,49.805,30.762,36.621,62.988,-206.543,0
1485534344.860,41.016,32.715,36.621,81.543,-42.969,0
1485534344.864,17.578,36.133,41.504,82.520,628.906,0
1485534344.868,28.809,36.621,36.133,28.809,683.594,0
1485534344.872,58.105,31.250,26.855,20.996,-262.695,0
1485534344.875,47.852,25.391,33.203,56.641,-249.023,0
1485534344.879,42.969,34.180,49.805,85.449,117.188,1
1485534344.883,33.691,43.945,61.523,98.145,444.824,0
1485534344.887,15.137,26.855,41.016,45.898,215.332,0
1485534344.891,32.227,22.461,29.785,30.762,-407.715,0
1485534344.895,47.852,25.391,28.320,59.082,-287.109,0
1485534344.899,48.828,30.762,36.621,85.449,-102.539,0
1485534344.903,30.762,35.156,46.875,103.027,341.797,0
1485534344.907,25.391,33.691,36.133,68.359,383.301,0
1485534344.911,42.480,30.762,33.203,46.387,-62.988,0
1485534344.915,49.316,24.414,40.527,62.500,98.145,0
1485534344.918,47.852,25.391,46.387,86.426,-63.477,0
1485534344.922,28.809,30.273,29.785,113.770,168.457,0
1485534344.926,26.367,36.133,25.391,83.008,839.844,0
1485534344.930,59.570,35.645,47.852,38.086,127.930,0
1485534344.934,65.918,25.391,45.410,47.363,-356.445,0
1485534344.938,75.195,41.504,53.711,90.332,47.363,0
1485534344.942,47.363,45.410,57.129,105.469,245.117,0
1485534344.946,12.695,25.391,38.086,56.641,335.449,0
1485534344.950,40.039,22.949,31.738,27.344,-208.496,0
1485534344.954,54.199,25.391,33.203,47.852,-401.367,0
1485534344.957,49.805,29.297,42.969,70.312,26.367,0
1485534344.961,33.691,30.273,40.527,89.355,217.285,0
1485534344.965,19.531,30.762,32.715,71.289,674.316,0
1485534344.969,40.039,33.691,37.598,28.809,391.113,0
1485534344.973,63.965,32.715,35.645,38.086,-221.680,0
1485534344.977,57.129,34.180,26.367,68.848,-180.176,0
1485534344.981,41.016,38.574,44.434,95.703,-62.012,0
1485534344.985,30.273,29.297,52.734,77.637,286.133,0
1485534344.989,56.152,36.621,58.105,57.129,-86.426,0
1485534344.993,76.660,40.527,58.594,78.125,-380.859,0
1485534344.997,56.152,26.367,32.227,79.102,-7.812,0
1485534345.000,35.645,29.297,28.320,97.168,44.922,0
1485534345.004,17.578,32.715,40.039,98.633,623.047,0
1485534345.008,34.668,35.156,45.410,49.805,457.520,0
1485534345.012,60.547,36.133,40.039,48.828,-340.820,0
1485534345.016,62.012,36.133,35.645,83.008,-251.953,0
1485534345.020,56.641,37.598,41.992,105.469,-200.684,0
1485534345.024,36.621,38.086,39.062,103.027,440.918,0
1485534345.028,28.320,29.785,31.250,52.246,354.004,0
1485534345.032,49.805,27.832,33.691,38.574,-328.613,0
1485534345.036,54.199,31.738,41.016,71.777,-260.742,0
1485534345.040,39.062,32.227,52.246,98.145,-160.156,0
1485534345.043,24.902,35.156,49.805,95.703,362.793,0
1485534345.047,32.227,35.156,41.016,52.734,308.105,0
1485534345.051,56.641,29.297,35.645,41.016,-28.809,0
1485534345.055,62.012,30.273,34.668,64.453,168.457,0
1485534345.059,52.734,34.180,37.109,86.914,25.879,0
1485534345.063,37.598,47.852,53.223,106.445,377.930,0
1485534345.067,45.410,50.781,60.547,73.242,807.129,0
1485534345.071,58.105,23.438,33.203,28.809,12.695,0
1485534345.075,47.852,17.090,34.180,52.734,-347.656,0
1485534345.079,42.480,22.949,37.109,80.078,-242.676,0
1485534345.082,23.438,28.320,20.508,95.703,229.980,0
1485534345.086,17.578,33.691,28.320,58.594,404.785,0
1485534345.090,39.551,30.762,39.062,24.414,-228.516,0
1485534345.094,53.711,28.809,32.715,46.387,-337.891,0
1485534345.098,48.340,31.250,37.109,71.289,35.156,0
1485534345.102,22.949,32.227,48.828,86.914,376.953,0
1485534345.106,17.090,34.668,46.387,64.453,784.668,0
1485534345.110,33.691,31.738,41.016,28.809,269.531,0
1485534345.114,45.410,31.738,41.016,52.734,-235.840,0
1485534345.118,49.805,34.668,41.504,77.148,-169.434,0
1485534345.122,31.738,33.203,43.457,92.773,4.883,0
1485534345.125,15.625,29.297,42.969,73.242,332.520,0
1485534345.129,49.805,41.504,59.570,47.363,-125.000,0
1485534345.133,66.406,39.062,44.434,59.570,-434.082,0
1485534345.137,42.480,21.484,18.555,67.871,-305.664,0
1485534345.141,27.344,25.879,39.062,88.379,-66.406,0
1485534345.145,18.555,26.855,48.828,79.590,655.762,0
1485534345.149,37.109,25.879,49.316,35.645,470.703,0
1485534345.153,62.988,25.879,51.270,38.086,-375.000,0
1485534345.157,66.406,26.367,45.898,66.895,-351.074,0
1485534345.161,45.410,30.762,43.945,88.379,-95.703,0
1485534345.165,31.738,30.273,46.387,87.402,323.242,0
1485534345.168,42.480,29.785,41.504,42.480,72.754,0
1485534345.172,50.781,32.715,38.086,42.969,-228.027,0
1485534345.176,52.734,32.715,42.969,79.590,-240.723,0
1485534345.180,35.156,33.691,41.016,95.703,-129.883,0
1485534345.184,13.184,37.598,44.434,84.473,424.805,0
1485534345.188,22.461,33.203,47.852,48.340,148.926,0
1485534345.192,40.039,29.297,31.738,44.434,-91.309,0
1485534345.196,42.969,29.785,29.297,63.477,147.949,0
1485534345.200,34.668,28.809,42.480,82.520,-79.590,0
1485534345.204,29.785,43.457,51.758,103.027,373.047,0
1485534345.207,29.297,39.551,43.457,52.246,723.633,0
1485534345.211,50.293,23.438,32.227,26.367,-180.664,0
1485534345.215,61.035,31.250,28.320,64.941,-459.961,0
1485534345.219,49.805,35.645,37.598,97.168,-267.578,0
1485534345.223,23.926,36.621,40.527,100.098,342.285,0
1485534345.227,11.230,35.156,39.551,54.199,382.324,0
1485534345.231,34.668,25.391,45.410,31.738,-87.891,0
1485534345.235,45.898,23.926,38.086,44.922,-20.020,0
1485534345.239,40.039,27.832,37.109,72.754,57.617,0
1485534345.243,22.949,30.762,39.551,97.168,527.344,0
1485534345.247,13.672,31.738,40.039,64.941,858.887,0
1485534345.250,47.363,30.273,34.180,40.039,86.426,0
1485534345.254,61.035,28.809,31.250,59.570,-456.543,0
1485534345.258,37.598,32.715,44.922,79.102,-289.062,0
1485534345.262,18.555,33.691,52.246,100.098,174.316,0
1485534345.266,29.785,45.898,60.547,80.078,449.219,0
1485534345.270,44.434,35.156,47.363,35.156,-146.973,0
1485534345.274,46.875,20.508,32.227,40.527,-415.527,0
1485534345.278,44.922,25.879,43.457,71.289,-275.879,0
1485534345.282,30.762,32.227,46.875,91.797,84.473,0
1485534345.286,24.902,37.109,41.504,71.289,512.695,0
1485534345.289,47.852,34.668,33.203,36.621,293.945,0
1485534345.293,63.477,26.367,32.227,48.340,-40.039,0
1485534345.297,50.293,27.344,38.574,77.148,-169.434,0
1485534345.301,31.738,30.273,32.227,103.027,-91.797,0
1485534345.305,18.555,33.203,30.273,80.566,670.410,0
1485534345.309,36.133,29.297,49.805,34.668,472.656,0
1485534345.313,62.012,32.715,53.711,46.387,-450.195,0
1485534345.317,64.453,48.828,53.223,80.566,-351.074,0
1485534345.321,36.621,36.133,49.316,96.191,-34.668,0
1485534345.325,11.719,22.461,36.621,74.707,344.238,0
1485534345.329,26.855,25.391,33.691,36.621,43.457,0
1485534345.332,45.410,27.344,34.668,50.781,-115.234,0
1485534345.336,50.293,28.320,39.062,76.660,-13.184,0
1485534345.340,43.457,33.203,42.480,97.168,-185.547,0
1485534345.344,25.879,37.109,41.992,104.492,492.188,0
1485534345.348,30.762,31.250,43.457,54.199,776.367,0
1485534345.352,60.059,28.320,45.410,41.992,-71.777,0
1485534345.356,72.266,29.785,33.203,77.148,-414.062,0
1485534345.360,58.594,33.203,31.738,97.656,-208.008,0
1485534345.364,28.320,32.715,49.316,98.633,364.746,0
1485534345.368,41.992,33.691,52.246,63.965,270.996,0
1485534345.372,75.684,45.898,56.641,59.570,-431.152,0
1485534345.375,58.594,34.180,36.621,70.801,-423.828,0
1485534345.379,43.457,27.344,26.855,78.125,33.203,2
1485534345.383,23.438,34.180,33.203,87.891,694.824,0
1485534345.387,26.855,37.109,39.551,52.246,751.953,0
1485534345.391,55.664,35.156,46.387,33.691,-138.184,0
1485534345.395,53.711,33.203,34.668,54.199,-347.168,0
1485534345.399,53.223,35.645,37.109,81.055,-242.676,0
1485534345.403,29.785,33.691,42.480,101.562,261.230,0
1485534345.407,22.461,40.527,35.156,67.383,597.168,0
1485534345.411,54.688,41.992,40.527,42.969,9.277,0
1485534345.414,63.477,33.691,47.363,63.965,-336.914,0
1485534345.418,47.852,36.621,43.945,79.102,-272.949,0
1485534345.422,22.949,36.133,41.016,90.332,254.883,0
1485534345.426,30.762,45.898,62.012,88.867,687.500,0
1485534345.430,53.223,43.945,50.293,51.270,181.152,0
1485534345.434,47.363,24.414,25.391,43.945,-259.277,0
1485534345.438,46.387,26.855,36.621,69.336,-266.113,0
1485534345.442,32.227,33.691,37.598,88.379,99.121,0
1485534345.446,15.625,34.180,38.086,68.359,831.543,0
1485534345.450,44.922,33.203,35.645,29.297,319.336,0
1485534345.454,65.918,35.645,42.480,43.457,-440.918,0
1485534345.457,53.711,35.645,39.551,71.289,-270.020,0
1485534345.461,37.598,34.668,30.273,97.656,87.402,0
1485534345.465,22.949,37.109,41.992,73.242,520.020,0
1485534345.469,37.109,35.645,36.133,23.438,189.453,0
1485534345.473,39.551,30.762,29.785,33.203,-57.129,0
1485534345.477,37.598,29.785,41.016,54.688,57.617,0
1485534345.481,31.250,24.902,44.922,78.125,0.488,0
1485534345.485,17.578,35.645,43.457,83.496,663.086,0
1485534345.489,43.457,54.688,52.734,50.293,508.301,0
1485534345.493,53.223,38.086,41.504,38.086,-426.270,0
1485534345.497,42.480,20.996,33.691,65.430,-403.809,0
1485534345.500,35.645,24.902,45.898,88.379,-98.145,0
1485534345.504,16.602,28.809,30.762,82.031,412.109,0
1485534345.508,24.414,31.250,20.508,38.574,103.516,0
1485534345.512,48.828,32.227,38.574,35.156,-461.914,0
1485534345.516,45.898,29.785,48.828,69.336,-348.145,0
1485534345.520,30.273,29.785,50.781,93.262,133.301,0
1485534345.524,12.695,30.762,43.945,95.703,832.520,0
1485534345.528,20.020,34.668,38.086,49.805,640.625,0
1485534345.532,53.223,36.133,47.852,36.621,-298.828,0
1485534345.536,58.594,32.715,48.828,66.895,-430.176,0
1485534345.539,31.738,32.715,43.945,86.426,-186.035,0
1485534345.543,20.996,43.457,51.270,101.074,439.453,0
1485534345.547,24.414,31.250,44.922,56.641,356.445,0
1485534345.551,36.133,20.020,25.391,26.855,-382.812,0
1485534345.555,44.434,25.879,19.531,56.152,-372.070,0
1485534345.559,37.109,31.738,36.133,79.102,-198.730,0
1485534345.563,18.555,36.133,43.457,92.285,384.766,0
1485534345.567,12.695,31.250,38.574,61.523,692.383,0
1485534345.571,36.621,33.203,42.969,33.203,-54.688,0
1485534345.575,58.594,35.156,48.340,55.176,-416.016,0
1485534345.579,56.641,29.297,47.852,83.496,-264.160,0
1485534345.582,30.762,32.227,38.086,105.469,282.227,0
1485534345.586,24.902,37.598,28.320,74.219,873.047,0
1485534345.590,47.363,31.250,34.668,34.180,110.352,0
1485534345.594,55.176,29.785,43.457,53.223,-460.938,0
1485534345.598,45.410,34.180,37.109,65.430,-273.438,0
1485534345.602,34.180,41.504,45.898,97.168,250.488,0
1485534345.606,31.738,49.316,53.711,95.215,487.305,0
1485534345.610,31.738,30.273,30.762,36.621,-208.008,0
1485534345.614,43.457,16.602,25.391,38.086,-156.250,0
1485534345.618,45.898,23.438,32.715,65.430,116.699,0
1485534345.621,28.809,27.832,35.645,83.496,156.250,0
1485534345.625,8.789,26.855,36.133,62.500,796.387,0
1485534345.629,28.320,31.738,39.551,22.461,396.973,0
1485534345.633,54.688,36.621,41.016,34.180,-458.984,0
1485534345.637,52.734,35.645,42.969,61.523,-316.406,0
1485534345.641,36.621,38.086,42.480,89.355,98.633,0
1485534345.645,20.020,39.062,43.457,83.496,450.195,0
1485534345.649,32.227,31.738,45.410,35.645,-35.645,0
1485534345.653,50.293,28.809,42.480,39.062,-479.004,0
1485534345.657,49.805,27.832,35.156,71.289,-282.715,0
1485534345.661,34.668,29.785,31.250,89.844,232.910,0
1485534345.664,12.207,30.762,35.156,75.195,856.934,0
1485534345.668,43.457,42.480,55.176,47.852,554.199,0
1485534345.672,71.777,40.039,52.734,45.898,-353.027,0
1485534345.676,52.246,21.484,32.715,56.152,-366.699,0
1485534345.680,42.969,27.344,31.738,79.102,29.785,0
1485534345.684,28.809,31.250,34.180,79.102,482.422,0
1485534345.688,35.645,26.855,40.039,41.504,179.688,0
1485534345.692,53.711,27.344,36.133,33.203,-392.090,0
1485534345.696,58.105,33.203,37.598,65.918,-366.211,0
1485534345.700,44.434,32.227,38.086,83.496,-100.586,0
1485534345.704,27.344,34.180,29.297,89.844,525.879,0
1485534345.707,31.738,34.668,33.691,62.012,551.758,0
1485534345.711,57.617,31.738,42.480,42.969,30.762,0
1485534345.715,68.359,31.738,45.410,68.359,-162.598,0
1485534345.719,52.734,32.227,47.852,91.797,-149.414,0
1485534345.723,28.320,26.855,44.922,92.773,443.359,0
1485534345.727,38.574,46.387,56.152,70.801,821.289,0
1485534345.731,66.895,43.457,56.152,48.340,-75.684,0
1485534345.735,54.688,16.113,32.227,46.875,-446.777,0
1485534345.739,43.945,26.855,37.598,64.941,-146.484,0
1485534345.743,28.809,35.156,45.898,90.820,377.930,0
1485534345.746,18.555,33.203,45.410,71.777,426.758,0
1485534345.750,39.062,28.320,41.504,43.945,-300.781,0
1485534345.754,55.664,28.809,23.438,61.523,-145.020,0
1485534345.758,53.223,29.297,32.227,81.543,174.316,0
1485534345.762,27.832,32.227,55.176,100.586,405.273,0
1485534345.766,12.695,33.691,48.340,80.566,885.254,0
1485534345.770,43.945,35.645,46.875,40.527,197.266,0
1485534345.774,64.453,38.574,52.734,60.059,-501.465,0
1485534345.778,50.781,35.156,58.105,85.938,-253.906,0
1485534345.782,28.320,30.762,48.340,101.074,109.863,0
1485534345.786,28.809,43.945,54.688,92.285,343.262,1
1485534345.789,57.129,53.223,58.594,60.059,-163.086,0
1485534345.793,55.176,30.762,27.344,55.176,-498.535,0
1485534345.797,40.039,25.391,26.367,73.242,-231.934,0
1485534345.801,29.297,30.762,37.109,97.168,304.688,0
1485534345.805,15.625,32.227,36.621,88.379,894.531,0
1485534345.809,30.273,32.715,23.926,36.621,404.785,0
1485534345.813,57.129,31.738,26.855,43.945,-426.758,0
1485534345.817,48.340,33.691,38.574,68.848,-207.520,0
1485534345.821,30.762,38.086,44.922,89.844,166.992,0
1485534345.825,25.391,40.527,54.688,90.332,413.574,0
1485534345.829,30.273,35.156,50.781,33.691,-20.508,0
1485534345.832,43.457,30.762,36.621,27.344,-467.773,0
1485534345.836,55.664,31.738,34.180,58.105,-298.340,0
1485534345.840,45.410,32.227,41.992,75.684,-52.734,0
1485534345.844,25.391,37.598,37.598,72.754,344.727,0
1485534345.848,49.316,53.223,53.223,60.059,397.461,0
1485534345.852,71.777,39.551,49.316,42.969,-142.090,0
1485534345.856,56.152,15.137,25.391,41.504,-244.141,0
1485534345.860,50.293,24.902,33.691,73.730,-142.578,0
1485534345.864,24.414,33.203,25.879,87.402,455.078,0
1485534345.868,24.902,31.738,24.902,52.734,725.586,0
1485534345.871,55.664,29.297,43.945,38.574,-218.262,0
1485534345.875,55.664,28.809,41.504,70.312,-421.387,0
1485534345.879,43.945,29.297,35.645,89.355,-35.156,0
1485534345.883,26.367,32.227,48.828,103.516,479.004,0
1485534345.887,31.738,34.180,52.734,76.660,296.875,0
1485534345.891,53.711,30.762,43.457,47.852,-395.020,0
1485534345.895,54.688,29.297,41.992,69.824,-85.449,0
1485534345.899,44.922,32.227,41.992,86.914,77.148,0
1485534345.903,30.762,37.109,44.922,102.539,301.270,0
1485534345.907,34.180,44.434,58.105,83.008,825.195,0
1485534345.911,41.016,29.297,43.945,35.156,24.902,0
1485534345.914,48.828,23.438,21.973,43.457,-389.648,0
1485534345.918,60.059,27.344,30.273,76.660,-184.082,0
1485534345.922,41.992,27.344,40.039,104.004,167.480,0
1485534345.926,24.414,30.273,46.875,81.543,385.254,0
1485534345.930,38.574,27.832,41.992,40.527,-237.305,0
1485534345.934,58.105,29.297,28.809,54.688,-421.875,0
1485534345.938,50.293,33.691,29.297,70.801,-70.312,0
1485534345.942,30.762,36.133,38.086,88.867,378.418,0
1485534345.946,15.137,39.062,36.133,64.941,882.324,0
1485534345.950,31.738,36.133,37.109,18.555,289.551,0
1485534345.953,59.570,27.832,42.969,46.387,-411.133,0
1485534345.957,59.570,28.809,43.457,76.660,-222.656,0
1485534345.961,38.086,33.203,42.480,90.820,16.602,0
1485534345.965,23.926,29.785,32.715,79.102,336.914,0
1485534345.969,45.410,37.109,38.086,46.875,-65.430,0
1485534345.973,59.570,29.297,35.156,42.969,-389.160,0
1485534345.977,55.176,22.461,25.879,63.477,-207.031,0
1485534345.981,35.645,27.344,35.645,90.820,-26.367,0
1485534345.985,20.020,27.344,41.016,89.844,336.426,0
1485534345.989,38.574,29.785,35.645,51.270,325.684,0
1485534345.993,67.383,26.367,38.086,38.574,-31.738,0
1485534345.996,64.941,29.297,41.992,61.523,29.297,0
1485534346.000,44.922,36.621,41.504,96.680,68.359,0
1485534346.004,21.973,35.645,48.828,94.727,541.016,0
1485534346.008,28.320,34.180,48.340,41.504,597.656,0
1485534346.012,54.199,31.250,42.480,27.344,-271.973,0
1485534346.016,57.617,31.250,40.527,57.617,-301.270,0
1485534346.020,48.340,34.668,45.410,87.891,-185.059,0
1485534346.024,25.391,32.715,34.180,91.309,352.539,0
1485534346.028,38.086,43.457,40.527,67.383,310.059,0
1485534346.032,54.199,39.551,52.246,49.805,-341.309,0
1485534346.036,35.156,18.066,31.738,45.898,-2.441,0
1485534346.039,33.691,24.902,34.668,65.430,151.367,0
1485534346.043,23.926,34.180,49.805,87.402,468.750,0
1485534346.047,19.043,32.227,47.852,50.781,743.652,0
1485534346.051,50.293,23.926,35.645,26.855,-187.012,0
1485534346.055,57.129,30.762,31.250,56.641,-204.102,0
1485534346.059,43.945,39.551,39.062,80.566,22.461,0
1485534346.063,25.879,35.156,42.480,96.191,256.348,0
1485534346.067,26.367,30.762,42.969,60.059,368.652,0
1485534346.071,46.875,26.855,41.016,35.156,-303.711,0
1485534346.075,52.734,22.461,35.645,50.293,-347.656,0
1485534346.078,47.852,32.715,31.250,67.383,-257.812,0
1485534346.082,17.578,33.691,31.738,91.797,368.652,0
1485534346.086,19.531,41.504,48.340,75.684,839.844,0
1485534346.090,51.758,46.875,53.223,51.270,38.086,0
1485534346.094,55.176,26.855,34.180,54.199,-343.750,0
1485534346.098,56.641,27.832,31.250,73.730,-240.234,0
1485534346.102,31.250,31.738,41.504,101.562,77.637,0
1485534346.106,16.113,33.691,43.945,90.332,445.312,0
1485534346.110,39.062,31.738,41.504,48.340,-146.973,0
1485534346.114,53.711,28.809,46.387,58.105,-187.988,0
1485534346.118,48.828,30.762,42.969,77.148,4.883,0
1485534346.121,38.086,33.691,30.273,91.797,-42.480,0
1485534346.125,31.250,34.668,27.344,90.820,304.199,0
1485534346.129,41.504,31.250,31.250,45.898,198.242,0
1485534346.133,67.871,40.039,48.340,56.641,-37.598,0
1485534346.137,82.520,49.805,60.547,97.168,-241.699,0
1485534346.141,39.551,30.273,39.062,97.168,-223.145,0
1485534346.145,4.883,23.926,31.250,77.637,588.867,0
1485534346.149,28.320,24.902,42.969,43.945,544.434,0
1485534346.153,54.199,25.391,44.434,44.434,-308.105,0
1485534346.157,52.246,35.645,45.410,66.406,-358.398,0
1485534346.161,36.621,32.227,45.898,93.262,-178.711,0
1485534346.164,18.555,25.879,38.086,92.285,305.176,0
1485534346.168,26.855,29.297,31.738,52.734,114.746,0
1485534346.172,50.781,28.809,33.203,45.898,-237.305,0
1485534346.176,54.199,28.809,39.551,68.848,83.984,0
1485534346.180,46.875,32.715,44.922,85.938,116.699,0
1485534346.184,25.391,32.227,38.086,92.285,559.082,0
1485534346.188,20.020,27.344,23.926,54.688,686.035,0
1485534346.192,57.617,38.574,54.688,45.898,-162.598,0
1485534346.196,59.570,37.598,58.105,66.406,-368.164,0
1485534346.200,28.809,20.996,28.320,72.754,-270.508,0
1485534346.203,20.508,30.273,35.645,88.379,281.738,0
1485534346.207,20.020,37.598,41.504,51.758,346.191,0
1485534346.211,41.504,28.320,38.086,38.086,-238.281,0
1485534346.215,58.594,22.461,42.969,62.988,-393.066,2
1485534346.219,47.852,29.785,50.293,81.055,-320.801,0
1485534346.223,21.484,31.250,41.504,100.586,487.305,0
1485534346.227,19.531,32.227,32.227,69.336,854.980,0
1485534346.231,46.387,29.785,38.574,33.691,94.238,0
1485534346.235,54.199,29.785,43.457,58.105,-111.816,0
1485534346.239,48.340,29.297,40.527,82.520,-152.344,0
1485534346.243,45.410,45.410,48.828,111.816,200.684,0
1485534346.246,38.086,46.387,52.734,86.426,453.613,0
1485534346.250,29.785,18.555,26.855,22.949,-117.188,0
1485534346.254,45.898,21.973,25.391,43.945,-334.473,0
1485534346.258,51.270,23.438,39.551,75.684,-333.496,0
1485534346.262,37.109,25.879,45.898,90.820,93.750,0
1485534346.266,23.926,29.785,46.387,75.684,482.422,0
1485534346.270,34.668,28.809,29.785,44.434,255.859,0
1485534346.274,56.152,30.762,14.648,51.758,39.062,0
1485534346.278,50.781,33.203,32.715,67.871,-182.129,0
1485534346.282,35.156,35.156,49.805,91.797,-71.777,0
1485534346.285,15.625,30.273,41.016,83.008,711.914,0
1485534346.289,29.297,28.809,40.527,34.668,479.980,0
1485534346.293,53.711,26.367,40.527,34.180,-175.781,0
1485534346.297,64.941,35.645,45.898,74.219,-240.723,0
1485534346.301,55.176,46.875,55.176,105.469,-111.816,0
1485534346.305,17.090,33.203,40.039,85.938,358.887,0
1485534346.309,26.855,30.762,39.062,46.387,99.121,0
1485534346.313,50.781,31.738,39.551,46.387,-363.281,0
1485534346.317,50.781,31.250,31.250,70.312,-54.688,0
1485534346.321,40.527,33.203,26.367,92.773,79.590,0
1485534346.325,17.578,32.227,29.297,92.773,547.363,0
1485534346.328,18.066,31.738,41.504,47.363,682.129,0
1485534346.332,47.363,29.785,49.805,36.133,-243.164,0
1485534346.336,57.617,29.297,40.527,59.570,-428.223,0
1485534346.340,43.945,30.762,30.273,71.777,-178.223,0
1485534346.344,33.691,39.551,48.340,90.820,324.219,0
1485534346.348,38.574,49.805,55.664,67.871,274.414,0
1485534346.352,38.574,34.668,34.668,34.668,-140.625,0
1485534346.356,49.316,24.414,32.715,54.199,-301.758,0
1485534346.360,41.504,27.344,43.945,83.984,-286.133,0
1485534346.364,14.160,29.785,51.270,102.539,536.133,0
1485534346.368,13.672,28.320,44.922,62.012,803.223,0
1485534346.371,44.434,27.832,20.996,40.039,-163.574,0
1485534346.375,55.664,27.832,21.973,64.453,-478.516,0
1485534346.379,43.945,26.855,44.922,83.496,-301.758,0
1485534346.383,30.762,33.203,47.363,110.840,263.672,0
1485534346.387,28.809,36.133,38.574,77.148,438.477,0
1485534346.391,47.852,33.691,40.527,40.039,-269.043,0
1485534346.395,62.988,30.273,36.621,65.430,-473.145,0
1485534346.399,75.195,46.875,53.223,102.539,-350.586,0
1485534346.403,49.316,45.410,56.152,116.211,218.750,0
1485534346.407,15.625,29.785,28.320,68.359,511.230,0
1485534346.410,37.109,33.691,27.344,41.016,74.707,0
1485534346.414,62.012,32.715,31.738,59.082,48.828,0
1485534346.418,59.082,28.320,40.039,74.707,-145.020,0
1485534346.422,38.574,29.785,40.039,99.609,63.477,0
1485534346.426,24.414,35.645,31.738,88.867,878.906,0
1485534346.430,40.527,31.250,25.879,46.387,273.438,0
1485534346.434,56.641,31.250,35.645,50.293,-475.098,0
1485534346.438,56.641,38.086,43.457,73.242,-323.242,0
1485534346.442,34.668,38.086,38.574,90.820,31.738,0
1485534346.446,17.578,39.551,44.434,85.449,520.508,0
1485534346.450,49.805,46.387,54.199,52.734,97.168,0
1485534346.453,51.758,26.855,44.434,39.062,-428.711,0
1485534346.457,35.645,20.996,36.621,56.152,-38.574,0
1485534346.461,32.715,27.344,32.715,77.637,193.848,0
1485534346.465,17.090,24.414,29.785,73.242,687.012,0
1485534346.469,27.832,26.367,38.574,35.645,626.953,0
1485534346.473,50.293,26.855,40.039,38.086,-321.289,0
1485534346.477,49.805,28.320,39.062,66.895,-417.480,0
1485534346.481,37.109,26.367,49.316,85.449,-105.469,0
1485534346.485,17.090,27.832,31.738,88.867,374.512,0
1485534346.489,23.438,28.320,27.344,48.340,156.738,0
1485534346.493,49.805,26.855,41.992,35.156,-413.574,0
1485534346.496,51.270,23.438,41.016,58.105,-388.184,0
1485534346.500,38.574,29.785,44.922,84.473,-160.645,0
1485534346.504,26.367,43.945,51.270,105.957,673.828,0
1485534346.508,19.531,28.320,42.969,47.852,675.781,0
1485534346.512,46.387,16.602,40.039,19.531,-307.617,0
1485534346.516,61.523,22.949,39.062,57.617,-397.949,0
1485534346.520,54.688,27.832,31.738,86.426,-186.035,0
1485534346.524,31.738,34.180,40.527,97.168,384.277,0
1485534346.528,29.297,32.715,42.969,62.500,481.934,0
1485534346.532,56.641,28.809,24.902,31.738,-221.680,0
1485534346.535,64.453,31.250,32.715,53.711,-396.484,0
1485534346.539,51.758,31.250,47.363,82.031,-239.746,0
1485534346.543,42.480,34.668,43.945,98.633,361.328,0
1485534346.547,39.551,38.086,44.922,72.754,439.453,0
1485534346.551,45.410,29.297,38.574,41.016,-24.414,0
1485534346.555,71.289,41.016,50.781,66.406,-108.398,0
1485534346.559,64.453,44.434,57.129,87.891,-281.738,0
1485534346.563,11.719,21.484,28.809,87.891,318.359,0
1485534346.567,-1.465,27.832,28.320,60.059,893.555,0
1485534346.571,30.273,27.344,38.574,27.832,12.695,0
1485534346.575,50.781,20.508,36.621,45.898,-461.914,0
1485534346.578,46.387,27.832,29.785,59.082,-305.176,0
1485534346.582,24.902,32.227,24.414,82.031,202.148,0
1485534346.586,5.859,29.297,39.062,71.289,663.086,0
1485534346.590,27.344,26.367,47.363,30.273,-100.586,0
1485534346.594,43.457,28.320,39.551,41.504,-475.098,0
1485534346.598,41.504,32.227,33.691,65.430,-9.766,0
1485534346.602,28.809,32.715,37.109,86.914,300.781,0
1485534346.606,10.742,34.668,43.457,73.730,802.246,0
1485534346.610,30.762,37.598,44.922,29.785,305.176,0
1485534346.614,53.223,28.809,30.273,41.992,-503.906,0
1485534346.617,49.316,31.738,33.203,72.266,-372.559,0
1485534346.621,40.527,47.363,58.594,99.609,20.020,0
1485534346.625,11.230,34.180,41.016,84.961,435.059,0
1485534346.629,16.113,24.902,26.855,29.297,-24.414,0
1485534346.633,42.969,28.320,27.832,30.273,-434.082,0
1485534346.637,50.781,28.809,19.531,65.430,-362.793,0
1485534346.641,40.527,26.855,35.156,89.355,-38.086,1
1485534346.645,12.695,32.715,43.457,84.961,594.238,0
1485534346.649,14.648,35.645,40.039,44.434,479.492,0
1485534346.653,39.062,24.414,40.039,32.227,-152.832,0
1485534346.657,42.480,20.508,30.762,55.664,-287.598,0
1485534346.660,44.434,37.598,44.922,94.238,1.465,0
1485534346.664,32.227,44.922,57.617,100.586,626.465,0
1485534346.668,18.066,25.391,33.691,34.180,443.848,0
1485534346.672,40.527,23.926,24.902,20.996,-355.469,0
1485534346.676,48.340,29.297,29.785,53.223,-356.445,0
1485534346.680,36.133,27.344,39.551,78.613,-91.309,0
1485534346.684,21.973,27.832,44.922,91.797,445.801,0
1485534346.688,28.320,31.738,32.715,53.711,290.527,0
1485534346.692,55.176,35.156,25.391,39.551,-1.465,0
1485534346.696,63.477,29.785,35.645,61.035,-44.434,0
1485534346.700,51.758,25.879,41.016,81.543,-228.516,0
1485534346.703,32.227,32.227,41.016,104.492,458.496,0
1485534346.707,31.250,36.621,44.434,74.707,801.270,0
1485534346.711,61.523,30.273,46.387,43.945,-135.254,0
1485534346.715,72.754,20.508,34.668,57.617,-457.520,0
1485534346.719,76.172,33.203,42.969,84.961,-229.004,0
1485534346.723,56.641,49.805,56.641,115.723,365.234,0
1485534346.727,25.391,34.668,36.621,71.777,458.008,0
1485534346.731,46.875,29.785,27.344,37.109,-289.551,0
1485534346.735,64.453,28.809,31.250,62.500,-391.602,0
1485534346.739,50.781,23.438,32.715,80.078,58.594,0
1485534346.742,31.738,25.391,25.879,95.215,562.988,0
1485534346.746,21.484,27.832,31.250,79.590,871.094,0
1485534346.750,42.969,27.832,46.875,37.598,149.414,0
1485534346.754,61.523,26.855,44.922,48.340,-448.242,0
1485534346.758,58.105,25.879,43.945,76.172,-274.902,0
1485534346.762,42.969,27.832,44.434,96.191,291.992,0
1485534346.766,28.809,34.180,45.410,90.332,547.852,0
1485534346.770,47.363,32.715,41.016,50.293,-115.723,0
1485534346.774,58.105,24.902,36.621,48.828,-398.438,0
1485534346.778,46.875,27.344,37.598,71.289,-239.258,0
1485534346.782,48.828,46.875,53.711,106.934,97.168,0
1485534346.785,25.879,35.156,48.340,90.332,564.453,0
1485534346.789,20.996,18.066,31.738,28.320,194.824,0
1485534346.793,50.781,31.250,41.504,33.203,-403.809,0
1485534346.797,46.875,32.715,33.203,58.594,-288.574,0
1485534346.801,27.344,29.785,24.902,78.125,-28.320,0
1485534346.805,15.625,33.203,36.621,86.914,650.391,0
1485534346.809,27.344,35.156,38.574,45.410,445.801,0
1485534346.813,47.363,33.691,33.691,35.645,-361.328,0
1485534346.817,48.340,31.250,36.133,68.848,-308.105,0
1485534346.821,33.691,31.250,43.457,93.750,188.965,0
1485534346.825,22.461,34.668,46.387,92.773,625.000,0
1485534346.828,34.668,38.086,43.945,50.293,153.320,0
1485534346.832,50.293,36.621,43.457,38.086,-62.988,0
1485534346.836,53.711,32.227,44.922,62.500,-4.883,0
1485534346.840,59.570,45.410,51.270,95.703,-119.629,0
1485534346.844,28.809,39.062,41.504,103.516,535.156,0
1485534346.848,17.090,27.832,28.809,54.199,707.520,0
1485534346.852,51.270,28.809,31.250,31.250,-232.910,0
1485534346.856,58.105,19.531,23.438,58.105,-376.465,0
1485534346.860,47.852,26.367,36.133,83.984,-117.676,0
1485534346.864,22.949,32.227,48.828,94.727,333.984,0
1485534346.867,22.949,32.715,51.270,69.824,355.957,0
1485534346.871,44.434,32.715,47.363,44.922,-159.180,0
1485534346.875,51.270,29.297,41.016,51.270,-259.766,0
1485534346.879,44.434,31.738,39.551,73.730,64.941,0
1485534346.883,21.484,35.156,35.156,91.309,627.441,0
1485534346.887,25.879,37.598,40.039,63.965,821.777,0
1485534346.891,60.059,40.527,51.270,30.762,-87.402,0
1485534346.895,65.430,32.715,44.922,49.805,-476.562,0
1485534346.899,54.199,30.273,44.434,77.637,-69.336,0
1485534346.903,42.480,43.457,58.594,108.887,366.699,0
1485534346.907,19.531,33.691,40.527,78.125,411.621,0
1485534346.910,29.297,21.973,21.973,22.949,-263.184,0
1485534346.914,43.457,24.902,28.809,35.156,-453.125,0
1485534346.918,41.504,26.367,36.621,62.500,-237.305,0
1485534346.922,30.762,29.297,39.062,89.355,133.301,0
1485534346.926,19.531,31.250,38.086,83.008,588.379,0
1485534346.930,38.086,27.832,44.922,43.457,119.629,0
1485534346.934,57.617,23.438,46.875,47.852,-408.691,0
1485534346.938,52.246,23.438,32.715,75.684,-136.719,0
1485534346.942,32.227,27.832,32.715,96.191,194.824,0
1485534346.946,13.672,29.297,41.992,89.844,748.047,0
1485534346.949,26.855,26.855,42.480,38.574,400.391,0
1485534346.953,68.359,40.039,58.105,55.664,-437.500,0
1485534346.957,63.477,38.086,38.574,76.172,-283.691,0
1485534346.961,30.762,21.973,18.555,71.777,-8.789,0
1485534346.965,16.602,26.855,36.133,83.984,287.109,0
1485534346.969,19.043,26.855,38.574,42.969,-26.367,0
1485534346.973,41.016,25.879,35.156,36.133,-166.016,0
1485534346.977,55.176,31.250,36.133,60.547,35.156,0
1485534346.981,54.688,35.645,42.969,83.008,-122.559,0
1485534346.985,23.926,34.180,38.574,92.285,534.668,0
1485534346.989,17.090,29.785,35.156,50.293,629.883,0
1485534346.992,40.527,30.762,40.039,38.086,-334.473,0
1485534346.996,47.363,30.273,41.992,64.941,-336.914,0
1485534347.000,39.062,30.273,41.016,87.402,94.238,0
1485534347.004,27.344,31.738,41.992,100.098,428.711,0
1485534347.008,23.926,26.855,46.387,65.918,150.391,0
1485534347.012,52.246,34.668,41.504,49.805,-349.121,0
1485534347.016,72.754,48.340,31.250,74.219,-282.227,0
1485534347.020,48.340,33.203,27.832,77.637,46.387,0
1485534347.024,17.578,26.855,37.598,84.961,672.852,0
1485534347.028,12.207,33.691,41.504,51.758,723.633,0
