timestamps,TP9,AF7,AF8,TP10,Right AUX,Marker0
150126.666,58.594,44.434,48.340,35.645,-41.504,0
150126.670,44.922,44.922,52.734,39.551,-12.207,0
150126.674,39.062,26.367,29.297,40.039,63.965,0
150126.678,42.969,21.484,26.855,31.738,54.688,0
150126.682,40.527,52.246,31.250,25.879,-26.367,0
150126.686,45.410,51.758,28.320,29.785,-28.809,0
150126.690,48.828,33.691,36.621,32.715,55.176,0
150126.693,40.527,33.203,39.062,32.227,89.355,0
150126.697,32.227,47.852,40.527,22.949,45.898,0
150126.701,37.598,52.246,46.875,26.855,11.230,0
150126.705,44.922,42.480,33.203,40.039,57.129,0
150126.709,37.109,25.391,22.461,33.203,104.492,0
150126.711,38.086,29.785,22.461,30.273,48.828,0
150126.715,45.898,29.297,25.879,41.016,11.719,0
150126.719,47.852,31.738,52.246,35.645,46.875,0
150126.723,41.992,51.270,54.688,29.297,91.309,0
150126.727,27.832,46.875,43.945,19.531,92.773,0
150126.731,21.484,43.945,43.457,14.160,26.367,0
150126.735,28.809,41.016,33.691,23.438,28.809,0
150126.739,39.551,37.109,30.762,34.180,85.449,0
150126.742,51.758,34.180,41.016,37.598,58.594,0
150126.746,36.133,27.832,37.109,26.855,0.000,0
150126.750,27.344,33.203,33.691,28.320,10.742,0
150126.754,44.434,50.293,37.598,50.781,54.688,0
150126.756,39.551,30.762,32.227,42.969,53.223,0
150126.760,21.484,13.672,33.203,15.137,35.645,0
150126.764,18.066,35.645,28.809,15.137,26.367,0
150126.768,27.344,43.945,23.438,28.809,55.176,0
150126.772,30.762,40.039,36.133,26.367,87.891,2
150126.776,21.484,26.367,50.781,8.301,12.695,0
150126.779,17.578,23.438,51.270,15.625,-59.570,0
150126.783,29.297,29.297,36.621,26.367,-60.059,0
150126.787,31.738,22.461,35.645,22.461,39.551,0
150126.791,27.832,25.391,38.574,22.461,65.430,0
150126.795,31.250,35.156,42.480,23.438,-28.320,0
150126.799,46.875,42.969,53.711,48.340,-10.254,0
150126.801,57.129,33.203,51.270,51.270,56.152,0
150126.805,54.199,34.180,37.109,29.785,75.684,0
150126.809,41.992,44.922,29.297,21.973,8.789,0
150126.813,33.691,34.180,33.691,18.555,-30.273,0
150126.817,39.062,26.855,43.457,23.438,20.508,0
150126.821,41.992,28.809,34.180,25.391,49.805,0
150126.825,29.785,30.273,20.020,10.742,0.977,0
150126.828,24.902,32.227,36.133,6.348,-48.340,0
150126.832,35.645,34.668,48.828,26.367,46.387,0
150126.836,43.945,30.762,40.039,36.621,89.355,0
150126.840,31.250,26.855,40.527,27.344,22.949,0
150126.844,14.160,28.320,47.363,19.531,-11.719,0
150126.847,20.508,34.180,43.457,20.508,20.996,0
150126.851,30.762,36.133,43.457,26.855,69.824,0
150126.855,29.785,38.574,35.156,24.902,5.371,0
150126.859,19.531,24.414,35.156,12.695,-60.547,0
150126.863,23.438,20.996,54.199,18.066,-10.742,0
150126.867,37.109,36.133,54.688,28.809,62.500,0
150126.871,37.109,33.691,42.969,18.066,43.457,0
150126.875,27.832,29.297,26.367,6.348,12.207,0
150126.879,27.344,34.180,20.996,20.020,3.418,0
150126.883,33.203,38.086,35.645,32.715,40.527,0
150126.886,41.016,35.645,38.086,32.227,97.168,0
150126.890,37.598,27.832,25.391,20.020,53.223,0
150126.906,37.598,42.969,31.738,30.273,28.809,0
150126.910,47.363,41.504,51.270,47.363,47.363,0
150126.914,38.574,12.695,46.387,36.621,85.938,0
150126.918,29.297,26.367,41.016,33.203,64.941,0
150126.922,22.949,45.410,41.504,31.250,-22.949,0
150126.926,28.320,49.316,37.598,35.645,-16.602,0
150126.930,40.527,38.086,26.855,39.062,54.199,0
150126.933,26.367,33.691,31.250,34.180,52.246,0
150126.937,19.043,42.480,48.828,36.133,-26.367,0
150126.941,29.297,40.527,48.340,42.480,-19.531,0
150126.945,28.320,29.297,40.039,45.410,94.238,0
150126.949,29.785,24.414,47.363,41.504,117.188,0
150126.951,24.414,26.855,52.734,34.180,55.664,0
150126.955,23.926,40.039,50.293,37.598,6.348,0
150126.959,31.250,36.621,48.340,42.969,35.645,0
150126.963,28.320,24.902,33.203,36.133,72.754,0
150126.967,17.090,30.762,13.184,22.461,30.762,0
150126.971,3.418,33.691,24.414,13.672,-13.184,0
150126.975,8.789,28.320,51.270,21.484,24.414,0
150126.979,37.109,26.855,59.570,37.109,83.008,0
150126.983,37.109,37.598,41.992,37.109,63.965,0
150126.987,13.672,42.480,42.969,19.531,-15.625,0
150126.990,2.930,27.344,56.641,20.508,1.465,0
150126.994,16.602,25.391,46.875,39.551,95.703,0
150126.997,35.156,31.738,44.434,44.434,59.570,0
150127.001,33.691,41.504,48.340,41.504,0.000,0
150127.005,36.133,40.527,44.434,42.969,-15.137,0
150127.009,47.363,25.879,41.504,48.828,58.594,0
150127.013,58.594,42.969,54.199,51.270,118.164,0
150127.016,42.480,40.039,38.086,38.086,42.969,0
150127.020,21.484,31.250,20.996,26.367,-10.742,0
150127.024,30.762,38.086,30.762,28.320,27.344,0
150127.028,43.457,36.621,31.738,29.785,53.711,0
150127.032,38.574,37.598,45.898,32.715,25.391,0
150127.036,38.086,41.016,37.598,37.109,-25.879,0
150127.040,39.551,24.902,30.762,42.969,-8.301,0
150127.042,37.598,22.949,44.434,47.363,56.152,0
150127.046,34.180,38.574,51.270,33.203,38.574,0
150127.050,23.926,25.879,55.176,27.832,-11.230,0
150127.053,19.531,20.996,48.828,37.598,25.391,0
150127.057,34.668,35.645,39.551,38.086,73.242,0
150127.061,37.598,41.992,26.367,27.832,62.500,0
150127.065,27.832,50.781,31.250,22.949,34.668,0
150127.069,31.250,47.852,46.387,33.203,2.930,0
150127.073,41.992,38.574,34.668,50.293,35.156,0
150127.077,53.223,39.551,32.715,54.199,66.406,0
150127.081,42.969,28.809,44.922,30.762,30.762,0
150127.085,19.531,17.090,43.457,12.207,-7.324,0
150127.087,14.648,37.109,37.598,18.066,23.438,0
150127.091,21.484,43.945,28.320,25.391,83.496,0
150127.095,22.949,37.598,26.855,21.973,58.105,0
150127.099,28.320,37.598,46.875,29.297,-8.789,0
150127.103,39.062,40.527,62.012,43.945,24.414,0
150127.107,39.551,40.039,48.340,44.434,103.027,0
150127.111,30.273,36.133,28.320,32.715,95.703,0
150127.115,24.902,37.109,22.461,22.461,-22.461,0
150127.119,40.527,48.828,36.133,28.809,-69.336,0
150127.122,57.617,48.828,55.664,47.363,45.410,0
150127.126,56.641,26.855,56.641,37.598,88.379,0
150127.130,36.621,12.207,44.434,18.066,35.645,0
150127.131,23.926,20.996,34.668,20.996,16.113,0
150127.135,28.320,38.574,28.320,24.414,73.730,0
150127.139,37.598,53.711,32.227,25.391,118.652,0
150127.143,35.156,54.688,24.414,26.367,62.988,0
150127.147,26.855,47.852,25.391,29.297,-2.441,0
150127.151,41.016,48.828,43.457,39.551,24.902,0
150127.155,43.945,40.039,41.504,48.340,91.797,0
150127.158,36.133,30.273,39.062,38.086,27.344,0
150127.162,32.715,37.598,54.688,26.855,-25.879,0
150127.166,39.062,43.945,60.547,39.551,-4.395,0
150127.170,55.176,44.434,49.316,56.152,45.410,0
150127.174,51.270,39.551,29.297,44.434,71.777,0
150127.176,23.438,33.203,21.484,28.320,13.672,0
150127.180,12.695,43.457,46.387,34.180,-18.066,0
150127.184,28.809,37.598,55.176,39.551,23.438,0
150127.188,31.738,33.691,43.945,29.785,78.613,0
150127.192,24.902,48.340,47.852,24.414,59.570,0
150127.196,21.484,47.363,41.504,34.668,30.762,0
150127.200,35.156,45.898,26.367,44.922,58.594,0
150127.203,55.664,54.199,25.391,47.363,83.984,0
150127.207,34.668,41.016,24.902,38.086,48.340,0
150127.211,22.461,33.203,46.875,41.504,-2.930,0
150127.215,39.062,50.293,68.359,46.387,8.789,0
150127.219,40.527,53.223,61.035,41.992,86.426,0
150127.221,34.668,23.438,44.434,35.645,86.426,0
150127.225,26.855,23.926,46.875,34.180,31.738,0
150127.229,20.508,44.922,58.594,39.062,79.102,0
150127.233,28.320,50.781,50.293,37.598,143.555,0
150127.237,31.738,51.270,36.133,36.133,117.188,0
150127.241,25.879,44.922,38.086,34.668,20.996,0
150127.244,35.156,43.945,46.387,44.434,-7.812,0
150127.248,50.781,42.480,36.133,57.129,62.500,0
150127.252,54.688,45.898,19.043,56.152,113.770,0
150127.256,47.852,42.480,41.016,41.504,33.203,0
150127.260,44.434,45.410,72.266,38.574,-47.363,0
150127.264,44.434,52.246,67.383,42.480,13.672,0
150127.281,41.504,33.203,53.223,33.203,74.219,2
150127.285,36.621,29.297,46.387,18.555,41.016,0
150127.289,40.039,50.293,43.945,23.438,-17.090,0
150127.293,48.828,62.012,41.992,43.457,2.441,0
150127.297,56.152,57.617,40.039,43.945,92.285,0
150127.301,55.176,44.922,27.832,38.574,78.125,0
150127.305,42.969,35.645,17.578,31.250,-17.090,0
150127.308,48.340,33.203,45.898,29.785,-14.648,0
150127.312,56.152,38.574,58.105,35.645,78.125,0
150127.316,43.945,40.039,43.457,27.832,94.238,0
150127.320,44.434,44.922,52.734,20.996,22.461,0
150127.324,44.922,54.688,61.035,20.996,6.836,0
150127.326,36.621,43.945,42.969,24.414,56.152,0
150127.330,41.504,29.297,44.922,35.156,79.590,0
150127.334,41.016,50.781,52.246,43.945,55.664,0
150127.338,37.598,59.570,32.715,39.062,34.668,0
150127.342,49.316,44.434,13.672,37.109,70.801,0
150127.346,55.176,53.711,23.926,34.668,112.793,0
150127.350,43.457,60.059,45.410,20.508,85.938,0
150127.353,35.156,48.340,56.152,18.555,25.391,0
150127.357,44.434,43.457,59.082,30.273,-7.324,0
150127.361,52.246,49.316,46.875,35.156,20.508,0
150127.365,52.246,49.316,39.551,30.762,60.547,0
150127.369,45.898,36.133,44.922,29.297,22.461,0
150127.371,37.598,33.691,41.992,22.949,-4.395,0
150127.375,36.133,41.504,32.227,20.996,50.293,0
150127.379,38.086,50.293,27.344,21.484,89.355,0
150127.383,33.203,56.641,27.832,15.625,0.488,0
150127.387,29.297,58.105,38.574,18.555,-70.801,0
150127.391,36.133,50.781,44.434,22.461,-3.906,0
150127.395,39.062,36.621,39.551,18.066,76.660,0
150127.398,37.598,36.621,35.645,15.625,57.129,0
150127.402,40.527,47.852,44.922,27.832,-30.762,0
150127.406,49.805,52.734,52.246,44.922,-33.203,0
150127.410,49.316,39.062,40.527,33.691,63.477,0
150127.414,46.875,36.133,42.480,21.973,52.246,0
150127.417,45.898,43.945,33.691,21.973,-11.719,0
150127.420,47.852,41.504,27.344,25.879,5.859,0
150127.424,45.410,54.199,36.621,29.785,59.082,0
150127.428,45.410,62.500,42.480,21.973,62.988,0
150127.432,48.340,60.547,40.039,20.020,4.883,0
150127.436,35.156,37.109,25.879,30.273,-0.488,0
150127.440,47.852,32.715,30.273,40.527,82.520,0
150127.444,58.594,42.969,50.293,41.016,112.793,0
150127.448,37.109,41.504,54.199,31.250,10.254,0
150127.452,27.344,54.199,47.852,23.438,-50.781,0
150127.456,31.738,55.176,40.527,25.879,6.836,0
150127.459,26.367,43.945,28.809,22.461,63.965,0
150127.462,20.996,36.621,20.996,17.578,20.020,0
150127.466,25.879,36.133,33.691,27.832,-25.879,0
150127.469,31.250,59.570,50.293,36.621,25.879,0
150127.473,24.902,62.988,45.898,29.297,80.566,0
150127.477,17.090,39.062,40.527,13.184,74.219,0
150127.481,19.043,40.039,37.109,9.766,3.906,0
150127.485,37.109,50.293,31.738,28.809,-26.855,0
150127.489,45.898,44.434,45.898,28.809,15.625,0
150127.493,32.227,39.062,46.387,8.789,5.371,0
150127.497,21.484,42.969,36.621,8.301,-36.133,0
150127.501,16.602,37.598,28.809,23.926,-20.508,0
150127.505,31.250,48.340,26.855,41.016,28.320,0
150127.507,49.316,58.105,34.668,42.480,62.012,0
150127.510,33.691,30.762,37.109,26.367,49.316,0
150127.514,20.996,30.273,50.293,20.996,10.254,0
150127.518,32.227,43.457,60.059,31.738,11.230,0
150127.522,34.668,39.551,56.152,26.367,51.758,0
150127.526,27.832,41.504,42.480,14.160,20.996,0
150127.530,24.414,42.969,36.133,9.766,-33.691,0
150127.534,27.832,40.039,37.109,17.578,-59.082,0
150127.538,42.969,42.480,32.715,30.273,12.695,0
150127.542,44.922,52.734,24.414,28.320,51.758,0
150127.546,25.879,57.617,16.602,18.066,-32.227,0
150127.550,27.832,57.617,24.902,19.531,-28.320,0
150127.554,50.293,46.387,41.992,31.250,45.898,0
150127.558,47.852,36.621,44.922,24.902,104.980,0
150127.562,24.414,54.199,39.062,9.766,27.832,0
150127.565,17.090,61.035,43.457,12.207,-26.367,0
150127.569,30.273,54.199,47.363,25.391,65.918,0
150127.573,33.203,48.340,30.762,19.531,85.938,0
150127.577,24.414,45.410,22.949,8.301,10.254,0
150127.581,26.367,51.758,44.922,13.184,-30.273,0
150127.585,35.645,46.387,30.762,21.484,31.738,0
150127.589,46.875,43.945,0.000,28.809,108.398,0
150127.593,46.387,52.734,20.020,29.785,82.520,0
150127.597,41.504,54.199,42.969,20.508,-24.902,0
150127.596,43.457,53.223,53.711,21.484,-20.020,0
150127.600,45.898,49.316,59.082,38.086,89.355,0
150127.604,44.434,50.293,56.641,44.434,81.543,0
150127.608,22.949,51.758,35.645,21.973,-10.254,0
150127.612,14.648,50.293,20.508,9.766,-14.648,0
150127.616,29.785,50.293,27.832,13.672,43.457,0
150127.620,43.457,49.805,33.691,14.648,62.500,0
150127.624,34.668,45.898,34.180,15.625,-8.789,0
150127.628,25.879,41.504,35.645,18.555,-60.059,0
150127.632,36.133,42.969,31.250,26.855,2.441,0
150127.635,46.387,46.875,27.832,32.227,63.477,0
150127.639,43.457,48.340,28.320,27.344,54.688,0
150127.656,32.715,42.969,29.785,21.484,21.484,0
150127.660,31.250,44.922,32.715,30.273,15.625,0
150127.664,35.156,44.922,27.344,39.551,67.871,0
150127.668,30.762,38.086,28.320,28.809,67.383,0
150127.672,24.414,39.551,38.086,20.996,-12.695,0
150127.676,30.762,32.227,42.480,29.785,-36.621,0
150127.680,29.785,40.039,34.668,33.203,20.508,0
150127.683,26.367,58.594,26.367,30.273,25.879,0
150127.687,20.996,49.316,23.926,23.926,-57.129,0
150127.691,25.879,48.340,30.762,24.902,-83.984,0
150127.695,39.062,55.664,29.297,38.574,1.465,0
150127.699,29.785,48.340,10.742,27.832,57.617,0
150127.701,23.926,45.898,28.320,15.625,13.184,0
150127.705,15.137,43.457,43.457,12.207,-17.090,0
150127.709,16.602,33.203,39.551,14.648,24.414,0
150127.713,29.785,32.715,41.016,25.879,62.500,0
150127.717,33.203,41.992,44.434,26.855,29.297,0
150127.721,37.109,43.457,56.152,34.180,-19.531,0
150127.724,40.039,54.688,52.246,41.992,0.000,0
150127.728,31.250,60.547,26.855,31.250,80.078,0
150127.732,33.203,62.500,26.367,33.691,70.312,0
150127.736,38.086,68.848,27.832,37.598,-21.484,0
150127.740,38.086,57.617,29.785,32.715,-35.645,0
150127.744,39.062,44.434,34.668,33.691,64.453,0
150127.746,41.504,41.504,40.039,31.738,92.285,0
150127.750,42.480,42.969,48.340,32.227,6.836,0
150127.754,30.273,42.480,44.434,27.832,-22.461,0
150127.758,27.832,32.227,36.621,31.250,22.949,0
150127.762,40.527,49.316,34.668,45.898,82.520,0
150127.766,34.668,66.406,27.344,29.297,37.598,0
150127.770,19.531,54.199,28.320,4.883,-39.551,0
150127.773,22.461,49.316,33.203,14.648,21.484,0
150127.777,35.156,50.293,30.762,27.832,71.777,0
150127.781,27.832,44.922,33.691,26.367,41.504,0
150127.785,22.949,34.668,33.691,20.508,13.184,0
150127.789,36.621,36.621,41.992,24.902,-22.949,0
150127.791,50.781,45.410,41.992,33.203,23.926,0
150127.795,46.875,47.363,29.785,32.227,65.430,0
150127.799,31.250,52.734,20.020,27.344,21.484,0
150127.803,29.785,57.617,25.879,26.855,15.625,0
150127.807,43.457,51.758,41.992,39.062,42.480,0
150127.811,45.898,36.621,46.387,45.410,63.965,0
150127.815,36.133,43.945,42.969,33.691,48.340,0
150127.818,24.902,50.781,32.227,25.391,8.301,1
150127.822,26.367,46.387,21.973,33.203,32.715,0
150127.826,47.363,58.594,18.066,38.086,86.426,0
150127.830,39.551,60.059,25.879,30.273,58.594,0
150127.834,16.113,49.316,32.715,26.367,5.371,0
150127.837,20.020,41.992,33.691,32.227,52.734,0
150127.841,33.203,36.621,39.551,37.598,157.227,0
150127.845,28.320,20.996,39.062,29.785,114.258,0
150127.849,23.438,29.785,36.133,26.855,-18.555,0
150127.853,28.320,42.969,34.668,40.527,4.395,0
150127.857,40.527,44.434,30.762,45.410,68.359,0
150127.861,48.828,65.918,39.062,48.340,60.547,0
150127.865,30.762,63.965,37.598,36.621,14.648,0
150127.869,17.090,45.410,23.438,3.906,-20.020,0
150127.873,24.414,37.598,18.555,0.000,43.457,0
150127.876,27.832,39.551,29.297,13.672,103.516,0
150127.880,27.832,41.992,44.922,19.531,47.852,0
150127.881,26.367,47.852,41.504,24.414,-2.441,0
150127.885,23.438,45.898,25.879,24.414,84.473,0
150127.889,27.832,39.551,24.902,20.996,128.906,0
150127.893,22.949,48.340,29.297,17.578,61.523,0
150127.897,19.043,42.969,35.156,19.531,21.484,0
150127.901,26.367,38.574,31.738,30.273,25.879,0
150127.905,45.410,50.293,36.133,41.992,88.379,0
150127.908,32.227,51.758,45.410,30.762,47.852,0
150127.912,-0.488,48.828,42.969,19.043,-36.133,0
150127.916,0.977,45.898,39.062,28.320,-19.043,0
150127.920,21.973,46.387,38.086,32.715,59.082,0
150127.924,34.668,54.688,35.645,30.273,100.586,0
150127.926,36.133,59.570,25.391,35.645,21.973,0
150127.930,38.086,53.711,27.832,36.621,26.855,0
150127.934,44.434,44.922,41.992,44.434,83.008,0
150127.938,41.992,45.410,45.410,47.363,102.539,0
150127.942,31.250,55.664,36.621,32.227,47.363,0
150127.946,27.832,44.922,35.645,26.855,-11.230,0
150127.949,29.297,44.434,37.598,30.762,23.926,0
150127.953,33.203,55.176,35.156,28.809,68.848,0
150127.957,34.668,55.664,25.879,24.902,37.598,0
150127.961,32.715,61.523,34.668,27.832,0.000,0
150127.965,48.828,63.965,43.945,45.410,22.949,0
150127.969,52.246,53.711,21.484,47.852,84.961,0
150127.971,35.156,51.758,13.672,35.156,77.148,0
150127.975,25.879,54.688,23.926,23.926,1.953,0
150127.979,22.461,38.086,17.578,14.160,5.859,0
150127.983,22.949,46.875,20.020,22.461,64.941,0
150127.987,33.691,64.941,42.969,27.832,72.754,0
150127.991,30.273,53.711,50.293,20.996,32.227,0
150127.995,25.879,47.852,42.969,22.461,-2.441,0
150127.999,34.668,50.293,31.250,30.273,63.477,0
150128.003,33.691,51.270,23.438,32.227,99.609,0
150128.007,23.926,52.734,22.461,28.809,28.809,0
150128.010,19.043,45.410,20.020,28.320,-20.996,0
150128.014,12.695,43.457,21.484,23.438,12.207,0
150128.018,23.438,43.945,34.180,17.090,95.703,0
150128.022,34.180,46.387,53.223,22.461,84.961,0
150128.025,21.484,44.922,47.852,20.996,-15.625,0
150128.029,29.297,39.062,27.344,30.762,-8.789,0
150128.033,41.992,45.410,19.531,38.086,75.684,0
150128.037,26.855,52.734,21.973,14.160,65.918,0
150128.041,2.441,42.969,30.762,1.465,21.973,0
150128.045,1.465,42.480,31.250,11.719,19.043,0
150128.049,21.484,41.016,26.367,24.902,58.594,0
150128.053,36.621,39.551,36.621,32.227,67.871,0
150128.057,38.574,48.340,45.410,30.762,-8.301,0
150128.061,35.645,40.527,47.363,29.297,-38.574,0
150128.079,34.180,30.762,46.875,35.645,17.578,0
150128.083,34.180,47.363,33.691,35.645,81.055,0
150128.087,33.691,43.457,27.832,23.438,41.504,0
150128.091,27.832,36.133,31.250,14.648,-11.719,0
150128.094,27.832,52.734,36.621,25.391,30.273,0
150128.098,43.457,57.617,43.457,33.691,59.082,0
150128.102,42.969,45.410,31.250,25.879,32.227,0
150128.106,23.926,40.039,30.273,19.043,16.602,0
150128.110,19.043,40.527,38.574,20.508,1.953,0
150128.114,35.645,41.504,38.086,31.738,42.969,0
150128.118,42.480,52.246,31.250,35.645,94.238,0
150128.122,42.969,62.500,29.297,35.156,46.387,0
150128.121,42.480,61.523,35.156,36.621,18.066,0
150128.125,36.133,47.852,25.879,38.574,36.621,0
150128.129,37.598,36.621,20.508,30.762,85.449,0
150128.133,38.574,42.969,40.527,29.297,48.340,0
150128.137,35.645,38.574,48.340,32.715,-15.137,0
150128.141,27.832,33.203,29.297,23.926,42.969,0
150128.145,36.133,41.016,18.066,26.855,87.891,0
150128.149,36.133,43.945,27.832,20.020,51.270,0
150128.153,21.973,58.594,36.621,13.184,-30.762,0
150128.157,29.297,72.754,37.109,29.785,-43.457,0
150128.160,40.527,62.500,35.156,43.945,96.191,0
150128.164,35.156,49.316,29.297,29.297,101.074,0
150128.166,20.508,48.828,27.832,21.484,2.441,0
150128.170,19.531,47.852,30.762,26.855,28.809,0
150128.174,32.227,41.016,27.344,26.855,49.805,0
150128.178,39.062,44.434,30.762,27.832,27.832,0
150128.182,36.133,45.410,34.180,29.297,-11.719,0
150128.186,32.227,35.645,34.180,34.180,-12.207,0
150128.189,36.621,45.898,34.180,37.109,77.637,0
150128.193,36.133,62.988,29.785,34.180,123.047,0
150128.197,42.480,65.918,44.922,31.738,35.156,0
150128.201,41.504,60.547,45.898,36.133,-17.578,0
150128.205,26.855,55.664,19.043,33.691,52.246,0
150128.209,33.691,54.688,26.367,35.645,89.844,0
150128.211,40.527,44.922,40.039,33.691,46.387,0
150128.215,31.250,36.133,33.691,28.320,-22.461,0
150128.219,36.621,45.410,39.062,36.133,0.488,0
150128.223,42.480,47.363,36.621,39.551,106.445,0
150128.227,41.016,43.945,23.926,39.062,93.750,0
150128.231,45.898,55.664,25.391,42.969,12.695,0
150128.235,47.852,41.992,36.133,41.016,-21.973,0
150128.238,48.828,30.762,39.551,36.621,6.348,0
150128.242,56.641,51.758,36.133,36.621,54.688,0
150128.246,49.805,64.453,36.133,35.645,16.602,0
150128.250,36.621,61.035,41.992,35.156,-58.105,0
150128.254,43.457,55.664,41.016,43.945,-2.441,0
150128.271,43.457,47.363,37.598,41.992,91.797,0
150128.275,21.973,40.527,28.809,32.227,30.273,0
150128.279,20.996,47.363,23.438,37.598,-21.484,0
150128.283,42.969,49.316,33.203,47.363,23.926,0
150128.287,54.688,47.852,36.133,50.781,88.379,0
150128.291,57.617,48.340,32.715,45.410,90.820,0
150128.295,53.223,47.363,34.668,39.062,20.020,0
150128.299,38.086,30.273,38.574,38.086,-11.719,0
150128.302,39.062,23.438,37.598,34.668,34.668,0
150128.306,46.387,38.086,40.527,30.762,60.547,0
150128.310,41.016,47.852,44.434,30.273,-3.418,0
150128.314,38.574,57.617,40.039,38.086,-24.414,0
150128.302,53.711,56.152,32.227,43.945,23.438,0
150128.306,48.340,56.152,31.738,37.598,33.203,0
150128.310,22.461,51.758,19.043,18.555,24.902,0
150128.314,16.602,40.039,13.184,9.766,3.906,0
150128.318,29.785,36.621,31.250,20.508,54.199,0
150128.322,41.992,41.992,34.180,26.855,85.449,0
150128.326,35.645,37.598,25.879,27.344,64.941,0
150128.330,32.227,33.691,32.715,28.320,38.574,0
150128.334,36.621,26.855,40.039,21.973,32.715,0
150128.337,41.504,28.809,26.855,18.555,100.098,0
150128.341,49.805,48.828,21.484,27.832,62.988,0
150128.345,42.480,54.688,26.367,32.715,-22.949,0
150128.346,25.391,44.434,18.066,32.227,12.207,1
150128.350,21.973,34.668,21.484,34.180,67.871,0
150128.354,28.320,44.434,37.598,28.320,57.617,0
150128.358,35.645,57.129,50.293,23.926,9.766,0
150128.362,21.973,46.875,42.480,20.996,-4.395,0
150128.366,16.602,37.598,33.691,20.508,47.363,0
150128.370,32.715,44.922,33.691,25.391,42.480,0
150128.373,34.668,43.457,29.297,15.625,8.301,0
150128.377,27.344,39.062,31.250,14.160,-21.973,0
150128.381,37.598,37.109,32.227,34.180,-12.695,0
150128.385,49.316,43.945,24.414,39.551,53.223,0
150128.389,39.062,52.734,27.344,34.180,36.133,0
150128.406,25.391,43.945,37.109,29.785,-13.672,0
150128.410,27.832,33.691,31.250,31.250,-20.020,0
150128.414,31.738,43.457,22.949,23.926,14.648,0
150128.418,42.480,64.453,38.086,20.508,23.926,0
150128.422,36.621,62.012,46.387,19.531,-28.809,0
150128.426,12.207,48.340,37.598,15.625,-18.066,0
150128.430,21.484,38.574,32.227,27.832,91.309,0
150128.433,41.016,45.410,36.133,30.273,118.164,0
150128.437,21.484,52.734,28.320,12.695,52.246,0
150128.441,16.602,36.133,20.996,6.348,-15.137,0
150128.445,33.691,35.645,27.344,15.625,25.391,0
150128.449,26.367,50.293,22.461,18.066,97.656,0
150128.451,24.414,48.828,23.438,20.508,65.918,0
150128.455,38.086,43.457,35.645,32.227,41.992,0
150128.459,41.992,40.527,34.668,38.086,44.922,0
150128.463,42.969,48.340,29.785,35.645,88.379,0
150128.467,41.016,49.316,37.598,31.738,59.082,0
150128.471,24.414,43.945,38.086,25.879,-40.039,0
150128.475,16.602,40.039,28.809,25.391,-31.738,0
150128.478,22.461,42.480,30.273,29.297,67.383,0
150128.482,22.949,37.109,37.109,25.879,80.078,0
150128.486,23.926,37.109,43.457,28.809,-15.137,0
150128.490,25.879,46.387,41.504,34.668,-37.598,0
150128.494,22.949,27.832,29.785,25.879,47.363,0
150128.496,25.879,30.762,23.926,21.484,90.820,0
150128.500,26.855,56.152,33.691,19.531,54.688,0
150128.504,22.461,55.176,39.062,12.695,47.852,0
150128.508,30.273,43.457,41.992,22.461,102.539,0
150128.512,40.039,36.133,37.598,33.691,70.801,0
150128.516,34.668,37.109,25.879,32.227,-16.113,0
150128.519,27.832,33.203,31.250,33.203,-52.246,0
150128.523,32.227,33.203,35.645,41.992,0.000,0
150128.527,34.668,34.668,39.551,40.039,49.805,0
150128.531,24.414,36.133,40.527,20.996,24.414,0
150128.535,21.973,40.039,33.203,20.020,-10.742,0
150128.539,30.273,27.832,27.344,38.086,-3.906,0
150128.542,36.621,37.598,25.391,42.969,56.641,0
150128.546,44.922,61.035,37.109,42.969,31.738,0
150128.550,44.922,57.129,39.551,45.410,-23.926,0
150128.554,31.250,45.410,26.367,33.691,-30.273,0
150128.557,42.969,40.039,25.391,30.273,22.949,0
150128.561,64.941,41.504,30.762,32.715,67.871,0
150128.565,54.688,48.340,34.180,30.762,18.555,0
150128.569,36.621,41.016,41.992,35.156,-16.602,0
150128.573,41.016,32.715,41.992,42.969,5.859,0
150128.577,41.992,38.086,29.785,45.410,83.496,0
150128.581,35.156,30.762,26.855,33.691,84.961,0
150128.585,29.785,31.250,23.926,17.090,19.531,0
150128.587,25.879,45.410,17.578,17.578,9.766,0
150128.591,39.551,47.363,29.785,32.227,62.500,0
150128.595,50.293,50.781,45.898,36.133,85.938,0
150128.599,35.156,45.410,44.922,27.832,-2.930,0
150128.603,28.320,42.480,36.621,30.273,-4.883,0
150128.607,45.410,48.828,29.297,38.086,81.543,0
150128.610,54.688,43.945,27.832,41.504,86.914,0
150128.614,34.668,28.320,30.762,26.367,17.090,0
150128.618,18.555,34.180,18.555,14.648,-16.113,0
150128.622,40.039,48.340,22.461,31.738,70.801,0
150128.626,56.152,49.316,41.992,41.016,110.352,0
150128.630,36.133,31.250,35.645,26.855,38.086,0
150128.634,25.879,27.832,33.203,17.090,-28.809,0
150128.638,33.203,48.340,37.109,22.949,19.531,0
150128.642,45.898,53.711,43.457,39.062,75.195,0
150128.646,37.598,45.898,42.969,34.668,47.852,0
150128.649,32.715,35.645,40.527,27.344,17.578,0
150128.653,42.480,38.574,33.691,30.762,56.641,0
150128.657,38.574,41.992,20.020,26.855,92.773,0
150128.661,38.574,37.109,11.719,24.902,44.434,0
150128.665,37.109,41.992,14.160,27.344,-21.484,0
150128.669,25.879,40.527,27.832,30.273,-20.996,0
150128.673,25.879,29.785,30.273,25.391,78.125,0
150128.677,30.762,31.738,18.555,24.414,119.629,0
150128.677,30.762,32.715,24.414,27.832,0.000,0
150128.681,32.715,15.137,32.715,36.133,-38.574,0
150128.685,33.203,24.414,21.484,44.922,26.855,0
150128.689,27.344,48.340,19.043,35.645,73.242,0
150128.693,20.996,44.434,30.762,21.484,54.688,0
150128.697,17.090,30.762,37.598,20.508,-25.391,0
150128.701,32.715,29.785,43.457,37.598,-32.715,0
150128.705,47.363,41.016,42.969,40.039,49.805,0
150128.708,33.203,37.598,34.180,24.902,67.871,0
150128.712,25.391,34.180,30.762,25.879,-4.883,0
150128.716,33.203,38.086,33.691,34.668,-12.695,0
150128.720,44.922,39.062,25.879,43.457,59.570,0
150128.722,53.711,33.203,19.531,46.875,58.105,0
150128.726,48.828,17.090,27.832,36.621,-24.902,0
150128.730,39.062,25.391,41.016,35.645,-60.059,0
150128.733,33.691,42.480,41.504,42.969,-5.371,0
150128.737,38.574,35.156,39.551,44.434,52.734,0
150128.741,39.062,36.133,36.621,29.785,-0.977,0
150128.745,28.320,34.668,32.715,21.484,-67.383,0
150128.749,31.738,33.691,41.992,35.156,-5.859,0
150128.753,38.574,39.062,39.551,39.062,74.219,0
150128.757,25.879,32.227,31.738,27.344,36.621,0
150128.761,20.996,28.809,33.203,20.508,-57.617,0
150128.765,38.574,32.227,29.785,32.227,3.418,0
150128.767,49.805,37.598,8.789,34.668,115.234,0
150128.771,41.504,35.645,8.789,28.809,106.934,0
150128.775,42.480,42.480,40.527,38.086,33.203,0
150128.779,30.762,44.434,42.969,36.133,4.883,0
150128.783,20.996,36.133,24.414,26.855,53.711,0
150128.787,27.832,40.039,28.320,23.926,26.855,0
150128.791,26.367,31.738,33.691,21.484,-38.574,0
150128.795,31.250,31.250,34.180,34.668,-22.461,0
150128.799,44.922,44.922,43.945,42.969,52.246,0
150128.803,47.852,45.410,47.852,44.434,68.848,0
150128.806,33.203,45.410,44.434,36.621,5.371,0
150128.810,27.832,44.922,45.898,28.320,-27.344,0
150128.826,45.410,41.504,44.922,37.109,15.625,0
150128.830,45.410,41.992,41.016,41.504,72.266,0
150128.834,30.762,41.016,30.762,32.715,30.762,0
150128.838,32.227,41.992,26.367,27.344,-16.113,0
150128.842,39.551,35.645,36.621,28.809,30.273,0
150128.846,42.969,28.809,41.992,37.109,74.219,0
150128.849,40.527,46.387,40.039,37.598,72.754,0
150128.853,29.297,51.758,39.551,35.156,4.883,0
150128.857,34.668,47.363,38.574,37.598,-36.621,0
150128.861,56.152,46.387,33.691,37.598,20.020,0
150128.865,54.199,43.457,30.762,36.133,71.289,0
150128.869,37.598,42.480,26.367,33.691,43.457,0
150128.871,32.715,42.969,36.621,32.715,-2.930,0
150128.875,43.945,45.410,50.293,40.527,29.785,0
150128.879,47.852,48.828,44.922,47.363,64.453,0
150128.883,29.785,39.062,30.762,32.227,41.016,0
150128.887,26.855,35.156,35.645,28.320,-31.250,0
150128.891,39.551,33.203,33.691,42.480,-3.418,0
150128.895,57.617,37.598,16.602,46.875,74.219,0
150128.898,50.781,40.527,11.719,34.180,32.227,0
150128.902,31.250,27.344,25.391,27.832,-46.875,0
150128.906,29.785,24.902,42.969,34.668,-27.344,0
150128.910,33.203,8.301,58.594,41.504,79.590,0
150128.914,34.668,8.789,62.988,40.527,68.848,0
150128.916,23.438,40.527,41.016,24.902,-1.953,0
150128.920,24.414,41.504,30.762,23.438,-11.719,0
150128.924,35.645,41.992,45.898,37.109,60.059,0
150128.928,31.738,41.016,40.039,31.250,91.309,0
150128.932,18.555,31.738,28.809,12.695,9.277,0
150128.936,14.648,34.180,25.879,16.602,-2.441,0
150128.939,24.414,30.273,20.020,28.809,43.457,0
150128.943,38.086,29.785,26.367,36.621,92.773,0
150128.947,36.621,29.785,39.062,40.039,51.270,0
150128.951,27.344,20.996,46.387,33.691,-7.324,0
150128.955,21.484,14.160,41.016,34.180,37.598,0
150128.959,25.391,7.812,32.715,37.109,47.852,0
150128.961,31.250,34.668,39.551,31.738,28.809,0
150128.965,19.531,50.781,44.434,23.926,-42.480,0
150128.969,24.902,49.316,48.340,34.180,-39.062,2
150128.973,36.621,46.875,40.527,43.457,41.992,0
150128.977,23.926,26.367,23.926,31.738,53.223,0
150128.981,22.461,33.203,30.762,40.039,-18.555,0
150128.985,24.414,40.039,45.410,40.527,-39.062,0
150128.988,23.926,32.715,52.246,27.832,47.363,0
150128.992,29.297,27.344,44.922,30.762,52.246,0
150128.996,31.250,25.879,39.062,34.180,18.066,0
150129.000,32.715,38.574,44.922,43.457,-21.484,0
150129.004,30.762,36.133,39.062,37.109,-2.930,0
150129.008,26.367,41.992,42.480,24.414,63.477,0
150129.012,24.902,50.293,45.898,23.926,48.828,0
150129.016,20.020,41.016,40.527,26.367,8.301,0
150129.020,25.879,35.156,36.621,30.762,24.414,0
150129.024,48.828,39.062,34.668,38.086,56.152,0
150129.028,40.039,38.086,35.156,35.645,40.039,0
150129.032,19.043,36.621,35.156,31.250,-25.391,0
150129.035,27.344,35.156,40.039,30.762,-26.855,0
150129.039,42.969,36.133,42.480,31.250,56.152,0
150129.043,40.039,41.016,37.109,29.297,72.266,0
150129.047,32.715,35.645,24.902,21.973,24.902,0
150129.051,41.992,37.109,15.137,30.762,30.762,0
150129.051,46.875,34.180,27.344,37.109,46.387,0
150129.055,41.016,27.832,38.086,28.809,45.410,0
150129.059,34.668,35.156,42.969,26.855,6.836,0
150129.063,31.738,37.109,38.086,23.438,-33.203,0
150129.067,50.293,56.152,40.039,30.762,36.621,0
150129.071,61.035,56.152,49.316,41.016,76.660,0
150129.075,30.273,32.227,45.898,22.461,0.000,0
150129.079,8.301,31.738,39.551,12.695,-47.852,0
150129.082,21.973,44.922,38.086,25.879,14.160,0
150129.086,34.668,41.016,33.203,31.250,89.844,0
150129.090,32.227,35.645,25.391,35.156,47.363,0
150129.094,36.133,37.598,35.156,35.645,0.488,0
150129.096,38.574,25.879,38.086,28.320,42.969,0
150129.100,43.945,27.832,39.551,38.574,104.004,0
150129.104,47.852,37.109,49.316,47.363,82.520,0
150129.108,38.574,32.715,46.387,44.922,26.855,0
150129.112,40.039,43.457,36.621,46.875,31.738,0
150129.116,48.828,40.039,33.203,55.176,89.844,0
150129.120,51.270,35.156,22.461,53.711,67.383,0
150129.123,44.922,47.363,20.996,39.551,-13.184,0
150129.127,35.156,40.527,40.039,37.598,-34.668,0
150129.131,36.133,33.203,54.688,43.457,-20.508,0
150129.135,49.805,37.598,57.129,50.781,50.293,0
150129.139,46.875,28.809,44.434,41.992,41.504,0
150129.156,27.832,29.785,38.086,34.668,-27.832,0
150129.160,38.086,28.320,43.945,47.852,-30.273,0
150129.164,50.293,33.203,44.922,57.129,16.113,0
150129.168,39.062,36.133,39.062,37.598,35.645,0
150129.172,30.762,30.762,44.922,25.391,-3.418,0
150129.176,36.133,41.504,41.016,35.645,-30.273,0
150129.180,39.551,38.574,37.598,39.062,30.273,0
150129.183,42.480,32.715,50.293,39.062,91.309,0
150129.187,39.551,41.992,48.828,40.527,23.438,0
150129.191,18.066,35.645,28.320,30.762,-40.527,0
150129.195,30.762,30.273,28.320,32.227,15.625,0
150129.199,51.758,35.156,43.945,44.922,92.285,0
150129.202,29.297,36.133,40.039,34.180,52.734,0
150129.206,14.160,31.250,36.621,32.715,3.906,0
150129.209,23.438,26.855,45.898,42.969,44.434,0
150129.213,29.297,35.645,53.711,41.992,125.977,0
150129.217,25.391,38.574,53.711,31.738,108.398,0
150129.221,26.855,38.574,46.875,25.391,6.836,0
150129.225,34.668,35.645,31.250,36.133,17.578,0
150129.229,41.016,36.133,22.461,49.316,86.426,0
150129.233,46.387,36.621,26.367,45.898,43.945,0
150129.237,38.086,30.273,39.062,29.297,-9.277,0
150129.241,21.973,22.461,42.969,17.090,13.184,0
150129.245,24.414,19.043,42.969,21.973,108.887,0
150129.247,30.273,27.344,48.828,25.391,136.230,0
150129.251,34.180,35.156,44.434,24.902,40.527,0
150129.255,26.855,18.555,37.598,26.855,34.180,0
150129.259,42.480,26.855,45.410,43.457,65.430,0
150129.263,55.664,47.852,32.715,47.363,65.918,0
150129.266,41.504,31.738,22.949,35.156,20.508,0
150129.270,43.457,21.973,46.387,44.922,-13.184,0
150129.274,49.316,30.273,52.734,58.105,27.832,0
150129.278,41.504,31.250,30.273,48.828,60.547,0
150129.282,33.691,36.621,26.367,39.062,41.992,0
150129.286,16.113,37.598,36.133,32.227,4.883,0
150129.290,15.137,18.066,41.992,33.203,-12.695,0
150129.294,35.156,13.672,41.992,47.363,30.273,0
150129.298,29.785,21.973,36.133,41.504,58.105,0
150129.302,19.043,29.297,36.133,29.785,8.789,0
150129.306,28.809,38.086,35.156,39.062,-2.441,0
150129.310,41.016,32.227,33.691,50.293,54.688,0
150129.313,47.363,26.855,30.273,49.316,94.727,0
150129.317,51.270,21.484,31.738,42.969,19.043,0
150129.321,44.434,40.527,43.457,40.039,-48.340,0
150129.325,39.062,53.223,42.480,41.016,12.207,0
150129.329,43.457,38.574,31.738,40.039,98.145,0
150129.333,38.574,27.832,25.879,32.227,64.453,0
150129.337,25.391,22.949,31.250,24.902,-37.598,0
150129.337,26.855,27.832,41.992,32.227,-44.434,0
150129.341,48.340,31.250,48.340,47.363,19.043,0
150129.345,49.805,16.602,43.945,44.922,28.809,0
150129.349,39.062,26.855,37.109,34.668,-18.555,0
150129.353,41.504,42.969,32.227,35.156,-19.531,0
150129.357,49.316,36.133,26.367,45.898,29.785,0
150129.361,53.711,35.156,32.715,49.805,35.156,0
150129.364,49.805,33.203,43.945,40.527,-9.766,0
150129.368,42.480,31.250,38.574,30.762,-37.598,0
150129.372,44.922,28.809,37.109,38.574,36.621,0
150129.376,45.898,35.645,43.945,45.410,97.656,0
150129.380,45.898,42.969,51.270,39.062,58.594,0
150129.381,33.203,40.527,42.969,32.715,-4.395,0
150129.385,34.668,37.598,25.879,39.551,22.461,0
150129.389,41.016,26.367,28.320,38.574,78.125,0
150129.393,34.668,25.391,25.391,27.832,50.781,0
150129.397,41.016,42.480,33.691,35.156,-2.930,0
150129.401,35.645,43.457,42.969,30.762,24.414,0
150129.405,22.461,25.391,35.156,16.602,93.750,0
150129.409,25.879,26.855,41.504,12.207,44.922,0
150129.413,28.320,36.621,45.410,16.602,-37.598,0
150129.417,27.832,36.621,28.320,31.738,-28.809,0
150129.420,34.180,38.574,23.926,37.598,69.824,0
150129.424,27.832,36.133,29.785,27.344,93.750,0
150129.426,14.160,32.227,32.715,14.648,19.531,0
150129.430,17.090,32.227,39.551,14.648,-7.324,0
150129.434,19.043,27.344,37.598,21.973,35.156,0
150129.438,25.879,26.855,38.086,28.809,89.844,0
150129.442,28.320,30.762,40.527,25.879,55.176,0
150129.446,21.484,16.602,42.480,26.855,-18.555,0
150129.450,26.367,15.137,33.691,32.715,0.977,0
150129.453,32.715,38.574,25.391,33.691,41.992,0
150129.457,29.297,43.457,31.738,25.879,29.297,0
150129.461,25.391,39.551,33.203,16.113,-46.387,0
150129.465,33.203,31.250,28.320,31.738,-43.457,0
150129.469,41.504,30.762,41.992,49.805,72.266,0
150129.471,39.062,32.715,45.410,31.738,74.219,0
150129.475,29.785,25.391,38.574,14.648,5.859,0
150129.479,28.320,33.691,46.875,26.367,-7.812,0
150129.483,30.762,35.645,42.480,37.109,37.109,0
150129.487,28.809,20.508,34.668,24.414,94.238,0
150129.491,19.043,6.836,25.879,6.836,44.434,0
150129.495,20.508,21.484,23.438,11.719,0.977,0
150129.498,37.109,40.527,38.086,29.297,89.355,0
150129.502,39.062,36.621,39.062,36.621,146.484,0
150129.506,35.156,19.531,29.297,32.227,83.984,0
150129.510,37.109,31.738,39.551,30.762,16.602,0
150129.514,37.598,43.457,42.969,35.156,30.273,0
150129.517,34.668,32.715,31.250,32.715,119.141,0
150129.521,34.668,29.785,31.250,23.438,91.797,0
150129.525,31.738,32.227,32.715,14.648,-17.578,0
150129.529,32.227,32.227,28.320,19.531,8.301,0
150129.533,35.645,17.090,32.227,28.320,89.844,0
150129.537,35.645,21.973,33.691,33.203,62.012,0
150129.541,30.273,40.039,29.297,25.391,-39.551,0
150129.545,31.250,46.387,36.621,28.320,-54.688,0
150129.549,44.434,44.434,42.969,42.480,17.578,0
150129.553,44.922,34.668,37.598,39.062,59.570,0
150129.556,34.668,26.367,40.039,28.809,49.316,0
150129.560,30.273,30.273,42.969,21.484,0.488,0
150129.576,35.156,36.621,37.598,30.762,40.039,0
150129.580,53.223,32.227,38.574,44.434,110.352,0
150129.584,52.734,35.156,39.551,33.691,54.199,0
150129.588,29.785,30.273,31.250,16.602,1.953,0
150129.592,23.438,24.414,30.762,21.973,16.602,0
150129.596,24.902,31.250,32.227,21.973,37.598,0
150129.600,25.391,34.668,21.484,14.648,40.039,0
150129.603,19.531,33.691,21.484,14.648,20.996,1
150129.607,19.043,38.086,37.598,25.391,-2.441,0
150129.611,38.086,34.180,42.480,35.156,59.082,0
150129.615,36.621,19.531,41.992,32.227,52.734,0
150129.619,23.438,28.320,43.945,31.250,7.324,0
150129.621,23.438,26.855,41.992,30.273,20.996,0
150129.625,37.598,34.180,42.480,37.598,54.688,0
150129.629,46.875,42.969,46.387,41.016,102.539,0
150129.633,39.062,17.578,40.527,28.809,83.008,0
150129.637,32.715,25.879,40.527,30.273,7.812,0
150129.641,34.180,41.016,49.805,42.969,18.066,0
150129.645,32.227,28.320,49.805,36.621,97.168,0
150129.648,15.137,27.344,39.062,13.672,59.570,0
150129.652,8.789,33.691,33.691,4.883,-24.902,0
150129.656,15.625,36.621,33.691,9.766,-24.902,0
150129.660,29.297,32.227,40.039,27.344,54.688,0
150129.664,37.598,32.715,38.086,31.250,67.871,0
150129.666,33.203,34.668,33.691,23.926,21.973,0
150129.670,32.715,41.992,38.574,32.715,14.160,0
150129.674,36.133,36.621,40.039,40.527,68.359,0
150129.678,51.270,29.297,42.969,38.574,93.262,0
150129.682,47.363,22.461,41.504,28.320,-8.301,0
150129.686,26.855,29.785,44.434,23.438,-71.777,0
150129.690,34.180,51.270,47.852,33.691,-20.020,0
150129.693,40.527,35.156,42.969,38.086,71.777,0
150129.697,36.133,29.297,37.109,34.668,32.227,0
150129.701,29.297,37.109,27.832,33.203,-48.340,0
150129.705,29.785,29.785,30.762,38.086,4.395,0
150129.709,36.133,25.879,39.062,40.527,68.359,0
150129.711,40.039,35.645,45.410,37.109,53.711,0
150129.715,40.039,47.363,45.410,35.156,6.348,0
150129.719,42.969,49.316,47.852,46.875,35.645,0
150129.723,49.805,39.062,50.781,59.570,113.770,0
150129.727,49.316,33.203,50.293,59.570,101.074,0
150129.731,35.645,36.621,43.457,40.039,47.852,0
150129.735,29.785,20.996,29.785,23.926,47.852,0
150129.738,44.434,20.020,24.414,33.691,55.664,0
150129.742,47.852,35.645,28.809,36.133,56.152,0
150129.746,42.480,37.598,28.809,34.668,49.805,0
150129.750,39.551,38.086,32.715,36.621,17.090,0
150129.754,42.480,34.668,48.340,47.852,29.785,0
150129.757,52.246,35.156,51.758,56.641,73.242,0
150129.761,51.270,35.645,44.922,52.734,66.406,0
150129.765,41.504,30.762,43.457,52.734,21.484,0
150129.769,47.363,25.391,41.992,52.246,21.484,0
150129.773,61.035,24.414,28.809,55.664,82.520,0
150129.777,62.988,29.297,27.832,58.594,96.680,0
150129.781,60.547,34.180,40.039,48.340,30.273,0
150129.785,55.664,49.805,38.086,42.480,-18.555,0
150129.789,49.805,40.527,33.203,41.992,37.109,0
150129.793,46.875,24.902,40.039,37.109,56.152,0
150129.797,40.039,29.785,43.945,28.809,-39.551,0
150129.800,42.480,36.621,40.527,37.109,-43.457,0
150129.801,49.316,41.016,37.109,48.828,36.621,0
150129.805,56.641,35.156,36.133,51.758,70.312,0
150129.809,60.059,29.785,33.203,51.270,20.020,0
150129.813,54.199,34.668,31.738,55.176,-73.730,0
150129.817,60.059,31.738,35.645,62.988,-34.668,0
150129.821,68.359,30.273,35.645,58.594,62.012,0
150129.825,49.316,32.227,36.133,45.898,3.418,0
150129.829,29.785,24.902,30.762,41.504,-72.266,0
150129.833,33.203,14.160,31.738,41.504,-13.672,0
150129.836,46.875,21.484,37.598,44.434,53.711,0
150129.840,45.898,48.828,35.645,41.992,57.617,0
150129.844,29.297,46.875,32.227,31.738,-0.977,0
150129.847,33.691,39.551,32.227,37.598,9.766,0
150129.851,51.270,42.480,26.367,48.340,69.336,0
150129.855,51.758,36.133,22.949,46.387,80.566,0
150129.859,45.410,31.738,34.668,37.109,62.988,0
150129.862,39.551,27.344,43.457,27.344,41.992,0
150129.866,38.574,30.762,40.039,31.738,72.754,0
150129.870,44.922,25.391,29.297,33.203,87.402,0
150129.874,43.457,18.555,27.832,20.020,57.129,0
150129.878,38.086,25.391,36.621,22.949,14.648,0
150129.882,37.109,35.156,32.227,38.574,1.465,0
150129.886,41.016,40.039,22.461,39.062,98.633,0
150129.890,45.410,39.551,28.809,35.645,109.375,0
150129.907,46.387,43.945,42.969,40.527,33.691,0
150129.911,47.852,35.156,40.039,42.969,24.902,0
150129.915,51.758,25.391,36.133,44.922,99.609,0
150129.919,45.898,38.574,39.062,46.875,81.055,0
150129.923,37.598,43.457,40.527,43.457,-10.742,0
150129.927,33.691,30.273,47.363,38.086,-1.465,0
150129.930,34.668,26.367,45.898,31.250,43.945,0
150129.934,38.086,22.949,43.945,37.598,55.176,0
150129.938,36.621,6.348,43.945,36.621,0.488,0
150129.942,35.156,25.879,41.992,30.273,-87.402,0
150129.946,36.133,49.316,44.434,38.574,-58.594,0
150129.950,39.062,44.434,34.668,44.922,36.133,0
150129.952,30.762,41.016,33.203,35.156,8.301,0
150129.956,25.879,33.691,44.434,23.438,-30.762,0
150129.960,30.273,29.297,48.340,30.273,25.879,0
150129.964,37.109,35.645,43.945,43.945,83.984,0
150129.967,29.785,27.832,32.715,36.621,71.289,0
150129.971,25.391,24.414,39.551,32.227,16.113,0
150129.975,27.832,31.738,47.852,25.879,-16.602,0
150129.979,20.508,23.438,39.062,21.973,59.570,0
150129.983,22.949,23.438,41.016,29.785,66.895,0
150129.987,22.949,30.762,44.434,29.785,-62.012,0
150129.991,22.461,23.926,49.805,32.715,-46.875,0
150129.995,36.621,40.527,57.129,45.898,56.152,0
150129.996,40.527,48.828,44.922,46.387,62.012,0
150130.000,19.531,30.273,27.344,24.414,-8.301,0
150130.004,20.996,25.879,24.902,19.531,-32.227,0
150130.008,36.621,32.715,38.086,31.250,10.254,0
150130.012,33.203,33.203,44.434,35.156,75.195,0
150130.016,33.691,31.738,43.457,37.109,73.242,0
150130.020,32.227,31.738,35.645,32.715,2.930,0
150130.024,23.926,18.555,28.320,29.297,33.691,0
150130.027,43.457,24.902,35.156,45.898,101.562,0
150130.031,41.016,34.668,30.762,41.016,93.750,0
150130.035,15.137,43.457,25.391,19.043,35.156,0
150130.039,10.254,47.852,32.715,18.066,-3.418,0
150130.041,14.648,33.691,41.016,17.090,43.945,0
150130.045,28.809,41.016,37.109,24.414,87.402,0
150130.049,40.039,50.293,42.480,30.762,12.207,0
150130.053,30.273,41.016,41.992,19.043,-69.336,0
150130.057,32.227,18.066,34.668,21.484,-21.973,0
150130.061,43.945,12.207,40.039,26.367,35.156,0
150130.065,50.781,30.273,43.945,28.320,29.785,0
150130.069,40.527,34.668,49.805,31.250,-21.973,0
150130.073,18.066,31.250,37.109,19.531,-40.527,0
150130.076,19.043,31.738,29.785,15.137,74.707,0
150130.080,31.738,17.578,39.062,22.461,75.195,0
150130.084,28.320,19.531,37.109,22.949,-41.016,0
150130.086,24.414,38.574,28.320,26.855,-10.254,0
150130.090,38.086,36.621,29.297,37.598,81.543,0
150130.094,50.293,41.016,45.410,41.504,62.500,0
150130.098,47.852,46.387,54.199,36.133,-25.391,0
150130.102,27.344,35.645,44.434,34.668,-37.109,0
150130.106,30.273,22.461,32.715,39.062,25.879,0
150130.110,47.363,14.648,32.227,39.551,57.129,0
150130.114,41.992,21.973,35.645,22.949,-13.184,0
150130.117,32.715,41.504,38.574,14.648,-61.523,0
150130.121,36.621,49.805,33.691,25.879,45.410,0
150130.125,43.457,30.273,22.461,29.297,102.051,0
150130.129,48.340,20.020,23.926,26.855,16.602,0
150130.131,40.039,36.621,37.598,24.902,-7.324,0
150130.135,40.039,43.457,50.781,41.992,72.266,0
150130.139,53.711,52.734,59.082,51.270,94.238,0
150130.143,45.410,42.480,45.898,27.832,63.477,0
150130.147,32.715,31.738,34.180,20.996,-22.949,0
150130.151,29.785,31.250,40.039,29.297,-29.785,0
150130.155,34.180,27.344,43.457,36.621,40.039,0
150130.158,34.668,33.203,43.945,34.180,59.082,0
150130.162,31.250,41.504,42.969,27.832,16.602,0
150130.166,30.762,42.480,48.828,34.180,-26.367,0
150130.170,25.879,35.156,44.922,33.203,19.531,0
150130.174,28.320,31.738,36.133,28.320,75.684,0
150130.176,35.156,34.668,43.457,32.715,60.059,0
150130.180,30.762,27.832,41.504,30.762,27.344,0
150130.184,35.645,36.621,35.156,36.133,32.227,2
150130.188,39.062,45.410,39.062,42.480,65.918,0
150130.192,37.598,35.156,38.574,32.227,39.551,0
150130.196,25.879,41.504,41.016,24.414,-1.465,0
150130.199,21.484,42.969,41.504,22.949,20.020,0
150130.203,34.668,34.668,45.410,23.926,70.312,0
150130.207,39.062,32.715,46.875,18.555,71.777,0
150130.211,29.785,35.645,33.203,11.719,-3.906,0
150130.215,26.367,38.086,26.367,16.602,4.883,0
150130.219,33.203,35.645,35.156,24.414,62.012,0
150130.222,34.668,34.180,38.086,22.949,69.336,0
150130.226,34.668,37.598,41.504,23.438,33.691,0
150130.230,28.809,25.879,42.480,26.855,-38.086,0
150130.234,26.367,23.926,38.086,23.926,41.504,0
150130.238,32.227,44.922,45.898,22.461,134.277,0
150130.242,30.273,36.621,48.828,24.414,26.367,0
150130.246,28.320,20.996,45.410,25.391,-99.609,0
150130.250,34.180,32.715,38.086,26.367,-31.250,0
150130.254,40.039,35.156,34.668,21.973,87.891,0
150130.258,33.203,31.250,41.504,15.625,52.734,0
150130.261,29.785,34.668,36.133,27.344,-18.066,0
150130.265,37.598,29.297,26.855,31.250,28.809,0
150130.281,43.945,33.203,34.668,34.180,107.910,0
150130.285,46.387,39.551,48.340,35.156,87.891,0
150130.289,41.992,34.180,48.340,27.832,35.645,0
150130.293,37.109,29.297,43.945,32.227,7.324,0
150130.297,41.504,25.879,38.086,37.109,51.270,0
150130.301,41.504,29.785,35.645,30.762,71.777,0
150130.305,33.203,32.227,39.062,21.484,24.902,0
150130.308,31.738,40.527,40.039,27.344,9.277,0
150130.312,34.180,42.969,39.062,41.016,61.523,0
150130.316,50.781,34.668,44.922,46.387,111.328,0
150130.320,56.641,34.668,53.711,42.480,45.898,0
150130.324,39.062,29.785,43.945,28.320,7.324,0
150130.326,36.621,32.227,25.391,31.250,38.574,0
150130.330,39.062,32.227,19.043,28.809,45.898,0
150130.334,23.438,16.602,26.855,12.695,31.250,0
150130.338,11.719,18.066,40.039,13.184,-25.879,0
150130.342,25.879,47.852,46.875,25.879,-10.742,0
150130.346,41.016,50.293,43.457,37.109,47.852,0
150130.350,42.480,36.621,44.922,28.320,33.203,0
150130.354,30.273,35.645,44.434,23.438,-25.879,0
150130.357,30.762,37.109,38.574,37.598,-30.273,0
150130.361,41.016,40.039,38.086,47.852,-2.930,0
150130.365,48.828,38.086,33.691,47.852,34.668,0
150130.369,48.340,33.691,35.645,39.062,29.785,0
150130.372,45.898,36.133,47.363,41.016,-43.457,0
150130.375,53.711,44.922,47.363,45.898,8.301,0
150130.379,60.547,44.922,47.363,41.992,73.242,0
150130.383,47.852,33.691,48.340,33.203,33.203,0
150130.387,31.250,21.484,42.969,25.391,-10.254,0
150130.391,36.621,34.668,44.434,30.762,6.836,0
150130.395,37.109,47.852,40.039,29.297,80.078,0
150130.399,31.738,45.410,35.156,20.508,61.035,0
150130.403,28.320,45.410,38.086,15.137,-30.273,0
150130.407,28.809,44.922,39.062,24.414,-40.527,0
150130.411,41.016,41.992,43.457,41.504,34.668,0
150130.415,42.480,32.227,41.504,35.645,70.312,0
150130.417,34.180,39.062,41.504,24.414,24.414,0
150130.421,24.414,39.062,41.016,23.926,1.953,0
150130.425,25.391,29.785,37.598,32.715,36.133,0
150130.429,37.598,34.180,37.598,43.945,68.848,0
150130.433,39.551,21.973,45.898,44.922,26.367,0
150130.437,36.621,24.902,57.129,46.875,-26.855,0
150130.440,44.434,44.434,50.293,53.223,31.738,0
150130.444,41.504,43.457,41.016,52.246,79.590,0
150130.448,35.156,46.875,46.387,44.922,29.297,0
150130.452,33.691,41.504,33.691,44.922,-4.395,0
150130.456,38.086,37.109,27.832,49.805,52.734,0
150130.460,44.434,41.016,45.410,48.828,115.234,0
150130.462,42.480,34.668,48.340,41.992,83.984,0
150130.466,32.715,34.180,45.410,34.668,21.973,0
150130.470,26.855,31.250,47.852,37.109,12.695,0
150130.474,47.852,29.297,47.852,47.363,89.844,0
150130.478,58.105,24.414,46.387,48.828,103.516,0
150130.482,33.203,13.672,46.387,42.480,41.504,0
150130.486,24.414,41.992,48.828,41.504,6.348,0
150130.489,33.203,50.781,44.922,43.945,29.785,0
150130.493,44.922,41.504,41.992,48.340,79.590,0
150130.497,48.340,39.551,39.062,42.969,70.312,0
150130.501,31.738,25.879,32.715,32.715,31.250,0
150130.505,32.227,30.762,36.621,33.691,62.500,0
150130.508,48.340,45.898,44.434,36.621,131.348,0
150130.512,44.922,47.363,44.922,32.227,93.750,0
150130.516,31.738,40.527,43.945,30.762,-31.250,0
150130.520,39.062,42.480,47.852,41.016,-48.340,0
150130.524,54.199,26.367,41.016,52.734,38.574,0
150130.528,56.641,18.555,38.574,43.945,69.824,0
150130.531,45.898,49.805,48.340,28.320,41.504,0
150130.535,42.480,54.688,48.828,34.180,-25.391,0
150130.539,48.340,46.387,44.922,45.410,48.828,0
150130.543,52.734,48.340,45.410,48.828,139.648,0
150130.547,50.293,49.316,44.922,42.480,49.805,0
150130.551,53.223,48.828,43.457,41.016,-7.324,0
150130.551,54.199,38.086,40.527,44.922,54.199,0
150130.555,55.176,43.945,39.062,47.363,89.844,0
150130.559,57.617,50.293,54.199,45.410,23.438,0
150130.563,39.062,34.668,58.105,35.645,-53.711,0
150130.567,39.551,34.180,41.504,31.250,-1.953,0
150130.571,51.758,32.715,34.180,26.855,71.777,0
150130.575,38.574,19.531,41.016,19.531,35.156,0
150130.579,24.414,38.086,44.434,20.020,-54.199,0
150130.582,24.902,53.711,39.551,25.391,-57.129,0
150130.586,41.016,47.363,36.133,36.621,45.410,0
150130.590,52.246,36.133,39.551,39.062,41.504,0
150130.594,42.480,32.715,42.969,34.180,-30.273,0
150130.611,36.133,35.645,44.434,33.203,-22.949,0
150130.615,48.340,41.016,48.828,40.527,40.039,0
150130.619,57.129,39.551,51.270,45.898,67.383,0
150130.623,46.387,36.621,44.922,34.668,40.527,0
150130.627,34.668,45.898,41.992,26.367,34.180,0
150130.631,40.039,47.852,37.598,27.344,52.246,0
150130.635,49.316,39.551,33.691,29.785,60.547,0
150130.639,46.387,41.016,34.668,26.855,30.762,0
150130.642,28.320,51.758,38.574,20.996,-9.766,0
150130.646,30.762,50.293,38.574,28.809,19.043,0
150130.650,46.875,41.504,35.645,36.621,77.148,0
150130.654,44.434,42.969,42.480,34.180,101.562,0
150130.656,38.086,48.828,45.410,30.273,68.359,0
150130.660,34.668,46.875,36.133,32.227,35.645,0
150130.664,37.109,46.387,35.645,36.621,70.312,0
150130.668,40.039,39.551,46.387,28.809,98.145,0
150130.672,43.945,39.551,43.945,20.996,67.383,0
150130.676,36.621,44.434,37.598,30.762,22.461,0
150130.680,40.039,43.457,42.480,41.016,34.668,0
150130.684,51.270,36.621,46.387,36.621,62.012,0
150130.687,40.039,37.598,45.410,30.762,27.344,0
150130.691,24.902,48.340,44.922,27.344,-16.113,0
150130.695,26.855,52.246,41.016,24.902,13.184,0
150130.699,36.621,46.875,41.504,27.344,75.684,0
150130.701,32.715,45.410,42.480,22.461,29.297,0
150130.705,20.996,41.504,42.480,18.066,-24.414,0
150130.709,20.996,36.133,33.691,30.273,0.977,0
150130.713,29.297,32.715,30.273,35.156,55.176,0
150130.717,35.645,32.715,37.598,31.738,35.156,0
150130.721,35.645,46.875,44.434,33.691,-27.832,0
150130.725,37.598,40.039,46.875,35.645,-18.066,0
150130.728,41.992,42.480,36.621,41.016,89.844,0
150130.732,43.457,56.641,38.086,48.828,80.566,0
150130.736,36.133,53.711,44.434,35.156,-15.137,0
150130.740,30.762,43.457,46.875,25.391,-8.789,0
150130.744,31.738,29.297,40.527,27.832,31.738,0
150130.747,26.367,26.367,38.574,24.414,57.129,0
150130.751,20.996,31.250,44.434,22.949,0.977,0
150130.755,14.160,30.762,41.504,16.113,-38.574,0
150130.759,22.461,27.832,33.203,21.484,18.555,2
150130.762,33.203,30.762,26.367,29.297,61.035,0
150130.766,35.156,28.809,30.762,23.438,40.527,0
150130.770,35.156,33.691,44.434,19.531,-20.020,0
150130.774,32.715,38.086,47.852,25.879,25.391,0
150130.778,44.922,40.527,39.551,29.785,93.750,0
150130.782,48.340,52.734,36.621,24.902,66.406,0
150130.786,26.855,50.293,40.039,21.973,36.621,0
150130.790,25.391,40.039,39.551,24.902,24.902,0
150130.791,39.062,35.645,38.574,36.621,62.988,0
150130.795,32.227,41.016,37.598,32.227,87.891,0
150130.799,14.160,39.062,34.180,11.719,20.996,0
150130.803,10.254,37.109,35.156,13.184,-27.832,0
150130.807,26.855,35.156,41.992,30.762,-7.812,0
150130.811,43.945,35.156,44.922,37.109,33.203,0
150130.815,44.922,40.527,43.457,36.133,6.836,0
150130.819,45.898,41.504,40.527,35.645,-24.902,0
150130.822,55.176,28.809,33.203,37.598,0.977,0
150130.826,53.223,29.297,26.855,39.551,87.891,0
150130.830,48.340,55.176,28.320,37.598,99.121,0
150130.834,39.062,48.340,36.621,30.762,15.625,0
150130.836,30.762,38.086,40.039,31.250,28.809,0
150130.840,36.621,41.992,39.551,35.156,92.285,0
150130.844,37.109,35.156,42.969,33.203,97.656,0
150130.848,23.926,29.297,43.457,30.762,29.297,0
150130.852,16.602,23.926,38.574,24.902,0.977,0
150130.856,30.273,26.367,41.016,27.344,58.594,0
150130.860,44.434,40.039,53.711,37.109,83.984,0
150130.863,38.086,46.875,34.180,34.180,20.508,0
150130.867,36.133,36.133,13.672,24.414,-50.781,0
150130.871,41.016,29.297,28.809,22.949,40.039,0
150130.875,30.273,39.551,36.133,21.484,133.789,0
150130.879,24.414,42.480,36.621,19.043,66.895,0
150130.881,27.832,36.621,41.992,31.738,20.020,0
150130.885,30.762,36.133,48.340,39.551,67.383,0
150130.889,36.133,34.668,46.875,37.598,126.465,0
150130.893,41.504,32.227,45.898,36.621,111.328,0
150130.897,30.273,32.715,42.480,27.832,7.812,0
150130.901,26.855,35.156,36.621,29.297,-2.930,0
150130.905,36.133,36.133,23.438,30.273,71.289,0
150130.909,42.480,34.668,22.461,24.414,57.129,0
150130.912,39.551,38.574,33.203,21.973,9.766,0
150130.916,35.156,36.621,38.574,34.668,-20.996,0
150130.920,44.434,29.297,40.527,49.316,10.254,0
150130.924,50.293,30.762,41.504,42.480,62.500,0
150130.926,41.504,27.832,43.457,35.645,53.711,0
150130.930,44.922,27.832,43.457,47.363,9.277,0
150130.934,56.641,47.852,35.156,55.176,33.203,0
150130.938,53.223,43.945,27.344,39.551,111.816,0
150130.942,39.551,39.551,31.250,24.414,84.473,0
150130.946,24.902,36.621,27.832,17.090,-8.789,0
150130.950,26.367,22.949,24.414,19.531,-16.113,0
150130.954,38.086,21.973,24.902,27.832,32.715,0
150130.958,37.598,21.973,25.879,24.414,40.039,0
150130.962,28.809,15.625,32.715,19.043,-0.488,0
150130.965,21.973,34.668,36.133,26.367,-4.883,0
150130.969,34.668,51.758,35.645,39.551,62.012,0
150130.973,42.480,47.852,39.551,41.504,124.512,0
150130.977,32.715,15.625,38.086,28.320,58.105,0
150130.981,30.273,9.277,33.203,27.832,0.977,0
150130.984,28.809,36.133,30.762,32.715,65.430,0
150130.988,34.668,38.086,30.762,40.527,118.652,0
150130.992,35.645,38.086,34.668,44.434,53.223,0
150130.996,21.484,28.320,41.504,29.297,-24.902,0
150131.000,23.926,18.066,38.086,29.785,7.812,0
150131.004,38.574,24.414,40.039,44.922,79.590,0
150131.008,45.898,26.367,46.875,41.504,61.035,0
150131.012,39.062,29.297,44.434,39.551,9.277,0
150131.016,39.062,33.691,38.574,53.223,6.836,0
150131.017,50.781,26.367,39.551,49.316,76.660,0
150131.021,41.016,28.320,35.645,21.484,106.445,0
150131.025,25.879,37.109,29.785,12.695,23.438,0
150131.029,31.250,24.414,35.156,26.855,-9.766,0
150131.033,46.387,26.367,40.527,44.434,39.551,0
150131.037,54.688,41.504,43.945,44.922,41.992,0
150131.040,53.223,44.434,43.457,35.645,-26.367,0
150131.044,43.945,33.691,37.109,31.250,-16.113,0
150131.048,39.551,27.344,31.250,31.250,59.570,0
150131.052,43.457,37.598,35.156,43.457,76.172,0
150131.056,52.246,44.434,46.387,59.082,10.742,0
150131.060,47.852,41.016,45.410,54.688,-27.832,0
150131.077,34.180,33.203,29.785,34.668,19.043,0
150131.081,32.227,25.879,25.879,26.855,67.383,0
150131.085,34.668,29.297,37.109,28.320,54.199,0
150131.089,31.738,29.297,42.969,27.832,-2.930,0
150131.092,31.738,19.043,42.480,28.320,-15.625,0
150131.096,37.598,31.250,39.062,36.133,50.781,0
150131.100,33.203,45.898,35.645,27.832,53.711,0
150131.104,27.344,42.480,40.039,16.602,-1.953,0
150131.108,24.414,41.016,42.480,24.414,-9.766,0
150131.112,32.227,49.805,43.457,36.133,39.551,0
150131.116,42.480,44.434,41.992,38.574,87.891,0
150131.120,40.527,46.875,27.344,39.551,48.828,0
150131.122,33.203,54.688,30.762,35.645,-14.160,0
150131.126,31.250,36.133,53.223,28.809,26.855,0
150131.130,42.969,37.598,57.129,29.785,108.398,0
150131.134,36.133,44.434,48.828,24.902,79.590,0
150131.138,25.391,39.062,50.293,21.484,-1.953,0
150131.142,35.156,45.898,48.828,27.832,4.395,0
150131.146,43.457,41.016,38.574,33.691,73.730,0
150131.150,39.551,38.086,33.203,33.691,80.566,0
150131.154,33.691,32.715,35.645,32.227,2.930,0
150131.157,37.109,32.715,38.086,40.039,-20.996,0
150131.161,52.734,50.293,42.969,56.152,59.570,0
150131.165,51.758,50.293,44.922,45.410,80.078,0
150131.182,42.969,43.945,46.387,30.762,17.090,0
150131.186,42.480,40.039,50.293,37.598,-21.484,0
150131.189,32.227,18.066,44.922,43.457,37.109,0
150131.193,30.762,25.391,38.086,36.621,80.078,0
150131.197,28.809,42.480,35.156,31.250,22.949,0
150131.201,25.879,38.086,45.898,37.109,-43.945,0
150131.205,41.016,37.598,50.781,45.410,11.230,0
150131.209,48.828,48.828,36.133,50.781,107.422,0
150131.213,40.527,47.363,34.180,41.504,27.344,0
150131.217,33.203,37.598,41.016,25.391,-42.969,0
150131.221,31.250,37.109,37.109,25.391,15.137,0
150131.225,34.668,34.180,35.156,40.039,63.477,0
150131.212,40.039,35.156,41.016,41.504,54.688,0
150131.216,35.645,39.062,47.363,33.691,-0.977,0
150131.220,30.273,37.598,43.457,34.180,0.977,0
150131.224,35.156,32.715,36.133,40.039,72.266,0
150131.228,46.387,16.602,42.480,39.062,83.984,0
150131.232,40.039,25.391,39.062,33.203,32.227,0
150131.236,31.738,46.875,34.180,35.156,-13.184,0
150131.240,45.898,48.828,37.598,41.992,30.762,0
150131.244,49.805,45.898,38.574,42.969,107.910,0
150131.248,40.527,41.016,41.016,32.715,82.520,0
150131.252,46.387,38.574,50.781,35.645,29.297,0
150131.255,54.688,43.945,46.387,51.758,20.020,0
150131.256,49.805,42.480,34.668,49.316,66.406,0
150131.260,41.504,33.691,40.039,37.109,74.707,0
150131.264,41.504,27.832,42.480,30.273,1.953,0
150131.268,48.340,34.668,35.645,35.156,-1.465,0
150131.272,49.805,50.781,30.762,41.504,77.637,0
150131.276,44.434,38.574,28.320,33.691,87.402,0
150131.280,36.133,22.949,33.203,26.367,23.438,0
150131.284,28.320,31.738,38.574,25.391,-36.621,0
150131.287,36.133,39.551,38.086,32.227,6.836,0
150131.291,39.062,39.551,35.156,36.133,63.965,0
150131.295,34.180,37.598,34.668,32.715,0.977,0
150131.299,31.250,40.527,33.691,30.762,-62.988,0
150131.301,41.992,39.551,40.527,40.527,-1.953,0
150131.305,55.664,36.133,42.480,43.945,50.781,0
150131.309,42.480,38.574,28.320,27.832,-5.859,0
150131.313,20.508,37.598,34.668,19.531,-33.203,0
150131.317,24.414,41.992,44.434,30.762,0.488,0
150131.321,37.598,40.527,43.945,41.016,54.688,0
150131.325,40.527,28.320,47.363,35.156,35.645,0
150131.329,38.574,29.297,47.363,34.668,-59.570,0
150131.332,31.250,39.551,44.922,32.227,-58.105,0
150131.336,32.227,46.875,41.992,33.691,65.918,0
150131.340,36.133,42.969,40.527,37.109,86.426,0
150131.344,29.785,20.508,42.480,34.668,8.789,0
150131.346,31.738,20.996,43.945,38.574,3.418,0
150131.350,39.551,38.574,33.203,48.340,53.711,0
150131.354,41.504,33.203,26.855,46.387,94.238,0
150131.358,30.273,32.227,40.527,36.133,64.453,0
150131.362,17.578,37.598,56.641,35.645,6.836,0
150131.366,32.227,40.039,52.246,36.133,14.648,0
150131.370,40.039,27.344,41.992,27.344,31.738,0
150131.373,25.879,22.461,41.504,19.531,7.812,0
150131.377,15.137,35.645,32.227,16.113,-24.414,0
150131.381,24.902,37.598,17.090,24.902,6.836,0
150131.385,36.133,23.926,17.090,34.180,73.730,0
150131.389,35.645,25.391,31.738,33.203,108.887,0
150131.406,27.344,46.875,35.645,26.367,54.688,0
150131.410,24.414,42.969,33.691,25.391,10.742,2
150131.414,35.645,35.156,38.574,36.621,67.871,0
150131.418,40.527,28.320,41.504,42.480,86.426,0
150131.422,36.133,19.531,41.992,40.039,40.039,0
150131.426,37.109,31.250,39.062,37.598,-6.836,0
150131.430,40.039,45.410,31.738,36.133,57.617,0
150131.433,49.805,49.316,31.738,36.133,113.281,0
150131.437,40.527,35.156,35.645,31.738,48.340,0
150131.441,16.602,29.297,34.180,20.508,-11.719,0
150131.445,20.020,39.062,32.715,16.113,27.832,0
150131.449,34.180,33.691,31.738,24.902,75.195,0
150131.451,37.109,29.297,33.203,34.180,33.203,0
150131.455,26.367,37.598,36.133,28.320,-21.484,0
150131.459,24.902,39.551,38.574,26.855,-10.742,0
150131.463,43.945,37.109,42.969,45.410,53.223,0
150131.467,42.969,40.039,46.387,42.480,53.223,0
150131.471,20.996,40.039,45.410,23.438,7.812,0
150131.475,18.555,35.156,43.457,22.461,9.277,0
150131.478,20.508,29.297,37.109,27.832,63.477,0
150131.482,19.043,33.691,36.133,27.344,96.191,0
150131.486,22.949,35.156,33.691,25.391,10.254,0
150131.490,21.973,35.156,35.645,27.344,-49.805,0
150131.494,29.785,33.691,47.852,36.621,28.809,0
150131.496,39.062,29.785,47.852,41.016,71.777,0
150131.500,36.133,34.180,44.922,37.109,38.086,0
150131.504,33.203,25.879,44.922,35.645,0.000,0
150131.508,34.180,26.367,27.344,33.691,32.715,0
150131.512,44.434,35.645,31.250,34.668,80.078,0
150131.516,42.969,28.320,49.316,25.391,53.223,0
150131.520,30.273,32.715,42.969,20.996,-2.930,0
150131.523,33.203,35.156,36.133,34.668,9.277,0
150131.527,42.969,39.062,32.227,38.574,74.707,0
150131.531,38.574,46.875,33.691,31.250,74.219,0
150131.535,27.344,41.992,32.715,24.414,28.320,0
150131.539,28.320,32.715,30.762,19.531,20.508,0
150131.541,37.109,32.715,31.250,30.273,93.750,0
150131.545,42.969,31.738,33.203,34.180,116.211,0
150131.549,35.156,36.133,31.250,22.949,39.062,0
150131.553,31.250,37.109,26.855,24.414,-6.348,0
150131.557,40.527,28.320,30.762,27.344,28.320,0
150131.561,44.922,24.902,35.645,32.715,67.383,0
150131.565,40.039,39.551,35.156,35.645,71.777,0
150131.569,32.715,50.293,37.109,32.715,32.715,0
150131.572,35.156,43.945,32.227,30.762,25.879,0
150131.576,40.039,28.809,19.531,24.414,86.426,0
150131.580,31.250,26.367,23.926,15.625,97.168,0
150131.584,22.461,32.715,37.598,18.066,-13.672,0
150131.587,28.809,37.109,38.574,24.902,-48.340,0
150131.591,41.504,39.551,29.297,24.902,54.688,0
150131.594,34.668,32.715,27.344,18.555,83.008,0
150131.598,25.879,23.926,31.738,13.672,9.766,0
150131.602,28.809,25.879,29.785,20.996,-14.160,0
150131.606,35.156,34.180,30.273,23.438,32.715,0
150131.610,41.016,39.062,38.086,22.949,41.992,0
150131.614,31.738,20.996,46.387,19.043,-13.672,0
150131.618,26.367,10.742,44.434,14.648,-91.797,0
150131.622,22.949,32.227,35.156,21.973,-31.250,0
150131.626,23.438,42.969,32.227,32.227,96.680,0
150131.630,23.926,48.340,42.480,32.227,19.043,0
150131.632,16.602,35.645,48.340,23.438,-60.547,0
150131.636,15.137,18.066,37.598,18.555,15.625,0
150131.639,20.996,23.438,35.156,33.203,113.770,0
150131.643,34.668,37.598,41.016,40.039,75.195,0
150131.647,39.551,40.039,29.297,25.879,-15.137,0
150131.651,42.480,37.598,31.250,29.785,-4.883,0
150131.655,48.828,38.574,49.316,44.922,38.574,0
150131.659,38.086,23.438,42.480,33.203,34.668,0
150131.663,28.809,10.742,41.992,22.461,0.000,0
150131.667,29.785,29.297,49.805,27.832,-36.133,0
150131.671,38.086,39.551,45.898,41.016,17.090,0
150131.675,47.852,42.969,49.316,46.387,80.078,0
150131.677,42.969,43.457,46.387,35.645,32.227,0
150131.681,31.738,40.039,34.668,35.645,-11.230,0
150131.685,40.527,44.434,33.691,44.434,27.344,0
150131.689,54.199,44.434,32.227,44.434,72.266,0
150131.692,41.504,34.668,30.762,31.250,43.945,0
150131.696,36.133,36.621,42.969,26.367,-5.859,0
150131.700,41.016,37.109,52.246,36.133,-18.066,0
150131.704,38.574,27.344,45.898,42.969,41.504,0
150131.708,43.457,34.668,37.598,39.062,93.262,0
150131.712,44.434,35.645,36.621,31.250,38.574,0
150131.716,35.156,32.715,36.621,30.762,-45.410,0
150131.720,33.203,38.086,30.273,40.039,5.371,0
150131.724,39.551,42.480,36.621,45.410,76.660,0
150131.728,33.203,48.828,51.270,34.180,41.992,0
150131.732,28.809,46.875,48.828,28.809,-11.719,0
150131.736,38.086,35.156,43.945,43.457,50.293,0
150131.740,47.363,25.879,46.387,54.199,104.492,0
150131.744,51.270,38.086,55.664,48.340,65.918,0
150131.748,47.852,45.898,57.617,42.480,-25.391,0
150131.751,35.156,42.969,42.969,35.645,-40.527,0
150131.755,32.227,38.086,32.227,33.691,88.867,0
150131.759,35.156,23.926,37.109,29.297,79.102,0
150131.763,27.344,31.250,45.410,25.391,-23.438,0
150131.767,28.809,42.480,47.363,30.273,-28.320,0
150131.782,34.180,39.062,42.969,31.738,60.547,0
150131.786,37.109,33.203,35.156,31.738,47.852,0
150131.790,44.922,38.574,44.434,41.504,-56.641,0
150131.794,38.574,42.480,51.270,41.504,-69.336,0
150131.798,32.715,36.621,46.387,38.086,24.414,0
150131.802,43.945,31.250,43.457,33.691,59.082,0
150131.806,45.410,33.203,47.852,24.414,12.207,0
150131.810,42.969,46.387,55.176,30.273,-11.230,0
150131.814,41.016,55.664,44.434,41.016,20.020,0
150131.817,44.434,44.922,35.645,49.805,15.625,0
150131.821,43.457,21.484,37.109,41.504,-0.977,0
150131.825,18.066,15.137,33.691,19.531,11.230,0
150131.827,17.578,27.344,41.016,22.461,20.508,0
150131.831,35.156,41.504,48.828,35.156,80.078,0
150131.835,31.250,46.875,36.621,31.250,83.984,0
150131.839,28.809,43.457,37.109,24.414,7.324,0
150131.843,29.785,37.109,47.363,24.902,-6.836,0
150131.847,45.898,35.156,52.246,39.062,23.438,0
150131.851,53.711,39.551,44.434,38.574,46.875,0
150131.855,42.480,40.039,38.574,29.297,12.207,0
150131.858,49.805,36.133,48.340,41.504,-40.039,0
150131.862,55.664,30.762,48.340,60.059,-12.695,0
150131.866,54.199,48.340,41.504,55.664,65.430,0
150131.870,44.434,55.664,45.410,37.109,40.527,0
150131.871,28.320,39.062,45.410,29.297,-26.855,0
150131.875,30.762,32.715,41.016,32.715,7.812,0
150131.879,36.621,22.949,38.086,31.738,81.543,0
150131.883,32.715,18.066,37.598,24.902,52.246,0
150131.887,31.738,21.484,41.992,20.508,-24.902,0
150131.891,44.434,36.621,34.668,37.109,-10.254,0
150131.895,51.270,40.039,27.832,50.293,46.875,0
150131.899,44.434,45.410,38.086,38.574,44.922,0
150131.903,39.062,60.547,48.828,30.762,-24.414,0
150131.907,35.645,49.805,54.199,28.809,-33.203,0
150131.910,39.062,23.438,51.758,38.574,29.785,0
150131.914,58.594,25.879,49.316,53.711,76.172,0
150131.916,41.992,36.133,34.668,32.715,7.812,0
150131.920,21.973,39.062,23.438,17.090,-32.227,0
150131.924,36.621,48.828,37.109,39.062,56.152,0
150131.928,43.945,51.270,47.363,44.434,64.941,0
150131.932,34.180,45.898,43.945,28.320,7.324,0
150131.936,26.855,42.969,47.363,26.855,-21.484,0
150131.940,30.273,37.109,41.992,33.203,17.090,0
150131.943,37.598,35.645,32.715,37.109,33.203,0
150131.947,41.504,30.762,36.133,30.762,-14.648,0
150131.951,38.574,26.855,37.109,23.926,-26.367,0
150131.955,41.016,36.133,36.621,26.367,-1.465,0
150131.959,53.223,31.738,38.086,34.668,62.012,0
150131.963,57.129,23.438,38.086,34.668,94.727,0
150131.967,48.340,38.086,39.062,33.691,40.527,0
150131.970,47.852,49.805,44.922,48.828,19.043,0
150131.974,50.781,44.922,48.828,54.199,62.012,0
150131.978,43.945,32.227,40.039,42.480,99.609,0
150131.982,29.785,31.250,33.203,32.715,70.312,0
150131.986,22.461,29.297,37.598,35.645,13.184,0
150131.990,30.762,25.879,33.691,41.992,24.414,0
150131.994,33.691,29.785,20.020,33.691,80.566,0
150131.998,31.738,35.645,30.273,29.297,101.562,0
150132.002,27.344,37.598,49.316,34.180,45.898,0
150132.006,31.738,31.738,50.781,28.809,22.461,0
150132.006,40.039,24.902,44.434,29.785,95.215,0
150132.010,33.203,26.367,40.527,34.668,104.980,0
150132.014,25.391,30.762,43.945,28.320,19.531,0
150132.018,30.273,35.645,44.922,27.832,34.668,0
150132.022,42.480,39.551,39.551,34.180,93.750,0
150132.026,49.805,43.457,38.574,37.109,80.566,0
150132.030,47.363,42.969,37.109,40.039,16.113,0
150132.034,48.828,25.391,25.879,39.551,-39.551,0
150132.037,58.105,26.367,22.949,42.969,20.508,0
150132.041,65.430,43.457,36.133,50.293,73.730,0
150132.045,54.199,44.434,48.340,41.016,13.672,0
150132.049,35.645,34.180,48.340,27.344,-44.434,0
150132.051,41.504,34.668,42.480,31.738,25.391,0
150132.055,51.758,35.156,46.387,36.621,75.684,0
150132.059,42.969,36.621,51.758,35.156,-1.465,0
150132.063,33.203,37.109,40.039,36.133,-67.871,0
150132.067,35.645,39.062,25.879,40.527,-27.344,0
150132.071,52.246,39.062,35.156,49.316,74.219,0
150132.075,52.246,34.180,32.715,39.551,41.504,0
150132.079,34.668,30.762,26.367,22.949,-54.199,0
150132.082,30.762,37.598,31.250,20.996,-22.949,0
150132.086,37.598,44.434,36.133,26.855,43.457,0
150132.090,49.316,35.645,40.039,33.691,62.500,2
150132.094,41.992,30.762,41.992,27.344,31.250,0
150132.096,29.297,27.344,45.898,25.879,-14.160,0
150132.100,38.086,31.738,42.969,39.551,47.363,0
150132.104,38.086,35.156,37.598,34.668,95.703,0
150132.108,28.320,32.227,38.086,21.973,57.617,0
150132.112,32.227,35.645,40.039,28.320,17.578,0
150132.116,29.785,33.691,35.645,28.320,3.418,0
150132.120,38.574,37.598,36.621,28.320,30.762,0
150132.123,46.875,51.270,37.109,30.273,18.066,0
150132.127,32.227,34.668,30.273,28.320,6.836,0
150132.131,31.738,19.043,29.297,36.621,35.645,0
150132.135,46.387,31.250,31.738,47.363,98.145,0
150132.139,52.734,41.016,44.922,42.969,129.395,0
150132.141,44.922,45.898,56.641,34.668,64.453,0
150132.145,25.391,37.109,49.805,26.367,38.086,0
150132.149,28.320,35.156,43.945,27.344,85.449,0
150132.153,49.805,35.645,45.410,35.645,104.004,0
150132.157,41.504,38.086,49.805,37.598,-5.859,0
150132.161,25.391,35.156,42.480,34.180,-64.453,0
150132.165,37.109,30.273,36.133,34.668,35.645,0
150132.169,48.340,36.133,35.645,30.762,117.676,0
150132.172,45.898,38.574,36.621,22.461,62.500,0
150132.176,39.551,48.340,46.875,25.391,-35.156,0
150132.180,39.551,36.621,45.410,35.645,-24.414,0
150132.184,46.387,18.066,39.062,42.480,77.148,0
150132.201,50.293,39.551,45.410,41.504,60.547,0
150132.205,46.875,54.688,41.992,36.133,-4.395,0
150132.209,44.922,50.293,33.691,38.086,1.465,0
150132.213,51.758,40.039,33.691,41.016,63.477,0
150132.217,47.363,42.969,30.273,36.621,81.055,0
150132.221,39.062,44.922,28.809,27.832,2.441,0
150132.225,36.133,42.969,39.551,22.949,19.043,0
150132.228,36.621,47.852,40.527,23.926,77.637,0
150132.232,44.922,42.969,37.598,25.391,78.125,0
150132.236,39.551,31.738,40.039,19.531,1.953,0
150132.240,34.180,30.273,36.133,18.066,-19.043,0
150132.244,35.156,24.902,33.691,27.344,65.430,0
150132.246,35.156,35.156,38.086,35.156,81.055,0
150132.250,36.133,48.828,41.992,33.203,-10.254,0
150132.254,26.855,41.992,45.898,27.344,-49.805,0
150132.258,31.250,40.039,44.434,35.156,37.598,0
150132.262,44.434,43.945,33.691,46.875,59.570,0
150132.266,47.852,46.875,36.621,45.410,-4.395,0
150132.270,40.039,44.434,50.293,37.109,-44.922,0
150132.274,30.762,36.133,44.434,42.480,-4.883,0
150132.278,38.086,36.621,32.715,47.363,60.547,0
150132.282,46.387,46.387,43.457,33.691,39.551,0
150132.286,35.645,40.039,45.410,23.926,33.691,0
150132.289,24.902,32.715,41.016,24.414,44.434,0
150132.291,33.203,44.922,38.574,29.785,88.379,0
150132.295,42.969,48.340,35.645,29.785,138.672,0
150132.299,40.527,41.016,38.574,22.461,58.105,0
150132.303,41.016,27.832,44.434,25.879,17.090,0
150132.307,44.922,31.738,47.363,39.062,21.973,0
150132.311,48.340,53.711,50.293,45.410,62.012,0
150132.315,50.781,51.270,51.270,41.504,53.223,0
150132.319,44.922,52.734,54.199,43.457,-49.316,0
150132.323,34.668,50.781,47.852,42.480,-31.738,0
150132.327,32.227,41.016,28.809,33.691,73.730,0
150132.330,31.738,37.109,24.902,26.855,49.805,0
150132.334,24.902,44.434,28.320,26.855,-36.621,0
150132.337,31.250,54.199,28.320,35.156,-18.066,0
150132.341,34.180,46.387,33.203,39.551,67.383,0
150132.345,26.855,27.832,47.363,33.691,72.266,0
150132.349,25.391,31.738,54.688,25.879,34.180,0
150132.353,25.391,58.105,51.758,27.832,25.391,0
150132.357,26.855,54.688,39.062,28.809,35.645,0
150132.361,29.785,32.715,41.504,27.344,87.402,0
150132.365,31.738,42.480,46.387,30.273,38.086,0
150132.369,30.273,61.035,39.062,31.250,-55.176,0
150132.372,33.203,56.641,42.480,33.203,-17.578,0
150132.376,36.133,52.734,43.457,32.715,62.012,0
150132.380,36.621,49.316,45.410,26.855,20.020,0
150132.382,29.785,43.457,44.922,24.414,-36.621,0
150132.386,31.738,45.898,44.434,31.738,31.738,0
150132.390,49.805,43.945,48.828,48.340,113.770,0
150132.394,55.176,40.527,47.363,50.293,102.539,0
150132.397,41.504,53.711,36.621,32.715,41.504,0
150132.401,30.762,45.410,29.785,25.879,7.324,0
150132.405,33.691,42.969,36.133,32.715,66.895,0
150132.409,37.598,60.059,31.738,28.320,78.613,0
150132.413,30.762,53.223,21.973,19.531,2.930,0
150132.417,23.926,44.434,34.668,16.113,3.906,0
150132.421,30.762,38.574,47.363,19.531,67.871,0
150132.425,41.504,42.480,48.340,29.297,94.238,0
150132.429,31.738,50.293,42.480,24.414,19.043,0
150132.433,16.602,50.293,35.645,13.672,17.090,0
150132.437,14.648,40.527,36.621,15.625,51.758,0
150132.441,17.578,35.645,31.738,22.461,85.449,0
150132.444,21.484,30.762,36.621,26.367,116.699,0
150132.448,16.602,38.086,45.898,24.414,23.438,0
150132.452,9.766,47.363,40.039,24.902,-40.527,0
150132.456,26.855,46.875,35.645,33.203,13.184,0
150132.460,28.809,38.574,41.504,26.367,38.574,0
150132.464,22.461,34.180,41.016,23.438,-3.906,0
150132.468,27.832,36.133,31.250,32.227,-24.902,0
150132.472,24.902,35.156,26.367,25.391,6.348,0
150132.471,26.855,41.992,29.785,14.648,65.430,0
150132.475,34.180,48.340,40.039,23.438,51.270,0
150132.479,33.203,50.781,44.922,35.156,-70.801,0
150132.483,37.109,45.898,43.457,34.180,-42.480,0
150132.487,45.898,37.598,46.387,36.133,29.785,0
150132.491,32.715,42.480,42.480,27.832,5.371,0
150132.495,15.625,48.828,35.156,20.508,-50.293,0
150132.498,14.160,34.180,34.180,23.926,-54.688,0
150132.502,22.949,23.926,36.133,24.902,63.477,0
150132.506,26.367,34.180,39.062,20.996,109.863,0
150132.510,29.297,44.922,34.668,20.020,25.391,0
150132.514,28.809,51.758,28.320,20.020,-19.531,0
150132.531,28.809,47.363,34.180,20.020,48.340,0
150132.535,34.180,50.293,40.527,21.973,71.289,0
150132.539,26.855,52.246,36.133,21.973,42.969,0
150132.543,19.043,45.898,41.504,19.531,13.184,0
150132.547,24.902,39.551,44.434,21.484,22.461,0
150132.551,32.715,38.574,41.504,24.414,30.273,0
150132.555,37.598,35.645,46.387,23.438,-28.809,0
150132.559,30.762,27.344,43.945,20.020,-41.016,0
150132.562,22.461,29.785,35.156,20.020,20.020,0
150132.566,25.879,38.086,29.785,20.996,54.688,0
150132.570,23.438,47.852,30.273,14.160,32.715,0
150132.574,15.625,53.223,41.504,14.160,-28.809,0
150132.576,19.043,52.734,48.828,22.949,-37.598,0
150132.580,28.809,46.875,41.016,22.949,62.012,0
150132.584,39.062,37.598,32.227,13.184,78.125,0
150132.588,26.855,34.668,33.203,12.695,22.461,0
150132.592,17.578,34.180,35.645,21.484,15.625,0
150132.596,32.715,33.203,38.086,35.156,63.477,0
150132.600,33.691,34.180,34.180,28.320,51.758,0
150132.603,21.973,39.551,32.227,7.812,25.391,0
150132.607,11.719,34.668,35.156,2.441,19.043,0
150132.611,20.020,30.762,36.133,14.160,41.992,0
150132.615,31.250,37.598,33.203,22.949,79.590,0
150132.619,22.949,35.156,30.762,22.949,68.848,0
150132.621,11.719,38.086,28.320,16.602,11.719,0
150132.625,18.066,42.969,26.367,17.090,34.180,0
150132.629,24.902,38.574,30.273,18.555,134.277,0
150132.633,21.973,41.504,47.363,16.602,108.887,0
150132.637,22.461,41.016,54.688,19.531,14.648,0
150132.641,31.738,43.457,49.316,28.809,32.715,0
150132.645,39.551,46.875,43.945,33.691,91.797,0
150132.649,25.879,36.621,36.133,22.949,100.586,0
150132.653,11.230,31.738,38.574,10.254,33.203,0
150132.656,9.277,32.227,25.391,6.348,-22.949,0
150132.660,19.043,25.879,19.043,18.066,45.410,0
150132.664,33.203,33.203,36.133,25.879,85.938,2
150132.666,29.297,51.758,40.527,14.648,37.109,0
150132.670,19.043,49.805,39.551,12.695,-18.555,0
150132.674,28.809,39.551,45.410,23.438,11.719,0
150132.678,36.621,43.457,39.551,25.879,80.078,0
150132.682,18.555,43.945,26.855,13.672,32.227,0
150132.686,9.766,37.598,29.785,7.324,-53.223,0
150132.690,16.113,36.133,36.133,20.508,-3.418,0
150132.694,26.367,43.945,41.016,32.227,88.867,0
150132.697,20.508,43.457,32.227,17.578,44.434,0
150132.701,9.277,29.297,26.367,8.301,-26.367,0
150132.705,13.672,19.043,35.645,11.230,1.953,0
150132.709,23.926,20.020,32.715,8.789,62.988,0
150132.711,19.043,17.578,27.344,8.301,55.176,0
150132.715,17.578,21.973,37.598,11.230,5.859,0
150132.719,20.996,41.504,46.875,22.949,26.367,0
150132.723,19.531,45.410,41.016,24.414,51.270,0
150132.727,28.809,47.852,37.109,20.508,43.945,0
150132.731,22.461,48.828,37.598,6.836,12.207,0
150132.735,19.043,41.504,39.062,0.977,-1.465,0
150132.739,31.738,32.715,40.527,15.137,18.066,0
150132.742,30.762,40.039,33.203,25.391,60.059,0
150132.746,21.973,41.504,30.273,23.438,59.570,0
150132.750,14.648,34.668,38.574,20.020,-22.949,0
150132.754,17.578,35.645,45.898,34.668,-14.648,0
150132.756,26.367,32.715,45.410,51.270,71.289,0
150132.760,29.297,28.809,45.898,34.180,72.266,0
150132.764,29.785,30.273,45.410,14.160,2.930,0
150132.768,17.578,40.039,33.203,13.672,-11.719,0
150132.772,15.625,40.527,29.785,16.602,87.402,0
150132.776,19.531,35.156,32.227,16.113,87.891,0
150132.780,15.625,41.504,33.203,11.719,16.602,0
150132.783,19.043,48.340,38.574,14.160,-69.824,0
150132.787,24.902,50.293,30.762,20.508,-68.848,0
150132.791,28.320,41.992,25.391,20.996,11.719,0
150132.795,24.414,28.320,40.039,17.578,-12.695,0
150132.799,20.996,31.738,46.387,19.531,-48.340,0
150132.801,33.691,44.922,35.645,33.691,-15.137,0
150132.805,42.969,49.805,24.414,36.133,84.473,0
150132.809,36.621,48.340,29.297,22.949,42.480,0
150132.813,25.391,33.691,34.180,13.184,-9.277,0
150132.817,29.297,22.461,34.180,22.461,18.066,0
150132.821,36.621,44.434,40.527,37.598,75.195,0
150132.825,31.738,62.012,41.016,25.879,96.191,0
150132.828,27.832,57.617,39.551,17.090,-19.043,0
150132.832,38.574,50.781,37.598,25.391,-49.316,0
150132.836,48.828,47.852,32.227,34.668,77.148,0
150132.840,41.992,45.410,27.832,27.344,94.727,0
150132.844,29.297,49.316,39.551,22.461,-3.418,0
150132.847,32.227,47.363,43.945,29.785,-1.465,0
150132.850,40.039,41.504,32.715,35.645,38.086,0
150132.854,35.156,38.574,33.203,33.691,69.336,0
150132.858,27.832,42.969,37.598,27.344,18.066,0
150132.862,25.391,52.734,35.645,28.809,-34.668,0
150132.866,30.762,44.922,39.062,37.598,39.062,0
150132.870,34.180,27.832,43.457,36.621,66.895,0
150132.874,22.949,31.738,40.039,22.949,34.180,0
150132.878,11.719,38.574,38.086,19.043,-3.418,0
150132.882,14.160,44.922,41.016,23.926,-29.297,0
150132.886,28.320,49.805,43.457,38.574,15.625,0
150132.889,42.969,56.152,45.898,45.898,45.898,0
150132.893,42.480,48.828,41.992,31.250,-12.695,0
150132.897,44.434,50.293,35.156,32.715,-33.203,0
150132.901,51.270,62.012,37.598,44.434,56.641,0
150132.904,48.828,53.223,37.598,38.086,88.867,0
150132.908,43.457,42.480,43.457,36.621,40.527,0
150132.912,35.645,47.852,50.781,38.086,-4.395,0
150132.916,41.504,52.734,43.457,41.016,31.250,0
150132.920,54.199,46.875,37.109,47.363,132.324,0
150132.924,53.711,56.641,41.992,41.016,99.609,0
150132.928,41.992,59.082,53.223,39.551,-28.809,0
150132.932,35.156,48.340,49.805,39.551,-10.742,0
150132.936,35.156,47.852,40.039,32.715,60.547,0
150132.953,33.203,52.246,40.039,29.785,52.246,0
150132.957,36.133,46.875,48.828,32.227,-18.555,0
150132.961,40.527,43.457,52.734,37.109,-25.391,0
150132.965,50.781,55.176,46.387,43.457,71.777,0
150132.968,50.781,62.500,41.504,39.062,102.051,0
150132.972,40.039,67.383,38.574,25.391,17.578,0
150132.976,34.668,69.336,33.203,24.902,-30.762,0
150132.980,41.016,66.895,30.762,33.691,86.914,0
150132.984,45.410,60.059,34.180,31.738,131.836,0
150132.988,40.039,53.223,35.645,20.508,58.594,0
150132.992,41.504,60.547,35.156,18.066,28.320,0
150132.996,39.551,50.781,39.551,28.809,71.777,0
150132.997,31.250,54.199,41.992,33.691,86.914,0
150133.001,23.926,72.266,42.480,22.949,26.367,0
150133.005,16.113,68.359,41.504,14.648,11.230,0
150133.009,22.461,68.359,37.598,22.949,63.477,0
150133.013,34.668,71.777,38.574,33.203,120.605,0
150133.017,24.902,62.012,34.180,24.902,128.906,0
150133.020,11.719,58.105,24.414,12.207,71.289,0
150133.024,18.555,59.570,25.391,18.066,53.223,0
150133.028,34.180,56.152,36.133,29.297,109.863,0
150133.032,34.180,53.223,39.062,19.531,88.379,0
150133.036,18.555,44.922,35.645,6.836,29.785,0
150133.040,20.508,43.457,36.133,13.672,7.324,0
150133.042,23.438,53.711,28.809,24.414,2.441,0
150133.046,19.043,57.617,20.996,18.555,36.621,0
150133.050,17.578,59.082,21.973,8.301,35.645,0
150133.054,8.789,60.059,29.297,10.254,-4.883,0
150133.058,8.789,56.641,36.133,15.625,17.578,0
150133.062,24.414,50.781,32.227,22.461,71.777,0
150133.066,26.855,49.316,28.320,23.438,62.500,0
150133.070,15.625,49.805,31.738,15.625,20.996,0
150133.073,20.508,49.316,39.062,17.090,1.465,0
150133.077,43.457,57.129,41.992,32.715,40.527,0
150133.081,46.875,51.758,25.879,29.785,67.871,0
150133.085,35.645,39.062,24.902,21.973,14.160,0
150133.086,28.809,55.176,33.691,20.996,-19.531,0
150133.090,24.414,51.758,26.855,23.926,40.039,0
150133.094,31.738,45.410,22.949,24.902,73.242,0
150133.098,34.180,58.594,27.832,23.438,-14.648,0
150133.102,22.949,55.176,33.203,18.066,-54.688,0
150133.106,31.738,51.758,34.180,28.320,24.414,0
150133.110,41.992,51.758,38.086,38.086,59.082,0
150133.114,32.715,46.387,35.156,23.438,34.668,0
150133.118,22.949,41.504,26.855,16.602,-2.930,0
150133.122,32.715,41.504,26.855,28.809,45.410,0
150133.125,52.734,36.621,36.133,44.922,120.117,0
150133.129,46.387,39.062,41.504,41.992,64.453,0
150133.131,29.297,50.781,39.551,28.320,-31.738,0
150133.135,24.902,45.898,32.715,27.832,-13.184,0
150133.139,25.391,43.945,28.809,29.785,87.402,0
150133.143,32.715,51.270,36.133,28.320,54.199,0
150133.147,34.668,49.316,35.156,22.461,-15.137,0
150133.151,26.855,46.875,28.809,27.344,-24.902,0
150133.155,28.320,41.992,31.250,35.645,20.996,0
150133.159,34.668,30.762,26.855,30.762,44.434,0
150133.162,20.508,31.250,26.855,19.043,-0.977,0
150133.166,8.789,39.062,36.621,19.531,-14.160,0
150133.170,28.809,35.156,34.668,37.598,19.043,0
150133.174,39.062,13.184,26.855,38.086,69.824,0
150133.177,28.809,29.297,26.855,22.949,33.691,0
150133.181,27.344,49.805,24.902,22.461,-31.738,0
150133.185,40.527,48.828,25.879,34.668,0.488,0
150133.189,58.594,41.992,31.250,43.457,79.590,0
150133.193,46.387,35.156,22.461,36.133,88.379,0
150133.197,11.230,41.504,22.949,23.926,21.973,0
150133.201,3.906,38.086,28.809,24.902,-28.320,0
150133.205,12.695,31.738,28.320,27.344,55.664,0
150133.209,18.555,33.691,36.133,20.020,116.699,0
150133.213,21.973,36.133,43.945,20.996,46.387,0
150133.217,18.555,26.855,44.922,29.297,10.254,0
150133.220,20.508,27.832,30.273,25.391,31.738,0
150133.221,31.250,47.852,19.531,25.879,59.570,0
150133.225,27.832,51.270,20.508,27.344,15.137,0
150133.229,27.344,39.551,20.996,28.320,-22.461,0
150133.233,30.762,33.203,21.484,27.344,41.504,0
150133.237,33.203,35.645,28.320,25.391,82.031,0
150133.241,36.621,30.762,32.715,16.113,73.730,0
150133.245,25.391,36.621,28.809,0.488,6.348,0
150133.248,18.555,52.246,24.902,8.301,-31.738,0
150133.252,36.133,48.828,30.273,32.715,30.762,0
150133.256,39.551,40.527,29.297,41.016,-6.836,0
150133.260,26.367,26.855,25.879,20.508,-67.871,0
150133.264,22.461,29.297,28.809,9.277,-33.203,0
150133.281,27.344,35.645,23.926,18.555,40.527,0
150133.285,32.227,38.574,25.879,27.832,46.875,0
150133.289,39.062,41.992,32.715,29.785,1.465,0
150133.293,43.457,36.621,33.203,32.715,-28.809,0
150133.297,36.133,41.016,30.762,30.762,31.738,0
150133.301,31.738,40.039,31.250,28.320,62.988,2
150133.305,26.367,42.480,37.109,22.461,-1.465,0
150133.309,13.672,34.668,36.133,21.973,-31.738,0
150133.313,18.555,21.973,36.621,30.762,3.418,0
150133.317,31.250,42.480,43.457,34.668,76.172,0
150133.320,30.273,50.293,42.969,29.785,74.219,0
150133.324,15.625,40.039,32.715,17.578,9.277,0
150133.326,17.090,44.434,30.273,21.484,18.066,0
150133.330,41.992,37.598,31.738,35.645,78.613,0
150133.334,38.086,31.250,25.391,37.598,100.098,0
150133.338,22.949,46.875,30.762,25.391,31.250,0
150133.342,27.344,54.688,39.062,27.344,-22.461,0
150133.346,42.480,52.246,42.480,37.598,25.879,0
150133.350,55.176,48.340,45.898,40.039,66.406,0
150133.354,45.898,43.457,40.039,33.691,23.926,0
150133.357,32.227,41.016,28.809,34.180,-9.277,0
150133.361,38.086,46.387,26.367,40.039,-20.020,0
150133.365,41.504,42.480,39.551,40.527,51.758,0
150133.369,37.109,29.297,40.527,29.785,90.332,0
150133.371,35.645,36.621,33.203,25.879,26.855,0
150133.375,42.969,54.688,37.109,44.434,46.875,0
150133.379,50.293,48.828,36.133,50.293,84.961,0
150133.383,43.457,32.227,34.668,41.016,66.895,0
150133.387,36.621,39.062,35.645,33.691,-5.859,0
150133.391,39.062,51.270,33.203,32.715,-43.457,0
150133.395,44.922,49.805,37.598,41.016,54.199,0
150133.398,50.293,46.387,42.969,40.039,74.219,0
150133.402,40.039,45.410,40.527,35.645,-9.766,0
150133.406,23.926,40.527,31.738,31.738,-25.391,0
150133.410,24.414,42.480,25.391,29.297,74.219,0
150133.414,34.180,46.387,29.297,32.227,90.332,0
150133.417,40.039,40.527,36.621,34.180,-2.930,0
150133.421,24.902,31.738,27.832,29.297,-24.414,0
150133.425,20.020,28.809,23.438,22.949,15.137,0
150133.429,24.414,34.180,30.762,22.461,37.109,0
150133.433,22.949,21.484,35.156,13.672,20.020,0
150133.437,15.137,21.973,35.645,6.348,-28.320,0
150133.441,14.648,38.574,30.273,21.484,-25.879,0
150133.445,27.344,43.457,24.902,37.109,30.273,0
150133.449,30.273,48.340,24.902,29.785,8.789,0
150133.453,37.598,53.223,35.156,22.461,-14.648,0
150133.457,46.387,46.875,46.875,31.250,14.648,0
150133.460,39.062,39.551,37.109,30.273,44.922,0
150133.462,28.809,23.926,22.949,21.973,56.641,0
150133.465,27.832,21.973,23.438,18.555,10.742,0
150133.469,25.391,32.715,24.902,19.043,-11.230,0
150133.473,28.320,33.691,23.926,21.973,17.090,0
150133.477,37.598,37.598,22.461,26.367,57.129,0
150133.481,28.320,26.367,24.414,27.832,35.645,0
150133.485,18.066,21.973,26.855,21.484,-62.500,0
150133.489,28.809,40.527,32.715,26.855,-38.574,0
150133.493,31.250,38.086,25.391,31.250,49.316,0
150133.497,30.762,30.273,18.066,25.391,45.410,0
150133.501,26.855,31.738,28.320,16.113,3.418,0
150133.505,14.160,25.391,34.180,18.555,-11.719,0
150133.507,20.996,13.184,38.574,29.785,71.777,0
150133.511,32.227,22.949,39.551,31.250,102.539,0
150133.514,28.320,36.621,32.227,29.297,26.855,0
150133.518,13.672,26.855,27.832,25.879,-14.648,0
150133.522,18.066,31.738,32.227,31.250,44.922,0
150133.526,24.414,29.785,28.809,32.715,84.961,0
150133.530,19.531,13.672,27.344,24.902,11.719,0
150133.534,29.297,36.133,27.344,26.367,-55.664,0
150133.538,33.203,40.527,23.926,34.668,-6.836,0
150133.542,39.551,28.320,34.180,41.016,46.875,0
150133.546,37.598,34.668,37.109,35.156,-10.254,0
150133.550,30.762,23.926,29.785,29.785,-25.879,0
150133.552,40.527,29.297,26.855,34.668,19.531,0
150133.556,47.852,41.016,36.133,39.062,62.012,0
150133.560,44.434,44.434,36.621,40.039,56.641,0
150133.564,30.762,37.598,31.250,37.109,17.090,0
150133.568,32.227,29.785,37.109,36.133,33.691,0
150133.572,43.945,31.738,36.133,40.527,74.219,0
150133.576,48.828,35.156,34.180,42.969,81.055,0
150133.580,45.410,32.227,26.367,35.645,22.949,0
150133.584,44.922,23.438,31.738,33.203,-19.531,0
150133.587,56.152,39.062,40.527,39.551,48.340,0
150133.591,52.734,52.734,29.785,37.109,98.145,0
150133.595,44.922,49.805,26.855,30.762,48.828,0
150133.597,46.875,48.340,29.297,30.762,12.695,0
150133.601,42.480,35.156,29.785,31.250,56.152,0
150133.605,36.621,23.438,34.668,32.227,62.012,0
150133.609,27.344,28.809,30.273,27.344,43.945,0
150133.613,26.855,39.551,38.086,29.785,19.043,0
150133.616,31.738,36.133,38.574,38.574,-21.484,0
150133.620,36.133,25.879,21.484,32.715,51.270,0
150133.624,36.621,15.625,24.414,25.391,137.207,0
150133.628,30.273,35.156,31.738,24.902,84.961,0
150133.632,24.902,50.781,32.227,23.926,3.906,0
150133.636,32.227,31.250,33.691,27.344,62.988,0
150133.640,32.715,32.227,36.133,22.461,131.348,0
150133.643,20.996,42.480,39.062,18.555,56.641,0
150133.647,22.461,42.969,35.645,27.344,7.324,0
150133.651,33.203,41.016,27.832,31.738,68.848,0
150133.655,37.598,35.645,27.344,28.809,97.168,0
150133.659,31.738,36.133,31.250,26.367,14.160,0
150133.663,37.598,47.363,35.645,34.668,-64.941,0
150133.667,43.945,28.320,36.621,41.992,-0.977,0
150133.671,40.039,18.555,34.180,38.574,104.004,0
150133.675,34.668,47.852,28.809,30.762,97.656,0
150133.679,32.227,55.176,35.156,21.973,43.945,0
150133.682,33.691,44.922,40.039,31.250,13.184,0
150133.686,35.156,41.504,28.320,36.621,44.434,0
150133.701,28.809,45.410,26.855,21.484,61.523,0
150133.705,28.809,40.527,41.016,17.090,-0.488,0
150133.709,33.691,31.250,46.387,23.926,-52.246,0
150133.713,31.738,36.133,34.180,28.809,17.090,0
150133.717,39.062,45.410,33.203,30.273,90.820,0
150133.721,35.645,45.898,41.504,31.250,46.387,0
150133.725,30.273,40.527,38.086,31.250,-21.973,0
150133.729,42.480,32.227,34.668,43.457,33.691,0
150133.732,44.434,45.410,32.715,40.527,108.398,0
150133.736,31.250,51.270,32.227,24.414,71.289,0
150133.740,27.832,33.691,37.109,21.973,18.066,0
150133.744,31.250,38.574,43.457,25.391,36.133,0
150133.746,36.621,56.641,46.387,35.645,99.121,0
150133.750,41.992,55.176,43.457,32.715,76.660,0
150133.754,28.809,46.387,45.410,29.785,-1.465,0
150133.758,19.043,48.340,40.039,28.809,12.207,0
150133.762,29.297,49.805,33.691,35.156,84.473,0
150133.766,22.461,40.527,33.691,40.527,76.172,0
150133.770,7.324,34.180,33.203,30.762,-2.441,0
150133.774,9.277,30.273,36.621,30.273,-45.410,0
150133.777,25.391,36.621,42.480,38.574,-1.465,0
150133.781,32.715,55.176,43.945,36.133,15.625,0
150133.785,30.762,58.594,43.945,34.180,-26.855,0
150133.789,35.156,59.570,43.457,37.109,-50.293,0
150133.791,42.480,60.059,42.969,41.992,-3.906,0
150133.795,48.340,52.246,37.109,47.852,74.219,0
150133.799,44.434,50.781,40.039,39.062,57.617,0
150133.803,29.785,55.664,38.574,23.438,-7.324,0
150133.807,34.668,54.688,30.273,30.273,14.648,0
150133.811,44.922,51.758,29.297,34.668,80.078,0
150133.815,36.621,39.062,37.109,32.715,22.461,0
150133.819,31.250,42.480,46.875,34.668,-35.645,0
150133.822,26.855,57.129,37.598,31.738,-17.578,0
150133.826,40.039,64.941,35.156,41.992,33.203,0
150133.830,60.547,64.453,45.898,48.340,63.965,0
150133.834,47.852,61.035,44.922,39.551,-2.441,0
150133.836,23.926,59.570,39.062,36.133,-28.320,0
150133.840,23.926,51.270,30.273,32.227,32.715,0
150133.844,29.297,48.828,27.832,27.832,55.664,0
150133.848,19.043,45.898,23.438,17.090,17.090,0
150133.852,17.090,44.922,27.832,17.090,-30.762,0
150133.856,28.809,46.387,43.457,34.180,-14.160,0
150133.860,33.691,61.523,44.434,33.203,49.805,0
150133.864,34.668,57.129,31.738,20.996,19.531,1
150133.867,38.574,41.504,32.227,28.809,-78.125,0
150133.871,39.551,67.871,35.645,44.434,-21.973,0
150133.875,41.504,73.730,20.020,40.039,84.473,0
150133.879,40.527,58.105,20.996,29.297,74.219,0
150133.881,29.297,61.035,38.574,30.273,15.137,0
150133.885,35.645,56.641,44.434,31.250,3.906,0
150133.889,43.457,49.316,40.527,33.691,53.711,0
150133.893,40.527,57.617,36.133,34.668,59.570,0
150133.897,32.227,56.641,27.832,25.391,10.742,0
150133.901,24.902,48.340,25.391,29.297,3.418,0
150133.905,38.086,39.551,24.414,42.969,45.898,0
150133.908,41.504,35.156,17.090,44.922,49.316,0
150133.912,34.180,61.035,21.484,32.227,24.414,0
150133.916,39.062,79.102,37.598,29.297,37.109,0
150133.920,38.086,65.918,36.133,37.109,31.250,0
150133.924,28.320,51.758,22.461,24.902,67.383,0
150133.926,27.832,53.223,17.578,10.742,59.082,0
150133.930,21.973,61.523,16.113,17.578,-35.156,0
150133.934,18.066,58.594,12.207,25.879,-62.988,0
150133.938,33.691,45.898,14.160,35.645,23.438,0
150133.942,38.086,47.363,28.320,35.156,64.941,0
150133.946,28.809,56.152,30.762,13.672,-15.137,0
150133.950,33.691,63.477,24.902,10.742,-47.363,0
150133.954,44.922,64.453,21.484,24.414,54.199,0
150133.957,46.387,45.410,17.578,25.391,109.375,0
150133.961,43.945,50.781,23.926,24.902,16.602,0
150133.965,38.086,73.730,28.320,27.344,-18.066,0
150133.969,48.340,75.684,29.785,37.109,41.016,0
150133.971,57.617,70.801,20.508,38.086,81.543,0
150133.975,40.039,55.176,9.766,24.414,12.207,0
150133.979,24.902,46.387,10.254,15.137,-47.852,0
150133.983,32.227,55.176,9.766,15.137,-12.695,0
150133.987,40.527,61.523,9.766,21.484,38.574,0
150133.991,36.133,54.688,16.602,24.414,27.344,0
150133.995,35.645,50.293,24.902,23.438,-38.574,0
150133.999,43.945,50.293,33.691,30.762,-34.180,0
150134.003,39.062,54.199,23.926,34.668,61.523,0
150134.006,27.344,59.082,14.648,21.484,90.332,0
150134.010,18.066,62.012,19.531,15.137,8.301,0
150134.014,13.184,53.711,20.508,18.066,-6.836,0
150134.032,24.414,52.734,22.949,27.832,50.781,0
150134.036,38.574,65.918,22.949,34.668,81.055,0
150134.039,36.133,68.359,23.438,27.344,57.617,0
150134.043,28.320,58.594,24.902,29.297,-11.230,0
150134.047,35.645,48.340,21.484,38.574,4.395,0
150134.051,41.504,53.223,19.531,41.504,62.988,0
150134.055,32.227,58.105,16.602,36.133,61.035,0
150134.059,25.879,52.734,20.996,33.203,15.625,0
150134.063,31.738,55.176,28.320,41.992,54.199,0
150134.067,43.945,57.617,24.902,54.688,104.980,0
150134.071,41.504,43.457,23.926,43.945,42.969,0
150134.075,26.855,53.711,29.297,24.414,2.930,0
150134.076,25.391,69.336,29.297,28.809,45.410,0
150134.080,41.992,64.453,20.508,36.621,90.820,0
150134.084,38.574,60.547,23.438,27.344,126.953,0
150134.088,25.391,56.641,28.809,20.996,82.031,0
150134.092,30.762,57.617,26.367,25.391,11.230,0
150134.096,36.133,63.965,25.391,29.297,54.688,0
150134.100,44.922,63.477,27.832,33.203,102.051,0
150134.104,52.246,64.453,28.809,39.062,41.504,0
150134.108,42.969,62.500,19.531,41.992,37.109,0
150134.112,32.227,54.199,14.160,33.203,63.477,0
150134.116,31.738,49.805,17.090,24.902,116.211,0
150134.119,32.715,63.965,26.367,26.855,126.953,0
150134.122,25.879,76.660,31.738,29.785,36.133,0
150134.126,28.320,67.383,30.762,29.785,3.418,0
150134.130,49.805,64.453,35.156,44.922,82.520,0
150134.134,50.781,63.965,31.738,45.898,112.793,0
150134.138,32.227,68.848,17.578,27.832,26.855,0
150134.142,26.855,73.242,8.789,21.484,-38.086,0
150134.145,36.133,68.848,11.230,30.762,34.668,0
150134.149,40.039,53.223,20.020,34.180,87.891,0
150134.153,20.508,59.082,25.391,23.926,6.836,0
150134.157,9.277,76.172,28.320,19.043,-41.504,0
150134.161,19.531,67.383,30.762,28.809,43.457,0
150134.165,31.738,66.895,31.250,33.203,104.492,0
150134.169,32.227,60.547,21.973,25.391,56.641,0
150134.173,25.879,53.223,20.508,23.926,-3.906,0
150134.177,19.531,74.219,22.949,24.414,26.855,0
150134.181,29.297,80.078,23.926,33.691,56.152,0
150134.185,42.480,79.590,29.297,36.133,11.719,0
150134.189,33.203,78.125,22.949,23.438,-34.668,0
150134.193,23.926,67.383,15.137,23.926,-4.883,0
150134.197,40.527,68.359,14.648,38.086,101.074,0
150134.200,40.039,73.242,15.137,33.691,90.332,0
150134.204,18.066,73.242,18.555,16.113,-18.066,0
150134.208,11.230,68.359,19.531,12.207,-9.766,0
150134.212,24.414,67.383,16.113,18.555,83.984,0
150134.212,39.062,63.965,17.578,29.785,114.258,0
150134.216,38.086,52.734,24.414,31.250,60.547,0
150134.220,29.297,64.453,17.578,26.367,-4.883,0
150134.224,31.738,76.660,13.184,36.133,25.879,0
150134.228,37.109,78.613,24.902,43.945,76.660,0
150134.231,33.691,79.590,26.855,35.156,43.945,0
150134.235,36.621,83.496,25.879,36.133,-5.371,0
150134.239,40.527,81.543,31.738,42.480,16.602,0
150134.243,43.457,72.266,20.996,36.621,48.340,0
150134.247,43.945,79.102,11.719,34.180,40.527,0
150134.251,34.668,89.355,15.137,28.809,-6.348,0
150134.255,31.738,88.379,18.066,26.855,-11.230,0
150134.257,41.016,85.938,20.996,32.227,52.734,0
150134.261,32.227,86.914,11.719,26.367,78.613,0
150134.265,23.926,82.520,5.859,21.973,15.625,0
150134.269,34.180,69.336,15.625,29.297,-1.465,0
150134.272,33.203,80.078,24.902,33.691,50.293,0
150134.276,34.668,97.168,21.484,31.250,62.012,0
150134.280,33.203,89.355,21.973,26.855,32.227,0
150134.284,22.461,89.355,28.809,26.855,-33.203,0
150134.288,26.367,85.938,23.926,32.715,-5.371,0
150134.292,35.645,76.660,24.414,33.203,92.285,0
150134.296,37.109,86.426,30.273,32.227,42.969,0
150134.300,28.320,100.098,19.531,30.273,5.859,0
150134.302,23.926,93.262,10.742,35.156,62.012,0
150134.306,34.668,88.867,17.578,37.598,56.152,0
150134.310,35.156,83.984,21.484,23.926,23.926,0
150134.314,26.367,77.148,28.320,19.043,6.348,0
150134.318,28.320,87.402,35.645,25.879,-16.602,0
150134.321,34.668,90.332,27.344,29.785,41.504,0
150134.325,36.133,77.148,21.973,27.832,79.102,0
150134.329,31.738,82.031,20.996,22.949,-11.230,0
150134.333,30.273,98.633,18.066,26.855,-51.758,0
150134.337,41.504,100.098,17.090,41.016,23.926,0
150134.341,47.852,90.820,16.113,43.945,85.449,0
150134.345,41.992,84.961,20.020,32.715,38.574,0
150134.348,32.715,83.008,17.090,20.508,4.883,0
150134.351,29.785,79.590,16.113,24.902,5.371,0
150134.355,34.180,80.078,16.113,29.297,31.738,0
150134.359,37.598,82.520,13.184,24.414,51.758,0
150134.363,26.855,87.891,21.973,24.902,5.859,0
150134.367,20.996,84.473,18.066,23.438,-5.859,0
150134.371,25.879,82.031,5.371,17.090,18.066,0
150134.375,24.902,88.867,1.465,15.137,46.387,0
150134.379,20.020,92.285,9.277,15.137,39.551,0
150134.383,28.320,92.285,24.414,22.949,-7.324,0
150134.387,41.016,98.145,23.438,33.203,20.996,0
150134.391,32.715,101.562,16.602,27.344,53.711,0
150134.392,18.555,97.656,20.508,17.090,7.812,0
150134.396,30.273,94.238,25.879,25.879,-10.254,0
150134.400,40.039,92.285,19.531,34.180,30.762,0
150134.404,28.809,92.285,8.789,20.020,35.156,0
150134.408,19.043,86.426,-1.953,12.207,30.762,0
150134.412,18.066,92.285,1.465,19.531,-15.137,0
150134.416,17.578,81.543,5.859,21.973,-20.020,0
150134.420,20.020,78.613,3.906,19.531,34.668,0
150134.424,18.555,91.309,15.625,18.066,3.906,0
150134.428,12.695,86.426,23.438,15.137,-40.527,0
150134.432,18.555,92.773,20.020,16.602,-22.461,0
150134.435,23.926,97.168,17.090,25.391,62.988,0
150134.451,23.926,88.379,3.906,27.832,85.449,0
150134.455,13.184,81.543,-2.930,14.648,32.227,0
150134.459,10.742,88.379,12.207,14.160,-10.742,0
150134.463,24.902,86.426,17.090,20.508,39.062,0
150134.467,20.508,85.938,3.906,12.695,113.770,0
150134.471,6.836,83.008,-2.930,0.977,36.621,0
150134.475,4.395,67.383,3.906,-5.371,-67.871,0
150134.479,19.531,64.941,1.465,6.348,-18.555,0
150134.482,32.715,82.031,-2.441,16.602,33.203,0
150134.486,31.250,92.773,3.418,12.695,-2.441,0
150134.490,27.344,90.332,3.906,8.301,-63.965,0
150134.494,22.461,76.660,2.930,9.766,-17.578,0
150134.496,23.438,69.336,0.977,14.160,83.008,0
150134.500,23.438,80.078,-2.930,7.812,86.914,0
150134.504,20.020,88.379,-0.977,4.883,39.062,0
150134.508,16.113,80.566,0.000,9.766,13.672,0
150134.512,24.414,80.566,7.324,18.555,27.832,0
150134.516,30.762,81.055,15.137,24.414,42.969,0
150134.520,23.926,66.406,14.160,16.113,7.812,0
150134.523,22.461,65.918,4.395,18.555,13.672,0
150134.527,27.344,61.035,0.000,29.297,64.941,0
150134.531,24.902,65.430,0.000,22.949,59.570,0
150134.535,20.020,85.449,0.488,17.578,60.547,0
150134.539,26.855,79.590,5.859,29.297,35.156,0
150134.541,34.668,78.613,13.184,38.086,40.039,0
150134.545,37.598,75.195,13.184,39.062,100.098,0
150134.549,34.668,63.965,13.672,36.133,63.965,1
150134.553,22.461,66.895,17.090,24.902,2.441,0
150134.557,16.602,67.383,9.766,20.996,41.992,0
150134.561,23.926,53.223,-2.441,24.414,111.816,0
150134.565,29.785,42.480,-5.371,16.113,80.078,0
150134.569,21.484,50.293,3.906,13.672,15.137,0
150134.573,16.113,46.387,11.230,20.020,-14.160,0
150134.576,28.809,36.621,20.020,30.762,73.242,0
150134.580,32.715,47.363,21.484,33.691,132.324,0
150134.584,16.113,57.617,3.418,20.508,44.434,0
150134.587,12.695,51.270,-12.695,15.625,12.695,0
150134.591,16.602,39.551,-4.395,22.949,91.309,0
150134.595,18.066,36.621,13.184,25.879,97.656,0
150134.599,22.461,39.062,13.184,21.484,62.500,0
150134.602,24.414,42.969,7.812,26.367,20.508,0
150134.606,29.785,52.734,9.277,35.156,5.371,0
150134.610,41.992,49.805,20.020,42.969,57.617,0
150134.614,38.574,39.551,22.949,39.062,2.441,0
150134.618,19.043,44.922,15.137,28.809,-41.992,0
150134.622,20.020,44.922,19.043,38.574,7.324,0
150134.626,33.203,23.926,23.438,46.875,37.109,0
150134.630,28.320,33.691,18.066,32.227,62.988,0
150134.633,21.484,59.082,14.648,19.531,14.648,0
150134.636,21.973,52.246,10.742,17.578,-8.301,0
150134.640,34.668,42.480,16.113,27.344,52.246,0
150134.644,35.156,40.039,14.160,27.344,74.707,0
150134.648,28.809,33.691,10.742,23.926,45.410,0
150134.652,23.926,29.785,17.578,31.738,-14.160,0
150134.656,23.926,36.133,19.531,32.715,15.137,0
150134.660,31.738,36.621,15.625,28.809,54.199,0
150134.664,30.273,41.992,12.695,24.902,30.273,0
150134.668,27.832,44.434,15.137,26.367,20.996,0
150134.672,32.227,26.855,11.719,36.133,17.090,0
150134.675,45.898,27.344,11.230,41.992,74.219,0
150134.676,48.828,41.504,27.832,31.250,41.016,0
150134.680,24.902,41.016,31.250,18.555,-38.086,0
150134.684,9.766,41.504,13.672,18.555,-21.973,0
150134.688,16.113,35.645,8.789,19.531,37.598,0
150134.692,17.578,28.320,18.066,21.973,8.789,0
150134.696,11.719,30.273,20.508,21.484,-30.273,0
150134.700,13.184,38.574,17.578,21.484,-16.602,0
150134.704,20.996,38.574,17.578,30.273,23.438,0
150134.707,23.438,34.668,18.066,31.250,51.270,0
150134.711,24.414,41.992,20.508,27.832,21.973,0
150134.715,24.414,46.875,18.555,32.715,2.930,0
150134.719,34.668,41.016,4.883,36.621,70.312,0
150134.722,48.828,30.762,-0.488,35.645,138.184,0
150134.726,43.945,41.992,19.043,29.785,85.449,0
150134.729,31.250,62.012,31.250,22.949,3.418,0
150134.733,23.926,51.758,19.043,22.461,21.484,0
150134.737,36.621,42.480,20.020,35.156,62.012,0
150134.741,45.898,45.898,30.273,39.062,32.227,0
150134.745,34.668,53.711,19.043,30.273,-12.207,0
150134.749,22.949,51.270,6.348,24.414,8.789,0
150134.753,32.227,48.340,15.625,27.344,99.609,0
150134.757,40.039,53.223,27.344,33.691,106.445,0
150134.761,34.668,54.199,28.320,31.738,14.648,0
150134.765,34.180,55.664,25.391,34.180,-27.344,0
150134.782,37.109,49.805,21.973,38.086,21.484,0
150134.786,35.156,29.785,24.902,34.180,67.871,0
150134.789,25.391,33.691,30.762,22.949,50.781,0
150134.793,13.184,52.246,30.273,15.137,7.812,0
150134.797,22.461,51.270,35.156,28.320,8.301,0
150134.801,41.016,48.340,37.109,31.738,46.387,0
150134.805,35.645,51.758,29.785,19.531,20.020,0
150134.809,26.855,55.664,28.320,21.484,-51.270,0
150134.813,43.457,48.828,30.762,31.738,-20.996,0
150134.817,56.152,45.898,36.621,41.016,99.609,0
150134.821,32.715,41.504,37.598,31.738,93.262,0
150134.825,17.578,37.598,34.668,23.438,8.789,0
150134.827,25.391,36.133,34.180,26.855,-1.953,0
150134.831,41.992,34.180,37.598,38.574,76.172,0
150134.835,45.410,43.945,32.715,45.410,93.262,0
150134.839,37.598,41.992,30.762,39.551,36.621,0
150134.843,32.227,40.039,37.598,37.109,23.438,0
150134.847,34.180,46.875,34.180,42.969,72.754,0
150134.851,48.828,53.223,34.180,49.805,108.887,0
150134.855,49.316,54.688,40.527,51.270,64.453,0
150134.858,27.344,41.016,41.016,46.875,29.785,0
150134.862,21.484,37.109,33.203,41.016,32.227,0
150134.866,40.527,36.621,40.527,43.945,82.031,0
150134.870,53.711,31.738,54.688,38.086,72.754,0
150134.872,41.504,36.621,45.410,33.203,-15.625,0
150134.876,29.785,50.781,39.062,41.016,-1.953,0
150134.880,34.180,40.527,41.016,42.480,41.016,0
150134.884,33.691,29.297,37.109,35.156,37.109,0
150134.888,37.109,51.270,35.156,37.109,-5.859,0
150134.892,42.480,52.246,33.691,41.504,-41.992,0
150134.896,31.250,34.180,31.250,36.621,32.715,0
150134.899,33.691,36.621,39.551,33.691,91.797,0
150134.903,39.062,41.992,48.828,25.879,-31.738,0
150134.907,32.715,34.180,43.945,22.461,-123.047,0
150134.911,35.645,30.273,33.691,29.297,-5.371,0
150134.915,44.434,33.203,33.203,41.504,79.590,0
150134.917,43.945,38.574,37.598,41.016,23.438,0
150134.921,37.598,24.902,36.621,29.297,-39.551,0
150134.925,38.574,19.531,33.691,35.645,-5.859,0
150134.929,40.527,51.270,29.785,40.039,70.801,0
150134.933,40.039,63.965,35.156,33.691,53.223,0
150134.937,30.762,54.199,37.109,25.879,-13.184,0
150134.941,22.949,45.410,37.109,27.344,-29.297,0
150134.945,31.250,40.527,30.273,35.645,34.668,0
150134.949,37.109,37.598,27.832,34.668,72.266,0
150134.952,25.879,35.645,37.598,23.438,-3.906,0
150134.956,31.738,31.250,44.434,23.926,1.465,0
150134.960,47.852,24.902,40.527,36.621,94.238,0
150134.961,47.852,33.203,34.180,44.434,118.652,0
150134.965,46.875,41.992,41.504,41.992,110.352,0
150134.969,39.551,27.832,32.227,28.320,87.402,0
150134.973,29.297,33.203,10.254,34.668,79.102,0
150134.977,29.785,37.109,7.324,37.598,130.371,0
150134.981,28.809,38.086,21.484,22.461,91.797,0
150134.985,24.414,48.828,35.156,21.973,15.137,0
150134.989,27.832,41.504,39.551,30.273,32.227,0
150134.993,35.156,34.180,36.133,40.039,75.684,0
150134.996,30.273,33.203,28.320,33.203,69.824,0
150135.000,23.926,37.109,28.320,23.438,44.922,0
150135.004,27.344,40.039,36.621,32.227,22.461,0
150135.006,40.527,41.504,40.039,46.875,63.965,0
150135.010,41.504,42.480,35.156,41.992,122.559,0
150135.014,34.668,50.293,34.668,31.738,41.016,0
150135.018,37.109,33.203,34.668,39.062,-37.598,0
150135.022,37.598,21.973,28.809,46.875,14.648,0
150135.026,35.156,38.086,25.391,37.109,49.805,0
150135.030,35.156,40.527,34.180,27.344,13.184,0
150135.034,28.809,36.133,39.551,21.973,-67.383,0
150135.037,29.785,40.039,37.598,26.855,-41.504,0
150135.041,55.664,46.875,42.480,43.457,90.332,0
150135.045,48.340,44.434,45.410,34.668,100.586,0
150135.049,17.090,44.434,44.434,15.625,-13.184,0
150135.051,20.508,44.922,34.668,23.438,-23.438,0
150135.055,39.062,38.574,28.809,38.574,41.016,0
150135.059,47.852,35.156,39.062,43.457,43.945,0
150135.063,41.992,41.016,45.898,38.086,16.602,0
150135.067,31.250,32.227,41.504,36.621,-8.789,0
150135.071,40.039,26.855,36.621,39.062,35.156,0
150135.075,48.340,44.434,35.156,38.086,62.012,0
150135.079,39.062,48.828,41.504,32.715,10.742,0
150135.082,35.645,42.480,50.293,37.598,-16.113,0
150135.086,36.133,38.086,43.457,39.062,30.273,0
150135.090,30.762,36.133,39.551,27.832,70.801,0
150135.094,27.832,39.062,41.992,17.090,10.254,0
150135.098,28.809,39.062,39.551,15.625,-47.363,0
150135.101,38.574,35.645,39.551,34.668,17.578,0
150135.105,51.270,48.340,33.691,38.086,88.867,0
150135.109,47.363,46.875,36.133,25.391,50.293,0
150135.113,28.320,29.297,44.434,20.020,-11.719,0
150135.117,19.043,31.738,48.340,24.902,-27.832,0
150135.121,41.016,46.875,53.711,34.180,10.254,0
150135.125,44.922,48.340,45.410,33.203,20.020,0
150135.129,29.785,47.852,43.945,24.902,-21.973,0
150135.133,33.203,56.152,59.082,31.250,-12.207,0
150135.137,49.805,62.012,54.688,41.504,53.711,0
150135.140,54.199,62.500,51.758,46.387,63.965,0
150135.156,43.457,67.871,53.711,37.109,35.645,0
150135.160,42.969,79.590,52.734,34.668,-8.301,0
150135.164,44.922,76.172,50.781,48.828,37.109,0
150135.168,36.133,63.965,42.969,40.039,70.801,0
150135.172,29.297,51.758,44.922,23.926,3.418,1
150135.176,26.367,61.035,52.734,20.996,-56.641,0
150135.180,27.832,72.266,50.293,25.879,-14.648,0
150135.184,38.086,68.848,53.711,35.156,79.102,0
150135.187,44.922,69.824,58.105,39.062,73.242,0
150135.191,42.480,72.266,53.711,33.691,-24.414,0
150135.195,30.762,58.594,51.270,30.762,-45.898,0
150135.199,33.691,51.270,50.293,35.645,34.668,0
150135.201,40.527,62.012,42.969,32.227,78.125,0
150135.205,35.645,62.988,40.527,23.438,26.855,0
150135.209,37.598,63.477,51.758,33.203,-10.742,0
150135.213,35.156,62.500,47.363,36.621,49.805,0
150135.217,33.691,52.734,42.969,23.926,85.938,0
150135.221,32.227,47.852,51.758,21.973,57.129,0
150135.225,20.508,29.297,46.387,20.996,-12.695,0
150135.229,25.391,35.156,43.945,26.367,19.531,0
150135.232,35.156,59.570,47.852,30.762,115.234,0
150135.236,31.250,61.035,51.270,25.879,43.457,0
150135.240,30.762,57.129,54.199,34.668,-24.902,0
150135.244,36.621,62.012,39.551,44.922,18.066,0
150135.246,48.828,67.871,37.598,45.898,53.711,0
150135.250,48.340,61.523,55.664,44.922,33.691,0
150135.254,36.621,54.688,56.641,35.156,-36.621,0
150135.258,30.273,52.246,54.688,32.715,-40.527,0
150135.262,36.133,43.457,55.664,35.645,48.828,0
150135.266,45.898,34.668,58.105,41.504,62.012,0
150135.270,34.668,32.715,55.664,38.086,13.672,0
150135.274,17.090,35.645,39.062,24.902,4.395,0
150135.277,31.250,53.223,35.645,31.738,66.406,0
150135.281,49.805,68.359,40.039,37.598,62.988,0
150135.285,35.645,55.664,46.387,32.715,-5.859,0
150135.289,15.625,39.551,51.758,27.344,-35.645,0
150135.291,23.926,33.203,55.176,30.762,-6.836,0
150135.295,39.062,29.785,53.223,37.109,48.340,0
150135.299,42.480,38.086,50.293,37.109,16.113,0
150135.303,37.598,39.062,50.293,38.574,-34.668,0
150135.307,34.180,29.785,42.480,40.039,-18.555,0
150135.311,51.270,25.879,47.363,48.828,68.848,0
150135.315,54.199,28.320,62.988,48.340,83.984,0
150135.318,35.645,28.320,64.453,33.203,-24.414,0
150135.322,27.832,25.879,46.875,28.320,-85.449,0
150135.326,27.344,30.762,49.805,33.203,20.508,0
150135.330,35.645,30.273,62.988,30.273,114.258,0
150135.334,33.203,44.434,55.176,21.973,60.059,0
150135.337,19.531,41.992,56.152,21.484,-23.926,0
150135.340,16.113,28.809,55.664,22.949,9.766,0
150135.344,27.832,29.297,53.223,30.762,84.961,0
150135.348,34.180,26.367,48.828,27.832,4.883,0
150135.352,22.949,31.738,43.945,20.020,-72.754,0
150135.356,27.832,41.504,48.828,33.203,1.465,0
150135.360,38.086,44.922,48.828,42.969,72.266,0
150135.364,28.320,36.133,48.340,33.203,4.395,0
150135.368,22.949,26.855,52.734,29.297,-51.270,0
150135.372,32.227,43.945,52.734,34.180,20.020,0
150135.376,35.645,43.945,45.898,33.203,103.516,0
150135.380,29.297,38.086,49.805,34.668,76.660,0
150135.383,24.902,41.504,48.340,35.156,-19.531,0
150135.387,21.484,40.039,42.969,31.250,-42.969,0
150135.390,28.320,40.039,48.340,37.109,33.691,0
150135.394,36.621,38.086,45.898,35.645,78.613,0
150135.398,23.926,44.434,47.363,26.367,23.438,0
150135.402,19.043,47.363,52.734,28.809,-13.672,0
150135.406,29.785,39.062,56.152,35.645,27.832,0
150135.410,41.992,35.156,60.059,44.922,60.059,0
150135.414,40.527,40.039,63.477,41.992,37.109,0
150135.418,37.598,51.270,58.594,36.133,-11.719,0
150135.422,47.852,65.430,50.781,44.434,18.066,0
150135.426,54.688,65.430,51.758,47.363,84.961,0
150135.427,48.828,62.012,54.688,40.527,73.730,0
150135.431,24.902,56.152,46.875,26.367,31.250,0
150135.435,22.461,54.688,45.898,22.949,-3.418,0
150135.439,38.574,53.223,46.875,30.762,38.574,0
150135.443,39.551,38.574,43.945,21.973,70.312,0
150135.447,34.180,30.762,52.734,19.531,25.879,0
150135.450,37.598,46.875,56.152,33.691,9.277,0
150135.454,38.574,60.059,47.363,31.250,62.012,0
150135.458,37.598,51.270,40.039,23.926,103.027,0
150135.462,41.016,55.664,41.016,22.949,49.805,0
150135.466,41.016,70.801,38.574,29.297,-15.625,0
150135.470,39.062,73.730,41.504,38.086,24.902,0
150135.472,41.504,52.734,48.828,37.109,83.984,0
150135.476,41.016,39.551,48.340,32.715,45.898,0
150135.480,42.480,54.688,54.199,41.016,-42.969,0
150135.484,41.016,59.082,55.664,44.434,-47.363,0
150135.488,47.852,51.270,51.270,45.410,81.055,0
150135.491,51.758,51.758,49.316,48.828,87.891,0
150135.495,39.062,54.199,49.805,38.574,2.930,0
150135.499,34.668,53.223,54.688,33.203,15.625,0
150135.503,42.969,52.246,53.711,38.574,68.848,0
150135.507,41.992,39.062,47.363,41.992,83.008,0
150135.511,41.992,45.898,48.828,38.574,13.672,0
150135.515,40.527,66.406,51.758,40.039,0.977,0
150135.531,34.180,60.059,43.945,36.621,86.426,0
150135.535,36.621,50.293,40.039,30.273,100.586,0
150135.539,35.156,51.758,47.852,29.785,21.484,0
150135.543,25.879,51.758,53.711,26.855,-21.973,0
150135.547,29.297,50.781,51.270,35.645,42.480,0
150135.551,43.457,50.781,47.363,45.410,101.074,0
150135.555,40.527,48.828,53.711,40.527,54.199,0
150135.559,34.668,45.410,52.734,36.621,8.301,0
150135.562,40.039,53.223,53.223,40.039,-29.785,0
150135.566,46.875,59.082,58.105,38.574,8.789,0
150135.570,44.922,41.016,51.270,32.715,40.039,0
150135.574,38.086,39.062,44.434,30.273,-12.207,0
150135.576,28.320,62.988,41.016,37.109,-9.277,0
150135.580,16.602,56.152,49.316,34.180,41.016,0
150135.584,26.855,47.363,56.152,35.645,85.449,0
150135.588,33.203,49.805,53.223,37.109,41.016,0
150135.592,25.391,45.898,49.316,28.320,-49.805,0
150135.596,30.273,47.363,40.039,28.320,2.930,0
150135.600,40.527,53.711,38.574,24.414,98.633,0
150135.603,36.621,51.758,45.410,18.555,110.840,0
150135.607,27.344,39.551,46.387,19.043,66.895,0
150135.611,36.621,45.410,47.363,23.438,14.648,0
150135.615,39.062,59.082,44.434,28.809,29.785,0
150135.619,37.598,61.035,43.945,31.250,44.922,0
150135.622,32.715,57.617,46.387,34.180,-0.977,0
150135.626,28.809,47.363,43.945,39.551,-19.531,0
150135.630,36.621,45.898,43.457,43.945,39.062,0
150135.634,32.715,54.199,49.805,44.434,77.148,0
150135.637,21.484,48.340,46.875,37.109,21.484,0
150135.641,21.484,45.898,40.527,34.668,-5.859,0
150135.645,29.297,55.176,40.527,45.898,38.574,0
150135.649,46.875,59.082,45.410,55.176,58.594,0
150135.653,47.363,50.293,47.363,46.875,17.090,0
150135.657,22.461,33.691,48.340,31.250,-39.062,0
150135.661,22.461,35.156,54.688,29.785,7.812,0
150135.665,24.902,57.129,43.945,28.809,96.191,0
150135.666,20.996,60.547,36.621,22.461,75.195,0
150135.670,16.113,55.664,40.527,19.043,-3.906,0
150135.674,19.043,51.270,42.480,33.203,24.902,0
150135.678,35.645,51.270,50.781,43.457,98.633,0
150135.682,34.180,52.246,52.246,30.762,49.805,0
150135.686,25.391,47.363,49.316,27.832,-26.855,0
150135.690,16.602,39.551,41.992,31.250,7.812,0
150135.694,30.273,47.852,41.992,41.992,50.293,2
150135.698,45.410,60.059,52.734,50.293,16.113,0
150135.701,22.461,57.617,47.852,30.273,-18.066,0
150135.705,6.348,37.109,34.180,14.160,5.371,0
150135.709,21.973,32.227,21.484,20.996,40.527,0
150135.711,34.180,52.246,24.414,27.344,71.289,0
150135.715,24.414,59.082,41.016,23.438,52.246,0
150135.719,14.160,56.152,40.527,14.160,20.508,0
150135.723,24.414,45.410,36.133,19.531,59.082,0
150135.727,38.574,47.363,47.363,36.621,80.078,0
150135.731,38.574,62.012,54.688,32.715,23.926,0
150135.735,37.109,72.266,55.664,28.320,-31.250,0
150135.739,45.898,65.918,48.828,38.086,-47.363,0
150135.742,47.852,60.059,47.363,35.645,-9.277,0
150135.746,41.016,57.129,54.199,35.156,42.480,0
150135.750,30.273,51.270,47.363,35.645,26.367,0
150135.754,24.902,61.035,39.551,33.203,17.090,0
150135.756,30.762,79.102,41.504,36.133,103.516,0
150135.760,26.367,88.867,42.969,32.715,134.277,0
150135.764,30.273,90.332,49.805,31.250,35.156,0
150135.768,39.062,96.191,52.734,36.621,-0.977,0
150135.772,44.922,108.398,43.945,50.293,91.309,0
150135.776,54.199,108.398,41.016,55.664,121.582,0
150135.780,50.781,108.398,45.410,48.340,37.109,0
150135.784,45.898,107.422,45.410,33.203,-45.898,0
150135.787,45.410,109.375,41.992,32.227,-18.066,0
150135.791,50.781,113.281,48.828,45.410,59.082,0
150135.795,46.875,109.863,49.805,39.062,44.434,0
150135.799,37.109,100.098,41.504,23.438,-38.086,0
150135.802,34.668,94.727,39.062,22.461,-38.086,0
150135.806,42.969,119.141,37.598,34.180,33.203,0
150135.810,41.504,116.211,31.250,30.273,40.527,0
150135.814,33.203,104.980,33.203,30.273,-21.973,0
150135.818,32.227,102.051,37.109,35.156,-47.363,0
150135.822,36.621,100.586,36.133,31.738,34.180,0
150135.826,50.293,104.980,39.551,34.180,51.758,0
150135.830,48.828,108.398,41.992,35.645,-5.859,0
150135.834,37.598,103.516,43.945,38.574,-23.438,0
150135.838,48.828,99.609,49.805,45.898,16.113,0
150135.842,59.082,101.074,50.293,44.922,85.449,0
150135.845,41.992,96.680,46.387,29.785,58.105,0
150135.848,28.809,94.238,47.363,22.949,-12.695,0
150135.851,35.645,97.168,45.410,30.762,21.484,0
150135.855,47.363,96.191,46.387,37.109,57.129,0
150135.859,38.574,88.867,41.016,31.738,26.367,0
150135.863,33.691,88.867,46.387,33.691,-8.789,0
150135.867,35.156,91.309,58.594,38.574,-9.277,0
150135.871,34.180,80.078,56.641,35.645,69.824,0
150135.875,40.527,67.383,50.781,39.062,84.961,0
150135.879,42.480,67.383,46.875,41.504,43.945,0
150135.883,40.527,69.824,50.781,42.969,16.602,0
150135.887,50.781,71.289,48.828,50.293,30.762,0
150135.890,54.199,72.754,41.504,47.852,70.312,0
150135.907,43.457,74.707,40.527,39.551,11.230,0
150135.911,38.086,64.453,42.480,39.062,-44.434,0
150135.914,43.457,64.453,44.434,42.480,12.207,0
150135.918,55.176,80.566,49.805,45.898,80.566,0
150135.922,41.992,85.449,51.758,41.992,55.176,0
150135.926,27.832,84.473,54.688,40.039,-46.875,0
150135.930,40.039,73.242,55.664,45.410,-52.246,0
150135.934,41.504,65.918,46.387,45.898,38.574,0
150135.938,33.691,65.918,45.410,45.898,86.426,0
150135.942,35.156,65.918,58.594,43.457,32.227,0
150135.946,30.762,59.570,56.641,35.645,22.461,0
150135.950,32.715,51.270,42.480,41.504,88.379,0
150135.952,45.410,62.500,46.875,46.387,88.379,0
150135.956,47.852,60.547,58.594,46.387,26.367,0
150135.960,35.645,64.941,58.105,43.945,-10.742,0
150135.964,41.016,78.125,53.223,44.434,48.828,0
150135.968,51.758,68.848,47.852,49.805,82.520,0
150135.972,41.016,56.152,49.805,42.480,41.016,0
150135.976,30.273,51.758,47.363,32.715,-17.578,0
150135.979,40.527,47.852,44.434,45.410,-13.672,0
150135.983,63.477,56.152,62.012,59.570,57.617,0
150135.987,54.199,58.105,64.453,45.410,-16.602,0
150135.991,31.738,53.223,56.152,29.785,-97.656,0
150135.995,27.344,62.012,53.223,26.367,-24.902,0
150135.997,39.551,58.594,49.805,40.039,65.430,0
150136.001,45.410,58.594,49.805,48.340,50.781,0
150136.005,35.645,57.617,47.852,39.062,10.742,0
150136.009,34.180,51.270,47.852,32.227,11.230,0
150136.012,50.293,54.688,52.734,41.504,94.238,0
150136.016,56.152,57.129,51.270,45.898,101.562,0
150136.020,46.387,50.293,52.246,39.062,-15.625,0
150136.024,37.598,56.641,52.734,37.598,-38.574,0
150136.028,41.504,63.965,51.270,36.621,33.691,0
150136.032,47.852,57.129,52.734,36.133,49.805,0
150136.036,44.434,49.316,52.246,36.621,33.691,0
150136.040,35.156,46.387,41.016,32.227,-19.043,0
150136.041,41.016,54.199,38.086,39.062,-10.742,0
150136.045,47.852,50.781,42.480,49.316,39.551,0
150136.049,40.039,41.992,44.434,42.969,16.602,0
150136.053,36.621,58.594,51.758,31.250,-38.086,0
150136.057,40.527,69.824,57.617,35.156,-33.203,0
150136.061,47.852,69.336,53.223,49.805,42.969,0
150136.065,47.363,66.406,42.969,46.387,72.266,0
150136.069,38.574,58.594,44.922,30.762,4.883,0
150136.072,32.227,51.758,47.852,27.832,-36.133,0
150136.076,36.133,56.641,43.457,38.574,-12.207,0
150136.080,46.387,62.500,47.363,41.016,7.324,0
150136.084,42.969,61.035,51.758,32.715,-15.137,0
150136.088,30.762,62.012,46.387,24.902,-46.387,0
150136.091,38.574,63.477,45.898,28.320,8.789,0
150136.095,47.852,61.523,46.875,35.645,90.332,0
150136.099,35.156,59.570,37.598,25.879,30.762,0
150136.103,29.785,61.035,40.039,21.973,-30.762,0
150136.107,40.039,62.988,50.293,35.645,-7.812,0
150136.111,46.387,58.105,51.758,42.969,39.551,0
150136.115,42.969,64.941,56.152,39.551,42.480,0
150136.119,36.621,55.176,51.270,29.297,8.301,0
150136.123,31.738,44.922,40.527,15.137,8.789,0
150136.127,39.551,67.383,43.457,22.461,36.621,0
150136.130,46.875,75.684,50.293,33.203,34.668,0
150136.131,39.062,72.266,53.223,25.391,-9.766,0
150136.135,36.133,70.312,48.828,21.973,-10.742,0
150136.139,41.504,63.477,49.805,32.227,58.105,0
150136.143,43.457,64.453,46.875,37.598,117.188,0
150136.147,39.062,69.824,41.992,28.809,78.125,0
150136.151,29.785,66.406,46.387,26.855,-1.465,0
150136.155,34.668,64.453,46.875,37.109,12.207,0
150136.159,52.246,68.359,54.199,41.504,31.738,0
150136.162,45.898,66.406,58.105,28.809,2.441,0
150136.166,34.668,64.453,51.758,24.902,-14.648,0
150136.170,34.180,61.035,45.410,32.227,-6.836,0
150136.174,34.668,58.105,42.480,32.227,24.414,0
150136.176,39.062,56.641,48.828,31.250,31.250,0
150136.180,34.668,48.828,48.828,22.461,0.488,0
150136.184,36.621,58.105,42.480,27.832,-16.113,0
150136.188,46.875,71.777,43.945,38.574,41.016,0
150136.192,46.875,72.266,52.246,38.086,115.234,0
150136.196,39.551,68.848,48.340,28.320,84.961,0
150136.200,33.203,65.430,40.039,21.973,32.227,0
150136.204,45.410,71.777,45.410,39.062,63.477,0
150136.208,48.340,64.453,46.875,44.434,92.285,0
150136.211,28.809,53.711,37.109,19.043,65.918,0
150136.215,17.090,54.688,37.109,4.883,27.344,0
150136.219,12.695,53.223,40.527,18.066,56.641,1
150136.221,24.902,50.293,50.781,31.738,120.117,0
150136.225,29.297,54.688,56.641,24.902,79.590,0
150136.229,15.625,50.293,51.758,14.648,1.953,0
150136.233,14.648,52.734,47.363,16.602,52.734,0
150136.237,31.250,68.359,47.852,33.691,126.953,0
150136.241,35.645,66.406,51.758,33.691,107.422,0
150136.245,22.949,52.734,53.223,27.832,50.781,0
150136.249,23.926,51.270,50.781,30.762,-9.766,0
150136.252,32.227,44.922,41.992,35.156,66.406,0
150136.256,35.645,38.086,38.574,33.691,88.379,0
150136.260,23.438,45.898,42.969,19.531,5.859,0
150136.264,14.648,48.828,52.246,14.160,-3.906,0
150136.281,20.996,54.688,56.641,28.320,41.016,0
150136.285,27.832,57.617,54.688,31.738,72.266,0
150136.289,22.949,50.293,55.664,16.602,15.137,0
150136.293,20.020,49.805,59.570,17.090,-40.039,0
150136.297,41.504,54.688,58.594,31.250,-12.207,0
150136.301,45.410,40.527,47.852,33.691,54.199,0
150136.305,27.832,25.879,48.828,25.391,65.430,0
150136.309,23.438,43.457,60.059,28.320,24.414,0
150136.312,25.879,56.641,64.453,32.715,13.184,0
150136.316,30.762,65.430,63.477,32.715,84.961,0
150136.320,36.133,68.848,61.035,37.598,141.113,0
150136.324,23.438,62.500,55.664,22.949,73.242,0
150136.314,19.531,61.035,54.688,14.648,17.090,0
150136.318,29.785,52.246,53.711,27.832,79.590,0
150136.322,33.691,50.293,58.105,26.855,128.418,0
150136.326,28.320,40.039,57.617,16.113,55.176,0
150136.330,29.785,31.738,56.641,20.996,-23.438,0
150136.333,39.551,50.293,51.270,26.855,-21.484,0
150136.337,52.246,67.871,46.387,33.203,42.969,0
150136.341,38.086,71.289,51.758,25.391,46.875,0
150136.345,19.043,66.895,54.199,8.301,-3.906,0
150136.349,34.668,63.477,61.035,20.020,10.254,0
150136.353,46.387,60.059,61.523,34.668,93.750,0
150136.357,42.969,51.758,55.664,34.180,78.125,0
150136.371,42.480,50.293,57.617,30.273,-15.137,0
150136.375,53.711,59.570,60.547,32.227,-5.859,0
150136.379,48.340,54.199,51.270,37.109,56.152,0
150136.383,45.898,59.082,47.363,41.016,77.637,0
150136.387,44.922,68.359,57.129,39.062,20.020,0
150136.391,33.203,48.340,51.270,27.832,-70.801,0
150136.395,40.039,39.062,47.363,34.668,-12.207,0
