timestamps,TP9,AF7,AF8,TP10,Right AUX,Marker0
150710.682,22.949,26.855,37.109,18.066,-1.953,0
150710.686,45.410,33.203,42.969,30.762,69.824,0
150710.690,44.434,32.227,41.016,32.715,97.656,0
150710.694,35.156,31.250,31.250,26.855,31.250,0
150710.698,42.480,13.184,24.414,38.574,0.977,0
150710.702,52.246,21.973,36.621,55.176,63.965,0
150710.706,36.133,47.852,34.180,39.551,56.152,0
150710.710,12.695,37.598,27.344,17.090,2.441,0
150710.714,10.254,31.250,28.809,18.555,-11.230,0
150710.717,20.508,31.738,24.902,29.297,14.160,0
150710.721,29.785,30.762,33.691,35.645,72.266,0
150710.725,24.902,31.738,42.969,30.273,76.660,0
150710.727,20.996,27.832,39.551,27.832,20.996,0
150710.731,31.738,22.949,35.156,33.203,37.598,0
150710.735,48.340,30.762,39.551,39.062,66.895,0
150710.739,49.805,27.832,41.992,40.527,51.270,0
150710.743,34.668,33.203,33.691,26.367,0.977,0
150710.747,29.297,44.922,34.668,20.020,-25.391,0
150710.751,39.062,44.922,27.344,35.156,20.020,0
150710.755,31.738,37.598,25.879,34.668,20.996,0
150710.759,16.113,22.461,36.621,23.926,-68.848,0
150710.762,15.625,21.973,32.715,27.832,-99.121,0
150710.766,25.879,27.832,40.527,36.621,20.508,0
150710.770,29.297,34.668,41.016,35.645,49.805,0
150710.772,22.949,32.715,35.645,24.414,-17.090,0
150710.776,22.949,24.414,37.598,27.832,-44.922,0
150710.780,37.109,35.156,34.180,41.992,5.371,0
150710.784,48.828,40.527,20.508,42.969,71.777,0
150710.788,41.992,37.109,23.926,35.156,78.125,0
150710.792,34.180,34.180,40.039,27.832,-0.488,0
150710.796,40.039,25.879,45.410,35.156,-6.348,0
150710.800,46.387,36.133,43.945,46.387,68.359,0
150710.804,41.992,41.992,35.156,41.504,37.598,0
150710.807,36.621,45.410,35.645,36.133,-15.625,0
150710.811,34.180,42.480,32.715,35.156,1.465,0
150710.815,34.180,35.645,25.879,29.785,68.359,0
150710.818,37.598,30.762,29.297,30.273,75.684,0
150710.822,34.668,27.344,25.391,33.691,16.602,0
150710.826,32.227,36.621,23.926,34.668,-11.719,0
150710.830,54.199,39.551,43.457,48.828,20.020,0
150710.834,59.082,36.133,54.688,50.293,52.734,0
150710.837,47.363,31.250,51.758,37.109,30.762,0
150710.841,44.434,40.527,43.945,29.297,-19.043,0
150710.845,44.922,55.664,31.738,34.668,-10.742,0
150710.849,40.527,44.922,32.227,34.180,62.012,0
150710.853,28.809,32.227,30.762,20.020,85.938,0
150710.857,28.809,22.949,27.832,20.020,13.672,0
150710.861,36.621,26.855,34.668,34.180,-34.180,0
150710.863,42.480,28.809,39.551,42.969,40.039,0
150710.867,41.504,24.414,42.480,40.039,55.176,0
150710.870,38.574,35.645,45.898,39.551,11.230,0
150710.874,34.668,42.480,38.574,37.598,20.508,0
150710.878,45.898,36.133,37.109,43.945,28.320,0
150710.882,48.828,31.250,38.574,40.527,50.781,0
150710.886,35.156,37.109,32.227,28.320,21.973,0
150710.890,33.203,32.227,37.109,32.227,-54.199,0
150710.894,44.434,29.785,42.480,44.922,0.488,0
150710.898,59.570,39.062,33.691,51.758,71.777,0
150710.902,56.641,40.527,34.180,46.875,24.414,0
150710.906,40.039,39.551,35.645,40.527,-54.199,0
150710.908,44.434,41.992,34.668,44.922,-26.855,0
150710.912,54.199,39.062,39.551,54.688,51.758,0
150710.916,42.969,36.133,38.086,45.898,75.195,0
150710.920,32.715,40.527,41.016,35.645,30.762,0
150710.924,42.969,33.691,44.434,44.922,17.090,0
150710.928,49.316,19.043,41.992,49.805,91.797,0
150710.932,39.551,35.156,46.875,40.527,83.496,0
150710.936,35.156,52.734,50.781,34.668,-12.207,0
150710.940,34.668,45.898,44.434,36.621,-37.109,0
150710.943,43.457,37.598,41.016,45.410,45.898,0
150710.947,45.410,33.691,37.598,41.992,81.543,0
150710.951,26.855,29.785,34.668,29.785,41.504,0
150710.952,23.926,33.691,30.273,28.320,15.137,0
150710.956,37.598,29.297,28.809,37.109,83.984,0
150710.960,41.992,30.762,43.457,40.039,110.840,0
150710.964,35.645,31.738,46.387,38.086,75.195,0
150710.968,17.578,20.020,30.762,24.414,15.625,0
150710.972,16.602,36.621,29.785,23.926,17.090,0
150710.976,25.879,44.434,33.691,28.809,85.938,0
150710.980,20.020,32.227,33.203,16.113,62.500,0
150710.984,20.996,33.203,35.156,19.531,18.555,0
150710.988,23.926,36.621,31.738,26.855,39.062,0
150710.991,29.785,28.809,30.762,31.250,100.098,0
150710.995,35.156,33.203,32.227,33.203,81.543,0
150710.997,29.297,35.156,36.621,31.738,43.457,0
150711.001,33.691,33.691,40.039,43.945,23.438,0
150711.005,43.945,37.598,38.574,49.805,27.344,0
150711.009,39.062,29.785,33.691,39.551,66.406,0
150711.013,29.785,13.184,31.250,34.668,54.199,0
150711.017,28.320,26.855,36.133,38.086,-8.789,0
150711.021,32.227,42.969,40.527,41.504,-3.906,0
150711.025,36.133,30.273,45.898,41.992,50.293,0
150711.029,32.715,29.297,40.039,37.109,29.785,0
150711.033,29.297,43.457,24.902,35.645,-15.625,0
150711.036,34.668,48.828,26.367,36.621,5.859,0
150711.040,38.086,41.016,35.645,29.785,80.566,0
150711.057,31.250,34.180,40.039,18.555,77.148,0
150711.061,25.879,33.691,42.480,18.066,4.883,0
150711.065,32.227,35.156,45.410,26.367,6.836,0
150711.069,45.898,36.133,38.574,38.086,52.734,0
150711.073,51.758,24.902,35.156,47.363,35.156,0
150711.077,45.410,26.367,29.297,43.945,-26.367,0
150711.081,41.504,41.016,24.902,41.016,-71.289,0
150711.085,40.527,46.875,30.762,44.434,-14.648,0
150711.089,39.551,48.340,33.691,43.457,53.223,0
150711.093,32.227,42.969,41.016,35.645,50.781,0
150711.096,23.438,38.574,41.504,30.273,26.367,0
150711.100,30.762,36.133,39.551,36.133,56.641,0
150711.102,40.039,33.691,41.016,42.480,101.562,0
150711.106,37.598,34.668,34.668,37.598,89.844,0
150711.110,34.668,35.645,27.832,32.715,52.246,0
150711.114,41.504,33.691,31.738,36.133,102.051,0
150711.118,48.340,34.180,41.504,44.434,144.531,0
150711.122,50.781,39.062,44.434,47.852,91.309,0
150711.126,46.387,24.902,33.691,41.504,27.832,0
150711.130,47.852,24.902,24.414,47.363,-13.184,0
150711.133,44.434,46.387,20.996,49.316,14.160,0
150711.137,38.086,47.363,27.832,41.016,88.867,0
150711.141,35.156,47.852,41.016,39.062,55.664,0
150711.145,28.809,41.504,43.945,40.039,-2.930,0
150711.147,29.785,31.250,41.992,40.039,58.105,0
150711.151,26.367,25.879,32.227,31.250,129.883,0
150711.155,20.996,23.926,30.273,24.414,105.957,0
150711.159,19.531,31.250,30.273,27.344,53.711,0
150711.163,27.832,39.551,27.344,37.109,52.734,1
150711.167,37.598,38.086,26.855,42.969,75.684,0
150711.171,39.062,25.879,35.156,38.086,41.016,0
150711.175,34.668,32.715,47.852,34.668,-8.301,0
150711.179,36.133,45.898,53.223,37.598,-17.090,0
150711.183,42.969,39.551,50.781,41.504,41.992,0
150711.186,35.645,26.855,29.297,32.227,90.820,0
150711.190,26.855,36.621,14.648,25.391,23.926,0
150711.192,24.902,43.945,16.602,21.973,-18.555,0
150711.196,37.109,33.203,29.785,30.762,59.082,0
150711.200,41.016,33.203,40.039,37.109,124.512,0
150711.204,26.367,33.691,41.504,27.832,90.332,0
150711.208,26.367,33.691,39.062,30.273,31.250,0
150711.212,41.504,16.113,38.574,37.598,64.453,0
150711.216,52.246,25.391,43.457,41.016,113.281,0
150711.220,44.922,59.570,35.645,33.203,56.152,0
150711.224,31.250,56.152,30.762,17.578,-41.992,0
150711.227,30.762,37.598,30.273,17.090,1.953,0
150711.231,38.574,30.762,25.391,24.414,109.375,0
150711.235,42.969,37.598,25.391,31.250,69.336,0
150711.237,43.945,39.062,29.297,36.133,1.465,0
150711.241,37.109,35.156,33.691,30.762,12.207,0
150711.245,32.715,31.738,38.574,32.715,104.492,0
150711.249,35.645,32.715,34.180,36.133,122.070,0
150711.253,30.762,33.691,31.250,31.738,44.434,0
150711.257,29.297,32.715,40.527,36.621,27.832,0
150711.261,38.086,40.039,41.016,42.480,84.473,0
150711.265,41.016,38.574,43.945,41.016,74.707,0
150711.269,31.250,31.250,41.016,33.203,15.625,0
150711.272,20.020,30.273,30.762,22.461,30.762,0
150711.276,22.949,22.949,17.090,22.461,90.820,0
150711.280,32.227,22.461,17.090,23.438,133.789,0
150711.284,33.691,24.414,40.527,21.484,77.637,0
150711.287,33.203,29.785,43.945,25.391,-21.484,0
150711.291,43.945,40.039,31.738,30.273,-21.973,0
150711.295,54.688,42.480,32.227,32.227,58.594,0
150711.299,50.781,38.086,32.227,31.250,87.891,0
150711.303,40.527,29.785,31.738,28.809,10.254,0
150711.307,41.992,30.273,42.480,36.133,-15.625,0
150711.311,49.316,44.434,45.410,41.992,66.895,0
150711.315,47.363,45.898,43.457,37.598,116.211,0
150711.319,37.109,40.527,32.227,27.832,43.457,0
150711.323,37.109,37.109,21.973,27.344,-8.789,0
150711.327,48.828,38.574,28.320,42.969,13.184,0
150711.328,54.688,35.645,35.156,50.781,70.801,0
150711.331,47.363,34.668,41.016,40.527,76.172,0
150711.335,41.016,35.645,44.434,33.203,-25.391,0
150711.339,41.016,30.273,41.016,35.645,-7.812,0
150711.343,32.715,25.879,33.203,29.785,62.988,0
150711.347,28.320,28.809,33.203,21.973,24.414,0
150711.351,23.926,36.621,37.109,20.996,-21.973,0
150711.355,24.902,34.180,34.668,26.367,-15.625,0
150711.359,33.691,21.484,21.973,35.156,21.484,0
150711.363,38.086,33.203,35.156,37.109,54.688,0
150711.367,24.414,42.969,47.363,29.297,33.691,0
150711.370,13.184,29.785,27.344,21.973,20.508,0
150711.374,24.902,37.109,17.578,31.250,57.129,0
150711.378,29.297,42.969,28.809,34.180,71.777,0
150711.382,20.508,30.273,36.133,21.973,8.789,0
150711.386,20.020,22.949,36.621,22.461,-26.855,0
150711.390,33.203,31.738,43.457,38.574,38.574,0
150711.393,41.016,39.551,37.109,45.410,80.078,0
150711.397,33.203,37.109,32.227,37.109,0.000,0
150711.401,31.250,40.527,37.598,41.992,-70.801,0
150711.405,38.086,31.250,35.156,44.434,-0.488,0
150711.409,47.363,23.926,33.691,39.551,55.176,0
150711.413,48.828,42.969,38.574,41.016,17.090,0
150711.417,36.133,43.945,37.598,37.598,-21.484,0
150711.433,27.832,36.621,35.156,32.227,17.090,0
150711.437,31.738,35.156,35.645,31.250,73.242,0
150711.441,37.109,34.668,36.621,27.832,63.965,0
150711.445,26.367,28.809,32.227,20.020,6.836,0
150711.449,26.855,29.297,30.762,26.367,-30.762,0
150711.453,40.527,40.527,28.320,35.645,-3.418,0
150711.457,38.086,39.551,20.020,26.855,42.480,0
150711.461,34.180,35.645,33.203,21.973,-6.348,0
150711.464,35.156,22.461,43.945,26.367,-73.730,0
150711.468,40.039,21.973,27.832,35.156,-15.137,0
150711.472,41.992,45.898,30.273,42.480,35.156,0
150711.476,33.691,51.270,33.691,35.156,6.836,0
150711.478,29.785,42.480,26.367,30.273,-4.395,0
150711.482,26.855,29.297,32.715,26.367,27.344,0
150711.486,23.926,26.855,27.344,22.461,90.820,0
150711.490,26.855,30.762,26.367,26.855,104.004,0
150711.494,30.762,30.273,36.133,32.227,41.992,0
150711.498,33.203,32.227,41.504,37.598,35.645,0
150711.501,36.621,33.203,30.762,38.574,89.844,0
150711.505,35.156,27.344,21.973,35.156,51.270,0
150711.509,32.715,16.602,30.762,37.109,2.930,0
150711.513,28.809,12.695,36.133,31.250,-21.973,0
150711.517,30.762,29.297,41.016,30.273,36.621,0
150711.521,31.250,37.598,41.992,34.180,113.281,0
150711.522,24.414,41.504,35.156,30.273,7.812,0
150711.526,15.625,38.574,20.996,24.902,-61.523,0
150711.530,23.926,32.715,21.484,25.391,48.828,0
150711.534,37.109,40.039,32.227,28.809,101.562,0
150711.538,29.785,36.621,37.598,20.996,7.812,0
150711.542,20.020,22.461,40.039,15.137,-36.133,0
150711.546,26.855,17.090,38.086,25.391,17.578,0
150711.550,35.645,23.438,31.250,36.621,64.941,0
150711.554,42.480,43.945,39.062,41.504,29.785,0
150711.558,38.086,51.270,48.828,37.109,-47.363,0
150711.561,26.367,27.832,31.250,30.273,-20.996,0
150711.565,26.855,28.320,20.996,31.250,29.785,0
150711.567,23.438,43.945,30.762,32.715,21.973,0
150711.571,9.766,33.203,37.598,28.320,-10.742,0
150711.575,4.883,21.973,35.645,24.902,8.789,0
150711.579,13.184,26.367,28.320,30.762,57.129,0
150711.583,23.926,33.203,28.320,35.156,57.617,0
150711.587,40.039,43.457,31.250,36.621,16.602,0
150711.591,36.133,43.457,37.598,36.621,1.953,0
150711.595,29.785,41.016,46.875,34.668,56.152,0
150711.599,38.574,38.574,42.480,33.203,84.473,0
150711.602,38.574,34.668,40.039,29.785,79.102,0
150711.606,34.180,34.180,41.504,29.297,23.438,0
150711.610,31.250,33.203,33.203,26.367,-4.395,0
150711.614,40.039,29.785,28.809,31.738,101.074,0
150711.618,46.387,23.438,29.785,35.156,124.512,0
150711.621,42.969,45.410,30.273,33.691,42.480,0
150711.625,47.852,59.082,33.691,38.574,-4.883,0
150711.629,50.293,46.875,34.180,42.969,35.156,0
150711.633,47.363,46.387,32.227,46.387,85.938,0
150711.637,41.992,47.852,32.715,41.016,31.738,0
150711.641,36.133,38.574,29.785,34.668,-19.531,0
150711.645,45.410,37.598,32.227,40.039,26.367,0
150711.649,49.805,37.109,38.086,40.039,62.012,0
150711.653,40.039,29.785,34.180,33.691,43.945,0
150711.657,36.133,32.715,27.832,33.203,35.645,0
150711.657,45.898,33.203,34.180,40.039,39.062,0
150711.661,55.176,29.785,40.527,44.922,49.316,0
150711.665,43.457,44.434,38.086,37.598,40.527,0
150711.669,31.250,45.898,32.715,30.762,0.000,0
150711.673,39.551,40.039,20.020,36.621,-19.531,0
150711.677,47.852,36.133,16.602,42.969,63.965,0
150711.681,40.527,32.227,31.738,37.109,91.797,0
150711.685,32.715,36.133,44.434,28.320,-19.043,0
150711.689,32.715,38.574,46.875,34.668,-41.504,0
150711.693,43.457,48.828,35.156,47.852,47.363,0
150711.696,48.340,37.598,31.738,48.340,69.824,0
150711.700,44.434,20.996,44.434,44.434,12.207,0
150711.702,35.156,25.879,44.922,35.156,-26.367,0
150711.706,27.344,28.320,33.203,23.438,45.410,0
150711.710,37.109,35.645,32.715,25.391,90.820,0
150711.714,44.434,39.062,38.086,36.133,19.531,0
150711.718,41.504,38.574,41.016,35.645,-31.250,1
150711.722,39.062,37.598,36.621,31.738,-11.719,0
150711.726,48.828,34.180,30.762,33.203,21.484,0
150711.730,49.316,36.621,29.297,30.273,-13.672,0
150711.734,38.574,34.180,33.203,27.832,-25.391,0
150711.738,39.062,15.625,40.527,34.180,-17.578,0
150711.741,42.480,10.254,36.133,33.691,15.137,0
150711.745,44.434,36.621,40.039,35.156,37.109,0
150711.747,44.922,52.246,42.480,40.527,-5.371,0
150711.751,37.109,44.922,36.133,40.039,-28.320,0
150711.755,38.086,36.621,40.527,42.480,25.879,0
150711.759,43.945,45.898,44.434,43.945,70.801,0
150711.763,30.273,43.457,38.086,35.156,39.062,0
150711.767,23.438,25.391,37.598,31.738,-6.348,0
150711.771,37.109,22.949,40.527,38.574,5.859,0
150711.775,42.480,33.203,36.133,41.016,45.898,0
150711.779,34.180,37.598,31.250,34.180,55.664,0
150711.782,26.855,33.203,35.156,24.414,33.691,0
150711.786,34.180,28.809,41.016,30.273,43.457,0
150711.790,49.316,38.574,41.504,42.969,96.191,0
150711.807,44.922,52.734,34.668,34.180,104.980,0
150711.811,27.832,41.016,19.043,16.113,36.133,0
150711.815,31.250,39.062,19.043,16.602,12.695,0
150711.819,41.016,43.945,34.668,23.438,50.293,0
150711.823,38.574,40.527,43.457,30.273,55.664,0
150711.827,36.621,34.668,38.574,32.715,-11.719,0
150711.831,39.551,38.086,37.598,35.156,-89.844,0
150711.835,38.574,43.945,32.227,38.086,-41.504,0
150711.839,33.691,38.574,22.461,33.691,44.922,0
150711.842,27.344,33.203,26.855,23.926,21.973,0
150711.846,26.367,22.461,34.668,27.344,-26.855,0
150711.850,34.668,26.855,36.133,37.109,55.664,0
150711.852,45.410,40.527,27.344,41.016,107.422,0
150711.856,48.828,39.062,32.227,41.504,15.625,0
150711.860,39.062,39.551,43.457,37.598,-47.852,0
150711.864,40.527,43.945,51.758,41.504,-6.836,0
150711.868,48.828,39.062,46.875,48.340,40.527,0
150711.872,43.457,30.762,43.945,39.551,50.781,0
150711.876,34.180,32.715,44.922,34.180,10.742,0
150711.880,27.832,40.039,32.715,29.297,-15.625,0
150711.884,29.785,41.016,23.926,26.367,34.668,0
150711.887,32.715,41.016,25.391,26.367,51.270,0
150711.891,32.715,30.762,38.086,30.273,-14.648,0
150711.895,33.691,26.367,47.852,41.016,-58.594,0
150711.898,36.621,39.551,41.016,40.527,15.137,0
150711.902,37.598,40.039,37.598,38.574,84.473,0
150711.906,42.969,38.086,41.992,41.992,34.180,0
150711.910,46.875,45.898,41.992,49.316,-52.734,0
150711.914,49.316,49.316,37.598,57.129,-14.160,0
150711.917,45.410,32.715,27.832,52.734,63.477,0
150711.921,29.785,30.762,26.367,41.016,43.457,0
150711.925,24.414,39.551,35.156,37.109,11.719,0
150711.929,28.809,32.715,31.250,35.156,22.461,0
150711.933,31.738,28.320,27.344,37.598,53.711,0
150711.937,35.156,24.902,28.809,42.480,53.223,0
150711.941,34.180,12.695,34.180,37.109,5.859,0
150711.943,33.691,36.133,34.668,35.645,23.926,0
150711.947,35.645,55.176,24.414,35.156,78.613,0
150711.951,38.086,44.434,31.250,33.203,77.148,0
150711.954,31.250,36.621,40.039,26.855,27.344,0
150711.958,24.902,35.645,39.062,25.391,-10.254,0
150711.962,39.551,34.668,34.668,38.086,64.453,0
150711.966,41.504,31.738,31.250,34.668,114.746,0
150711.970,32.227,36.621,34.180,31.738,51.758,0
150711.974,29.297,33.691,30.762,33.203,-44.434,0
150711.978,31.250,33.203,28.809,28.809,-19.043,0
150711.982,35.156,26.855,33.691,25.391,71.289,0
150711.986,30.762,21.973,34.668,19.043,56.641,0
150711.988,21.484,38.086,34.668,13.672,23.438,0
150711.992,26.855,40.527,29.785,23.438,29.297,0
150711.996,39.551,34.180,28.320,41.504,49.805,0
150712.000,33.203,30.762,35.645,35.645,71.777,0
150712.004,21.484,29.785,44.434,26.367,30.273,0
150712.007,24.902,32.227,39.062,29.297,-8.789,0
150712.011,35.645,39.062,31.738,36.621,60.547,0
150712.015,32.715,39.551,32.715,33.691,55.176,0
150712.019,23.926,30.273,28.320,19.531,-44.434,0
150712.023,20.020,23.926,29.297,17.578,-33.203,0
150712.027,30.273,27.832,36.133,32.227,42.969,0
150712.031,43.945,22.949,38.086,38.574,41.016,0
150712.033,38.574,28.320,31.250,29.297,20.996,0
150712.037,30.762,40.039,29.785,23.926,20.020,0
150712.041,42.480,41.016,38.574,38.574,18.555,0
150712.045,49.316,45.410,31.250,41.992,82.520,0
150712.049,39.551,37.109,30.762,32.715,82.031,0
150712.053,32.227,32.715,33.203,31.250,-20.508,0
150712.056,32.227,33.691,32.227,32.715,-29.785,0
150712.060,37.109,30.762,40.039,35.156,44.434,0
150712.064,41.992,33.691,41.016,38.086,88.867,0
150712.068,37.109,40.039,36.621,35.645,43.457,0
150712.072,22.461,29.785,31.738,30.762,-1.953,0
150712.076,31.738,35.156,23.438,42.480,33.691,0
150712.080,54.199,55.664,28.320,50.781,75.195,0
150712.084,43.457,41.504,33.203,37.109,48.340,0
150712.088,31.250,31.738,29.297,28.320,-8.789,0
150712.092,43.945,41.016,36.621,45.898,0.488,0
150712.096,54.688,36.621,34.180,55.664,67.871,0
150712.100,48.828,37.598,28.320,41.016,36.133,0
150712.104,38.086,27.832,28.809,33.691,-24.902,0
150712.108,40.039,27.344,32.715,36.621,-7.324,0
150712.111,57.617,44.922,37.598,47.363,67.871,0
150712.115,59.570,50.293,29.785,48.340,96.191,0
150712.119,45.898,46.875,29.785,43.457,11.719,0
150712.123,40.527,40.039,34.180,45.410,-37.598,0
150712.123,43.945,33.203,42.969,53.711,48.340,0
150712.127,47.852,29.785,44.922,56.152,66.895,0
150712.131,36.621,34.180,36.621,50.781,-18.066,0
150712.135,31.250,32.227,35.156,47.852,-62.500,0
150712.139,42.480,20.020,39.062,49.316,-13.184,0
150712.143,46.387,25.391,40.039,49.316,47.852,0
150712.147,41.992,42.480,39.062,43.457,-5.371,0
150712.151,32.715,50.293,33.203,37.598,-61.523,0
150712.155,37.109,43.457,28.320,42.969,-14.648,0
150712.158,40.527,39.062,31.250,43.457,40.527,0
150712.162,36.133,34.668,34.180,38.574,8.301,0
150712.166,34.180,39.551,35.156,33.203,-27.832,0
150712.182,35.645,44.434,33.203,34.180,5.859,0
150712.186,44.922,40.527,30.762,45.410,71.289,0
150712.190,45.410,39.551,33.203,44.922,57.617,0
150712.194,33.691,36.133,33.203,28.320,4.395,0
150712.198,30.273,29.297,31.250,22.461,-12.695,0
150712.202,38.086,21.973,40.527,36.133,24.414,0
150712.206,41.504,19.043,45.410,38.086,73.730,0
150712.210,31.250,38.086,39.062,24.902,42.969,0
150712.214,24.414,47.363,29.297,19.043,-10.742,0
150712.217,39.551,45.898,34.180,31.250,5.371,0
150712.221,51.270,39.062,37.598,40.039,19.043,0
150712.225,39.062,29.785,27.832,31.250,20.020,0
150712.227,25.391,32.227,22.461,20.996,-2.441,0
150712.231,33.203,38.086,24.902,25.879,8.789,0
150712.235,44.434,40.527,32.227,33.691,77.148,0
150712.239,41.016,38.574,34.180,29.785,69.336,0
150712.243,36.133,27.344,38.086,24.414,-15.625,0
150712.247,37.598,17.578,43.457,27.344,-6.836,0
150712.251,44.922,37.598,42.969,33.691,83.008,0
150712.255,41.504,42.969,30.273,33.691,92.773,0
150712.259,28.809,35.645,24.902,27.344,11.230,0
150712.262,22.461,38.574,29.297,17.090,-28.320,0
150712.266,32.715,35.645,31.738,21.973,67.383,0
150712.270,41.016,40.527,32.715,31.250,111.328,0
150712.272,34.668,41.016,28.809,26.367,24.902,0
150712.276,21.973,30.273,18.555,16.602,4.395,0
150712.280,25.391,32.227,22.949,24.902,29.297,0
150712.284,39.062,39.062,23.438,34.180,61.523,0
150712.288,36.133,24.902,20.996,25.879,62.988,0
150712.292,28.320,17.090,40.527,26.855,20.508,0
150712.296,34.180,36.621,46.875,37.109,50.293,0
150712.300,37.109,43.457,35.645,34.668,105.469,0
150712.304,39.551,46.875,36.621,35.156,59.570,0
150712.307,32.227,41.016,33.203,34.668,-16.113,0
150712.311,21.484,27.344,27.344,29.297,23.438,0
150712.315,28.809,27.832,22.949,28.320,80.566,0
150712.317,31.738,29.297,26.367,21.973,75.195,0
150712.321,20.996,31.738,36.133,19.531,0.000,0
150712.325,18.066,31.250,31.738,23.926,-24.414,0
150712.329,29.785,13.184,32.715,33.691,24.902,0
150712.333,44.434,28.809,52.246,46.875,42.969,0
150712.337,44.434,57.129,50.781,42.969,23.438,0
150712.341,30.762,47.852,33.203,30.273,-25.879,0
150712.345,33.203,27.832,33.203,32.227,22.461,0
150712.349,41.016,28.320,41.016,32.227,71.777,0
150712.352,33.691,38.086,39.551,26.367,52.246,0
150712.356,21.973,33.203,28.320,22.949,7.812,0
150712.360,24.902,35.645,28.320,22.949,3.906,0
150712.362,38.086,37.109,35.645,33.203,39.551,0
150712.366,41.016,32.715,38.574,41.504,37.109,0
150712.370,32.715,28.809,32.715,35.156,3.418,2
150712.374,31.738,17.578,30.273,40.527,-8.301,0
150712.378,35.156,24.902,31.738,40.039,55.664,0
150712.382,27.832,35.156,32.227,20.996,94.238,0
150712.386,19.043,41.016,37.598,16.602,55.664,0
150712.390,20.020,41.504,38.574,21.973,-7.812,0
150712.394,21.973,33.691,31.738,22.461,0.488,0
150712.397,26.855,35.156,23.926,28.320,76.172,0
150712.401,30.762,32.227,28.809,37.598,51.758,0
150712.405,34.180,30.762,38.086,34.180,10.742,0
150712.407,41.992,38.086,46.875,35.156,0.000,0
150712.411,45.410,33.691,45.410,34.668,38.574,0
150712.415,33.203,21.973,30.762,22.461,31.250,0
150712.419,21.973,30.762,33.203,21.973,-21.484,0
150712.423,28.809,35.156,43.945,32.227,16.113,0
150712.427,31.738,39.551,44.922,32.715,54.199,0
150712.431,29.785,49.805,39.062,28.809,45.410,0
150712.435,23.926,45.898,35.645,26.855,-21.484,0
150712.439,18.066,34.668,30.762,28.809,-15.137,0
150712.442,29.785,23.438,36.621,42.480,98.145,0
150712.446,32.715,22.461,35.645,43.457,99.121,0
150712.450,26.855,26.855,31.738,34.180,-12.695,0
150712.452,23.438,32.227,32.715,32.715,-16.602,0
150712.456,31.738,34.180,27.344,39.062,62.500,0
150712.460,42.969,39.551,30.762,43.945,115.234,0
150712.464,40.039,45.410,34.180,41.016,69.336,0
150712.468,35.645,38.574,30.273,36.621,0.000,0
150712.472,37.109,35.156,37.109,36.621,17.090,0
150712.476,38.086,35.645,42.969,36.133,22.949,0
150712.480,34.180,37.598,40.039,29.785,-0.488,0
150712.484,24.414,39.062,39.551,24.414,4.883,0
150712.487,23.926,35.156,40.527,25.391,33.691,0
150712.491,34.180,32.715,40.039,28.809,66.895,0
150712.495,38.086,29.785,37.598,32.227,53.223,0
150712.497,33.691,34.668,35.156,34.668,16.602,0
150712.501,37.109,41.016,33.691,39.062,-16.113,0
150712.505,53.711,42.480,35.156,55.664,31.250,0
150712.509,60.059,45.898,31.250,57.617,76.660,0
150712.513,45.410,47.363,26.855,39.062,4.395,0
150712.517,30.762,20.508,35.156,28.809,-65.430,0
150712.521,24.902,11.230,33.691,25.879,-32.227,0
150712.525,25.391,36.621,33.203,27.344,43.945,0
150712.528,22.949,37.598,38.086,27.344,17.090,0
150712.532,22.461,30.762,35.645,26.855,-5.859,0
150712.536,30.762,34.668,28.809,33.203,39.551,0
150712.540,38.086,42.969,34.668,39.062,100.586,0
150712.544,41.016,45.898,41.016,38.574,106.934,0
150712.548,40.527,33.691,34.668,33.203,40.039,0
150712.552,41.992,28.809,32.227,34.180,8.301,0
150712.555,43.457,33.691,29.297,33.691,86.914,0
150712.559,41.016,32.715,30.762,31.250,93.750,0
150712.563,34.180,35.156,27.344,29.297,-4.883,0
150712.567,31.250,27.832,27.344,24.902,-58.105,0
150712.571,42.480,27.344,35.645,31.250,5.859,0
150712.575,44.922,39.551,38.574,32.227,99.609,0
150712.579,35.156,44.922,39.551,30.273,65.430,0
150712.583,39.551,51.758,45.410,34.668,0.488,0
150712.587,49.805,46.875,37.109,45.410,29.297,0
150712.603,53.223,37.598,28.809,46.387,94.727,0
150712.607,47.852,29.785,34.668,35.156,39.062,0
150712.611,44.922,27.344,41.016,34.180,-21.484,0
150712.615,48.828,28.320,39.551,38.574,66.406,0
150712.619,52.246,34.180,39.062,41.016,129.883,0
150712.623,47.363,32.715,31.738,34.668,63.965,0
150712.627,38.574,23.438,26.855,26.855,-10.742,0
150712.631,37.598,36.133,31.250,36.133,21.484,0
150712.635,43.945,43.457,27.344,43.945,80.566,0
150712.639,51.270,43.457,26.367,42.480,48.340,0
150712.643,45.410,38.086,33.691,38.574,22.949,0
150712.646,38.574,32.715,41.016,38.086,28.320,0
150712.648,50.781,42.969,45.410,48.828,53.223,0
150712.652,50.781,38.574,35.645,43.457,56.641,0
150712.656,39.551,27.832,20.996,32.715,32.227,0
150712.660,34.668,27.344,23.926,32.227,23.438,0
150712.664,34.668,29.297,26.367,34.668,48.340,0
150712.668,41.016,35.156,23.438,41.016,128.418,0
150712.672,39.062,37.598,29.297,37.598,114.258,0
150712.676,29.785,24.902,27.832,28.320,16.602,0
150712.679,31.738,35.156,26.367,29.785,18.066,0
150712.683,41.016,44.922,37.598,33.691,63.477,0
150712.687,40.527,36.133,40.039,33.691,73.242,0
150712.691,28.320,34.180,27.832,24.414,-5.371,0
150712.693,31.738,43.945,34.668,29.297,-37.598,0
150712.697,44.922,45.410,37.109,37.109,46.387,0
150712.701,41.504,37.598,25.391,27.832,77.637,0
150712.705,34.180,41.992,31.250,22.461,21.973,0
150712.709,31.250,41.992,34.668,26.855,1.953,0
150712.713,36.133,38.086,34.668,36.621,27.344,0
150712.717,44.922,30.273,29.297,38.086,60.059,0
150712.721,46.875,26.855,21.973,32.715,51.758,0
150712.725,34.668,32.227,21.484,31.250,-35.156,0
150712.728,35.645,34.668,31.738,38.086,-40.527,0
150712.732,52.246,39.551,44.922,49.805,49.805,0
150712.736,52.246,38.086,35.156,49.316,53.711,0
150712.737,33.691,32.715,32.227,39.062,10.254,0
150712.741,24.902,33.691,43.945,36.133,45.410,0
150712.745,29.785,32.715,41.016,38.574,93.750,0
150712.749,33.203,30.273,36.621,39.062,104.980,0
150712.753,32.227,38.574,43.457,35.645,56.152,0
150712.757,33.691,38.574,39.551,35.156,27.344,0
150712.761,39.062,33.691,34.180,42.969,82.520,0
150712.765,32.715,23.438,33.203,41.504,79.102,0
150712.769,22.461,16.602,30.273,29.297,-15.625,0
150712.772,22.461,39.062,32.227,30.762,-41.992,0
150712.776,32.227,46.875,35.645,40.527,20.996,0
150712.780,36.621,34.180,28.809,38.086,73.730,0
150712.782,37.109,37.109,34.180,36.133,39.551,0
150712.786,31.738,40.527,43.457,35.156,-24.414,0
150712.790,32.715,29.785,41.992,37.598,4.395,0
150712.794,39.551,22.949,37.109,41.992,43.457,0
150712.798,34.180,30.273,32.227,39.551,48.828,0
150712.802,20.996,32.715,26.367,32.227,-1.465,0
150712.806,22.949,17.578,29.297,35.645,-23.926,0
150712.810,34.668,27.832,30.273,40.039,30.762,0
150712.813,33.203,51.758,23.438,34.668,34.668,0
150712.817,23.926,48.340,20.020,26.855,-7.324,0
150712.821,25.391,39.551,31.250,28.320,-38.574,0
150712.825,37.598,41.992,42.480,41.504,-4.395,0
150712.829,40.039,41.992,41.016,38.574,8.301,0
150712.832,35.156,36.133,40.527,33.203,-35.156,0
150712.836,32.715,31.738,37.598,38.574,-50.293,0
150712.840,30.762,22.949,32.715,36.133,-29.785,0
150712.844,38.086,25.391,30.273,33.691,4.395,0
150712.848,47.852,37.598,33.691,42.969,22.461,0
150712.852,37.109,39.062,30.273,36.621,-45.410,0
150712.856,24.414,35.645,22.949,24.902,-62.988,0
150712.860,41.016,28.809,34.180,41.992,35.645,0
150712.864,48.828,21.484,45.898,48.828,28.320,0
150712.868,40.527,40.039,46.875,35.156,-6.836,0
150712.872,43.945,46.387,41.504,35.645,-11.230,0
150712.872,52.734,41.016,37.598,46.387,10.742,0
150712.876,48.828,40.039,34.180,43.945,53.223,0
150712.880,39.062,29.297,25.391,36.621,25.391,0
150712.884,33.691,26.367,22.461,35.156,-12.695,0
150712.888,36.621,27.344,32.227,43.945,27.344,0
150712.892,44.434,22.461,34.180,52.246,56.641,0
150712.896,41.504,24.414,30.762,39.551,-13.184,0
150712.900,36.621,34.668,36.621,31.250,-62.500,0
150712.904,39.551,37.109,35.156,36.621,7.812,0
150712.907,40.527,37.598,30.762,39.551,94.238,0
150712.911,33.203,37.598,30.273,38.574,73.242,0
150712.915,25.879,30.762,34.668,28.809,25.391,0
150712.934,28.320,24.414,37.109,22.949,28.809,0
150712.938,39.551,20.508,37.598,34.180,52.246,0
150712.942,45.410,23.926,48.828,43.945,76.172,1
150712.946,35.645,38.086,46.875,39.551,38.574,0
150712.950,21.973,37.109,22.461,30.273,-13.184,0
150712.954,27.832,34.180,21.973,34.668,-8.301,0
150712.957,38.574,38.574,39.062,43.457,23.926,0
150712.961,30.273,32.715,44.434,40.527,56.641,0
150712.965,26.855,24.414,41.016,35.645,20.996,0
150712.969,33.203,27.344,38.574,37.598,6.348,0
150712.973,37.109,30.273,42.480,43.457,71.289,0
150712.977,35.156,26.855,43.457,39.062,77.148,0
150712.977,29.785,33.203,41.992,29.297,0.488,0
150712.981,39.062,39.551,38.574,33.203,16.602,0
150712.985,48.828,41.504,35.156,35.645,54.688,0
150712.989,42.969,41.504,36.133,33.203,11.230,0
150712.993,34.668,39.062,37.598,32.715,-20.996,0
150712.997,41.504,43.945,34.180,45.898,-1.953,0
150713.001,52.246,30.762,26.855,60.059,37.598,0
150713.005,46.875,19.043,31.250,53.223,61.523,0
150713.009,32.715,35.645,37.109,37.598,21.484,0
150713.012,29.785,37.598,31.250,35.156,-25.391,0
150713.016,44.434,33.691,35.156,42.480,31.738,0
150713.020,45.410,38.574,41.992,37.109,93.750,0
150713.022,34.180,35.156,44.922,28.809,38.574,0
150713.026,29.785,30.273,43.457,32.715,-33.203,0
150713.030,35.156,35.156,41.016,41.016,-4.395,0
150713.034,40.039,40.039,39.551,40.039,75.684,0
150713.038,34.180,42.480,31.250,33.203,48.340,0
150713.042,24.902,40.039,29.785,32.227,-27.832,0
150713.046,26.367,41.016,37.109,39.551,-23.438,0
150713.050,31.250,20.508,37.109,42.969,36.133,0
150713.054,30.273,15.137,39.062,38.574,20.996,0
150713.057,23.926,32.227,44.922,37.109,-22.949,0
150713.061,22.461,29.297,41.016,36.133,8.789,0
150713.065,28.809,30.273,37.109,35.156,87.891,0
150713.068,29.785,41.992,36.133,36.133,101.074,0
150713.072,24.414,41.504,26.367,29.297,14.160,0
150713.076,25.879,35.645,28.809,24.902,-28.809,0
150713.080,36.621,39.551,42.969,36.133,41.504,0
150713.084,41.504,37.598,36.621,41.504,116.699,0
150713.087,38.086,35.156,29.297,34.180,80.566,0
150713.091,32.715,33.691,35.645,31.738,15.137,0
150713.095,36.621,28.809,28.809,39.062,53.223,0
150713.099,46.387,31.250,30.273,42.480,71.777,0
150713.103,41.504,41.504,41.992,40.527,74.707,0
150713.107,24.902,34.180,33.691,30.273,47.363,0
150713.111,27.344,20.996,27.344,21.973,9.277,0
150713.113,41.992,35.645,38.574,35.156,39.062,0
150713.116,40.527,41.992,42.969,36.621,38.086,0
150713.120,33.203,37.598,35.645,28.809,21.973,0
150713.124,33.203,43.457,30.273,34.180,11.230,0
150713.128,40.039,36.133,30.273,40.527,62.988,0
150713.132,44.922,29.297,32.227,37.109,107.910,0
150713.136,41.992,48.340,37.598,35.156,107.422,0
150713.140,30.762,46.875,35.156,26.367,62.988,0
150713.144,30.273,28.809,29.785,20.020,38.574,0
150713.148,42.969,35.156,31.738,33.203,87.402,0
150713.152,39.062,38.574,34.668,36.133,30.273,0
150713.155,28.320,35.645,33.203,34.668,-10.742,0
150713.158,34.180,34.180,30.273,41.504,36.621,0
150713.162,46.875,29.785,34.668,45.410,58.105,0
150713.165,47.363,36.621,41.016,39.551,37.598,0
150713.169,37.109,44.434,31.250,30.762,-20.508,0
150713.173,33.691,44.434,20.020,33.691,-11.230,0
150713.177,42.969,48.828,28.320,41.992,60.059,0
150713.181,40.527,40.527,28.320,33.203,79.590,0
150713.185,28.809,27.832,25.879,19.043,29.297,0
150713.189,27.344,33.691,35.645,20.508,22.461,0
150713.193,38.574,38.086,38.574,27.832,92.285,0
150713.197,50.781,38.574,40.039,38.574,101.562,0
150713.201,41.992,41.016,35.645,38.574,57.617,0
150713.203,34.668,38.574,32.715,36.133,39.551,0
150713.207,36.133,29.785,32.227,34.180,75.195,0
150713.211,38.086,30.762,26.367,31.250,102.051,0
150713.215,32.715,38.086,29.785,30.273,76.660,0
150713.219,21.973,23.438,34.180,27.832,21.973,0
150713.223,28.809,19.531,37.598,35.156,6.836,0
150713.227,41.016,47.852,38.086,40.527,70.312,0
150713.231,41.504,55.664,40.039,36.133,68.359,0
150713.234,36.621,48.828,40.527,34.180,41.504,0
150713.238,38.086,35.645,33.203,35.645,33.203,0
150713.242,48.828,26.855,31.250,39.551,48.828,0
150713.246,51.758,34.180,40.527,41.016,82.520,0
150713.248,34.180,38.574,33.203,34.180,30.762,0
150713.252,25.879,26.855,21.973,26.855,-21.484,0
150713.256,38.574,24.902,29.297,32.227,25.391,0
150713.260,45.898,26.855,34.180,35.156,44.434,0
150713.264,44.434,23.438,43.457,31.738,-0.977,0
150713.268,41.016,40.527,36.133,32.715,-30.762,0
150713.272,46.387,53.711,28.320,38.086,4.883,0
150713.276,45.898,40.527,35.156,37.109,37.109,0
150713.280,36.133,33.203,37.109,32.227,23.926,0
150713.284,32.227,35.156,37.109,30.762,-11.230,0
150713.287,35.156,31.250,32.715,31.250,-13.184,0
150713.291,41.992,32.715,30.762,34.668,85.938,0
150713.295,38.574,34.180,32.227,32.715,83.984,0
150713.298,30.273,39.551,39.551,32.227,6.836,0
150713.302,28.320,42.969,42.480,34.180,4.883,0
150713.306,35.156,35.645,32.227,38.086,52.734,0
150713.310,40.039,27.832,29.297,41.504,96.191,0
150713.314,31.250,28.320,37.109,31.250,50.293,0
150713.318,26.367,23.438,39.062,26.855,4.883,0
150713.322,29.785,20.508,37.598,29.785,28.320,0
150713.326,30.762,40.527,37.598,25.391,56.641,0
150713.330,21.973,40.039,33.203,20.996,-9.277,0
150713.334,14.648,36.133,28.809,20.020,-93.262,0
150713.338,29.297,39.551,24.902,30.762,-30.273,0
150713.352,37.598,30.273,20.508,40.039,56.641,0
150713.356,31.250,31.250,31.250,33.691,30.762,0
150713.360,25.879,37.109,45.898,31.738,-39.062,0
150713.364,25.391,36.133,41.016,33.203,-29.297,0
150713.368,32.715,25.391,35.156,36.133,81.543,0
150713.372,31.250,16.113,41.992,34.180,76.660,0
150713.376,24.414,31.250,43.457,31.738,-15.137,0
150713.380,21.484,38.574,42.480,37.598,-1.465,0
150713.384,31.250,41.016,43.457,42.969,46.387,0
150713.387,35.645,27.344,37.598,37.598,57.617,0
150713.391,25.391,10.254,28.320,31.738,31.250,0
150713.395,20.020,23.926,30.762,34.180,8.301,0
150713.397,29.785,41.992,39.551,39.062,35.156,0
150713.401,43.457,44.434,43.457,42.969,77.148,0
150713.405,34.668,37.598,34.180,33.691,64.453,0
150713.409,23.438,39.062,22.949,27.832,-2.930,0
150713.413,31.738,38.574,24.414,37.598,7.812,0
150713.417,37.598,27.344,32.715,42.480,84.473,0
150713.421,30.273,21.484,36.621,34.180,99.121,0
150713.425,22.461,25.879,41.016,28.809,43.945,0
150713.429,24.902,29.297,46.387,35.645,-4.395,0
150713.432,34.180,31.250,44.434,44.434,23.438,0
150713.436,34.180,34.180,38.574,40.527,57.617,0
150713.440,28.809,37.109,33.203,35.156,-0.488,0
150713.442,31.738,26.855,29.297,36.133,-48.828,0
150713.446,37.109,23.926,31.738,42.480,36.621,0
150713.450,34.668,33.203,31.250,46.875,127.930,0
150713.454,28.320,32.227,30.273,39.551,66.895,0
150713.458,23.926,37.109,39.062,37.109,-5.859,0
150713.462,29.297,34.180,46.875,41.992,48.828,0
150713.466,36.133,24.414,42.480,38.574,103.027,0
150713.470,31.250,31.250,30.273,27.832,76.172,0
150713.474,28.320,49.316,30.273,23.926,-24.902,0
150713.477,37.598,45.898,32.715,28.809,-30.762,0
150713.481,47.363,27.832,33.203,34.180,53.711,0
150713.485,46.875,25.879,32.715,35.645,73.730,0
150713.487,40.039,34.180,35.156,35.645,29.297,0
150713.491,37.598,35.645,37.109,34.668,13.184,0
150713.495,47.852,36.621,32.715,41.504,75.195,0
150713.499,48.828,27.832,32.227,41.992,56.152,0
150713.503,36.133,32.715,34.668,37.109,-35.156,0
150713.507,29.785,47.363,36.133,31.738,-26.367,0
150713.511,37.598,39.551,31.250,27.344,59.082,0
150713.515,41.992,39.551,31.738,26.855,56.641,0
150713.519,28.320,42.480,31.250,19.531,4.395,1
150713.522,19.531,34.668,29.785,16.113,12.695,0
150713.526,24.414,29.785,28.809,23.438,22.949,0
150713.530,29.297,31.738,23.438,29.785,41.504,0
150713.532,29.785,33.691,26.367,30.762,39.062,0
150713.536,25.391,30.762,34.180,28.809,-18.555,0
150713.540,29.297,32.715,35.645,25.879,-28.809,0
150713.544,39.062,39.551,36.621,31.250,51.270,0
150713.548,38.086,38.574,41.504,35.645,59.570,0
150713.552,27.344,31.738,36.621,30.762,-54.199,0
150713.556,23.926,26.367,33.203,29.785,-63.965,0
150713.560,34.668,29.785,35.645,34.180,40.527,0
150713.564,31.250,34.668,29.297,30.273,48.340,0
150713.567,22.461,38.086,32.227,20.508,-5.371,0
150713.571,27.344,42.480,30.762,20.996,-24.902,0
150713.575,35.156,41.992,14.648,27.832,31.250,0
150713.577,41.016,41.016,26.855,26.855,93.750,0
150713.581,31.250,38.086,39.551,16.602,66.406,0
150713.585,22.461,33.203,35.156,8.789,5.859,0
150713.589,29.785,33.203,35.645,12.207,51.758,0
150713.593,34.180,24.414,39.551,21.484,132.812,0
150713.597,33.691,26.855,42.480,24.902,58.105,0
150713.601,28.809,31.738,43.945,20.996,-46.875,0
150713.605,26.367,27.344,40.527,22.949,-15.625,0
150713.609,29.297,19.531,31.738,31.250,98.633,0
150713.613,31.250,29.785,36.133,32.715,105.469,0
150713.616,23.438,52.734,41.016,28.320,45.410,0
150713.620,13.184,41.992,28.809,20.508,48.828,0
150713.622,25.391,29.785,23.926,21.484,101.562,0
150713.626,37.109,34.668,32.227,30.762,82.520,0
150713.630,30.273,37.598,33.691,29.297,18.066,0
150713.634,22.949,33.203,26.367,20.996,6.836,0
150713.638,33.691,34.668,29.297,27.344,73.730,0
150713.642,43.457,34.668,40.527,35.156,93.262,0
150713.646,36.621,30.273,43.945,30.762,27.344,0
150713.650,36.133,32.715,42.480,32.227,-41.504,0
150713.654,45.898,41.016,43.457,41.992,-26.367,0
150713.658,55.176,47.852,45.410,49.316,62.500,0
150713.661,46.875,34.668,40.039,43.457,53.223,0
150713.665,36.133,27.344,33.203,33.203,-0.488,0
150713.683,42.480,30.762,33.691,36.133,40.039,0
150713.687,45.898,39.551,25.391,38.086,106.934,0
150713.691,41.504,50.781,23.438,37.109,134.766,0
150713.694,37.598,45.898,38.086,43.457,88.867,0
150713.698,34.668,35.645,47.852,47.852,20.996,0
150713.702,39.062,32.715,40.039,47.363,38.086,0
150713.706,43.945,40.039,34.180,44.922,68.848,0
150713.710,35.156,39.551,39.062,37.109,69.824,0
150713.714,26.855,30.273,41.016,32.227,40.527,0
150713.718,36.621,30.273,42.480,38.574,26.367,0
150713.722,49.805,37.598,41.504,43.945,40.039,0
150713.726,42.969,33.203,38.086,41.992,32.227,0
150713.728,35.156,38.574,39.062,45.410,-20.508,0
150713.732,37.598,32.715,39.551,51.270,-5.371,0
150713.736,40.527,26.367,33.203,50.781,78.613,0
150713.740,39.062,41.992,30.762,42.969,68.848,0
150713.744,29.785,40.039,33.203,31.738,4.395,0
150713.747,29.297,37.109,33.691,35.156,7.812,0
150713.751,48.340,40.527,34.668,49.316,53.711,0
150713.755,50.293,36.621,34.180,40.527,82.031,0
150713.759,36.133,31.738,33.203,28.320,33.203,0
150713.763,34.668,36.133,40.039,30.273,-0.977,0
150713.767,47.852,41.016,37.109,41.016,52.734,0
150713.771,50.781,41.992,30.273,40.527,60.547,0
150713.773,39.551,42.969,37.109,28.320,18.066,0
150713.777,38.086,40.039,35.645,25.391,-3.418,0
150713.781,48.340,29.785,29.297,32.715,40.527,0
150713.785,46.875,39.062,22.461,30.762,115.234,0
150713.789,42.969,54.199,26.367,25.879,98.145,0
150713.792,40.039,48.340,29.297,24.902,13.184,0
150713.796,36.133,39.062,28.809,26.367,32.715,0
150713.800,44.434,36.621,34.180,32.715,93.750,0
150713.804,42.480,36.621,34.180,30.762,34.180,0
150713.808,29.785,46.387,33.691,28.320,-22.461,0
150713.812,29.785,50.293,32.715,29.297,10.742,0
150713.816,35.156,32.227,24.902,27.832,62.012,0
150713.820,35.645,27.344,19.043,26.367,50.781,0
150713.824,27.832,39.551,21.973,18.555,-14.160,0
150713.828,30.273,42.480,29.297,23.438,-22.949,0
150713.832,41.016,30.762,29.785,36.621,52.246,0
150713.836,42.480,21.484,24.902,36.621,95.703,0
150713.840,38.086,42.480,28.809,35.645,41.016,0
150713.844,35.156,51.758,38.086,37.598,-17.090,0
150713.848,42.480,42.480,35.645,44.434,5.859,0
150713.852,45.410,36.133,29.785,48.340,67.871,0
150713.855,41.504,38.086,35.645,42.969,60.547,0
150713.859,40.039,40.039,44.434,43.457,21.973,0
150713.863,44.922,37.598,39.551,46.387,-7.812,0
150713.863,53.223,33.691,33.203,46.387,29.785,0
150713.867,45.410,29.297,39.551,40.039,37.109,0
150713.871,29.785,32.227,42.480,31.738,-22.461,0
150713.875,31.738,32.227,36.133,38.574,-26.367,0
150713.879,47.852,31.250,29.297,49.805,-2.930,0
150713.883,46.387,45.898,26.367,40.527,32.227,0
150713.887,39.062,47.363,32.227,32.715,46.387,0
150713.891,41.504,43.457,41.992,38.574,-52.246,0
150713.895,43.945,39.062,35.156,40.527,-29.785,0
150713.899,42.969,34.668,30.762,37.109,98.145,0
150713.902,36.621,38.574,36.133,29.297,63.477,0
150713.906,29.785,39.062,31.738,23.926,17.090,0
150713.908,31.250,34.180,25.391,27.344,39.551,0
150713.912,39.062,28.809,28.320,36.133,78.613,0
150713.915,43.457,27.832,39.062,39.062,20.508,0
150713.919,39.551,34.180,39.062,33.691,-86.914,0
150713.923,40.527,42.969,36.621,36.621,-47.363,0
150713.927,45.898,43.945,37.109,41.504,33.203,0
150713.931,42.480,37.109,37.598,32.715,70.312,0
150713.935,33.691,21.973,38.574,24.414,1.465,0
150713.939,27.344,28.320,32.227,26.367,-38.574,0
150713.943,33.203,44.434,30.762,28.320,49.316,0
150713.947,37.598,36.621,36.133,26.367,88.379,0
150713.951,34.180,32.715,36.621,28.809,32.227,0
150713.952,30.273,35.156,25.391,32.715,-5.371,0
150713.956,30.762,31.250,25.391,31.738,22.949,0
150713.960,35.645,27.344,38.574,38.086,59.570,0
150713.964,25.391,37.598,43.945,27.344,28.809,0
150713.968,12.695,41.504,41.992,19.043,0.488,0
150713.972,23.438,36.621,41.504,37.598,26.367,0
150713.976,32.227,23.438,43.945,41.992,62.988,0
150713.980,20.996,13.184,33.203,24.902,41.504,0
150713.983,19.043,32.715,28.320,22.949,21.484,0
150713.987,23.926,38.086,36.133,29.785,58.594,0
150713.991,20.020,34.180,35.156,22.461,86.914,0
150713.995,21.484,43.457,35.645,23.438,92.773,0
150713.997,18.555,43.945,34.668,24.902,55.664,0
150714.001,18.066,34.180,31.250,22.461,58.105,0
150714.005,27.832,33.203,27.344,22.949,85.449,0
150714.009,33.203,35.156,20.020,25.391,91.797,0
150714.013,30.762,38.574,29.785,30.762,61.035,0
150714.017,24.902,38.574,46.387,29.785,2.441,0
150714.021,33.203,30.762,42.969,30.273,21.484,0
150714.025,39.062,24.414,41.016,37.598,76.172,0
150714.029,26.855,17.090,42.480,31.738,75.684,0
150714.033,20.508,31.250,36.133,26.367,-15.625,0
150714.036,25.879,39.062,28.809,30.273,-3.906,0
150714.040,33.691,36.621,27.832,30.273,98.145,0
150714.044,30.762,39.062,32.715,26.855,99.609,0
150714.047,27.832,35.156,38.086,24.902,-11.230,0
150714.051,28.320,34.180,40.527,26.855,-41.016,0
150714.055,34.180,36.621,36.621,31.250,46.875,0
150714.059,41.016,35.156,31.738,31.738,51.270,0
150714.063,31.250,29.785,25.879,26.855,12.207,0
150714.067,20.996,31.738,22.461,22.461,-32.227,0
150714.071,26.367,31.250,26.855,29.785,-2.441,0
150714.075,32.227,24.414,28.320,38.086,67.383,0
150714.079,34.180,22.461,31.738,39.062,6.348,0
150714.083,35.156,35.645,43.945,38.574,-32.715,0
150714.087,34.668,36.133,43.457,38.086,17.090,0
150714.102,39.062,26.367,32.715,35.156,70.801,0
150714.106,40.527,32.227,26.367,27.832,75.195,0
150714.110,32.715,37.109,28.809,24.902,16.602,0
150714.114,40.039,40.527,34.180,31.250,9.277,0
150714.118,45.898,35.156,30.762,34.668,62.012,0
150714.122,37.598,29.297,29.297,26.367,49.316,2
150714.126,36.621,36.621,32.715,23.438,-18.066,0
150714.130,41.016,41.016,34.180,32.227,-54.199,0
150714.134,43.457,22.949,33.203,35.156,3.418,0
150714.138,43.945,12.207,36.133,35.156,73.242,0
150714.141,41.016,38.574,39.551,37.109,44.434,0
150714.145,38.574,45.898,38.086,41.992,7.324,0
150714.147,46.875,32.715,36.621,48.828,39.062,0
150714.151,54.199,37.109,31.250,51.270,43.945,0
150714.155,49.316,42.969,31.250,43.945,14.160,0
150714.159,42.969,35.645,41.016,37.598,-55.664,0
150714.163,42.969,32.715,47.363,33.691,-32.715,0
150714.167,44.434,25.879,40.039,31.250,51.270,0
150714.171,38.574,24.414,30.273,28.809,9.277,0
150714.175,29.297,29.297,31.250,25.879,-33.203,0
150714.179,32.227,27.344,38.574,28.809,-2.441,0
150714.183,39.062,30.762,41.016,31.250,22.461,0
150714.186,36.621,35.645,37.598,30.273,57.617,0
150714.190,30.273,23.438,36.621,27.832,10.254,0
150714.192,30.762,27.832,37.109,29.297,-56.641,0
150714.196,34.668,44.922,30.762,34.180,1.465,0
150714.200,33.203,38.086,25.879,32.715,60.059,0
150714.204,30.762,39.551,32.715,28.320,22.461,0
150714.208,31.738,40.527,40.039,26.855,-31.738,0
150714.212,35.645,26.855,35.645,35.156,-10.742,0
150714.216,38.574,25.879,33.691,40.527,42.480,0
150714.220,32.227,35.156,37.598,31.250,59.082,0
150714.224,30.273,41.504,38.574,21.484,-6.348,0
150714.228,32.227,38.574,31.250,23.926,0.977,0
150714.231,31.738,31.738,26.367,29.297,52.246,0
150714.235,36.133,39.551,36.621,33.691,53.223,0
150714.237,32.227,23.926,42.969,34.180,7.812,0
150714.241,25.391,20.020,37.598,28.320,12.207,0
150714.245,28.320,44.434,27.832,27.344,113.281,0
150714.249,36.133,43.945,26.367,32.715,126.465,0
150714.253,33.691,41.504,31.250,33.203,38.086,0
150714.257,28.809,40.039,32.715,28.320,-5.859,0
150714.261,41.016,38.086,35.645,36.133,34.180,0
150714.265,43.945,37.598,37.598,40.039,76.172,0
150714.269,38.086,40.039,40.039,34.668,20.508,0
150714.272,34.180,39.062,39.551,36.621,-30.762,0
150714.276,34.668,37.109,30.273,39.551,9.766,0
150714.280,42.969,38.086,25.879,40.527,85.938,0
150714.284,40.527,32.715,28.809,36.133,41.504,0
150714.288,31.250,27.344,33.691,37.598,-39.551,0
150714.292,34.668,28.809,33.691,47.363,22.461,0
150714.296,38.574,21.973,38.574,48.340,73.242,0
150714.300,31.250,31.738,44.434,37.109,77.637,0
150714.304,27.344,46.875,43.457,33.691,20.996,0
150714.308,27.832,40.039,35.645,35.645,-21.484,0
150714.311,32.227,36.133,34.668,36.621,23.926,0
150714.315,38.086,30.762,33.691,32.715,66.895,0
150714.319,37.598,29.785,32.227,32.227,62.500,0
150714.323,34.180,35.645,29.785,34.668,23.438,0
150714.327,41.016,39.062,31.738,39.551,91.309,0
150714.328,47.852,39.062,41.992,46.387,132.812,0
150714.332,33.203,32.715,36.133,33.691,108.887,0
150714.336,22.949,18.066,33.691,25.879,69.336,0
150714.339,33.203,16.602,39.551,37.598,46.875,0
150714.343,35.156,37.598,41.504,36.621,102.051,0
150714.347,31.250,49.805,38.086,31.250,85.938,0
150714.351,28.809,39.551,28.809,26.855,-6.348,0
150714.355,30.762,31.738,31.250,30.762,-28.809,0
150714.359,40.039,28.809,31.738,40.527,91.309,0
150714.363,42.969,29.297,35.156,43.945,114.258,0
150714.367,43.457,42.969,43.945,44.922,50.781,0
150714.371,41.504,44.922,34.668,38.086,45.898,0
150714.373,42.480,40.527,21.484,32.715,99.609,0
150714.377,44.434,45.898,24.902,32.715,149.414,0
150714.381,43.457,33.203,36.133,32.715,86.426,0
150714.385,37.598,23.926,35.645,28.320,-6.836,0
150714.389,38.574,36.133,34.668,37.598,36.133,0
150714.393,42.969,37.598,37.598,44.434,95.703,0
150714.397,41.016,40.527,40.527,37.109,26.367,0
150714.401,36.621,42.969,40.527,36.621,-17.578,0
150714.405,30.762,33.203,28.320,36.621,28.320,0
150714.408,34.668,34.668,19.531,33.203,55.664,0
150714.412,35.156,36.133,26.367,30.273,32.715,0
150714.416,22.461,26.367,31.250,27.344,15.625,0
150714.418,21.973,23.926,30.762,29.297,27.344,0
150714.422,30.762,28.809,37.598,33.691,40.039,0
150714.426,30.762,32.227,39.551,33.691,54.199,0
150714.430,23.438,38.086,35.645,25.391,69.336,0
150714.434,26.855,29.297,34.180,30.273,47.852,0
150714.437,38.574,25.391,32.715,42.969,40.039,0
150714.441,39.062,45.410,27.832,35.645,44.922,0
150714.445,30.273,44.922,27.344,32.715,62.988,0
150714.449,26.855,30.273,32.227,37.109,19.531,0
150714.453,33.691,26.367,40.527,39.062,2.441,0
150714.457,39.062,28.320,43.945,36.133,35.156,0
150714.461,33.691,30.273,42.480,26.855,23.438,0
150714.477,35.156,33.691,42.480,30.762,-15.625,0
150714.481,44.434,37.598,33.203,40.039,-51.270,0
150714.485,50.293,41.992,30.762,46.875,-12.207,0
150714.489,48.828,38.574,38.086,47.852,23.926,0
150714.493,31.738,31.738,30.762,33.203,-11.719,0
150714.497,24.414,28.320,29.785,30.762,-15.625,0
150714.501,30.762,14.160,40.527,38.086,71.777,0
150714.505,27.344,15.625,46.875,37.109,90.820,0
150714.509,19.531,41.504,48.340,36.621,44.434,0
150714.512,29.297,48.340,40.527,43.457,14.648,0
150714.516,27.832,44.434,28.320,33.203,64.941,0
150714.520,17.578,43.457,25.391,20.020,137.695,0
150714.522,22.949,42.969,27.832,24.902,64.941,0
150714.526,31.738,43.457,31.738,33.203,-20.508,0
150714.530,35.156,38.574,29.785,39.062,24.414,0
150714.534,40.527,35.645,24.902,43.945,61.035,0
150714.538,42.480,41.016,30.273,42.480,31.738,0
150714.542,40.527,36.621,33.691,37.598,11.230,0
150714.546,41.504,34.180,27.832,37.598,9.766,0
150714.550,42.969,40.527,21.484,39.062,49.316,0
150714.554,46.387,43.945,23.926,31.250,21.484,0
150714.557,42.480,26.367,34.668,20.996,-33.203,0
150714.561,38.086,18.555,32.715,25.879,-27.832,0
150714.565,47.363,38.574,30.273,30.273,34.668,0
150714.567,50.781,43.945,35.645,31.250,73.730,0
150714.571,40.039,41.016,32.715,29.785,31.250,0
150714.575,32.227,40.039,26.367,24.414,20.508,0
150714.579,36.621,44.434,35.156,33.203,61.523,0
150714.583,42.969,41.504,47.363,41.992,66.895,0
150714.587,29.785,33.691,43.457,29.785,54.688,0
150714.591,10.742,33.691,33.203,19.531,23.438,0
150714.595,15.625,35.645,26.855,32.715,26.367,0
150714.599,29.297,34.180,34.180,42.480,64.941,0
150714.603,28.809,32.715,38.574,34.180,63.477,0
150714.606,25.879,36.133,43.457,34.180,23.926,0
150714.610,30.273,35.156,47.852,41.016,27.832,0
150714.612,33.691,27.832,34.668,37.598,72.266,0
150714.616,29.785,21.973,30.273,28.809,61.523,0
150714.620,20.996,31.738,39.062,20.020,3.418,0
150714.624,20.020,25.879,38.086,17.578,-41.504,0
150714.628,31.250,24.414,32.227,21.484,18.066,0
150714.632,37.109,44.434,30.762,20.508,69.824,0
150714.636,32.227,43.945,30.273,18.555,35.156,0
150714.640,28.320,38.086,28.320,19.043,-36.621,0
150714.644,33.203,41.016,25.879,18.066,-36.133,0
150714.648,39.062,42.969,24.414,20.020,9.277,0
150714.651,29.297,34.180,22.949,16.602,-33.691,0
150714.655,21.973,32.227,30.273,16.113,-65.430,0
150714.657,27.344,32.715,30.273,21.973,-10.742,0
150714.661,29.785,33.203,22.949,25.879,73.730,1
150714.665,21.484,32.227,25.391,23.926,74.707,0
150714.669,14.648,35.156,32.715,18.066,-1.953,0
150714.673,17.578,39.551,34.180,21.484,-22.461,0
150714.677,26.367,29.297,29.297,29.297,40.527,0
150714.681,27.832,23.438,26.367,29.785,54.688,0
150714.685,20.996,22.461,29.785,22.949,-13.184,0
150714.689,20.508,20.020,39.551,24.414,-11.230,0
150714.692,40.527,32.227,47.852,41.992,65.918,0
150714.696,53.711,44.922,36.621,43.457,69.824,0
150714.700,39.551,42.969,20.020,27.344,11.230,0
150714.702,39.551,42.480,23.438,28.809,5.859,0
150714.706,53.223,48.340,35.156,39.062,52.246,0
150714.710,58.105,53.223,34.180,41.016,63.965,0
150714.714,50.781,44.434,23.926,29.785,27.832,0
150714.718,44.434,33.691,25.879,23.926,-29.785,0
150714.722,51.270,37.109,32.715,34.180,2.930,0
150714.726,58.594,45.410,28.320,39.062,61.035,0
150714.730,50.781,37.109,28.320,29.785,38.574,0
150714.734,43.945,24.414,31.250,27.832,7.324,0
150714.737,43.457,38.574,34.668,35.645,-19.531,0
150714.741,45.410,46.875,38.086,39.551,49.805,0
150714.745,41.016,42.480,35.156,36.133,69.824,0
150714.749,32.715,41.016,30.762,35.156,-12.695,0
150714.753,33.203,48.828,32.227,40.527,-22.461,0
150714.756,35.645,41.016,32.715,42.480,27.344,0
150714.760,41.504,28.809,42.480,52.246,65.430,0
150714.764,35.645,36.621,41.504,47.852,33.691,0
150714.768,22.461,39.062,29.297,36.133,-27.344,0
150714.772,27.832,40.039,33.203,41.504,-15.137,0
150714.776,35.156,42.480,35.156,45.410,42.969,0
150714.780,31.738,42.480,32.715,42.969,59.570,0
150714.784,26.855,27.832,31.250,38.086,12.207,0
150714.788,29.785,20.508,34.668,44.922,20.996,0
150714.792,37.598,35.645,41.504,49.805,76.660,0
150714.807,42.480,43.945,45.410,47.852,76.172,0
150714.811,41.992,36.621,44.922,46.387,44.434,0
150714.815,47.363,31.738,42.480,46.875,5.859,0
150714.819,51.270,35.156,33.203,42.969,59.570,0
150714.823,49.316,37.598,25.879,40.039,113.770,0
150714.827,42.969,44.922,27.832,34.668,42.969,0
150714.831,37.109,41.016,32.715,25.879,-15.137,0
150714.835,35.645,32.227,27.344,26.367,33.203,0
150714.839,40.039,30.273,23.926,36.621,89.355,0
150714.843,43.457,31.738,34.668,38.086,37.109,0
150714.846,36.621,36.621,39.062,34.668,-39.062,0
150714.850,36.621,42.480,39.062,45.410,8.301,0
150714.853,41.016,32.227,38.086,49.805,57.129,0
150714.857,37.109,16.602,33.203,41.016,7.324,0
150714.861,27.832,36.621,39.062,37.109,-13.184,0
150714.865,24.414,50.293,36.133,41.016,15.137,0
150714.868,29.297,42.480,30.762,36.133,71.289,0
150714.872,29.297,41.504,31.250,30.762,104.980,0
150714.876,19.531,31.738,25.391,28.809,51.270,0
150714.880,20.996,30.273,30.762,29.785,6.836,0
150714.884,35.156,38.574,34.668,39.551,51.758,0
150714.888,45.898,40.039,30.762,42.480,77.148,0
150714.892,36.133,36.621,30.762,31.738,21.973,0
150714.896,22.461,29.785,24.414,22.461,34.668,0
150714.898,30.762,22.461,29.297,29.297,84.473,0
150714.902,40.039,31.738,38.086,31.250,83.008,0
150714.906,38.086,35.156,38.086,25.879,83.008,0
150714.910,28.320,37.598,33.691,19.043,44.922,0
150714.913,24.902,39.551,26.855,22.461,42.969,0
150714.917,28.809,34.668,22.461,27.344,55.664,0
150714.921,26.367,42.969,28.809,23.926,21.484,0
150714.925,21.973,44.434,35.645,20.996,4.395,0
150714.929,22.461,33.203,32.715,20.508,10.254,0
150714.933,29.297,24.902,28.809,20.996,47.852,0
150714.937,30.762,38.086,27.344,20.020,77.148,0
150714.941,21.973,45.898,27.344,16.113,45.898,0
150714.943,16.113,37.598,29.297,11.230,18.555,0
150714.947,21.484,34.180,36.133,17.090,46.875,0
150714.951,24.414,33.691,39.062,23.438,93.262,0
150714.955,21.484,20.020,40.527,24.414,34.668,0
150714.959,20.508,17.090,32.715,21.973,-62.012,0
150714.962,28.320,42.969,25.879,20.020,-26.367,0
150714.966,35.645,43.457,30.273,26.855,47.852,0
150714.970,32.715,33.691,31.250,25.879,-2.930,0
150714.974,20.508,33.691,26.367,12.207,-92.773,0
150714.978,14.648,34.668,33.203,8.789,-37.598,0
150714.982,25.879,37.109,41.016,15.137,69.336,0
150714.986,34.180,30.762,43.945,22.461,44.434,0
150714.988,33.691,30.273,51.758,21.973,-52.246,0
150714.992,34.180,39.062,41.016,19.043,-82.031,0
150714.996,37.109,38.086,25.879,25.391,-13.672,0
150714.999,39.551,32.715,25.879,34.180,-13.672,0
150715.003,34.668,25.391,24.902,36.133,-21.484,0
150715.007,23.926,24.414,29.785,33.691,-6.836,0
150715.011,26.855,35.156,32.227,35.156,36.621,0
150715.015,32.227,41.504,30.273,34.668,52.734,0
150715.019,29.785,42.969,40.527,29.297,1.465,0
150715.023,27.344,37.109,49.316,29.785,-18.066,0
150715.027,29.297,30.762,43.457,32.227,2.441,0
150715.031,33.691,36.133,30.273,26.367,42.969,0
150715.035,30.273,35.645,29.297,21.973,53.711,0
150715.039,27.832,31.250,29.297,24.414,35.156,0
150715.043,34.668,34.180,28.809,24.902,31.738,0
150715.047,47.363,36.133,32.227,32.715,27.832,0
150715.051,47.363,34.180,36.133,36.621,23.438,0
150715.055,34.668,20.508,44.922,23.438,-28.809,0
150715.059,35.156,17.578,40.527,21.484,-40.039,0
150715.062,48.340,38.574,35.156,32.715,16.602,0
150715.066,56.641,41.992,40.527,35.645,47.363,0
150715.070,49.805,38.086,42.480,29.297,21.973,0
150715.074,35.645,33.691,38.086,25.879,-22.461,0
150715.078,38.086,30.273,32.715,32.227,42.480,0
150715.078,44.434,33.203,33.691,41.992,76.172,0
150715.081,35.156,37.109,41.992,40.039,34.668,0
150715.085,21.973,37.109,40.039,31.250,22.461,0
150715.089,22.949,32.227,33.691,33.203,34.668,0
150715.093,33.203,31.250,33.691,40.039,90.820,0
150715.097,29.785,34.668,39.062,37.109,98.633,0
150715.101,15.625,31.250,40.039,24.414,22.949,0
150715.105,21.484,15.625,41.504,22.461,2.930,0
150715.109,35.156,15.137,30.273,28.809,75.195,0
150715.113,35.156,38.086,31.738,29.785,78.125,0
150715.117,31.738,41.504,47.363,30.762,22.461,0
150715.121,33.691,32.227,41.504,36.621,27.832,0
150715.122,41.016,28.320,31.738,38.574,72.266,0
150715.126,43.945,32.715,37.109,38.574,67.383,0
150715.130,36.133,40.039,38.086,34.668,33.691,0
150715.134,27.344,40.039,28.809,25.391,17.578,0
150715.138,33.691,35.645,32.227,33.203,50.781,0
150715.142,39.062,30.762,38.086,40.527,77.148,0
150715.146,31.738,29.785,30.273,34.180,45.898,0
150715.150,25.391,27.832,28.809,36.133,28.809,0
150715.154,28.320,24.902,38.574,43.457,44.922,0
150715.158,36.133,32.715,46.387,49.316,86.426,0
150715.162,41.016,28.320,46.875,51.270,92.285,0
150715.165,40.039,29.297,37.109,46.387,35.645,0
150715.182,41.016,46.387,30.273,47.363,41.504,0
150715.186,39.062,39.551,31.738,41.992,85.449,0
150715.190,35.156,33.691,28.320,31.738,68.848,0
150715.194,29.785,34.668,27.344,26.367,38.574,0
150715.198,29.785,31.250,37.109,31.250,23.438,0
150715.202,43.457,22.949,41.016,39.551,28.320,0
150715.206,49.316,18.555,37.598,38.086,44.434,0
150715.210,41.992,28.320,40.039,37.109,26.367,0
150715.214,28.320,31.250,37.109,34.668,1.465,0
150715.218,27.344,30.273,26.855,31.250,15.137,0
150715.221,39.062,24.902,33.691,32.715,62.500,0
150715.225,39.062,26.855,38.086,36.133,52.246,0
150715.227,25.879,39.062,35.156,32.715,8.789,0
150715.231,22.461,38.574,36.621,37.598,13.672,0
150715.235,25.391,35.156,34.180,41.992,60.547,0
150715.239,22.949,31.738,29.785,31.250,74.219,0
150715.243,20.020,29.297,31.250,29.785,-8.301,0
150715.247,23.926,30.273,39.062,38.086,-27.344,0
150715.251,32.715,32.715,38.086,39.551,44.434,0
150715.255,37.109,36.621,28.320,38.086,50.293,0
150715.259,26.367,35.156,29.297,28.809,14.648,0
150715.262,23.438,28.320,35.645,23.438,-22.461,0
150715.266,35.156,26.855,41.504,30.762,20.020,0
150715.270,41.016,33.691,39.551,33.203,101.562,0
150715.274,41.504,32.227,37.598,28.809,81.055,0
150715.278,38.086,27.344,39.551,28.809,0.977,0
150715.282,43.457,41.016,35.645,35.645,11.230,0
150715.285,45.410,45.410,32.227,40.527,94.727,2
150715.289,36.133,42.480,29.785,34.180,73.730,0
150715.293,30.762,41.504,29.297,33.691,-5.371,0
150715.297,31.738,41.992,32.715,31.738,2.930,0
150715.301,38.086,43.457,30.273,28.320,60.059,0
150715.305,38.086,37.598,20.020,26.367,19.531,0
150715.309,30.762,34.668,22.461,20.508,-59.570,0
150715.313,22.461,41.016,27.344,22.461,-36.133,0
150715.317,34.180,44.922,38.086,33.203,69.824,0
150715.317,40.039,41.504,48.828,36.621,93.262,0
150715.321,28.320,39.062,47.852,31.250,46.875,0
150715.325,25.879,37.598,43.457,30.273,26.367,0
150715.329,34.180,30.762,36.621,36.621,37.109,0
150715.333,37.598,25.879,29.785,34.180,65.918,0
150715.337,27.832,35.156,24.414,23.438,10.254,0
150715.341,18.555,38.086,23.926,19.043,-23.438,0
150715.345,26.855,35.156,22.461,32.715,45.898,0
150715.349,35.156,32.715,18.066,38.574,60.547,0
150715.353,32.715,26.855,27.344,30.762,29.785,0
150715.356,27.344,32.715,40.527,30.762,16.113,0
150715.360,24.414,35.156,40.039,30.762,27.344,0
150715.362,28.809,31.738,43.457,34.180,96.191,0
150715.366,32.715,34.180,40.527,30.762,145.508,0
150715.370,24.902,35.156,24.414,16.602,76.660,0
150715.374,18.066,28.809,20.508,19.531,3.418,0
150715.378,27.832,30.273,30.273,36.621,38.086,0
150715.382,36.621,39.062,37.598,39.551,66.895,0
150715.386,31.250,39.062,33.691,35.156,32.227,0
150715.390,23.438,22.949,29.297,33.691,7.812,0
150715.394,32.227,24.414,32.715,35.645,25.391,0
150715.397,44.922,43.945,46.875,41.992,71.777,0
150715.401,41.504,39.551,55.176,42.969,48.340,0
150715.405,26.367,32.715,42.969,30.762,5.859,0
150715.407,27.344,41.504,27.344,27.344,45.898,0
150715.411,39.551,45.898,27.344,30.273,89.355,0
150715.415,36.621,37.598,35.156,25.391,42.969,0
150715.419,24.902,37.598,36.621,17.090,-26.367,0
150715.423,28.809,38.574,35.645,17.090,-13.184,0
150715.427,44.434,39.062,28.320,27.344,68.359,0
150715.431,50.293,42.480,20.996,35.645,119.141,0
150715.435,40.527,41.992,24.414,29.785,39.062,0
150715.439,30.762,38.086,22.949,25.879,-26.855,0
150715.442,39.062,23.926,29.297,37.598,74.219,0
150715.446,46.387,15.625,43.457,41.016,107.422,0
150715.450,39.062,41.504,41.016,38.086,19.531,0
150715.453,32.715,53.223,37.598,40.527,-11.719,0
150715.457,39.062,48.340,40.527,43.945,57.617,0
150715.460,41.504,46.387,37.109,42.480,110.840,0
150715.464,35.156,45.898,28.809,39.062,51.758,0
150715.468,21.973,40.527,24.414,27.344,2.930,0
150715.472,18.555,27.832,16.602,21.484,34.180,0
150715.476,22.461,25.391,17.578,23.438,65.430,0
150715.480,18.555,28.809,32.227,15.137,50.781,0
150715.484,19.043,28.809,35.645,12.695,16.602,0
150715.488,25.879,26.367,34.180,21.973,-1.953,0
150715.492,36.133,21.484,34.668,27.832,42.969,0
150715.496,43.457,26.855,34.180,28.320,90.332,0
150715.499,39.551,47.363,28.809,26.855,29.785,0
150715.503,29.297,45.410,25.879,26.367,-3.906,0
150715.507,30.762,38.574,31.738,27.832,48.828,0
150715.511,33.203,40.039,29.785,22.949,86.914,0
150715.514,20.996,35.645,28.809,17.578,28.320,0
150715.518,16.602,29.297,29.297,18.555,-19.043,0
150715.522,27.832,26.855,32.227,26.855,5.371,0
150715.526,34.668,26.855,37.598,35.645,43.945,0
150715.530,37.598,36.133,40.527,41.016,49.316,0
150715.534,38.086,29.785,42.480,41.504,-4.883,0
150715.538,36.133,22.949,37.598,40.039,3.418,0
150715.542,41.504,28.320,31.738,43.945,79.590,0
150715.558,42.969,32.227,33.203,41.016,65.918,0
150715.562,36.621,41.504,39.062,35.645,-7.812,0
150715.566,32.715,41.016,37.109,35.156,-23.438,0
150715.570,37.598,35.645,29.297,39.062,59.570,0
150715.574,47.852,30.273,31.250,45.898,72.266,0
150715.578,45.898,27.344,36.133,42.480,4.883,0
150715.582,40.039,26.855,31.250,36.133,-6.836,0
150715.586,48.828,27.344,39.062,42.480,61.523,0
150715.590,52.246,24.414,40.527,49.316,105.957,0
150715.594,50.781,30.273,31.738,51.758,70.312,0
150715.597,47.363,38.574,37.109,48.828,35.645,0
150715.601,39.551,38.086,39.062,44.434,40.039,0
150715.603,42.969,21.484,35.156,41.992,96.680,0
150715.607,41.504,21.973,37.598,38.574,85.449,0
150715.611,24.902,36.133,35.645,36.133,10.254,0
150715.615,32.715,35.645,44.922,46.387,24.902,0
150715.619,49.316,40.527,40.527,52.734,118.164,0
150715.623,43.945,31.250,30.273,41.504,91.797,0
150715.627,34.180,33.203,39.062,32.227,35.156,0
150715.630,30.273,45.410,32.715,29.785,21.973,0
150715.634,33.691,41.992,26.367,27.832,62.500,0
150715.638,40.527,35.645,33.203,27.832,54.199,0
150715.642,34.180,28.809,33.691,22.461,-13.672,0
150715.646,26.855,31.250,29.297,23.438,-1.953,0
150715.648,36.133,38.574,25.391,30.762,18.555,0
150715.652,45.410,35.156,26.855,33.203,45.898,0
150715.656,44.922,43.457,34.668,35.156,28.320,0
150715.660,37.598,26.367,35.645,33.203,-26.367,0
150715.664,36.621,23.926,28.320,30.762,6.836,0
150715.668,41.992,53.711,23.438,32.715,70.312,0
150715.672,35.645,49.316,31.250,32.715,64.941,0
150715.676,27.832,35.645,35.156,26.855,31.738,0
150715.679,30.762,26.855,33.691,26.367,16.602,0
150715.683,41.504,27.832,39.551,38.086,25.879,0
150715.687,42.969,34.668,34.180,41.504,35.645,0
150715.691,34.668,32.715,28.320,36.621,-3.906,0
150715.708,30.273,32.715,36.133,36.621,-41.016,0
150715.712,36.621,34.668,31.738,40.527,9.766,0
150715.716,41.504,31.738,33.691,42.480,79.590,0
150715.720,35.156,40.527,41.992,38.086,17.578,0
150715.724,30.762,35.156,28.809,38.574,-38.086,0
150715.728,33.203,16.113,19.043,39.062,-0.977,0
150715.731,40.039,30.762,26.855,36.621,62.500,0
150715.735,42.480,40.039,35.156,37.598,38.086,0
150715.739,34.180,30.762,38.086,31.738,-34.668,0
150715.743,34.180,34.180,36.621,26.367,-21.484,0
150715.747,40.527,34.668,30.762,28.320,50.781,0
150715.751,48.340,33.203,35.156,37.109,83.496,0
150715.739,49.805,32.715,40.039,45.898,39.551,0
150715.743,42.969,40.527,33.691,41.992,-7.812,0
150715.747,41.992,39.551,36.133,40.527,50.781,0
150715.750,39.062,15.625,41.992,42.480,95.215,0
150715.754,27.832,7.812,39.062,34.180,26.855,0
150715.758,27.344,33.203,29.785,29.785,-37.109,0
150715.762,38.574,48.828,31.250,43.457,8.789,0
150715.766,38.574,41.504,40.039,47.363,71.777,0
150715.770,26.367,38.574,39.551,33.691,52.734,0
150715.774,22.949,40.527,39.551,30.273,14.160,0
150715.778,28.809,30.762,38.086,35.156,46.875,0
150715.782,31.250,27.832,33.691,35.156,67.871,0
150715.782,32.715,31.738,36.621,34.180,2.441,0
150715.786,31.250,30.762,35.156,32.227,-28.809,0
150715.790,33.691,30.273,31.738,28.320,-4.883,0
150715.794,38.574,31.250,33.691,26.855,90.820,0
150715.798,41.504,35.645,35.645,30.273,104.004,0
150715.802,39.062,39.551,33.203,34.180,9.277,0
150715.806,27.344,29.785,25.391,26.855,-34.180,0
150715.810,27.832,31.250,24.414,21.484,17.090,0
150715.814,34.668,37.598,26.855,24.414,56.641,0
150715.818,27.344,37.109,31.738,22.461,26.855,0
150715.821,20.020,36.621,36.133,19.531,-4.883,0
150715.825,32.715,36.621,37.598,28.809,37.109,0
150715.827,41.016,35.645,34.668,35.645,87.402,0
150715.831,38.574,36.621,35.156,37.109,33.691,0
150715.835,35.156,38.574,34.180,35.156,-15.625,0
150715.839,42.969,32.715,33.691,38.086,33.691,0
150715.843,46.387,27.344,37.598,43.457,86.914,0
150715.847,41.992,31.250,37.598,37.109,61.523,0
150715.851,33.203,28.809,33.203,25.879,3.418,0
150715.855,29.785,17.090,30.273,28.809,-3.906,0
150715.859,42.969,25.879,29.785,39.062,54.199,0
150715.863,44.922,42.480,33.691,38.086,75.195,0
150715.866,39.551,42.969,38.574,33.691,39.062,0
150715.870,41.992,42.969,35.645,39.551,-1.465,0
150715.872,52.246,41.992,35.645,49.316,49.316,0
150715.876,51.270,38.086,33.203,48.340,71.289,0
150715.880,45.410,39.551,31.738,40.527,25.879,0
150715.884,37.598,34.668,37.598,36.621,-0.977,0
150715.888,35.645,29.297,34.180,37.598,40.039,0
150715.892,44.434,39.551,34.180,43.457,73.242,0
150715.896,34.180,44.922,32.715,34.668,-14.648,0
150715.900,16.602,31.738,27.344,23.438,-28.809,0
150715.904,21.484,30.273,31.738,29.297,67.871,0
150715.908,40.039,42.969,40.039,39.551,95.215,0
150715.911,43.945,33.203,38.086,40.039,55.176,0
150715.915,30.762,28.320,30.273,30.762,7.324,0
150715.932,26.855,40.039,32.227,21.973,2.441,0
150715.936,35.156,40.527,33.203,21.973,50.293,0
150715.940,38.086,41.016,34.668,25.391,94.238,0
150715.944,33.691,41.992,34.668,22.461,59.570,1
150715.948,28.809,33.691,29.785,24.414,27.344,0
150715.952,38.086,29.785,31.738,36.621,42.969,0
150715.956,42.480,35.645,38.086,41.992,60.059,0
150715.960,39.551,38.086,38.574,39.062,53.223,0
150715.964,37.109,37.598,30.273,37.598,4.395,0
150715.967,28.320,29.297,25.391,37.598,22.949,0
150715.971,29.297,21.973,35.645,38.574,66.895,0
150715.975,34.668,19.043,40.527,39.062,37.109,0
150715.978,31.738,37.109,36.621,38.086,-21.973,0
150715.982,39.551,48.340,34.668,38.574,-43.457,0
150715.986,42.969,40.039,32.715,33.203,50.293,0
150715.990,36.621,39.062,31.250,27.832,95.703,0
150715.994,29.785,28.320,24.902,25.391,0.488,0
150715.997,25.879,28.320,26.367,20.996,8.789,0
150716.001,27.344,41.016,33.691,23.438,61.523,0
150716.005,26.855,34.668,33.203,25.879,41.992,0
150716.009,29.785,23.926,35.156,28.320,5.371,0
150716.013,33.691,25.391,31.250,27.344,-7.812,0
150716.017,38.086,31.250,27.832,26.855,1.465,0
150716.021,40.039,33.203,35.645,31.738,39.551,0
150716.022,36.621,22.949,42.480,27.344,6.348,0
150716.026,33.203,28.809,39.062,22.949,-30.273,0
150716.030,39.062,51.270,33.691,25.879,40.527,0
150716.034,43.945,43.457,38.086,28.320,117.676,0
150716.038,30.762,36.133,38.574,23.438,85.449,0
150716.042,20.996,34.668,33.203,25.391,-13.672,0
150716.046,25.391,29.297,28.320,33.691,-4.395,0
150716.050,31.738,28.809,28.809,35.156,39.062,0
150716.054,30.273,32.227,39.551,30.762,25.879,0
150716.058,16.602,34.180,45.410,21.484,-42.969,0
150716.062,15.625,28.809,45.410,27.832,-41.016,0
150716.065,30.273,28.320,37.598,39.062,32.715,0
150716.067,34.668,35.645,28.809,35.156,44.434,0
150716.071,28.320,35.645,27.832,30.273,-4.883,0
150716.075,28.809,34.668,28.320,33.691,-44.434,0
150716.079,36.621,28.320,31.738,39.062,-0.977,0
150716.083,43.457,32.715,34.180,45.410,96.191,0
150716.087,42.969,37.109,38.086,48.828,45.898,0
150716.091,34.668,31.250,41.992,45.410,-33.691,0
150716.095,34.668,34.668,36.621,41.992,12.207,0
150716.099,34.668,36.621,37.598,35.156,50.781,0
150716.103,24.414,36.133,30.762,24.902,21.973,0
150716.107,22.461,39.551,18.066,22.461,-18.066,0
150716.110,27.344,33.203,25.391,23.926,-23.926,0
150716.113,27.832,12.207,29.785,24.414,59.570,0
150716.117,21.484,19.531,31.738,19.043,73.242,0
150716.121,14.648,41.016,40.527,15.625,1.465,0
150716.124,19.531,38.574,43.945,23.438,-12.207,0
150716.128,32.715,40.039,41.504,37.598,12.207,0
150716.132,33.691,40.527,34.180,35.645,49.805,0
150716.136,26.855,33.203,33.691,25.391,21.973,0
150716.140,28.809,30.273,39.062,30.762,-19.531,0
150716.144,40.039,26.855,35.156,41.992,-7.812,0
150716.148,44.434,30.273,28.320,46.387,48.828,0
150716.152,42.480,36.621,25.879,39.062,56.641,0
150716.156,39.062,29.785,27.832,31.738,9.766,0
150716.158,32.227,30.273,33.691,25.391,35.645,0
150716.162,40.039,22.949,40.039,34.180,60.547,0
150716.166,40.527,23.926,41.016,35.156,24.902,0
150716.169,25.391,43.945,33.691,30.762,-28.320,0
150716.173,28.320,44.434,28.809,37.109,-10.254,0
150716.177,46.875,41.016,33.691,47.363,91.797,0
150716.181,49.805,34.668,36.133,49.316,126.953,0
150716.185,42.969,30.273,31.738,39.062,28.809,0
150716.189,39.551,33.203,27.832,36.133,-13.184,0
150716.193,38.574,37.598,30.762,41.016,89.844,0
150716.197,41.016,39.062,39.551,44.922,107.910,0
150716.201,36.133,43.945,41.992,43.945,43.945,0
150716.205,29.785,42.480,41.016,37.598,41.016,0
150716.209,28.809,33.203,34.668,34.180,63.477,0
150716.213,34.180,32.227,34.668,33.203,77.148,0
150716.216,39.551,20.996,45.410,36.621,55.176,0
150716.220,34.180,20.020,41.016,36.621,22.461,0
150716.224,30.273,34.180,34.180,34.180,29.785,0
150716.228,39.062,37.598,35.156,38.086,61.035,0
150716.232,36.133,36.621,35.156,37.598,41.016,0
150716.236,27.344,41.504,34.180,38.086,25.391,0
150716.240,28.809,41.992,33.691,39.062,30.762,0
150716.244,40.527,34.668,38.086,46.875,76.660,0
150716.248,44.922,31.738,39.551,46.875,104.980,0
150716.249,34.180,28.320,38.574,39.062,47.852,0
150716.253,30.762,29.785,40.039,42.480,28.809,0
150716.257,37.598,22.949,35.156,47.852,81.055,0
150716.261,45.898,14.160,29.785,50.781,99.609,0
150716.265,44.922,33.691,30.273,45.898,51.270,0
150716.269,45.898,47.852,37.598,38.086,5.859,0
150716.273,55.176,47.852,43.945,42.969,18.066,0
150716.277,47.852,36.133,34.180,35.645,42.480,0
150716.281,32.715,22.461,24.902,22.461,65.918,0
150716.285,27.344,24.902,24.902,21.973,-4.395,0
150716.289,33.203,36.621,30.762,29.785,-6.836,0
150716.292,43.945,38.086,38.086,36.133,113.281,0
150716.308,49.316,39.551,36.621,39.551,93.750,0
150716.311,43.457,42.480,33.203,38.086,1.465,0
150716.315,38.574,40.527,34.668,36.133,-20.996,0
150716.319,50.293,30.762,40.039,47.363,39.551,0
150716.323,59.570,33.203,39.551,52.246,77.148,0
150716.327,44.922,45.410,31.250,37.598,22.461,0
150716.331,33.691,36.133,33.203,28.809,-65.918,0
150716.335,47.852,29.297,39.551,40.039,6.836,0
150716.339,55.176,37.598,37.598,45.898,118.164,0
150716.343,43.945,48.828,32.715,40.039,61.523,0
150716.347,42.480,45.410,34.668,41.504,-2.930,0
150716.351,52.734,32.227,34.668,48.828,47.363,0
150716.352,57.617,31.738,34.180,51.270,100.098,0
150716.356,48.340,31.250,37.598,42.480,67.383,0
150716.360,35.645,30.273,36.621,33.691,27.344,0
150716.364,34.668,26.367,38.086,33.691,41.992,0
150716.368,38.574,16.113,35.645,35.156,61.523,0
150716.372,40.527,29.785,36.621,40.039,36.621,0
150716.376,36.133,41.016,44.922,40.527,14.160,0
150716.380,30.762,46.387,46.387,43.945,4.395,0
150716.384,34.668,43.945,38.086,50.293,31.250,0
150716.388,30.273,27.344,32.715,42.480,32.715,0
150716.391,17.578,22.461,35.645,29.297,-16.602,0
150716.395,14.160,23.926,30.762,26.367,-4.883,0
150716.397,23.438,20.508,27.832,36.621,37.598,0
150716.401,31.738,27.832,24.902,36.621,76.172,0
150716.405,30.762,39.062,21.973,23.926,40.039,0
150716.409,26.367,38.574,25.879,19.531,-0.488,0
150716.413,35.645,47.852,31.250,31.738,41.504,0
150716.417,53.223,52.246,31.250,41.016,76.660,0
150716.421,49.805,41.992,32.227,28.320,67.383,0
150716.425,40.039,27.832,31.250,19.043,-1.953,0
150716.429,37.598,25.879,23.438,25.879,-33.203,0
150716.433,43.457,48.340,24.902,33.203,-14.648,0
150716.436,46.387,44.922,35.156,38.086,20.996,0
150716.440,33.691,33.203,42.480,37.598,10.742,0
150716.442,25.879,35.156,33.691,36.621,-27.344,0
150716.446,33.203,39.551,33.691,43.945,1.953,0
150716.450,31.738,29.297,35.156,39.551,39.062,0
150716.454,19.531,17.578,30.762,26.855,18.555,0
150716.458,10.742,22.461,35.645,26.367,-37.598,0
150716.462,21.484,30.762,35.156,30.762,7.324,0
150716.466,32.715,38.574,29.297,32.715,84.473,0
150716.470,27.344,38.086,29.297,28.809,43.457,0
150716.474,24.902,25.391,36.621,24.414,-9.277,0
150716.478,31.250,28.809,36.133,29.297,31.250,0
150716.481,47.363,46.387,33.691,39.062,88.867,0
150716.485,52.734,50.781,33.203,39.062,65.430,0
150716.489,41.992,43.457,29.297,33.691,-10.254,0
150716.493,30.273,38.086,25.391,24.902,-31.738,0
150716.496,33.691,41.016,25.391,24.902,4.395,0
150716.500,38.086,35.645,20.996,27.832,7.324,0
150716.504,31.738,32.715,15.625,21.484,-14.648,0
150716.508,29.297,36.621,25.391,22.461,-20.508,0
150716.512,39.062,38.574,34.668,31.738,26.367,0
150716.516,44.434,36.621,30.762,34.180,60.547,2
150716.520,36.133,26.855,27.344,29.297,2.441,0
150716.524,31.738,23.438,34.180,27.832,-0.977,0
150716.528,34.180,30.762,42.969,29.785,46.875,0
150716.532,33.691,32.227,37.598,24.902,80.566,0
150716.547,28.809,37.109,31.738,23.438,79.102,0
150716.551,28.320,37.109,34.668,30.762,53.223,0
150716.555,31.738,36.133,28.320,37.109,52.246,0
150716.559,43.945,49.316,33.691,46.387,106.445,0
150716.563,42.480,50.293,36.621,45.410,117.676,0
150716.567,27.344,32.227,25.879,33.691,34.180,0
150716.571,26.367,16.602,30.762,38.086,15.137,0
150716.575,37.598,31.250,31.738,47.363,52.734,0
150716.579,39.551,41.016,23.926,42.480,41.016,0
150716.583,32.715,38.086,24.414,36.133,31.738,0
150716.586,38.086,43.945,33.691,43.945,7.812,0
150716.590,44.434,37.598,25.391,47.363,53.223,0
150716.577,45.898,35.156,17.090,41.992,84.473,0
150716.581,45.898,47.852,27.344,37.109,62.012,0
150716.585,38.574,51.270,34.180,29.297,30.762,0
150716.589,45.898,50.293,36.133,30.762,16.602,0
150716.593,49.805,38.574,31.250,33.691,63.965,0
150716.597,38.574,30.273,25.391,22.461,52.734,0
150716.601,23.438,34.180,20.020,10.254,6.836,0
150716.605,28.320,38.086,21.973,13.672,3.418,0
150716.609,41.504,38.574,28.320,20.508,61.035,0
150716.613,40.039,28.809,27.344,18.066,96.680,0
150716.616,36.133,34.180,25.879,17.578,26.367,0
150716.620,37.598,45.898,39.062,29.297,-19.043,0
150716.622,45.410,40.039,38.086,45.898,78.613,0
150716.626,46.387,42.480,27.344,48.340,145.020,0
150716.630,40.039,47.363,34.180,41.504,114.258,0
150716.634,33.691,39.551,41.504,36.133,54.199,0
150716.638,35.645,33.691,36.133,41.504,37.598,0
150716.642,42.480,37.109,23.926,47.363,74.219,0
150716.646,44.434,43.457,30.273,41.992,40.039,0
150716.650,41.504,46.387,41.016,41.016,-21.484,0
150716.654,35.645,38.086,34.668,46.387,41.992,0
150716.658,37.109,34.180,33.203,50.781,114.258,0
150716.661,43.945,31.250,35.645,50.293,72.266,0
150716.665,39.551,29.785,24.414,44.922,5.859,0
150716.669,36.133,49.316,17.578,41.504,-8.301,0
150716.673,47.852,53.711,29.297,43.457,25.879,0
150716.676,53.711,43.945,35.156,37.109,38.574,0
150716.680,46.387,42.969,36.133,31.250,-0.977,0
150716.684,47.852,47.852,33.203,35.645,-22.949,0
150716.688,56.641,46.875,20.996,41.016,24.902,0
150716.692,62.500,48.828,23.926,46.387,60.059,0
150716.696,52.734,48.828,30.762,41.992,40.039,0
150716.700,39.062,42.969,27.344,33.691,-41.016,0
150716.704,40.527,46.875,30.273,35.645,-25.391,0
150716.708,42.480,38.574,36.621,36.133,81.543,0
150716.712,38.086,28.320,38.086,35.645,59.570,0
150716.728,27.344,42.969,33.691,35.645,-44.922,0
150716.732,25.391,45.410,37.598,36.133,-33.203,0
150716.736,33.691,44.922,46.387,41.016,65.918,0
150716.740,23.438,40.039,36.621,31.250,63.965,0
150716.743,2.441,29.297,27.344,17.090,20.020,0
150716.747,4.883,31.738,31.738,17.578,-5.371,0
150716.751,14.160,32.227,27.832,21.484,41.016,0
150716.755,14.648,21.973,32.715,22.461,110.840,0
150716.759,16.113,18.555,47.852,26.367,47.363,0
150716.763,16.113,22.461,46.387,25.879,-13.672,0
150716.767,25.391,20.508,39.551,30.273,55.176,0
150716.771,44.434,28.809,37.109,43.457,125.000,0
150716.773,44.434,42.480,35.645,41.504,97.656,0
150716.777,34.668,43.457,36.621,34.180,0.000,0
150716.781,37.109,30.762,29.297,37.109,30.762,0
150716.785,44.434,28.320,24.414,40.527,89.355,0
150716.789,41.016,33.691,29.297,34.180,50.781,0
150716.793,30.762,37.109,35.645,25.879,33.691,0
150716.797,30.762,39.062,32.715,29.297,44.922,0
150716.801,44.922,43.457,30.762,39.551,62.500,0
150716.805,50.293,46.875,37.109,38.086,57.617,0
150716.809,41.016,36.133,34.180,22.461,-22.949,0
150716.813,44.922,33.203,31.738,20.508,-50.781,0
150716.816,54.199,45.410,38.574,33.691,42.969,0
150716.818,55.664,29.297,40.527,37.598,59.570,0
150716.822,47.363,21.973,32.715,27.832,-3.418,0
150716.826,38.574,45.898,29.785,24.414,-20.996,0
150716.830,41.504,53.223,43.945,33.691,31.738,0
150716.834,36.621,46.387,37.598,25.879,71.289,0
150716.838,26.367,28.320,28.320,16.602,10.254,0
150716.842,21.973,21.484,34.668,17.578,-16.602,0
150716.846,28.809,23.926,39.062,23.926,28.320,0
150716.850,40.039,26.367,42.969,34.180,16.113,0
150716.854,33.203,30.762,41.016,31.250,-18.066,0
150716.858,25.391,29.297,40.039,29.785,-21.484,0
150716.861,30.762,27.344,43.457,38.086,9.277,0
150716.863,42.480,33.691,41.504,43.457,60.547,0
150716.867,46.875,25.391,41.504,47.852,73.242,0
150716.871,41.992,26.367,40.527,48.340,30.273,0
150716.875,44.922,44.434,35.156,43.945,28.320,0
150716.879,51.270,31.250,38.574,41.504,57.129,0
150716.883,60.547,37.598,45.410,45.898,78.125,0
150716.886,63.477,47.852,49.805,47.363,31.738,0
150716.890,52.246,34.180,47.852,42.969,-27.832,0
150716.894,53.223,38.086,45.410,41.016,12.695,0
150716.898,52.734,40.527,43.945,41.504,57.129,0
150716.902,41.504,38.086,36.621,33.691,33.203,0
150716.906,29.785,40.039,28.809,21.484,1.953,0
150716.910,31.738,36.621,29.297,26.855,37.598,0
150716.913,40.527,27.344,31.250,34.180,104.980,0
150716.917,37.109,31.250,28.320,26.367,79.590,0
150716.921,28.809,28.320,26.367,20.508,9.277,0
150716.925,30.762,28.320,28.809,25.391,13.184,0
150716.929,34.180,37.598,37.109,30.762,37.598,0
150716.933,32.715,31.250,42.969,35.156,51.270,0
150716.937,30.762,27.344,38.574,33.203,29.785,0
150716.941,21.484,21.973,30.273,25.879,6.836,0
150716.945,23.438,27.832,30.762,32.227,97.168,0
150716.949,29.785,33.203,36.621,37.598,125.977,0
150716.953,22.949,30.273,35.156,32.227,51.758,0
150716.954,20.020,29.297,36.133,35.645,18.555,0
150716.958,30.273,36.133,40.039,41.016,54.688,0
150716.962,33.691,25.879,40.039,34.668,54.688,0
150716.965,24.902,15.625,36.621,29.785,12.695,0
150716.969,20.996,32.227,31.250,23.438,-8.789,0
150716.973,26.855,38.086,29.785,21.973,-11.230,0
150716.977,28.809,30.762,34.180,25.879,41.504,0
150716.981,29.297,25.391,43.457,25.879,41.016,0
150716.985,28.809,27.832,48.340,21.484,-31.250,0
150716.989,24.902,27.344,49.316,22.949,-0.977,0
150716.993,33.203,28.809,44.434,40.527,93.262,0
150716.997,39.551,37.598,41.992,48.828,105.957,0
150716.997,35.156,33.691,43.457,39.551,25.879,0
150717.001,29.297,25.391,34.180,30.762,-23.438,0
150717.005,32.227,25.391,22.949,35.645,57.617,0
150717.009,36.133,17.578,26.367,39.551,87.402,0
150717.013,30.273,25.391,46.387,34.180,13.672,0
150717.017,21.973,38.574,55.664,30.273,-35.645,0
150717.021,25.391,36.133,51.270,33.691,-37.109,0
150717.025,34.180,35.156,45.410,39.551,6.348,0
150717.029,30.762,29.785,41.016,37.109,22.949,0
150717.033,23.438,34.180,38.574,30.762,-12.695,0
150717.036,23.926,40.039,34.668,31.738,-3.906,0
150717.040,23.926,35.645,29.785,29.785,60.547,0
150717.057,21.484,27.344,32.715,29.297,68.359,0
150717.061,18.066,24.902,39.062,28.809,4.395,0
150717.065,15.625,28.809,33.203,23.926,-10.254,0
150717.069,27.344,33.691,32.227,31.738,36.621,0
150717.073,26.855,23.438,34.180,27.832,89.844,0
150717.077,18.555,17.090,33.691,21.973,47.363,0
150717.081,15.137,37.598,29.297,22.461,-31.738,0
150717.085,17.578,44.922,23.926,20.996,9.277,0
150717.089,22.461,29.297,33.203,24.414,74.707,0
150717.093,20.020,25.391,39.062,24.902,-2.930,0
150717.097,17.578,31.250,34.668,17.578,-65.918,0
150717.100,26.855,28.809,35.156,25.391,11.719,0
150717.102,41.504,34.180,37.109,40.527,75.684,0
150717.106,41.504,43.457,40.527,41.504,4.883,0
150717.110,33.203,53.711,45.410,36.133,-59.082,0
150717.114,34.180,48.340,39.062,37.598,-0.488,0
150717.118,40.527,36.621,35.156,43.945,48.828,0
150717.122,36.133,35.156,38.574,37.109,62.500,0
150717.126,25.391,20.508,38.086,25.879,-6.348,0
150717.130,22.949,9.277,38.574,28.809,-25.391,0
150717.134,35.645,30.273,43.945,40.039,43.945,0
150717.138,40.039,41.504,41.016,38.086,22.949,0
150717.141,29.785,30.273,38.086,29.785,-33.691,0
150717.145,21.973,34.668,38.574,26.855,-10.742,0
150717.148,30.273,41.992,39.551,32.227,24.414,0
150717.151,35.645,36.621,38.574,36.133,70.312,0
150717.155,24.902,29.785,37.598,24.414,62.500,0
150717.159,20.020,27.344,40.039,22.461,0.488,0
150717.163,25.391,27.344,38.086,31.250,-4.883,0
150717.167,26.367,25.879,26.367,27.344,64.453,2
150717.171,20.020,27.832,23.926,22.461,98.145,0
150717.175,17.090,33.691,31.738,24.414,43.945,0
150717.179,19.531,36.133,33.203,31.738,2.441,0
150717.183,27.344,25.879,38.574,40.039,46.387,0
150717.187,23.438,17.578,34.668,27.344,67.383,0
150717.190,15.625,36.621,26.855,12.207,17.578,0
150717.192,19.531,39.551,29.297,13.184,-10.742,0
150717.196,28.320,33.203,31.738,22.949,43.945,0
150717.200,34.180,35.645,34.668,29.785,85.449,0
150717.204,34.180,34.668,30.762,23.926,52.734,0
150717.208,30.273,38.086,24.902,23.926,10.254,0
150717.212,33.203,42.969,25.879,30.273,-2.930,0
150717.216,30.762,34.668,28.320,27.344,69.824,0
150717.220,21.484,26.367,27.832,16.602,65.430,0
150717.224,14.648,19.043,33.203,8.301,-34.180,0
150717.228,22.461,27.344,41.016,19.043,29.297,0
150717.231,35.645,51.270,42.480,33.691,141.602,0
150717.235,29.297,50.781,32.715,23.926,90.332,0
150717.237,25.391,37.598,27.344,19.043,11.719,0
150717.241,33.691,33.691,35.156,32.715,24.414,0
150717.245,40.039,33.203,34.668,39.551,46.387,0
150717.249,39.551,25.391,30.273,35.645,41.016,0
150717.253,34.180,28.320,31.738,35.156,10.742,0
150717.257,38.086,42.969,34.668,44.434,1.465,0
150717.261,44.922,42.969,34.668,49.805,51.758,0
150717.265,41.992,24.902,34.668,47.363,70.801,0
150717.269,37.598,24.414,40.527,42.969,0.000,0
150717.273,30.762,27.344,41.504,36.621,-6.348,0
150717.277,37.598,28.809,41.016,37.598,36.133,0
150717.280,43.457,41.504,34.668,37.109,50.293,0
150717.282,37.109,42.969,29.297,30.762,47.852,0
150717.286,29.297,35.645,38.574,30.762,17.578,0
150717.290,29.785,30.273,45.410,36.133,4.883,0
150717.294,39.062,27.832,36.621,39.551,63.477,0
150717.298,40.039,29.297,38.574,41.504,70.801,0
150717.302,24.902,22.461,35.645,37.598,-2.930,0
150717.306,24.902,25.879,24.902,36.621,-39.062,0
150717.310,43.457,38.086,29.785,48.340,-27.344,0
150717.314,37.109,36.133,35.156,42.969,36.133,0
150717.318,27.832,29.297,38.574,36.621,64.453,0
150717.321,33.203,25.879,38.574,40.039,11.230,0
150717.325,38.086,35.156,35.156,35.645,42.480,0
150717.328,44.922,42.969,39.551,42.969,100.586,0
150717.332,39.551,48.340,40.527,44.434,43.457,0
150717.336,30.762,37.109,29.785,30.273,-11.230,0
150717.339,33.203,18.555,26.855,29.785,2.930,0
150717.343,37.598,30.273,31.738,32.227,38.574,0
150717.347,37.109,40.527,35.156,30.762,50.781,0
150717.351,30.762,37.109,32.715,27.344,1.953,0
150717.355,31.250,32.227,31.738,26.367,-18.555,0
150717.359,36.621,30.273,24.414,33.691,61.035,0
150717.363,28.809,28.320,17.578,27.832,108.887,0
150717.367,17.090,27.832,30.762,16.602,12.207,0
150717.371,21.973,26.855,40.527,23.438,-23.438,0
150717.373,29.297,22.949,30.762,29.785,43.457,0
150717.377,29.297,34.180,29.297,29.785,62.988,0
150717.381,29.297,32.715,34.180,31.738,7.812,0
150717.385,25.391,27.344,24.414,27.832,-17.578,0
150717.388,30.762,39.551,25.391,37.109,25.879,0
150717.392,40.039,42.480,36.621,47.363,58.594,0
150717.396,35.156,31.250,29.297,37.109,14.160,0
150717.400,31.738,26.855,30.762,39.551,-41.992,0
150717.404,39.062,36.133,34.180,49.805,35.156,0
150717.408,46.875,34.180,33.203,46.387,88.379,0
150717.412,48.828,40.039,41.992,44.434,49.805,0
150717.416,41.992,43.945,40.527,43.457,13.672,0
150717.420,36.621,33.691,31.250,37.109,28.809,0
150717.424,44.922,38.086,33.691,38.086,95.703,0
150717.428,43.945,40.039,34.668,34.668,88.867,0
150717.432,30.762,28.809,27.344,27.344,25.879,0
150717.436,29.297,33.691,28.809,31.250,4.883,0
150717.440,45.410,34.668,40.527,41.016,39.551,0
150717.444,47.363,31.738,40.527,38.574,59.570,0
150717.448,29.785,35.156,27.832,25.391,39.551,0
150717.452,25.391,39.551,27.832,29.297,18.066,0
150717.455,32.715,41.992,26.367,33.691,34.180,0
150717.459,40.039,39.062,26.367,34.668,84.961,0
150717.463,40.527,41.504,35.156,35.156,72.266,0
150717.480,33.691,35.156,32.715,28.809,27.344,0
150717.484,31.738,27.832,36.133,25.391,44.434,0
150717.488,39.062,28.809,39.551,32.227,76.172,0
150717.492,43.457,30.762,34.180,34.668,72.754,0
150717.496,33.203,29.785,25.879,23.926,40.527,0
150717.499,24.902,26.367,24.902,18.555,7.812,0
150717.503,38.086,22.461,33.203,25.391,22.949,0
150717.507,39.551,22.461,32.715,22.461,68.848,0
150717.511,29.297,33.691,22.949,12.207,38.574,0
150717.515,36.133,38.574,22.949,21.484,-15.137,0
150717.519,43.945,38.086,23.926,30.762,31.250,0
150717.523,44.922,36.133,30.273,34.180,98.633,0
150717.524,31.738,37.109,30.762,29.785,53.223,0
150717.527,15.625,36.133,20.020,23.438,-5.371,0
150717.531,19.043,35.156,23.438,22.461,11.230,0
150717.535,27.832,34.668,38.574,24.902,56.152,0
150717.539,22.461,27.832,46.875,20.508,44.922,0
150717.543,14.648,29.785,40.039,15.625,-25.879,0
150717.547,18.555,24.902,35.156,25.879,0.488,0
150717.551,31.738,20.020,35.156,34.668,92.285,0
150717.555,34.668,37.598,36.133,29.785,67.871,0
150717.559,26.367,38.574,35.156,23.926,-13.184,0
150717.563,29.297,32.715,30.762,27.832,-20.996,0
150717.567,37.109,36.621,31.250,33.203,49.805,0
150717.568,36.133,46.875,26.855,30.273,89.355,0
150717.571,28.320,44.434,22.461,18.066,30.762,0
150717.575,23.438,39.062,27.832,15.137,-24.414,0
150717.579,33.691,37.109,36.621,31.738,20.996,0
150717.583,45.410,25.879,41.016,43.457,39.551,0
150717.587,42.969,30.762,31.738,37.598,-12.695,0
150717.591,40.527,48.828,23.926,32.715,-3.418,0
150717.595,40.039,42.969,16.113,35.156,80.078,0
150717.599,45.410,36.133,17.578,36.133,92.773,0
150717.603,56.641,39.062,36.133,41.016,39.062,0
150717.607,45.898,36.621,38.086,42.969,42.969,0
150717.611,37.109,35.156,33.691,42.969,25.391,0
150717.612,47.852,41.992,35.645,48.340,59.570,0
150717.616,53.711,36.621,39.551,50.781,98.145,0
150717.620,49.316,36.621,41.504,49.316,53.223,0
150717.624,47.363,42.969,30.273,48.828,-9.277,0
150717.628,53.711,31.738,21.973,51.758,44.434,0
150717.632,50.293,23.926,20.996,46.875,82.520,0
150717.636,40.039,36.621,28.320,37.109,13.672,0
150717.640,36.133,38.086,37.109,32.227,-24.902,0
150717.644,41.992,29.785,37.109,39.062,34.668,0
150717.647,48.340,25.879,36.621,46.875,115.723,0
150717.651,43.945,38.086,39.551,43.457,70.801,0
150717.655,33.203,46.875,38.086,37.109,0.977,0
150717.657,31.738,29.297,35.645,37.598,1.953,0
150717.661,38.086,21.484,32.715,37.109,48.340,0
150717.665,35.645,31.250,27.344,30.273,48.340,0
150717.669,27.344,28.320,23.438,24.414,-6.348,0
150717.673,30.762,16.113,25.879,26.367,2.930,0
150717.677,41.016,27.344,27.344,31.250,51.758,0
150717.681,48.828,38.086,32.715,36.621,45.410,0
150717.685,45.898,42.480,37.598,33.203,-14.648,0
150717.689,29.785,47.363,33.203,14.648,-41.504,0
150717.693,30.762,40.527,24.414,9.277,36.621,0
150717.696,36.621,32.227,17.578,13.672,101.074,0
150717.700,34.668,34.180,21.973,15.625,73.242,0
150717.704,29.785,33.691,27.832,18.555,14.160,0
150717.708,29.297,26.367,20.996,23.926,10.254,0
150717.711,43.457,29.297,22.461,30.273,63.477,0
150717.715,47.852,35.645,32.715,31.738,37.598,0
150717.719,34.180,37.109,30.762,24.414,-6.348,0
150717.723,30.273,26.855,25.391,22.949,26.367,0
150717.727,39.062,27.344,28.320,26.855,72.266,0
150717.731,34.180,45.410,29.785,21.484,30.273,0
150717.735,21.484,31.738,25.391,13.672,-23.438,0
150717.739,16.602,17.090,22.949,18.066,-44.434,0
150717.743,26.367,25.879,26.855,24.902,-0.488,0
150717.747,33.691,31.738,29.785,23.438,62.012,0
150717.748,25.879,26.855,26.367,18.555,9.766,0
150717.751,20.020,24.414,30.762,19.531,-34.668,0
150717.755,26.855,28.320,35.156,24.902,31.250,0
150717.759,32.715,28.809,34.668,25.391,79.590,0
150717.763,27.832,39.551,27.344,26.367,41.016,0
150717.767,19.531,39.551,20.996,24.902,13.672,0
150717.771,16.602,3.906,22.949,20.508,43.457,2
150717.775,24.902,6.348,22.949,17.578,71.289,0
150717.779,27.832,36.621,29.297,17.578,68.359,0
150717.783,24.902,42.480,37.109,19.531,13.672,0
150717.787,32.227,40.039,41.504,29.785,-5.371,0
150717.790,39.062,33.203,35.645,36.133,54.199,0
150717.807,39.551,41.016,20.508,35.156,79.590,0
150717.811,29.785,43.457,15.137,29.785,13.184,0
150717.815,26.367,32.715,23.926,27.344,-12.207,0
150717.819,44.922,28.320,38.574,37.109,57.617,0
150717.823,49.316,29.785,37.598,42.480,97.168,0
150717.827,37.598,25.391,32.715,37.598,8.301,0
150717.831,30.273,18.555,42.480,33.691,-69.824,0
150717.835,31.738,25.879,41.016,33.691,-7.812,0
150717.839,36.621,34.668,35.156,33.203,17.578,0
150717.843,30.273,38.574,37.598,27.832,-26.367,0
150717.846,19.531,29.785,33.691,23.926,-47.852,0
150717.850,26.367,27.344,32.227,34.180,-20.996,0
150717.852,32.227,28.320,28.809,37.598,39.551,0
150717.856,21.484,22.461,31.738,28.809,45.898,0
150717.860,17.578,24.902,39.062,29.785,-9.277,0
150717.864,26.367,30.273,35.645,37.109,37.598,0
150717.868,34.668,31.250,34.668,41.504,132.324,0
150717.872,25.879,22.949,33.691,31.738,97.656,0
150717.876,14.160,20.996,34.180,19.043,27.832,0
150717.880,17.090,26.855,32.715,18.066,5.371,0
150717.884,25.391,27.344,27.344,24.414,34.668,0
150717.887,24.414,35.645,29.785,27.344,78.613,0
150717.891,20.020,34.668,33.691,24.902,46.875,0
150717.895,20.020,31.250,27.344,24.902,15.137,0
150717.897,25.879,30.762,27.832,27.344,35.156,0
150717.901,43.457,34.668,39.551,34.180,70.801,0
150717.905,49.316,37.598,43.457,41.504,94.238,0
150717.909,39.062,29.785,45.898,44.434,34.180,0
150717.913,32.227,19.043,41.992,40.527,-15.137,0
150717.917,38.086,22.949,27.344,34.668,48.340,0
150717.921,41.504,31.250,20.996,32.227,85.938,0
150717.925,29.785,22.949,26.855,24.414,10.742,0
150717.929,30.762,25.879,34.180,20.508,-39.062,0
150717.933,44.434,32.715,32.227,26.367,31.738,0
150717.936,45.898,32.715,34.668,33.691,67.383,0
150717.940,39.062,20.508,39.062,35.156,9.277,0
150717.944,35.156,22.461,41.016,36.133,-10.742,0
150717.948,44.922,40.039,41.992,44.922,21.973,0
150717.952,49.805,41.992,39.062,46.387,101.074,0
150717.956,41.504,34.668,35.645,38.086,98.633,0
150717.959,35.645,20.996,29.297,32.227,36.621,0
150717.963,43.945,16.602,34.668,37.598,49.805,0
150717.967,46.387,29.297,40.039,40.527,111.328,0
150717.971,36.133,35.645,36.621,30.273,111.328,0
150717.975,33.203,25.879,35.156,24.414,29.297,0
150717.979,36.133,25.391,31.250,29.785,8.301,0
150717.983,38.574,26.855,31.250,33.691,64.453,0
150717.987,38.574,18.066,35.156,37.598,68.848,0
150717.988,36.133,37.109,41.504,41.504,12.695,0
150717.992,29.785,44.434,42.969,36.621,14.160,0
150717.995,33.691,33.691,34.180,36.133,108.887,0
150717.999,43.945,35.645,32.715,36.621,121.094,0
150718.003,40.039,34.180,39.062,36.133,28.320,0
150718.007,28.809,29.297,38.574,27.832,0.488,0
150718.011,36.133,31.250,31.250,29.297,45.410,0
150718.015,47.363,35.645,34.180,39.062,58.594,0
150718.019,46.387,36.133,34.180,38.574,9.277,0
150718.023,39.551,23.926,29.785,36.621,-38.086,0
150718.027,33.203,16.113,39.551,33.691,16.602,0
150718.031,28.320,20.508,36.621,30.762,72.754,0
150718.033,31.250,29.297,35.645,30.273,39.551,0
150718.037,27.344,34.180,38.086,24.902,5.859,0
150718.041,22.949,27.344,30.273,26.367,1.953,0
150718.045,34.668,17.090,28.320,33.691,49.316,0
150718.049,33.691,20.508,28.809,32.227,31.738,0
150718.053,30.273,27.832,38.086,29.785,-39.062,0
150718.057,31.738,26.367,45.898,32.227,-50.781,0
150718.061,30.762,28.320,41.504,37.598,-5.371,0
150718.065,33.691,33.203,36.133,36.133,63.965,0
150718.068,28.809,31.738,30.273,30.762,44.922,0
150718.072,21.484,31.250,27.832,27.832,-12.695,0
150718.076,34.180,36.621,33.203,37.109,28.809,0
150718.078,41.504,32.715,33.691,44.922,104.004,0
150718.082,30.273,23.926,35.156,33.203,61.523,0
150718.086,23.438,25.879,37.598,24.414,-9.277,0
150718.090,28.809,25.879,32.715,29.297,27.832,0
150718.094,38.086,25.879,31.738,38.574,66.406,0
150718.098,38.086,25.391,35.156,35.156,59.570,0
150718.102,30.273,23.438,37.109,29.785,20.020,0
150718.105,32.715,26.367,31.250,35.645,1.953,0
150718.109,43.945,31.738,32.227,42.480,48.340,0
150718.113,43.945,25.879,36.133,41.016,74.707,0
150718.117,34.668,28.809,32.715,33.691,2.441,0
150718.121,34.668,48.828,33.691,35.645,-55.176,0
150718.123,41.504,46.875,36.133,43.945,-1.465,0
150718.127,42.480,33.203,33.691,43.457,71.289,0
150718.131,33.691,29.297,33.691,33.203,46.875,0
150718.135,27.344,31.250,39.062,29.297,-19.043,0
150718.139,25.879,34.180,34.668,32.227,14.160,0
150718.143,28.809,36.133,26.367,34.180,77.148,0
150718.147,28.320,33.691,30.273,33.203,39.062,0
150718.150,22.461,31.250,36.133,28.809,-38.086,0
150718.154,26.855,26.367,37.598,33.691,-8.301,0
150718.158,39.551,23.926,37.598,38.086,78.125,0
150718.162,43.457,37.598,33.203,39.551,53.711,0
150718.166,36.621,39.551,32.715,36.621,-8.301,0
150718.170,35.645,28.320,36.621,35.645,16.113,0
150718.174,45.410,33.203,38.574,41.992,71.289,0
150718.178,45.898,41.504,32.227,40.527,63.965,0
150718.182,31.250,40.039,20.996,31.738,17.090,0
150718.186,26.367,41.016,23.926,24.902,12.695,0
150718.190,39.551,41.504,33.691,26.855,36.133,0
150718.194,42.480,34.668,40.039,31.250,42.480,0
150718.198,40.527,35.645,34.180,31.250,36.621,0
150718.201,38.086,30.273,26.367,32.227,3.418,0
150718.205,43.457,28.809,24.414,39.062,20.020,0
150718.209,50.781,29.785,26.367,41.992,50.293,0
150718.213,39.551,17.578,32.715,33.203,38.574,0
150718.229,26.367,30.273,39.062,28.809,-5.371,0
150718.233,27.832,42.969,41.504,36.621,6.836,0
150718.237,34.668,40.039,36.133,41.016,96.191,0
150718.240,35.156,35.645,32.227,37.598,88.867,0
150718.244,32.227,34.180,32.715,30.273,11.719,0
150718.248,29.785,37.598,33.203,29.297,-22.949,0
150718.252,40.039,35.645,33.691,37.598,24.414,0
150718.256,47.363,30.762,34.180,39.062,50.293,0
150718.260,37.109,35.156,30.762,26.367,20.020,0
150718.264,32.715,42.480,25.879,22.949,-33.203,0
150718.268,44.434,40.527,27.832,32.227,-24.414,0
150718.272,43.457,33.203,30.762,30.273,48.828,0
150718.273,32.715,34.668,25.879,23.926,35.156,0
150718.276,30.273,21.973,26.855,22.461,-30.273,0
150718.280,34.180,19.531,26.367,29.297,6.348,0
150718.284,38.574,44.434,21.484,37.109,44.922,0
150718.288,40.039,51.270,31.250,36.621,9.277,0
150718.292,34.180,46.875,35.156,33.691,-17.578,0
150718.296,26.855,41.016,31.738,37.598,1.953,0
150718.300,24.414,34.668,28.809,40.527,69.824,0
150718.304,21.973,28.809,30.762,29.297,70.801,0
150718.308,15.625,25.879,38.574,21.973,18.066,0
150718.312,18.066,29.297,37.598,31.250,17.090,0
150718.316,30.762,26.855,36.133,45.898,50.781,0
150718.317,35.156,22.461,34.668,42.480,64.941,0
150718.321,35.645,32.715,38.574,40.039,19.531,0
150718.325,36.133,35.645,44.434,43.945,-10.254,0
150718.329,37.598,41.016,34.668,41.504,27.344,0
150718.333,39.062,45.898,26.367,38.574,76.660,0
150718.337,35.645,39.551,27.832,32.715,32.715,0
150718.341,30.273,34.180,30.762,24.902,-14.648,0
150718.345,33.203,35.645,35.645,29.297,11.719,0
150718.349,42.480,37.109,41.504,34.180,38.086,0
150718.353,42.480,33.203,48.340,27.344,30.273,0
150718.356,34.180,34.668,44.922,21.973,-12.207,0
150718.360,34.180,30.273,37.109,27.832,-34.180,0
150718.362,42.480,29.297,39.062,35.156,26.855,0
150718.366,40.039,38.086,39.062,33.691,94.238,0
150718.370,28.809,41.016,34.180,28.320,68.359,0
150718.374,26.855,20.508,30.273,28.320,41.992,0
150718.378,36.621,23.438,23.926,38.574,61.523,0
150718.382,35.156,43.457,24.414,38.574,71.777,0
150718.386,21.973,31.738,41.504,29.785,40.039,0
150718.390,23.438,36.133,51.270,37.109,-19.043,0
150718.394,24.414,43.945,42.480,33.691,13.672,0
150718.398,28.320,35.645,34.668,26.855,105.957,0
150718.401,32.227,37.109,35.156,30.273,96.680,0
150718.405,27.832,38.574,32.227,30.273,21.484,0
150718.409,41.016,38.574,35.645,40.039,24.414,0
150718.413,46.387,38.086,34.668,41.016,87.891,0
150718.416,37.109,34.180,25.391,30.273,97.656,0
150718.420,37.109,37.109,29.297,27.344,23.438,0
150718.424,47.852,27.832,35.156,34.668,-29.297,0
150718.428,51.270,20.996,35.156,38.086,46.875,0
150718.432,47.363,40.527,35.156,36.621,91.797,0
150718.436,33.203,45.898,30.762,26.367,10.742,0
150718.440,23.438,38.574,32.227,20.996,-28.809,0
150718.444,29.785,32.715,37.598,28.809,51.758,0
150718.448,34.180,35.645,38.086,37.109,89.844,0
150718.452,26.855,34.180,32.715,39.062,17.090,0
150718.453,13.184,26.367,34.180,26.367,-48.828,0
150718.456,22.461,31.250,38.574,33.203,13.672,0
150718.460,29.785,32.227,27.832,41.992,84.473,0
150718.464,19.043,28.320,29.785,32.227,49.316,0
150718.468,11.719,29.785,36.621,29.297,-1.465,0
150718.472,17.578,33.691,34.668,31.738,17.578,0
150718.476,31.250,33.691,39.062,36.133,60.547,1
150718.480,37.109,28.320,41.504,29.297,31.738,0
150718.484,34.180,36.621,33.203,22.461,-24.414,0
150718.488,34.180,46.875,32.227,29.785,-34.180,0
150718.492,46.387,41.016,41.504,41.504,33.691,0
150718.496,48.340,30.273,39.551,43.457,52.246,0
150718.497,31.738,27.344,30.273,24.414,5.371,0
150718.501,26.367,34.668,32.227,16.602,29.785,0
150718.505,41.504,39.551,42.480,32.715,77.637,0
150718.509,42.969,39.062,40.039,36.133,100.098,0
150718.513,36.133,38.086,41.992,33.691,94.727,0
150718.517,31.250,31.250,43.457,34.668,11.230,0
150718.521,35.156,19.531,37.598,37.598,-17.578,0
150718.525,41.992,23.926,37.109,38.086,36.133,0
150718.529,34.668,37.598,34.180,27.832,19.531,0
150718.533,21.973,35.645,31.738,19.043,-45.410,0
150718.536,19.531,42.480,31.250,21.973,-21.973,0
150718.540,31.250,41.504,38.086,34.180,74.219,0
150718.557,33.203,26.367,40.527,35.645,102.539,0
150718.561,20.996,33.203,36.621,26.367,32.715,0
150718.565,20.996,40.527,44.434,27.832,-21.973,0
150718.569,34.180,35.645,48.340,39.062,55.664,0
150718.573,34.180,34.180,43.945,34.180,101.562,0
150718.577,24.902,28.320,28.320,21.484,18.066,0
150718.581,26.367,29.297,24.902,28.320,-34.180,0
150718.585,33.203,32.227,33.691,36.133,66.895,0
150718.589,35.156,13.672,29.785,32.227,96.680,0
150718.593,32.715,20.508,34.180,29.785,15.625,0
150718.596,27.344,41.992,39.062,28.320,-53.223,0
150718.600,30.273,41.504,39.551,35.156,-1.465,0
150718.602,35.156,37.109,42.969,37.109,73.730,0
150718.606,28.809,27.832,38.574,31.250,32.715,0
150718.610,20.020,33.203,31.250,26.855,-27.344,0
150718.614,17.090,33.203,26.855,25.879,-0.977,0
150718.618,23.926,24.902,29.785,27.832,96.191,0
150718.622,24.902,26.855,29.785,22.461,113.281,0
150718.626,22.949,33.203,32.715,24.902,45.410,0
150718.630,24.902,34.180,42.480,29.785,-5.371,0
150718.634,30.762,34.180,41.992,36.133,33.203,0
150718.638,33.691,27.344,39.062,34.180,51.758,0
150718.642,24.902,15.625,36.621,24.902,-33.691,0
150718.645,21.973,25.879,31.738,20.996,-26.855,0
150718.648,29.297,38.086,21.484,25.879,59.082,0
150718.652,37.598,42.480,21.973,34.180,71.289,0
150718.656,34.668,36.133,30.762,30.762,30.762,0
150718.659,25.879,31.250,32.227,26.367,-19.043,0
150718.663,24.414,26.367,32.227,26.855,-14.648,0
150718.667,37.109,31.738,33.691,37.598,38.086,0
150718.671,37.109,36.133,28.809,39.062,51.758,0
150718.675,25.391,20.996,31.250,29.785,-3.418,0
150718.679,24.902,19.043,28.320,31.250,-26.855,0
150718.683,31.250,32.227,17.578,29.785,27.832,0
150718.687,32.227,37.109,26.367,29.785,83.496,0
150718.691,27.344,43.945,38.086,30.762,36.621,0
150718.693,27.832,48.828,38.086,28.320,3.418,0
150718.697,35.156,43.457,33.203,31.738,33.203,0
150718.701,42.969,39.062,36.621,39.551,50.293,0
150718.705,37.598,40.527,33.691,38.086,38.086,0
150718.708,33.203,37.598,34.180,37.109,-7.812,0
150718.712,36.133,24.902,37.598,38.574,19.043,0
150718.716,45.410,23.438,30.762,41.016,121.582,0
150718.720,51.758,31.738,29.297,40.039,104.492,0
150718.724,52.734,41.016,41.992,37.109,-30.762,0
150718.728,53.223,33.691,43.457,40.039,-34.668,0
150718.732,52.246,26.367,37.109,46.387,51.270,0
150718.736,48.828,41.504,29.785,44.922,39.062,0
150718.738,36.133,41.992,20.996,28.320,-39.062,0
150718.742,34.668,42.480,31.738,31.250,-46.387,0
150718.746,50.781,44.434,40.527,45.410,35.645,0
150718.750,48.340,37.109,34.180,41.016,104.004,0
150718.754,33.203,30.273,31.250,30.762,37.598,0
150718.758,36.621,30.273,35.156,33.691,-25.391,0
150718.762,49.316,36.621,34.668,44.434,44.922,0
150718.766,54.688,36.133,33.691,45.410,53.223,0
150718.769,58.105,39.551,36.133,43.457,-31.738,0
150718.773,47.363,36.621,26.367,35.645,-29.785,0
150718.777,38.574,11.719,17.578,31.738,21.973,0
150718.781,49.316,15.625,29.785,40.527,17.090,0
150718.783,51.758,42.480,46.387,41.504,-7.812,0
150718.787,35.156,41.504,41.504,36.133,-4.395,0
150718.790,36.621,33.203,28.809,39.551,12.207,0
150718.794,50.781,31.738,33.691,49.805,84.473,0
150718.798,39.062,27.832,33.203,38.086,96.191,0
150718.802,24.902,27.344,33.691,27.344,43.457,0
150718.806,32.227,28.809,43.457,31.738,32.715,0
150718.810,45.410,22.461,41.992,35.645,50.781,0
150718.814,48.340,20.508,41.504,38.086,75.684,0
150718.818,37.598,27.832,40.527,36.621,10.254,0
150718.822,32.715,35.645,39.062,37.109,-75.195,0
150718.826,38.574,34.180,32.227,41.992,-38.086,0
150718.827,41.016,36.133,28.809,39.062,64.941,0
150718.831,35.645,41.016,38.086,33.691,54.199,0
150718.835,25.879,37.598,42.480,34.668,-11.230,0
150718.839,29.297,27.832,43.945,44.434,32.715,0
150718.843,40.039,28.320,37.598,45.410,102.051,0
150718.847,40.527,27.344,33.203,39.551,61.035,0
150718.851,30.273,30.273,37.109,38.086,0.488,0
150718.855,23.438,34.668,32.227,38.574,-25.879,0
150718.859,32.715,27.832,25.391,41.504,-5.859,0
150718.863,36.133,30.762,22.461,37.598,17.090,0
150718.866,22.949,36.133,22.949,30.762,-22.461,0
150718.870,27.344,34.668,35.645,36.621,-54.199,0
150718.873,42.480,18.555,37.109,43.945,46.387,0
150718.877,46.875,24.902,27.344,40.527,96.680,0
150718.881,40.527,44.922,32.715,35.645,22.461,0
150718.885,41.504,44.922,41.504,39.062,-39.551,0
150718.889,51.270,44.434,38.086,48.340,-22.461,0
150718.893,49.805,41.016,27.344,43.457,50.293,0
150718.896,44.434,41.016,24.414,32.227,16.113,0
150718.900,36.621,37.109,29.785,27.832,-48.340,0
150718.904,38.574,28.320,33.691,36.621,0.977,0
150718.908,51.758,32.227,35.645,48.828,78.125,0
150718.912,46.875,33.203,31.250,45.410,60.547,0
150718.916,34.668,33.691,26.855,32.227,-3.906,0
150718.919,33.203,42.480,27.344,27.832,-9.277,0
150718.923,42.969,38.574,34.668,37.598,64.941,0
150718.927,46.875,29.297,42.969,39.551,66.406,0
150718.930,39.062,33.691,45.898,35.156,-7.812,0
150718.934,34.668,32.227,32.715,36.133,-11.719,0
150718.938,36.133,24.902,26.855,39.062,34.180,0
150718.942,34.180,34.668,25.879,31.250,37.109,0
150718.946,33.691,39.551,26.855,28.320,1.465,0
150718.950,33.203,37.598,34.668,35.645,-37.109,0
150718.954,35.156,35.156,33.203,38.086,-16.113,0
150718.958,43.457,31.250,28.320,43.945,69.336,0
150718.962,42.969,30.273,35.156,43.945,57.129,0
150718.977,38.086,36.133,45.410,38.086,12.207,0
150718.981,38.086,44.922,37.598,36.133,13.672,0
150718.985,34.668,26.855,11.230,34.180,41.504,0
150718.989,32.227,20.508,12.207,28.320,46.387,0
150718.993,27.344,35.645,31.250,28.320,19.531,0
150718.997,25.391,36.133,42.969,37.598,-28.809,0
150719.001,42.969,39.551,49.316,46.387,-12.695,2
150719.005,50.781,39.062,41.992,42.480,60.547,0
150719.009,38.574,33.691,38.574,27.832,43.457,0
150719.013,30.273,30.273,38.086,25.879,-2.441,0
150719.017,40.039,32.715,23.438,37.109,24.902,0
150719.020,49.805,39.551,27.344,40.527,75.195,0
150719.022,38.574,34.180,36.133,34.668,28.809,0
150719.026,28.809,32.715,32.227,31.250,-5.371,0
150719.030,33.203,37.598,35.156,36.621,41.992,0
150719.034,39.551,38.086,38.086,44.434,102.539,0
150719.038,40.039,37.598,39.062,38.086,80.078,0
150719.042,31.250,33.691,36.133,30.273,6.836,0
150719.046,28.320,20.508,30.273,31.738,0.977,0
150719.050,34.668,32.715,28.809,37.109,81.543,0
150719.054,41.992,49.316,34.180,41.016,83.496,0
150719.058,36.133,46.875,38.574,37.109,-15.137,0
150719.061,30.762,42.969,38.574,33.691,-12.207,0
150719.065,41.992,41.992,38.086,41.504,75.195,0
150719.067,51.270,43.945,42.969,48.828,61.523,0
150719.071,44.434,37.598,39.062,45.410,14.160,0
150719.075,36.621,34.668,28.320,38.574,-6.836,0
150719.079,39.551,37.598,30.762,37.109,24.414,0
150719.083,45.898,36.133,36.133,35.645,54.688,0
150719.087,41.504,33.203,33.691,30.273,0.488,0
150719.091,28.320,30.762,33.691,25.391,-30.273,0
150719.095,31.250,23.438,37.109,31.250,3.906,0
150719.099,42.969,36.133,36.621,38.574,21.484,0
150719.103,37.598,45.410,36.133,35.156,48.340,0
150719.106,34.180,39.551,33.203,35.156,28.320,0
150719.110,35.645,37.109,30.762,39.062,23.438,0
150719.112,44.434,30.273,37.109,44.434,73.242,0
150719.116,49.316,35.645,36.621,44.434,99.121,0
150719.120,39.062,42.969,34.180,33.203,64.453,0
150719.124,31.250,30.273,39.551,30.273,15.625,0
150719.128,36.133,30.273,36.133,41.992,42.969,0
150719.132,38.086,32.227,33.691,39.551,98.145,0
150719.136,22.949,30.273,33.203,26.855,66.895,0
150719.140,17.090,35.156,32.227,25.879,-15.137,0
150719.144,25.391,23.438,29.297,32.715,11.719,0
150719.148,31.250,28.809,29.297,32.715,109.375,0
150719.151,35.645,50.293,41.504,36.621,98.145,0
150719.155,30.273,50.293,40.527,33.203,18.555,0
150719.159,31.738,40.039,33.203,28.320,45.410,0
150719.163,40.039,36.621,32.715,30.762,87.891,0
150719.167,41.504,29.297,27.832,31.250,68.359,0
150719.171,41.992,29.297,28.809,33.691,22.461,0
150719.175,35.645,39.062,28.809,31.250,-19.531,0
150719.178,32.715,39.551,27.832,25.879,62.500,0
150719.182,41.504,44.434,33.203,28.809,88.867,0
150719.186,33.203,42.969,30.762,24.414,16.113,0
150719.190,24.902,28.320,27.832,25.879,-22.461,0
150719.194,38.574,30.273,32.715,39.062,36.133,0
150719.198,44.922,41.992,31.738,41.504,111.328,0
150719.202,39.062,41.504,28.809,36.133,62.012,0
150719.203,35.645,41.016,34.180,31.738,20.020,0
150719.207,41.016,41.992,30.762,35.645,48.828,0
150719.211,50.781,47.852,31.250,42.969,83.008,0
150719.215,46.387,50.293,31.250,37.109,37.598,0
150719.219,38.086,41.016,23.926,30.762,-20.020,0
150719.223,39.551,31.250,23.438,32.715,0.488,0
150719.226,46.875,38.086,27.344,41.016,35.156,0
150719.230,52.734,47.852,29.785,41.016,8.789,0
150719.234,49.805,36.621,25.879,39.062,-20.996,0
150719.238,44.434,28.320,25.391,47.852,2.441,0
150719.242,45.898,33.691,32.227,52.734,75.684,0
150719.246,45.410,24.902,37.109,48.340,93.262,0
150719.248,41.504,33.691,41.016,45.410,35.645,0
150719.252,40.039,50.293,39.551,42.969,2.930,0
150719.256,49.316,50.293,41.992,51.270,44.922,0
150719.260,56.641,38.574,42.969,59.570,111.328,0
150719.264,51.758,31.250,35.645,53.711,71.777,0
150719.268,45.410,41.992,41.016,46.387,-2.441,0
150719.272,46.387,43.945,35.156,36.621,-24.414,0
150719.276,45.410,35.645,20.996,29.785,4.883,0
150719.279,37.598,39.062,23.926,23.438,31.250,0
150719.283,27.832,40.527,33.691,17.090,-2.441,0
150719.287,28.809,29.297,40.039,22.949,19.043,0
150719.291,31.738,28.320,35.156,25.879,77.637,0
150719.293,37.109,26.367,37.109,28.809,61.523,0
150719.297,40.039,27.832,42.480,36.133,20.020,0
150719.301,28.320,42.480,33.691,25.391,-16.602,0
150719.305,22.949,38.086,17.090,19.531,47.363,0
150719.309,25.879,35.156,16.602,24.902,112.305,0
150719.313,17.090,44.922,35.156,19.531,57.129,0
150719.317,8.301,41.504,36.133,11.719,-31.250,0
150719.321,10.254,30.273,23.438,12.695,5.371,0
150719.325,19.531,26.855,28.320,17.090,82.520,0
150719.329,23.438,24.414,37.109,20.996,22.949,0
150719.332,19.531,31.738,41.016,26.367,-22.949,0
150719.336,21.484,38.574,40.039,32.227,27.344,0
150719.353,33.203,38.574,36.621,36.133,75.195,0
150719.357,29.297,41.992,35.645,33.691,73.242,0
150719.361,21.484,30.762,38.086,31.738,32.715,0
150719.365,26.855,23.926,33.691,33.691,17.090,0
150719.369,34.668,42.480,21.973,36.621,63.477,0
150719.373,31.738,46.387,25.879,31.250,79.102,0
150719.377,20.020,34.668,32.715,26.367,19.531,0
150719.381,19.531,34.668,36.133,29.297,16.113,0
150719.385,25.391,39.062,38.574,31.250,87.891,0
150719.389,28.320,35.156,37.598,28.809,87.402,0
150719.392,29.297,35.645,41.992,34.668,34.180,0
150719.396,27.832,38.086,44.434,41.504,12.695,0
150719.398,32.715,37.109,35.156,37.598,49.805,0
150719.402,37.598,33.691,33.203,37.109,65.430,0
150719.405,34.668,34.668,38.086,43.945,19.531,0
150719.409,31.738,35.645,38.086,41.504,0.488,0
150719.413,34.180,39.062,29.785,39.062,42.480,0
150719.417,42.480,33.203,26.367,41.504,72.266,0
150719.421,41.016,14.648,39.062,33.203,83.496,0
150719.425,23.926,19.043,42.969,26.855,95.215,0
150719.429,20.996,28.809,34.668,28.320,52.734,0
150719.433,36.621,38.574,35.156,33.691,47.852,0
150719.437,36.621,40.039,35.645,31.250,81.055,0
150719.441,24.902,36.621,28.809,24.902,41.992,0
150719.442,21.484,33.691,20.996,23.926,11.230,0
150719.446,27.344,27.832,26.855,31.738,42.480,0
150719.450,37.598,38.086,41.504,35.645,88.867,0
150719.454,27.832,38.574,41.016,22.949,46.875,0
150719.458,18.066,32.227,31.738,18.066,-12.695,0
150719.462,31.250,35.645,32.227,28.320,27.832,0
150719.466,37.598,36.133,38.086,30.273,92.773,0
150719.470,33.203,31.738,36.621,19.531,82.031,0
150719.474,25.391,27.344,30.273,12.207,-26.367,0
150719.478,24.414,21.973,30.273,15.625,-42.480,0
150719.482,38.086,40.527,35.645,26.367,94.238,0
150719.485,41.504,47.852,34.180,27.832,105.957,0
150719.487,33.691,39.551,33.203,23.926,57.129,0
150719.491,31.738,37.109,32.227,26.367,54.688,0
150719.495,37.598,30.762,30.273,33.203,92.773,0
150719.499,39.062,35.645,32.227,39.062,108.887,0
150719.503,36.621,40.039,34.668,40.527,58.594,0
150719.507,37.598,37.109,44.922,37.598,15.137,0
150719.511,37.598,35.156,46.875,36.133,43.945,0
150719.515,39.551,39.551,40.039,35.156,49.805,0
150719.519,38.086,44.922,42.969,29.785,-28.320,0
150719.522,31.250,43.457,41.992,30.273,-64.453,0
150719.526,34.668,30.273,35.156,40.039,17.090,0
150719.530,39.062,25.879,33.691,37.109,118.164,0
150719.532,35.156,34.668,33.691,29.297,82.031,0
150719.536,30.762,40.527,27.832,29.297,-20.996,0
150719.540,32.227,31.738,21.973,30.273,-29.297,0
150719.544,40.039,32.227,27.832,36.621,61.035,0
150719.548,41.016,41.992,40.527,35.645,110.840,0
150719.552,41.504,47.363,44.922,29.785,17.578,0
150719.556,42.480,50.781,45.898,28.809,-26.367,0
150719.560,49.316,50.293,43.945,37.598,5.859,0
150719.564,48.340,41.504,26.367,38.574,33.203,0
150719.568,31.738,27.344,18.066,26.855,36.621,0
150719.571,21.973,20.996,23.438,20.996,9.277,0
150719.575,27.344,24.414,30.273,25.391,49.316,0
150719.577,30.762,30.273,41.992,24.902,83.008,0
150719.581,25.391,38.574,45.410,22.949,59.570,0
150719.585,19.531,22.461,34.180,19.043,-2.930,0
150719.589,14.648,19.043,28.809,17.578,-26.367,0
150719.593,23.438,51.758,37.598,31.250,25.879,0
150719.597,22.461,49.805,38.086,27.344,39.551,0
150719.601,5.859,31.738,32.227,11.230,5.371,0
150719.605,6.836,31.738,30.762,10.742,-38.086,0
150719.609,15.625,32.227,25.391,14.648,9.277,0
150719.613,20.020,28.809,22.949,16.113,62.012,0
150719.616,17.578,34.668,24.902,14.648,28.320,1
150719.620,20.508,38.574,33.203,17.090,3.418,0
150719.624,30.762,39.551,44.922,32.715,52.246,0
150719.628,30.762,32.227,34.180,36.133,71.289,0
150719.631,25.391,38.086,27.832,29.297,-2.930,0
150719.635,20.508,43.945,32.715,27.832,-27.832,0
150719.639,23.438,20.508,28.809,32.227,34.180,0
150719.643,30.273,20.020,31.738,33.691,60.059,0
150719.647,24.414,41.016,36.621,24.414,5.371,0
150719.651,16.602,39.062,33.203,18.555,-42.969,0
150719.655,26.855,36.621,32.715,31.250,-8.301,0
150719.659,38.574,38.574,37.598,43.457,81.543,0
150719.663,38.086,40.039,36.621,38.086,102.051,0
150719.667,37.598,38.574,35.156,38.086,54.688,0
150719.667,36.133,35.645,34.180,35.645,52.734,0
150719.671,40.039,36.621,32.715,34.180,84.473,0
150719.675,43.945,36.133,34.668,38.574,60.547,0
150719.679,38.086,35.645,37.109,34.180,10.742,0
150719.683,26.855,35.645,35.156,29.785,-12.207,0
150719.687,28.809,38.574,33.691,34.180,17.090,0
150719.691,38.574,46.387,32.715,37.598,39.062,0
150719.695,33.691,31.250,28.320,36.621,44.922,0
150719.699,29.785,19.043,31.738,40.527,14.648,0
150719.703,38.086,44.922,35.156,38.086,0.000,0
150719.706,39.062,44.922,35.645,30.762,58.105,0
150719.710,36.621,29.785,39.062,36.621,70.801,0
150719.727,30.762,36.133,38.574,37.109,12.207,0
150719.731,30.273,43.945,38.574,36.133,-7.324,0
150719.735,38.574,41.992,35.156,43.945,23.438,0
150719.739,38.574,33.203,30.762,41.992,25.879,0
150719.743,36.621,30.762,36.621,40.039,-2.441,0
150719.747,34.668,36.621,42.480,41.016,-22.461,0
150719.751,37.598,42.480,38.086,41.016,28.809,0
150719.755,41.016,43.457,33.203,36.621,62.500,0
150719.759,31.738,33.203,34.180,28.809,-8.789,0
150719.763,24.902,28.320,37.598,29.297,-72.266,0
150719.766,34.668,30.273,39.062,37.598,-17.090,0
150719.770,41.992,17.578,30.762,38.086,48.828,0
150719.788,35.156,29.785,30.273,27.832,45.898,0
150719.792,28.809,51.270,38.086,23.438,-7.324,0
150719.796,41.016,47.363,33.203,31.738,-1.953,0
150719.800,54.688,49.805,32.227,43.457,55.176,0
150719.804,55.664,45.898,39.062,43.457,25.879,0
150719.808,45.898,31.250,37.598,35.645,-26.367,0
150719.812,42.480,31.250,34.668,37.598,-20.508,0
150719.816,47.852,29.297,33.203,43.457,58.105,0
150719.819,48.828,24.902,32.715,41.992,59.082,0
150719.823,46.387,34.668,38.574,42.480,-21.484,0
150719.827,37.109,42.480,36.133,37.598,-26.855,0
150719.831,35.645,41.992,24.414,31.738,34.180,0
150719.818,40.527,41.504,29.297,33.203,54.199,0
150719.822,37.109,45.898,43.457,35.645,59.082,0
150719.825,32.715,45.410,40.039,36.621,32.227,0
150719.829,35.156,18.555,32.227,35.156,37.109,0
150719.833,43.457,8.301,34.668,40.039,60.059,0
150719.837,40.527,27.832,35.156,40.039,19.531,0
150719.841,35.156,35.645,40.039,35.645,-35.645,0
150719.845,46.387,50.293,42.969,47.363,-32.227,0
150719.849,46.387,51.758,28.320,46.875,33.203,0
150719.853,36.133,37.109,23.438,34.668,43.945,0
150719.857,36.133,39.062,32.715,29.785,5.371,0
150719.861,33.691,42.969,35.156,29.297,-0.977,0
150719.863,27.344,35.156,24.414,27.832,56.152,0
150719.867,33.203,31.250,27.832,29.297,86.426,0
150719.871,34.180,35.645,42.480,33.691,18.555,0
150719.875,24.414,35.645,39.062,28.320,-13.672,0
150719.879,30.762,27.344,32.227,35.156,42.480,0
150719.883,44.922,27.832,33.691,44.434,82.031,0
150719.887,41.016,24.414,35.645,40.039,22.949,0
150719.891,28.320,21.973,31.250,35.645,-45.410,0
150719.894,33.691,46.387,32.715,39.551,35.645,0
150719.898,33.691,48.340,32.715,32.715,112.305,0
150719.902,21.484,34.668,26.367,22.461,87.891,0
150719.906,24.414,34.668,25.391,27.344,48.828,0
150719.908,31.738,30.273,32.227,37.598,61.035,0
150719.912,32.715,26.855,39.062,39.062,119.141,0
150719.916,29.297,30.762,37.109,29.297,108.887,0
150719.920,25.391,33.203,31.738,27.344,11.230,0
150719.924,30.273,33.203,28.320,32.715,-20.508,0
150719.928,44.434,30.762,29.297,41.504,61.523,0
150719.932,43.945,25.879,33.691,42.969,109.863,0
150719.936,31.738,27.344,34.180,32.227,41.992,0
150719.940,27.832,34.668,29.785,30.762,-14.648,0
150719.944,32.227,37.109,28.320,35.645,31.250,0
150719.947,41.992,36.133,31.738,41.992,32.715,0
150719.951,38.086,41.992,22.461,37.109,16.602,0
150719.953,29.297,39.551,29.297,31.250,-28.809,0
150719.957,32.715,35.156,43.457,37.598,-37.109,0
150719.961,37.598,37.598,39.551,38.086,20.508,0
150719.965,37.109,46.875,38.574,35.156,23.926,0
150719.969,35.156,45.898,38.086,31.738,-21.484,0
150719.973,34.668,34.668,35.645,27.832,9.766,0
150719.977,34.668,31.250,32.715,30.273,80.078,0
150719.981,30.762,31.250,31.738,27.832,28.320,0
150719.985,26.855,40.527,36.621,28.320,-7.812,0
150719.989,27.344,45.410,37.109,36.133,2.441,0
150719.993,34.668,40.527,32.715,39.062,45.898,0
150719.996,36.621,28.809,27.832,37.109,81.055,0
150719.998,32.227,26.367,28.809,34.180,31.250,0
150720.002,34.668,43.945,39.062,39.551,12.695,0
150720.006,41.504,50.293,42.969,43.945,51.270,0
150720.010,36.621,39.062,35.156,35.645,81.055,0
150720.014,27.344,29.297,28.809,25.391,65.430,0
150720.017,21.973,27.344,33.203,28.320,15.137,0
150720.021,26.855,22.461,39.062,33.691,-1.465,0
150720.025,37.109,36.133,37.109,37.598,57.129,0
150720.029,42.969,49.316,39.551,43.945,74.707,0
150720.033,36.621,38.086,43.457,37.598,17.578,0
150720.037,29.297,27.832,39.062,33.691,-0.977,0
150720.041,40.527,35.156,36.133,42.969,29.785,0
150720.043,44.922,36.621,30.273,33.691,41.992,0
150720.047,35.645,35.645,32.715,28.809,-27.344,0
150720.050,39.551,39.551,38.574,39.551,-25.879,0
150720.054,45.898,28.320,34.180,38.574,70.312,0
150720.058,38.574,26.855,29.785,34.180,68.359,0
150720.062,32.715,46.875,36.133,32.715,9.766,0
150720.066,33.691,44.922,43.457,33.691,-57.129,0
150720.070,40.039,34.180,39.062,41.504,-11.230,0
150720.074,46.387,31.250,36.133,46.875,77.148,0
150720.078,34.180,27.832,34.180,31.738,50.781,0
150720.082,25.879,24.902,32.227,19.043,-18.555,0
150720.086,40.039,30.273,33.203,27.832,7.812,0
150720.102,50.781,43.945,29.785,34.668,91.797,0
150720.106,47.363,48.828,31.738,32.715,69.824,0
150720.110,37.598,40.039,38.574,32.715,-1.953,0
150720.114,35.156,31.738,40.527,37.109,0.488,0
150720.118,46.387,36.621,35.156,42.969,47.852,0
150720.122,39.062,36.133,30.762,36.133,51.758,0
150720.126,20.996,28.320,31.738,26.855,15.625,0
150720.130,20.508,32.227,31.250,27.344,12.207,0
150720.134,29.785,28.809,31.738,33.203,72.266,0
150720.138,35.156,25.879,35.156,36.133,76.172,0
150720.141,28.809,37.598,40.039,33.691,27.832,0
150720.145,24.902,41.016,41.016,37.109,21.484,0
150720.149,28.320,38.086,31.250,40.039,45.898,0
150720.153,29.785,39.062,24.902,37.598,99.121,0
150720.157,29.785,43.457,31.250,31.250,96.191,0
150720.160,24.414,37.598,35.645,28.809,32.715,0
150720.164,22.461,30.762,36.621,31.250,31.738,0
150720.168,33.203,35.645,38.086,32.715,93.750,0
150720.172,35.645,40.527,31.738,29.297,81.055,0
150720.176,33.203,45.410,32.227,29.785,16.602,0
150720.180,33.691,42.480,36.133,31.738,14.160,0
150720.184,43.457,31.250,40.039,37.598,65.430,0
150720.188,45.410,18.066,35.645,35.156,91.797,0
150720.192,41.016,21.484,25.391,27.344,37.598,0
150720.192,41.016,42.969,24.902,30.273,-15.137,0
150720.196,35.645,47.852,25.879,31.250,52.246,0
150720.200,31.250,45.410,33.203,33.203,117.188,0
150720.204,20.508,41.016,39.062,28.809,99.121,0
150720.208,19.531,39.062,38.086,26.855,32.227,0
150720.212,28.809,38.574,41.992,32.227,19.043,0
150720.216,30.762,35.156,40.039,31.250,83.984,0
150720.220,31.738,22.949,33.203,33.691,100.098,0
150720.224,33.691,23.926,36.621,38.086,28.809,0
150720.228,35.156,35.156,41.992,36.133,22.949,0
150720.232,33.691,30.273,37.109,36.621,104.492,0
150720.235,28.809,18.066,33.203,31.738,100.098,0
150720.237,16.602,13.672,26.367,17.090,42.480,0
150720.241,20.508,38.574,28.809,20.020,22.949,0
150720.245,36.621,50.293,38.574,29.297,80.078,0
150720.249,35.156,33.203,39.062,26.367,118.652,0
150720.253,32.715,27.344,33.691,28.320,73.242,0
150720.257,31.250,28.809,26.855,31.738,-19.531,0
150720.261,33.691,34.180,30.762,32.715,0.488,0
150720.265,41.504,38.086,38.086,39.551,83.496,0
150720.269,38.086,28.809,41.016,37.109,33.691,0
150720.273,36.621,34.180,42.969,35.645,9.766,1
150720.277,42.480,47.363,43.457,44.922,70.801,0
150720.280,44.434,46.875,33.691,43.945,116.211,0
150720.282,37.109,37.598,28.809,31.250,82.520,0
150720.286,34.668,41.504,40.527,25.879,10.742,0
150720.290,41.016,32.227,46.875,32.227,-16.113,0
150720.294,44.922,20.508,42.480,34.668,45.410,0
150720.298,41.992,45.410,37.598,33.691,56.152,0
150720.302,36.133,54.688,33.691,26.367,-13.672,0
150720.306,36.133,41.016,34.180,25.879,-28.320,0
150720.310,44.922,34.180,34.180,35.645,20.508,0
150720.314,41.504,27.832,29.785,31.738,66.406,0
150720.318,27.832,28.809,21.973,19.043,46.387,0
150720.321,26.855,30.273,23.438,19.531,-9.766,0
150720.325,44.922,37.109,33.691,33.691,0.977,0
150720.327,55.664,48.828,35.156,36.621,66.895,0
150720.331,42.480,43.457,36.133,29.785,56.152,0
150720.335,31.738,43.945,33.203,25.879,-10.742,0
150720.339,36.133,34.180,32.715,30.762,8.789,0
150720.343,46.875,29.785,41.016,40.527,57.617,0
150720.347,44.434,35.156,36.133,37.598,51.758,0
150720.351,34.668,35.156,28.809,28.320,-2.930,0
150720.355,31.738,35.645,32.715,25.879,-68.848,0
150720.359,38.574,22.949,35.645,30.273,-19.043,0
150720.363,43.457,27.344,37.109,32.227,39.551,0
150720.366,38.574,43.457,39.551,32.715,-25.391,0
150720.370,34.668,45.898,37.598,34.180,-54.688,0
150720.374,41.504,41.016,35.156,39.062,20.508,0
150720.378,45.410,35.645,30.273,43.945,71.289,0
150720.381,38.574,34.668,21.973,36.133,6.348,0
150720.385,32.715,32.227,19.531,28.809,-45.410,0
150720.389,34.668,24.902,30.762,34.668,19.043,0
150720.393,41.504,25.879,48.828,41.016,72.266,0
150720.397,37.598,16.602,47.852,33.691,53.711,0
150720.401,27.344,20.508,37.109,25.879,-1.465,0
