timestamps,TP9,AF7,AF8,TP10,Right AUX,Marker0
150283.029,44.922,33.203,51.270,45.898,19.531,0
150283.033,47.852,28.809,31.738,47.363,62.988,0
150283.037,43.945,55.176,22.949,36.621,30.273,0
150283.041,39.062,56.152,39.062,35.156,4.883,0
150283.045,39.062,42.969,48.340,38.574,52.734,0
150283.049,42.969,40.527,45.898,35.645,72.266,0
150283.053,37.598,41.016,40.039,32.715,-0.488,0
150283.057,25.391,42.969,36.621,28.809,-37.598,0
150283.061,36.621,41.992,43.457,33.203,-25.391,0
150283.065,46.387,41.016,42.480,41.504,17.090,0
150283.068,30.273,42.480,33.691,40.527,30.762,0
150283.072,15.137,42.480,27.832,29.297,-35.645,0
150283.089,15.625,34.668,31.250,23.438,-38.086,0
150283.093,27.832,30.273,28.809,26.367,40.039,0
150283.097,35.156,27.832,19.531,26.855,86.426,0
150283.101,28.809,35.645,34.180,18.066,24.902,0
150283.105,18.555,28.320,43.457,16.113,-25.391,0
150283.109,22.949,22.949,36.621,21.484,53.223,0
150283.113,22.461,35.156,27.344,20.996,65.430,0
150283.117,13.184,45.898,26.367,12.207,-24.902,0
150283.121,23.438,51.270,47.363,16.602,-33.691,0
150283.124,33.691,41.016,41.504,27.832,32.715,0
150283.128,30.273,38.086,19.043,24.902,101.562,0
150283.132,20.508,34.668,22.461,17.090,73.242,0
150283.119,12.207,27.344,38.574,14.160,7.324,0
150283.123,35.156,21.973,56.641,30.762,68.359,0
150283.127,48.828,16.602,52.734,41.504,110.352,0
150283.131,36.621,40.527,42.969,28.809,61.523,0
150283.135,18.066,48.340,33.203,16.602,11.719,0
150283.139,13.184,36.133,27.832,18.555,8.789,0
150283.143,26.367,32.227,34.668,30.273,75.195,0
150283.146,28.809,30.762,34.668,26.855,67.383,0
150283.150,21.484,36.133,38.574,19.531,7.324,0
150283.154,26.855,38.574,41.992,31.738,8.789,0
150283.158,40.039,34.180,43.945,38.574,53.223,0
150283.162,32.227,23.926,38.086,20.996,77.637,0
150283.165,22.949,27.832,36.621,12.695,58.105,0
150283.169,18.555,43.945,36.133,13.672,30.762,0
150283.173,19.043,40.527,16.113,20.508,20.996,0
150283.177,31.738,40.039,1.465,34.180,46.387,0
150283.180,24.414,38.086,21.973,30.273,34.180,0
150283.184,15.625,28.320,47.852,17.578,5.371,0
150283.188,23.438,25.391,66.895,22.461,21.484,0
150283.192,32.227,35.645,58.594,28.320,15.137,0
150283.196,27.344,49.316,32.227,17.578,26.855,0
150283.200,20.020,47.363,40.039,15.137,36.133,0
150283.204,26.367,33.691,41.016,21.973,-5.371,0
150283.208,40.527,21.973,34.180,32.715,24.902,0
150283.208,41.016,24.902,38.574,27.832,77.637,0
150283.212,33.691,51.270,29.785,20.508,15.625,0
150283.216,29.297,60.547,34.668,21.484,-44.434,0
150283.220,32.715,45.410,54.688,24.414,14.160,0
150283.224,28.809,35.645,48.828,18.555,65.430,0
150283.228,19.531,33.691,40.039,11.230,-3.906,0
150283.232,16.602,35.156,39.551,15.137,-54.199,0
150283.236,24.902,40.039,28.809,21.484,13.672,0
150283.240,41.016,40.527,21.484,34.668,107.910,0
150283.244,38.086,42.480,36.133,34.180,69.824,0
150283.248,22.461,21.973,52.734,18.555,-30.273,0
150283.251,22.949,-4.883,50.293,19.043,-29.297,0
150283.253,32.715,26.855,46.387,23.438,66.895,0
150283.257,33.203,61.523,46.387,21.973,74.219,0
150283.261,26.855,57.617,44.922,18.066,-15.137,0
150283.265,16.602,43.945,22.949,11.230,-26.855,0
150283.269,29.297,34.180,19.531,20.508,66.895,0
150283.273,41.016,36.133,46.875,24.902,83.984,0
150283.277,32.227,31.250,55.176,18.555,24.414,0
150283.281,31.738,23.438,39.551,18.555,5.859,0
150283.285,45.410,29.297,39.062,30.762,64.941,0
150283.289,48.340,34.668,35.645,40.039,80.078,0
150283.293,40.527,28.320,25.391,27.344,2.930,0
150283.296,30.762,33.691,27.832,20.508,-16.602,0
150283.313,30.273,48.828,21.973,30.762,-10.254,0
150283.317,38.574,41.504,25.391,31.738,38.086,0
150283.321,37.109,37.598,46.387,24.414,29.297,2
150283.325,33.691,36.621,53.223,25.879,2.441,0
150283.329,43.457,38.574,49.805,36.133,9.277,0
150283.333,41.992,35.645,44.434,38.574,48.828,0
150283.337,36.621,33.691,36.621,27.344,42.969,0
150283.341,31.250,29.785,47.852,21.973,-22.461,0
150283.345,27.344,24.414,47.363,28.320,-16.602,0
150283.349,39.551,41.016,38.574,35.156,53.223,0
150283.353,40.527,30.273,40.527,28.320,73.242,0
150283.356,32.715,24.902,30.273,18.555,3.906,0
150283.358,25.879,49.316,22.949,17.578,-19.043,0
150283.362,24.902,46.387,31.738,20.020,23.438,0
150283.366,31.250,36.133,42.480,24.414,89.355,0
150283.370,29.785,31.250,38.086,25.391,59.570,0
150283.374,25.391,27.344,20.508,24.414,1.465,0
150283.378,31.250,25.391,30.762,33.691,-1.465,0
150283.382,31.738,20.020,42.969,29.785,57.129,0
150283.386,29.785,23.926,37.598,20.020,76.172,0
150283.390,35.156,43.945,45.898,25.391,4.883,0
150283.394,41.504,38.086,47.363,32.715,-10.254,0
150283.398,49.805,39.551,41.016,40.527,63.965,0
150283.401,43.457,47.363,41.016,36.133,106.445,0
150283.405,36.621,36.621,37.598,30.762,53.223,0
150283.409,38.574,30.762,19.531,29.297,-25.879,0
150283.413,38.574,25.391,21.484,28.320,2.930,0
150283.417,30.762,25.391,37.598,31.250,62.012,0
150283.420,14.160,34.180,36.621,22.461,22.461,0
150283.424,13.672,38.086,52.246,19.531,-33.203,0
150283.428,26.367,37.598,48.828,22.949,-15.625,0
150283.432,43.945,32.227,32.227,38.574,30.762,0
150283.436,52.246,30.273,30.762,48.340,2.441,0
150283.440,33.203,31.738,24.414,26.367,-12.207,0
150283.444,23.438,33.691,36.621,19.531,28.320,0
150283.448,31.250,40.527,50.781,28.809,77.637,0
150283.449,34.180,38.086,47.852,30.273,78.613,0
150283.452,29.297,33.203,46.387,32.227,-6.348,0
150283.456,33.691,30.273,41.504,46.387,-31.250,0
150283.460,43.457,25.391,33.691,56.641,67.871,0
150283.464,38.574,34.668,39.551,51.758,62.012,0
150283.468,29.785,45.898,38.574,41.992,10.254,0
150283.472,21.484,39.551,25.391,32.227,21.973,0
150283.476,20.996,37.598,23.926,30.273,47.852,0
150283.480,35.645,38.086,38.086,38.574,44.922,0
150283.484,27.344,37.109,38.574,27.344,-2.930,0
150283.488,12.207,34.668,46.875,11.719,-29.297,0
150283.492,21.484,28.320,47.852,16.602,-17.090,0
150283.494,30.762,42.969,31.738,26.855,62.988,0
150283.498,27.832,32.715,35.645,18.066,53.223,0
150283.502,9.277,20.996,29.785,0.000,-37.109,0
150283.506,4.395,37.598,38.574,3.418,-7.812,0
150283.510,14.648,32.227,51.270,11.230,94.727,0
150283.513,14.160,26.855,50.781,5.371,51.758,0
150283.517,10.742,32.227,46.875,1.465,-17.578,0
150283.521,18.066,25.391,45.898,8.789,-21.973,0
150283.525,30.762,34.668,40.039,21.973,40.527,0
150283.529,29.785,37.598,30.762,25.391,78.613,0
150283.533,26.367,19.531,27.832,24.414,-21.484,0
150283.537,37.598,31.738,34.180,35.645,-60.059,0
150283.539,47.363,50.293,40.527,46.387,45.898,0
150283.543,36.133,34.668,21.973,33.691,102.051,0
150283.547,24.902,30.273,14.648,23.926,76.660,0
150283.550,20.996,35.156,44.922,20.508,45.410,0
150283.554,30.273,30.762,60.547,22.461,56.152,0
150283.558,35.156,31.738,45.410,23.438,57.129,0
150283.562,22.949,30.762,39.062,14.648,41.504,0
150283.566,20.996,33.691,43.457,17.578,-4.395,0
150283.570,27.832,24.414,40.527,24.902,2.930,0
150283.574,39.062,31.250,32.715,31.738,100.098,0
150283.578,42.969,42.480,38.086,34.180,75.684,0
150283.582,33.691,37.598,44.434,26.855,-2.930,0
150283.584,28.320,33.691,41.992,25.391,11.719,0
150283.588,48.340,37.109,41.992,41.016,63.477,0
150283.592,65.918,43.457,43.457,48.340,112.305,0
150283.596,53.711,44.434,28.320,44.922,88.867,0
150283.600,35.156,20.996,25.879,31.250,18.066,0
150283.604,34.180,19.043,42.480,17.578,40.039,0
150283.607,35.645,44.434,45.898,20.020,79.102,0
150283.611,26.367,46.387,31.738,19.531,47.363,0
150283.615,31.250,38.086,32.227,19.531,14.648,0
150283.619,39.062,29.785,40.039,26.855,29.785,0
150283.623,45.410,41.992,36.621,34.668,92.285,0
150283.627,43.457,52.734,36.621,31.738,83.008,0
150283.631,32.227,43.457,38.086,23.438,-14.648,0
150283.635,32.715,37.598,28.809,28.809,-17.578,0
150283.639,42.969,39.551,31.250,34.668,57.129,0
150283.643,41.016,39.551,41.504,24.414,73.730,0
150283.647,20.020,13.672,32.715,13.184,29.297,0
150283.651,19.531,12.695,33.691,19.531,-12.695,0
150283.655,37.109,44.922,40.527,30.762,4.395,0
150283.658,35.645,43.457,33.203,32.227,66.406,0
150283.662,26.367,39.062,29.785,23.926,16.602,0
150283.666,26.367,40.039,41.504,17.578,-23.926,0
150283.670,30.762,40.039,47.363,16.602,38.574,0
150283.674,32.227,39.551,41.016,17.578,111.816,0
150283.689,25.879,32.227,40.527,17.578,99.609,0
150283.693,15.625,29.297,43.945,15.137,-2.441,0
150283.697,25.879,21.973,42.969,22.461,10.254,0
150283.701,43.457,27.344,37.109,32.227,69.824,0
150283.705,37.109,41.504,28.320,34.668,59.570,0
150283.709,20.508,39.551,30.762,27.344,3.418,0
150283.713,17.578,27.344,35.156,16.602,-15.625,0
150283.717,28.809,25.879,34.180,20.996,47.852,0
150283.721,38.574,37.109,31.738,31.738,40.039,0
150283.724,38.574,34.668,33.203,38.574,-3.418,0
150283.728,28.809,35.645,33.691,35.645,-0.977,0
150283.732,27.832,37.598,36.621,32.715,66.895,0
150283.734,40.527,35.156,44.434,33.691,101.074,0
150283.738,41.992,35.156,45.898,35.645,57.129,0
150283.742,40.039,38.086,46.875,39.551,15.625,0
150283.746,44.434,22.949,47.852,42.480,34.180,0
150283.750,51.758,26.367,41.992,41.504,60.059,0
150283.754,41.992,41.992,24.902,32.715,33.691,0
150283.758,20.508,35.645,17.578,20.996,-27.832,0
150283.762,17.090,41.504,30.762,23.926,21.484,0
150283.766,33.691,38.574,40.039,29.785,91.797,0
150283.770,37.109,27.344,40.527,30.273,62.012,0
150283.773,21.973,23.438,28.809,31.738,26.367,0
150283.777,32.715,32.227,36.621,39.062,29.785,0
150283.779,50.781,39.062,41.992,47.363,57.129,0
150283.783,46.387,35.645,35.156,38.574,51.270,0
150283.787,30.273,25.879,33.691,22.461,27.832,0
150283.791,28.320,35.156,36.621,20.508,9.277,0
150283.795,27.832,40.527,24.902,17.090,61.035,0
150283.799,22.949,28.809,20.996,11.719,117.188,0
150283.803,16.113,22.949,38.086,13.184,78.613,0
150283.807,14.160,32.227,46.387,14.160,27.832,0
150283.810,25.879,34.668,42.480,17.578,28.809,0
150283.814,33.203,36.621,34.180,22.949,63.965,0
150283.818,30.273,44.922,32.715,21.973,25.391,0
150283.822,23.438,36.133,27.832,16.113,-40.039,0
150283.823,28.809,25.391,30.762,18.066,-38.086,0
150283.827,45.410,28.809,35.645,32.715,21.973,0
150283.831,54.688,31.738,28.320,39.551,53.711,0
150283.835,49.316,32.715,39.062,34.668,-22.949,0
150283.839,36.133,40.527,47.852,28.809,-29.297,0
150283.843,28.809,45.410,33.691,22.949,30.273,0
150283.847,28.809,46.875,29.785,18.066,36.621,0
150283.851,20.508,37.598,38.086,10.254,-20.020,0
150283.855,20.996,33.691,42.969,9.766,-42.480,0
150283.859,35.645,31.738,41.504,24.414,11.719,0
150283.862,43.457,29.785,40.039,28.320,31.738,0
150283.866,39.062,36.621,34.180,24.902,11.230,0
150283.870,23.438,34.668,23.438,26.367,-12.695,0
150283.874,33.203,35.645,30.762,36.621,20.996,0
150283.878,35.645,38.086,37.109,35.156,57.617,0
150283.882,20.996,33.691,33.691,23.438,57.129,0
150283.885,18.066,30.762,48.828,20.996,42.480,0
150283.889,20.508,31.250,44.922,18.555,47.363,0
150283.893,31.738,27.344,28.809,23.926,114.258,0
150283.897,28.320,27.344,31.738,17.090,87.891,0
150283.901,22.949,36.621,38.574,7.324,22.949,0
150283.905,20.996,44.434,44.434,13.184,24.414,0
150283.909,29.785,39.062,45.898,24.414,62.012,0
150283.913,34.180,33.691,41.504,26.855,100.586,0
150283.914,24.902,32.227,32.715,17.090,67.871,0
150283.917,31.738,33.203,35.645,21.484,19.531,0
150283.921,35.645,43.945,41.992,33.691,12.695,0
150283.925,39.551,39.062,38.086,37.598,34.180,0
150283.929,41.504,22.949,39.062,37.109,27.832,0
150283.933,35.156,40.527,53.711,35.156,0.488,0
150283.937,33.691,56.641,60.547,30.273,-9.766,0
150283.941,28.320,43.945,47.363,16.602,20.996,0
150283.945,22.949,31.250,31.250,6.348,51.758,0
150283.949,16.113,35.645,18.066,2.930,37.109,0
150283.953,13.184,32.715,22.461,4.883,0.977,0
150283.957,19.531,28.809,32.227,10.254,51.758,0
150283.959,22.949,32.715,25.391,11.719,81.055,0
150283.963,16.602,35.645,35.645,12.695,7.812,0
150283.966,12.207,32.715,45.898,13.672,-19.043,0
150283.970,25.391,30.762,38.086,18.555,38.086,0
150283.974,32.227,23.438,45.898,25.391,87.402,0
150283.978,23.926,23.926,56.152,26.367,56.641,0
150283.982,22.461,42.969,45.898,23.926,-9.277,0
150283.986,33.691,46.387,33.691,30.273,15.625,0
150283.990,40.039,39.551,28.809,34.668,102.051,0
150283.994,42.480,39.551,35.645,34.668,85.938,0
150283.998,45.898,47.852,51.758,36.621,41.992,0
150284.002,38.574,45.898,41.992,35.156,55.176,0
150284.019,49.805,39.551,38.574,46.875,104.980,2
150284.022,53.223,41.504,49.805,47.852,93.262,0
150284.026,28.320,44.922,47.363,28.809,3.418,0
150284.030,22.461,42.480,44.434,20.508,-1.465,0
150284.034,37.109,31.738,43.457,31.250,67.383,0
150284.038,34.668,23.438,44.434,28.809,85.449,0
150284.042,19.531,32.227,38.086,12.695,35.645,0
150284.046,20.508,43.457,29.297,19.043,-23.926,0
150284.050,32.715,48.828,29.785,31.250,25.391,0
150284.054,42.969,41.016,38.574,30.273,69.824,0
150284.058,38.086,43.457,41.504,22.461,27.832,0
150284.062,27.344,48.340,40.039,19.043,9.766,0
150284.063,30.762,37.598,30.762,23.926,31.738,0
150284.067,37.109,28.320,20.996,27.832,61.035,0
150284.071,38.086,20.996,29.785,27.832,66.406,0
150284.075,22.461,33.691,43.945,23.926,9.277,0
150284.079,19.043,54.199,47.363,27.832,-29.785,0
150284.083,35.645,51.758,33.203,35.645,17.090,0
150284.087,41.016,49.805,28.809,35.645,58.105,0
150284.091,35.645,45.410,43.945,35.156,15.137,0
150284.095,28.320,40.527,44.922,32.227,-8.301,0
150284.099,31.738,34.180,33.691,29.297,10.742,0
150284.102,41.016,35.645,36.621,29.785,11.230,0
150284.106,32.227,37.109,44.922,25.391,13.672,0
150284.108,23.926,34.668,44.922,20.996,-7.324,0
150284.112,26.855,40.039,35.645,26.367,35.645,0
150284.116,25.391,29.785,24.414,26.367,128.906,0
150284.120,25.391,21.973,26.855,21.973,82.031,0
150284.124,20.996,41.504,34.668,21.484,-27.344,0
150284.128,28.320,31.250,49.316,32.227,28.320,0
150284.132,41.992,29.297,54.688,40.039,105.957,0
150284.136,39.062,41.992,49.316,29.785,77.637,0
150284.140,33.691,39.551,38.086,21.973,17.578,0
150284.144,32.227,48.828,25.879,20.508,-14.648,0
150284.148,39.551,55.176,34.668,31.250,43.945,0
150284.151,46.875,51.270,51.270,39.062,91.309,0
150284.153,39.062,46.387,47.363,30.762,42.969,0
150284.157,34.180,44.922,26.367,25.879,8.301,0
150284.161,45.898,46.875,21.973,37.598,106.445,0
150284.165,45.898,49.316,35.645,39.551,128.906,0
150284.169,29.785,30.273,40.039,27.344,31.250,0
150284.173,23.926,17.578,36.621,28.320,-9.766,0
150284.177,38.574,36.133,39.062,35.645,32.715,0
150284.181,46.387,46.387,52.246,44.922,98.633,0
150284.185,36.621,44.922,54.688,43.457,69.824,0
150284.189,26.855,50.781,34.180,29.297,14.648,0
150284.193,28.809,46.387,16.113,25.391,41.992,0
150284.196,39.551,32.715,26.855,31.738,80.078,0
150284.199,44.434,37.598,43.457,31.250,52.734,0
150284.203,33.691,47.363,49.805,25.391,35.156,0
150284.207,28.809,38.574,45.410,25.879,36.621,0
150284.211,44.922,22.461,33.203,31.738,44.434,0
150284.215,45.410,35.156,33.203,30.762,53.223,0
150284.218,25.879,46.875,33.203,20.508,-13.672,0
150284.222,15.625,41.016,36.621,15.137,-61.523,0
150284.226,25.391,45.410,55.664,21.484,1.465,0
150284.230,34.180,45.898,55.176,25.391,41.992,0
150284.234,26.855,48.828,35.645,23.926,41.504,0
150284.238,22.461,52.734,31.250,26.855,41.016,0
150284.242,28.320,36.133,34.180,30.762,23.926,0
150284.244,36.621,23.438,33.691,32.715,56.641,0
150284.248,38.574,31.738,48.340,33.203,62.500,0
150284.252,30.273,31.250,45.898,23.926,-9.766,0
150284.256,33.203,31.738,31.738,20.508,-54.688,0
150284.259,36.133,33.203,36.133,22.949,3.906,0
150284.263,31.250,40.527,46.387,21.484,40.527,0
150284.267,33.203,51.270,50.781,23.926,-20.996,0
150284.271,30.273,50.293,40.527,23.438,-51.270,0
150284.275,31.738,46.875,35.156,23.926,21.484,0
150284.279,37.109,40.527,34.180,25.879,75.195,0
150284.283,36.133,36.621,33.203,27.344,36.133,0
150284.287,45.410,52.246,38.086,39.062,17.578,0
150284.289,51.270,53.711,39.062,44.922,76.660,0
150284.293,46.875,33.203,36.621,39.062,138.672,0
150284.297,39.062,20.020,37.598,28.809,61.523,0
150284.301,24.414,29.297,34.180,13.672,-19.043,0
150284.305,24.414,47.363,29.297,16.113,24.414,0
150284.309,35.645,47.363,35.156,26.367,74.707,0
150284.313,39.551,42.480,42.480,27.832,41.504,0
150284.317,41.016,40.039,36.621,26.855,-29.785,0
150284.320,40.039,40.527,30.762,27.832,1.953,0
150284.324,50.293,46.875,41.992,29.785,85.938,0
150284.328,52.246,50.293,50.293,32.227,90.332,0
150284.332,41.992,53.711,60.059,34.668,22.949,0
150284.336,38.086,31.250,53.223,31.250,-29.297,0
150284.340,33.691,14.648,14.160,30.273,-2.930,0
150284.344,30.273,35.156,17.578,28.809,28.809,0
150284.348,16.113,40.039,39.062,16.113,2.441,0
150284.352,9.277,36.621,45.410,15.137,-25.391,0
150284.356,21.484,38.086,51.270,30.273,30.273,0
150284.360,29.785,38.086,45.410,36.621,23.438,0
150284.364,25.879,40.039,41.504,28.809,-30.273,0
150284.368,20.996,40.039,44.922,28.320,-42.969,0
150284.371,32.715,42.969,40.527,37.598,-27.344,0
150284.375,42.969,38.086,33.691,35.645,43.457,0
150284.379,46.875,31.738,41.016,28.809,46.875,0
150284.394,50.293,36.621,56.152,29.297,-47.852,0
150284.398,43.945,32.715,50.293,28.809,-70.801,0
150284.402,46.875,22.461,45.898,31.738,1.953,0
150284.406,48.340,37.109,41.992,30.762,61.035,0
150284.410,38.086,55.664,32.227,23.438,20.996,0
150284.414,32.715,56.152,29.297,23.926,-33.691,0
150284.418,49.805,61.523,27.832,36.621,-10.742,0
150284.422,53.223,53.223,37.109,36.133,39.062,0
150284.426,28.809,33.203,41.992,20.508,21.973,0
150284.429,23.926,26.367,37.109,10.254,-52.246,0
150284.433,35.645,31.738,36.621,15.137,-12.695,0
150284.437,35.645,31.250,42.969,28.809,99.609,0
150284.439,34.668,26.367,45.410,32.227,61.035,0
150284.443,40.039,33.203,43.457,34.180,-34.668,0
150284.447,42.969,43.457,25.391,38.086,-23.926,0
150284.451,34.180,47.363,22.949,31.250,74.707,0
150284.455,36.133,33.203,42.969,24.414,100.586,0
150284.459,32.227,33.203,50.781,22.949,4.395,0
150284.463,27.344,46.875,47.363,25.391,-34.668,0
150284.466,37.598,41.016,31.250,33.691,51.758,0
150284.470,45.410,38.574,26.367,38.574,75.684,0
150284.474,44.922,41.504,37.598,33.203,7.324,0
150284.478,36.621,44.922,45.410,28.320,-48.828,0
150284.482,40.039,42.480,46.387,34.668,-5.859,0
150284.484,44.922,37.109,42.480,38.574,35.645,0
150284.487,36.133,35.156,45.410,34.180,-2.930,0
150284.491,37.598,36.621,46.387,33.691,-20.508,0
150284.495,38.086,39.551,38.574,37.598,11.719,0
150284.499,40.039,41.016,38.574,42.969,43.457,0
150284.503,34.668,38.574,39.551,36.621,37.109,0
150284.507,21.484,33.691,37.598,27.832,30.762,0
150284.511,25.879,27.832,36.621,35.156,59.570,0
150284.515,40.039,38.574,38.574,43.945,94.238,0
150284.519,39.551,45.898,29.785,36.621,72.266,0
150284.523,30.762,39.062,25.879,28.809,22.461,0
150284.526,32.715,36.621,40.527,30.762,-25.879,0
150284.529,37.598,40.039,44.922,34.668,6.348,0
150284.532,39.551,39.551,48.828,36.621,36.621,0
150284.536,33.203,40.039,45.898,30.273,15.625,0
150284.540,31.250,48.828,46.387,32.715,-14.648,0
150284.544,33.691,30.762,50.781,40.039,18.066,0
150284.548,45.898,28.809,43.945,44.922,70.312,0
150284.552,50.781,49.316,36.621,46.387,49.805,0
150284.556,26.367,36.621,25.879,33.203,-3.418,0
150284.560,26.367,32.715,27.832,28.809,-8.301,0
150284.564,44.922,41.016,46.875,43.945,73.730,0
150284.568,40.527,37.109,47.363,43.945,80.566,0
150284.571,26.855,35.645,37.598,31.250,20.508,0
150284.573,28.320,41.016,41.016,36.133,-35.156,0
150284.577,40.039,47.852,45.898,43.945,18.066,0
150284.581,38.086,49.805,40.527,36.621,74.219,0
150284.585,30.273,44.922,45.898,33.691,14.648,0
150284.589,24.414,36.621,52.734,32.715,11.230,0
150284.593,33.203,21.484,40.039,38.086,65.918,0
150284.597,45.898,20.020,41.016,44.434,109.863,0
150284.601,36.621,43.945,54.688,39.551,65.430,0
150284.605,26.367,50.781,46.875,34.668,-11.719,0
150284.609,33.203,43.945,30.762,39.062,0.000,0
150284.613,42.969,46.387,32.227,47.363,79.590,0
150284.616,39.062,47.363,44.434,44.922,88.867,0
150284.620,26.367,31.738,47.852,35.156,36.621,0
150284.624,18.066,26.855,38.574,26.855,29.297,0
150284.628,27.832,36.133,45.410,34.668,88.867,0
150284.632,32.715,35.156,42.480,35.156,94.727,0
150284.635,22.949,39.062,34.668,26.855,13.184,0
150284.639,22.949,47.363,41.016,26.367,23.438,0
150284.643,35.645,41.992,28.809,32.227,81.543,0
150284.647,39.062,38.574,22.461,27.344,78.125,0
150284.651,26.367,41.992,37.109,14.648,11.230,0
150284.655,15.137,38.086,45.898,16.602,-17.578,0
150284.659,27.344,39.062,47.852,28.320,40.039,0
150284.663,34.668,40.527,48.828,36.133,107.910,0
150284.663,23.438,37.109,38.574,35.156,76.660,0
150284.667,16.602,38.574,26.367,30.273,11.719,0
150284.671,26.367,36.133,25.391,29.785,52.246,1
150284.675,38.574,36.133,39.551,35.156,145.996,0
150284.679,39.062,42.969,49.805,34.180,102.539,0
150284.683,39.062,49.316,50.781,38.086,-2.930,0
150284.687,39.062,41.016,44.922,38.086,12.695,0
150284.691,38.574,30.762,40.527,35.156,57.617,0
150284.695,38.086,22.461,37.598,35.645,95.215,0
150284.699,35.645,29.785,34.668,28.320,78.125,0
150284.703,30.273,39.062,31.250,21.973,-10.254,0
150284.706,31.738,44.434,34.180,26.367,16.602,0
150284.708,36.621,50.293,39.551,28.320,71.289,0
150284.712,29.785,49.316,41.992,22.949,46.875,0
150284.716,19.043,49.316,41.504,20.020,1.953,0
150284.720,26.367,46.387,38.086,21.973,36.621,0
150284.724,33.203,34.180,33.203,23.438,137.695,0
150284.728,29.785,27.832,27.344,23.438,111.328,0
150284.732,29.785,25.391,25.879,24.902,11.230,0
150284.736,39.062,20.508,27.344,31.738,-22.949,0
150284.740,44.922,38.086,39.551,36.133,54.199,0
150284.744,33.691,53.711,43.945,32.715,59.570,0
150284.748,27.344,58.594,33.691,30.273,-18.555,0
150284.751,23.926,46.387,22.461,22.461,9.277,0
150284.769,25.391,32.227,32.715,20.508,79.102,0
150284.772,32.227,34.180,48.828,18.066,58.105,0
150284.776,31.738,37.598,47.852,19.531,27.344,0
150284.780,31.738,41.016,45.410,30.273,25.391,0
150284.784,41.992,36.133,41.992,36.133,60.547,0
150284.788,45.410,25.879,33.691,30.273,76.660,0
150284.792,33.203,27.344,27.832,21.484,46.387,0
150284.796,27.344,36.621,32.715,23.926,10.742,0
150284.800,37.598,50.781,39.062,33.691,13.672,0
150284.804,41.504,38.086,36.621,33.203,48.340,0
150284.808,29.297,30.762,31.738,20.996,28.320,0
150284.811,20.020,47.852,36.621,12.695,-11.230,0
150284.813,24.902,39.551,38.086,17.090,6.836,0
150284.817,34.668,26.855,32.715,26.855,50.293,0
150284.821,36.133,42.969,29.785,32.227,60.547,0
150284.825,27.832,52.246,31.250,23.926,2.441,0
150284.829,22.949,41.504,32.227,13.184,18.555,0
150284.833,21.484,34.668,30.273,17.090,77.148,0
150284.837,20.508,35.645,33.691,20.508,68.359,0
150284.841,21.484,29.297,40.039,20.020,24.414,0
150284.845,23.926,24.414,44.434,20.996,-23.438,0
150284.849,35.156,43.945,46.387,30.273,-1.465,0
150284.853,43.457,42.969,39.062,32.227,48.828,0
150284.856,38.086,34.668,37.598,23.438,-0.488,0
150284.859,31.738,40.527,39.062,23.926,-61.035,0
150284.863,37.598,42.969,35.156,33.203,-14.648,0
150284.867,46.875,43.945,33.203,40.039,46.387,0
150284.871,41.992,41.016,26.855,33.691,61.523,0
150284.875,37.598,25.391,37.598,29.785,27.832,0
150284.879,38.086,28.809,58.105,39.062,58.594,0
150284.883,41.016,45.410,52.246,41.016,127.930,0
150284.887,32.227,28.320,37.598,30.762,123.047,0
150284.891,20.020,34.180,43.457,19.043,34.668,0
150284.894,20.020,48.828,40.527,19.043,-33.203,0
150284.898,26.367,44.922,27.832,27.832,85.449,0
150284.902,30.273,45.898,35.156,27.832,146.484,0
150284.904,23.438,42.480,46.387,25.879,60.059,0
150284.908,21.973,33.691,48.828,24.414,10.254,0
150284.912,32.715,33.691,37.109,26.367,55.664,0
150284.916,46.387,32.227,37.598,36.133,146.973,0
150284.920,41.504,35.645,43.945,35.156,95.215,0
150284.924,24.902,44.434,39.062,26.855,-21.973,0
150284.928,34.668,44.922,41.992,34.180,-14.160,0
150284.932,42.480,40.527,45.410,36.133,91.797,0
150284.936,29.785,26.367,42.480,20.996,66.406,0
150284.940,21.973,26.367,37.598,16.113,-14.160,0
150284.944,22.461,44.922,36.133,23.926,51.758,0
150284.947,34.180,51.758,46.875,33.691,111.328,0
150284.949,39.062,41.504,49.316,30.762,82.520,0
150284.953,31.250,34.668,39.551,19.531,31.250,0
150284.957,31.738,38.086,32.227,19.043,23.926,0
150284.961,40.039,39.551,31.250,30.273,81.055,0
150284.965,41.992,41.504,37.109,38.574,101.074,0
150284.968,34.668,45.898,38.086,28.320,96.680,0
150284.972,34.668,47.363,45.410,24.414,43.457,0
150284.976,40.039,51.758,53.711,31.250,6.836,0
150284.980,34.668,23.438,46.875,22.461,27.344,0
150284.984,23.926,5.371,37.109,11.230,37.109,0
150284.988,17.578,34.180,31.738,14.160,5.859,0
150284.992,17.090,44.922,29.297,16.113,-6.836,0
150284.994,23.438,41.504,20.508,18.066,48.340,0
150284.998,25.391,40.527,26.367,24.414,41.504,0
150285.001,18.555,25.391,44.434,19.043,-14.160,0
150285.005,22.461,22.949,48.828,17.578,-36.621,0
150285.009,33.203,44.922,38.086,28.809,-12.695,0
150285.013,27.344,44.434,25.391,25.879,31.738,0
150285.017,23.926,37.598,34.668,21.973,-4.395,0
150285.021,22.949,43.945,44.434,21.484,-62.012,0
150285.025,26.855,32.715,45.898,24.414,-30.273,0
150285.029,31.250,27.344,43.945,26.855,34.180,0
150285.033,26.367,45.410,38.574,23.926,30.273,0
150285.037,24.414,43.457,39.062,24.902,-15.625,0
150285.053,37.598,39.062,40.527,36.621,2.930,0
150285.057,40.527,34.180,31.738,35.645,70.312,0
150285.061,23.438,35.645,29.785,19.043,24.414,0
150285.065,13.184,46.875,38.086,10.742,-23.438,0
150285.069,20.020,42.480,44.434,16.113,-15.625,0
150285.073,29.297,32.227,47.363,25.879,64.941,0
150285.077,32.227,37.598,48.828,27.344,79.590,0
150285.081,30.762,46.387,46.387,24.902,-16.602,0
150285.085,33.203,45.410,44.434,28.320,-23.438,0
150285.089,37.598,37.109,31.738,32.715,48.340,0
150285.093,36.133,26.855,21.484,29.785,84.473,0
150285.096,26.367,20.020,36.621,23.926,32.715,0
150285.085,20.020,13.672,43.945,21.484,-28.320,0
150285.089,29.297,27.832,40.039,29.785,28.320,0
150285.093,34.668,49.316,36.133,28.809,74.219,0
150285.097,32.715,53.223,34.180,20.508,29.297,0
150285.100,35.156,46.387,40.039,21.973,-17.090,0
150285.104,37.598,33.203,41.504,29.785,7.812,0
150285.108,37.598,32.227,35.156,33.203,56.641,0
150285.112,37.598,38.086,31.250,28.809,17.578,0
150285.116,30.273,32.715,35.156,25.391,-15.625,0
150285.120,31.250,25.391,35.645,30.273,-4.395,0
150285.124,42.969,29.785,34.668,37.109,25.391,0
150285.128,43.457,35.156,35.645,34.668,30.762,0
150285.144,37.109,40.527,37.598,30.762,29.297,0
150285.147,36.621,43.945,39.551,32.227,-1.465,0
150285.151,47.852,33.691,44.922,42.480,31.738,0
150285.155,55.176,27.832,42.969,48.340,61.035,0
150285.159,37.598,40.039,34.180,34.668,0.977,0
150285.163,26.367,43.457,30.762,29.785,-31.250,0
150285.167,30.273,28.809,31.250,31.738,6.348,0
150285.171,33.203,23.438,33.203,31.250,85.938,0
150285.175,32.227,29.785,32.715,28.320,62.500,0
150285.179,29.785,40.039,40.527,28.809,-2.441,0
150285.183,33.203,45.898,38.086,41.504,32.227,0
150285.187,42.480,37.598,31.250,47.852,77.148,0
150285.189,41.016,36.621,38.574,41.016,45.898,0
150285.193,33.203,32.715,48.340,36.133,-29.785,0
150285.196,48.340,32.715,47.363,46.387,-40.527,0
150285.200,56.641,41.504,37.598,48.340,31.738,0
150285.204,39.062,35.645,34.180,29.297,61.523,0
150285.208,17.090,36.621,37.598,16.113,7.324,2
150285.212,14.160,38.086,31.250,13.672,-18.066,0
150285.216,30.762,33.691,31.738,21.484,36.133,0
150285.220,34.180,35.156,41.016,26.855,64.941,0
150285.224,30.273,42.969,46.387,22.949,-22.949,0
150285.228,30.762,41.504,48.340,26.855,-36.133,0
150285.232,37.598,32.227,39.062,32.715,32.715,0
150285.233,50.781,33.203,33.691,37.598,70.312,0
150285.237,41.992,36.621,29.297,34.180,51.758,0
150285.241,24.414,28.320,32.715,20.508,5.859,0
150285.245,28.320,36.133,42.480,17.578,19.043,0
150285.249,44.922,50.293,47.363,28.809,27.832,0
150285.253,47.363,41.992,35.645,29.785,24.902,0
150285.257,35.156,39.062,30.273,19.531,-32.715,0
150285.261,37.598,43.945,39.062,29.785,-46.875,0
150285.265,42.480,31.738,35.645,36.133,13.184,0
150285.269,37.598,24.902,36.621,30.273,17.090,0
150285.273,29.785,24.902,36.133,30.273,26.855,0
150285.276,27.832,36.621,27.832,32.715,34.668,0
150285.279,36.133,47.363,41.992,43.945,48.340,0
150285.282,28.809,43.945,41.016,32.715,69.336,0
150285.286,9.277,27.344,31.250,14.160,50.293,0
150285.290,0.000,16.113,36.133,10.742,7.812,0
150285.294,10.254,25.879,40.039,14.160,37.109,0
150285.298,16.113,35.645,42.480,20.020,61.523,0
150285.302,18.555,41.992,52.246,22.949,31.250,0
150285.306,21.484,27.832,50.781,21.973,22.949,0
150285.310,16.602,21.484,28.809,16.113,28.809,0
150285.314,25.879,36.133,30.273,23.438,53.223,0
150285.318,35.156,42.969,36.621,24.414,56.152,0
150285.322,29.297,41.504,37.109,16.113,14.160,0
150285.323,28.320,39.062,43.945,19.531,-10.742,0
150285.327,39.551,37.109,38.574,26.855,41.016,0
150285.331,49.316,37.598,34.668,31.738,110.352,0
150285.335,40.527,31.738,34.668,32.715,77.637,0
150285.339,36.133,34.668,37.598,37.598,1.953,0
150285.343,45.410,50.781,39.062,44.922,45.898,0
150285.347,53.223,47.363,36.621,46.387,72.754,0
150285.351,43.457,39.062,39.551,33.691,-22.461,0
150285.355,28.809,29.785,41.504,19.531,-69.824,0
150285.359,39.062,39.062,35.645,27.832,16.602,0
150285.363,43.457,43.945,28.320,31.250,69.336,0
150285.366,30.273,39.551,40.039,25.879,47.852,0
150285.369,31.250,33.691,60.547,35.156,0.488,0
150285.373,28.320,21.484,52.734,31.738,-16.113,0
150285.377,27.344,33.203,35.156,25.879,26.367,0
150285.381,36.133,39.551,35.645,29.297,38.574,0
150285.385,32.715,34.668,35.156,29.297,-3.418,0
150285.388,25.391,30.273,35.156,30.273,-2.930,0
150285.392,30.273,30.273,43.945,32.715,74.707,0
150285.396,34.180,38.086,41.992,26.367,61.035,0
150285.400,29.297,40.039,32.715,22.949,-9.277,0
150285.404,27.344,38.086,30.762,21.973,3.418,0
150285.408,37.109,38.086,30.273,21.973,54.199,0
150285.412,40.527,37.109,34.180,22.949,102.539,0
150285.414,29.785,29.297,34.668,19.531,63.965,0
150285.418,23.926,25.391,35.645,22.461,-23.438,0
150285.422,33.203,37.109,38.086,32.715,4.395,0
150285.426,47.363,41.992,36.133,35.156,71.777,0
150285.430,36.133,35.645,37.109,24.414,30.273,0
150285.434,21.484,37.598,40.039,14.648,-11.230,0
150285.438,31.250,45.898,41.016,23.926,1.465,0
150285.442,39.062,35.156,38.574,28.320,43.457,0
150285.446,34.180,24.414,44.434,29.297,100.098,0
150285.450,27.832,34.668,40.039,27.832,36.621,0
150285.453,30.273,33.203,41.992,26.367,-7.324,0
150285.457,33.203,28.320,46.875,28.320,76.172,0
150285.459,28.320,35.645,40.039,23.438,96.680,0
150285.463,25.391,38.086,40.039,15.137,22.949,0
150285.467,24.414,42.480,43.945,19.531,-20.020,0
150285.471,34.668,41.504,48.828,37.109,20.508,0
150285.475,49.805,34.180,48.828,42.480,61.523,0
150285.479,41.504,32.227,45.410,38.574,47.852,0
150285.483,34.668,40.039,45.410,35.156,-20.996,0
150285.487,43.945,41.992,45.898,30.273,19.531,0
150285.491,42.480,25.391,40.039,34.180,94.238,0
150285.495,36.621,18.066,34.668,31.250,31.738,0
150285.499,25.879,23.926,26.855,20.020,9.277,0
150285.502,26.855,39.551,34.668,32.227,46.875,0
150285.519,33.203,49.805,35.156,41.016,104.980,0
150285.523,29.785,40.527,37.109,32.715,77.637,0
150285.527,25.879,40.527,55.664,30.762,28.809,0
150285.531,29.785,49.316,52.734,36.133,33.203,0
150285.535,41.504,44.922,41.016,39.062,56.641,0
150285.539,37.109,38.086,36.621,32.715,44.922,0
150285.543,14.160,39.062,34.668,18.555,-9.277,0
150285.546,9.766,32.227,31.738,13.672,-31.738,0
150285.550,23.926,33.203,35.156,19.043,-18.066,0
150285.554,26.367,21.484,36.133,19.531,57.129,0
150285.558,31.738,19.043,38.086,22.949,78.125,0
150285.562,29.297,39.551,45.898,24.414,5.859,0
150285.564,23.438,41.504,43.945,25.391,12.695,0
150285.567,31.250,27.344,38.574,29.785,29.785,0
150285.571,21.484,21.484,35.156,21.484,21.973,0
150285.575,11.230,34.180,38.086,17.090,15.137,0
150285.579,17.090,42.480,37.598,24.414,-5.859,0
150285.583,26.855,39.551,29.297,35.645,38.574,0
150285.587,30.273,32.227,30.762,36.621,25.879,0
150285.591,28.320,38.086,39.062,35.156,-8.301,0
150285.595,30.762,44.434,41.504,42.480,29.297,0
150285.599,34.668,42.480,39.551,42.969,42.480,0
150285.603,29.785,32.715,40.527,37.109,70.312,0
150285.606,20.996,26.367,46.875,32.227,65.918,0
150285.609,19.043,26.855,46.875,33.203,12.695,0
150285.613,24.902,20.020,39.551,37.109,23.438,0
150285.616,29.785,31.250,39.062,36.133,59.082,0
150285.620,30.762,40.039,33.203,32.227,50.293,0
150285.624,25.879,42.969,28.320,27.832,-19.043,0
150285.628,24.902,49.316,33.691,27.832,-49.805,0
150285.632,38.086,42.969,40.039,38.086,15.625,0
150285.636,39.062,39.062,41.016,34.180,82.520,0
150285.640,29.785,41.016,41.504,21.484,20.508,0
150285.644,28.320,34.180,42.969,18.555,-29.297,0
150285.648,30.762,33.203,39.062,17.090,42.969,0
150285.652,30.762,32.227,39.551,18.555,88.379,0
150285.653,26.855,34.668,41.016,19.043,62.012,0
150285.657,24.902,36.133,40.527,20.020,9.277,0
150285.661,29.297,34.180,41.016,28.320,30.762,0
150285.665,35.156,39.062,37.598,33.203,75.684,0
150285.669,29.785,23.926,31.738,27.344,39.551,0
150285.673,21.973,23.438,35.645,22.461,22.949,0
150285.677,27.832,47.852,40.039,29.297,5.859,0
150285.681,39.062,44.434,38.574,40.039,64.453,0
150285.685,34.180,34.668,43.945,34.180,62.012,0
150285.689,20.508,38.574,49.805,21.973,-21.484,0
150285.693,19.531,46.387,43.945,23.926,13.672,0
150285.696,25.391,39.551,35.156,29.785,67.383,0
150285.699,29.785,31.250,39.551,30.762,87.402,0
150285.702,32.227,35.645,41.504,32.715,42.480,0
150285.706,30.273,34.180,32.227,30.273,55.664,0
150285.710,35.156,32.227,30.273,29.297,102.539,0
150285.714,37.109,22.949,39.551,32.227,100.098,0
150285.718,29.785,24.902,45.898,28.809,49.316,0
150285.722,23.926,45.898,42.969,25.391,-5.859,0
150285.726,28.809,52.734,37.109,29.297,33.203,0
150285.730,40.527,52.246,31.250,27.344,69.336,0
150285.734,41.016,47.363,28.809,19.043,74.219,0
150285.738,37.598,51.270,40.527,20.020,11.719,0
150285.741,40.039,51.270,40.527,23.926,2.930,0
150285.744,47.852,41.992,29.785,29.785,68.359,0
150285.747,51.270,35.645,33.203,36.621,66.895,2
150285.751,39.551,36.133,44.434,33.203,10.254,0
150285.755,34.668,45.898,45.898,31.738,-2.930,0
150285.759,44.922,34.668,43.457,35.645,58.594,0
150285.763,45.898,29.297,46.875,31.250,87.402,0
150285.767,34.668,41.992,45.898,27.344,38.086,0
150285.771,30.273,48.828,41.016,32.715,-27.832,0
150285.775,41.992,50.293,42.969,38.574,30.762,0
150285.779,50.293,47.363,45.410,37.109,106.445,0
150285.783,42.969,41.504,40.527,33.203,44.922,0
150285.787,36.621,33.203,30.762,29.297,-11.719,0
150285.789,39.551,42.969,25.879,28.320,31.250,0
150285.792,42.480,47.852,35.645,32.715,95.703,0
150285.796,35.156,44.922,43.457,27.832,100.586,0
150285.800,25.879,51.758,43.945,24.902,57.617,0
150285.804,32.227,54.688,41.992,31.250,23.926,0
150285.808,45.898,32.715,23.926,36.133,62.012,0
150285.812,51.758,37.598,25.391,36.621,45.898,0
150285.816,39.551,53.223,42.969,25.391,-23.438,0
150285.820,29.297,41.992,44.922,20.996,-2.930,0
150285.824,43.457,43.945,49.805,28.320,50.293,0
150285.828,45.410,41.016,48.828,27.344,50.781,0
150285.831,29.297,36.621,42.480,18.555,-5.859,0
150285.835,29.785,41.992,44.434,20.020,-54.688,0
150285.839,36.621,42.480,38.574,26.367,-21.973,0
150285.843,43.457,53.223,36.621,33.203,12.207,0
150285.847,40.527,54.688,41.016,32.715,10.254,0
150285.850,25.391,35.156,33.691,22.949,-0.488,0
150285.854,19.043,19.043,28.320,23.438,37.109,0
150285.858,30.762,11.719,34.180,28.809,62.988,0
150285.862,32.227,21.973,41.992,26.367,25.879,0
150285.866,22.949,47.363,44.922,20.020,-25.391,0
150285.870,28.809,54.199,41.504,23.926,-5.859,0
150285.874,43.457,44.922,42.480,36.621,67.383,0
150285.878,41.016,39.062,42.969,32.715,70.312,0
150285.894,36.621,36.621,46.875,27.832,43.945,0
150285.897,36.133,38.086,49.805,39.062,13.184,0
150285.901,39.551,39.551,44.922,50.293,46.387,0
150285.905,44.434,34.180,40.039,45.898,89.355,0
150285.909,42.969,40.527,32.715,45.410,52.734,0
150285.913,42.969,43.945,37.598,48.828,-0.488,0
150285.917,47.363,44.434,43.945,47.852,-3.906,0
150285.921,47.363,38.086,36.621,47.363,86.914,0
150285.925,48.828,36.133,33.203,48.340,90.332,0
150285.929,41.504,47.852,34.180,41.016,10.742,0
150285.933,41.016,42.480,41.992,40.039,28.809,0
150285.937,46.387,39.062,42.969,35.645,77.148,0
150285.939,39.062,41.016,35.156,22.461,50.781,0
150285.943,30.762,43.945,40.527,16.113,-13.672,0
150285.947,27.832,46.387,43.945,17.090,-7.324,0
150285.951,38.574,49.805,41.992,20.996,42.969,0
150285.955,43.457,52.246,42.480,15.625,79.590,0
150285.959,31.738,38.086,40.527,12.207,14.648,0
150285.962,20.996,29.297,33.691,16.113,-9.766,0
150285.966,29.297,26.855,37.598,21.973,56.152,0
150285.970,34.180,29.297,44.922,21.484,106.934,0
150285.974,19.043,47.363,38.086,12.207,58.594,0
150285.978,11.230,48.828,31.250,9.766,-3.418,0
150285.982,20.020,36.621,34.180,17.578,48.828,0
150285.984,28.320,30.762,42.480,25.879,60.059,0
150285.988,30.762,43.945,40.527,23.926,-0.488,0
150285.992,24.902,47.363,33.203,20.508,-41.016,0
150285.996,25.879,36.621,38.086,29.785,-4.395,0
150286.000,40.527,24.902,46.387,42.969,27.344,0
150286.004,42.969,16.602,46.387,43.945,4.395,0
150286.008,39.551,31.250,41.504,37.109,-15.137,0
150286.012,34.668,59.570,46.875,34.180,2.930,0
150286.016,31.738,60.059,46.875,31.738,64.941,0
150286.020,35.156,48.340,39.062,25.391,76.172,0
150286.023,29.785,39.062,37.598,20.508,57.129,0
150286.027,27.832,31.738,46.387,21.973,37.109,0
150286.029,36.133,23.926,46.387,27.832,50.781,0
150286.033,41.504,25.391,35.645,27.344,97.168,0
150286.037,36.621,35.645,37.109,17.090,82.031,0
150286.041,29.297,40.527,41.992,10.254,10.254,0
150286.045,34.180,41.016,43.457,17.578,6.348,0
150286.048,39.551,41.504,39.551,23.438,49.805,0
150286.052,31.738,44.434,38.574,17.090,41.504,0
150286.056,21.973,38.574,42.480,17.090,2.930,0
150286.060,30.273,31.250,43.945,26.367,-46.387,0
150286.064,41.016,41.992,41.016,28.320,31.250,0
150286.068,40.527,41.016,40.527,29.785,95.703,0
150286.072,32.715,34.180,41.992,35.645,19.043,0
150286.077,25.879,38.574,37.109,35.645,-24.902,0
150286.081,33.203,40.527,33.691,34.180,63.477,0
150286.085,40.527,35.645,38.086,38.574,127.441,0
150286.088,34.668,39.062,44.434,31.738,43.945,0
150286.092,24.902,47.363,48.340,22.949,-7.324,0
150286.096,26.367,31.738,47.363,27.344,33.691,0
150286.100,36.133,25.879,46.387,34.180,86.914,0
150286.104,36.133,44.922,51.270,28.809,55.664,0
150286.108,22.949,45.410,42.480,14.160,-32.227,0
150286.112,18.555,39.551,26.367,13.184,22.461,0
150286.116,26.855,29.297,28.809,17.090,103.516,0
150286.120,28.320,29.297,37.598,14.160,95.703,0
150286.119,20.508,43.457,42.969,12.695,20.508,0
150286.123,21.973,39.551,42.969,17.578,-15.625,0
150286.127,32.715,33.691,36.133,23.438,58.594,0
150286.131,31.738,29.297,37.109,18.066,44.434,0
150286.135,27.344,27.344,44.434,15.625,-5.859,0
150286.139,26.855,39.062,41.504,21.973,-22.949,0
150286.143,29.297,39.062,47.852,34.668,3.906,0
150286.147,25.391,33.203,50.781,31.738,38.574,0
150286.150,16.113,27.832,38.574,15.137,-12.695,0
150286.154,9.277,23.926,35.645,8.789,-25.879,0
150286.158,6.836,23.438,30.762,10.254,22.949,0
150286.162,16.602,25.391,29.785,17.090,64.453,0
150286.164,20.996,37.598,36.621,19.531,72.754,0
150286.167,14.160,29.785,38.086,16.602,14.648,0
150286.171,10.254,28.320,31.738,17.578,-2.441,0
150286.175,21.973,51.270,39.062,21.484,71.289,0
150286.179,20.996,48.828,45.410,18.066,65.918,0
150286.183,15.137,41.992,40.527,15.137,-11.230,0
150286.187,24.902,41.016,43.457,19.531,-50.781,0
150286.191,21.484,28.320,39.551,12.207,-10.254,0
150286.195,18.555,29.297,36.621,9.766,56.152,0
150286.199,23.438,35.156,40.039,11.230,6.836,0
150286.203,23.438,36.133,39.551,13.672,-48.828,0
150286.206,30.273,43.945,35.156,25.879,17.578,0
150286.208,37.598,39.062,32.227,29.297,66.895,0
150286.212,33.691,35.156,41.504,22.949,14.160,0
150286.216,23.926,31.738,41.504,20.508,-22.949,0
150286.220,28.809,24.902,30.762,24.902,47.852,0
150286.224,36.621,43.457,33.691,26.855,102.539,0
150286.228,28.320,52.246,37.109,24.414,76.660,0
150286.232,21.973,42.969,35.645,21.973,-7.324,0
150286.236,30.762,44.434,46.387,27.832,-21.484,0
150286.240,38.574,43.457,43.945,33.203,59.082,0
150286.244,35.156,39.062,26.855,25.391,65.430,0
150286.248,36.621,37.598,29.297,26.855,7.324,0
150286.251,39.551,34.180,34.180,31.738,-14.160,0
150286.268,27.832,21.484,23.438,25.879,47.363,0
150286.272,25.391,28.809,32.227,20.020,65.430,0
150286.276,29.297,48.340,41.992,16.602,6.348,0
150286.280,28.809,47.852,41.504,25.391,-44.434,0
150286.284,36.133,42.969,43.457,38.574,-20.996,0
150286.288,45.410,37.109,46.387,41.504,51.758,0
150286.292,40.039,35.645,45.898,32.227,14.160,0
150286.296,29.297,38.574,28.809,26.855,9.766,0
150286.300,30.273,40.527,25.391,28.320,63.477,0
150286.304,34.180,34.668,40.527,27.344,88.867,0
150286.308,37.598,28.809,52.246,28.809,65.430,0
150286.311,38.574,37.109,51.270,28.320,1.953,0
150286.314,34.668,49.316,41.016,30.273,22.461,0
150286.317,41.992,34.668,38.086,38.086,71.777,0
150286.321,41.992,25.391,42.969,37.598,56.641,0
150286.325,27.344,36.621,38.574,29.297,19.531,0
150286.329,28.809,42.480,36.133,32.227,10.254,0
150286.333,40.527,44.434,36.621,39.062,48.340,0
150286.337,43.945,46.387,37.598,34.180,81.055,0
150286.341,36.621,51.758,42.480,28.320,58.594,0
150286.345,30.762,47.852,39.551,27.344,16.602,0
150286.349,30.273,34.668,31.250,24.902,-5.371,1
150286.353,31.738,36.133,28.320,21.973,41.992,0
150286.357,24.414,34.668,25.391,18.555,41.504,0
150286.359,20.508,28.809,23.926,19.043,-35.156,0
150286.362,32.715,28.809,33.203,25.391,7.812,0
150286.366,41.504,29.297,35.156,34.180,95.703,0
150286.370,34.668,20.996,29.297,32.715,42.969,0
150286.374,23.438,28.320,33.691,24.902,-24.902,0
150286.378,22.949,46.875,37.109,22.461,8.301,0
150286.382,37.109,42.969,39.062,28.320,83.984,0
150286.386,47.852,36.621,42.480,34.668,105.469,0
150286.390,34.180,35.156,30.762,27.344,8.789,0
150286.394,22.461,23.926,25.879,21.484,-69.824,0
150286.398,37.109,35.645,42.480,32.227,-10.742,0
150286.401,47.852,49.805,43.457,35.156,37.109,0
150286.404,38.086,40.527,40.039,27.344,3.418,0
150286.407,35.156,39.551,50.293,32.715,-24.902,0
150286.411,40.039,35.156,49.316,37.109,32.715,0
150286.415,37.109,30.273,41.016,28.809,83.984,0
150286.419,29.785,31.250,40.527,19.531,46.875,0
150286.423,22.949,20.996,47.363,22.949,-19.043,0
150286.427,26.367,25.879,42.480,32.715,-3.418,0
150286.431,30.762,37.109,34.668,36.621,65.918,0
150286.435,26.855,40.527,32.715,32.715,60.547,0
150286.439,22.461,41.504,35.156,30.762,3.418,0
150286.443,25.391,44.434,41.992,36.133,52.246,0
150286.447,33.203,42.480,45.410,37.109,111.816,0
150286.449,33.691,35.156,42.480,31.738,98.145,0
150286.452,28.320,35.645,39.062,23.438,86.914,0
150286.456,30.762,37.109,41.016,24.902,66.406,0
150286.460,38.086,33.203,42.969,30.762,92.285,0
150286.464,42.480,36.621,46.875,30.762,106.934,0
150286.468,32.227,40.039,48.828,28.320,60.059,0
150286.472,28.320,32.715,47.852,28.809,28.320,0
150286.476,35.156,22.949,44.434,31.250,45.898,0
150286.480,39.062,35.156,42.969,31.250,80.566,0
150286.484,38.086,48.340,41.504,33.691,78.125,0
150286.488,35.156,48.828,37.109,37.109,19.043,0
150286.492,41.504,43.457,33.203,42.969,8.301,0
150286.493,49.316,34.180,30.273,48.340,41.992,0
150286.497,50.293,40.039,44.434,48.828,42.969,0
150286.501,39.551,48.340,52.246,42.480,-8.301,0
150286.505,26.367,45.410,43.457,39.551,-8.301,0
150286.509,29.785,40.527,43.945,37.598,76.660,0
150286.513,26.855,42.480,39.062,28.809,68.848,0
150286.517,16.113,29.297,33.203,21.484,36.133,0
150286.521,17.578,31.738,35.645,20.996,-17.090,0
150286.525,25.391,36.133,34.180,23.926,15.137,0
150286.529,33.691,31.250,40.039,28.320,95.703,0
150286.533,33.691,33.691,49.316,31.250,72.266,0
150286.536,25.879,27.832,38.574,29.297,18.066,0
150286.540,30.273,24.902,32.227,29.785,-18.555,0
150286.544,36.133,34.668,32.715,29.297,39.062,0
150286.548,34.668,41.016,38.086,26.367,76.172,0
150286.552,25.391,39.062,37.598,17.578,25.391,0
150286.556,16.602,40.039,30.762,10.742,-17.090,0
150286.560,25.391,44.922,36.621,21.973,17.578,0
150286.564,37.109,41.992,42.480,30.762,41.992,0
150286.567,28.320,27.344,37.598,21.484,-34.180,0
150286.571,24.414,23.926,29.785,20.996,-62.012,0
150286.575,37.598,29.297,33.691,31.250,4.395,0
150286.579,50.293,36.133,47.363,39.551,23.438,0
150286.583,37.109,34.668,48.828,29.785,-22.461,0
150286.584,20.020,38.086,36.133,18.066,-41.992,0
150286.588,25.879,38.574,31.738,24.414,28.809,0
150286.592,35.156,45.410,35.645,32.715,88.867,0
150286.596,36.621,49.316,37.598,34.180,50.293,0
150286.600,31.738,41.016,27.344,30.273,3.418,0
150286.604,30.273,27.344,24.902,30.762,37.598,0
150286.608,37.598,8.301,44.922,36.133,82.031,0
150286.612,36.621,25.391,51.270,29.297,71.289,0
150286.616,20.996,47.363,48.340,21.484,31.738,0
150286.619,20.996,46.875,42.969,26.855,18.555,0
150286.623,34.668,45.410,39.062,38.086,50.781,0
150286.627,36.133,39.551,39.062,33.203,69.824,0
150286.644,29.785,36.133,31.250,26.855,40.039,0
150286.648,31.250,40.039,37.109,33.203,-15.137,0
150286.652,32.227,41.504,39.062,29.297,23.438,0
150286.656,28.320,35.645,27.344,17.090,66.406,0
150286.660,25.391,33.691,31.250,14.648,21.484,0
150286.664,22.461,34.668,37.109,20.996,-8.301,0
150286.668,29.785,35.645,31.250,26.855,6.348,0
150286.672,43.945,27.832,30.762,27.344,83.008,0
150286.676,44.922,24.414,37.109,26.367,56.641,0
150286.680,35.156,40.527,31.250,21.484,-25.879,0
150286.683,28.809,44.434,27.344,20.020,-0.977,0
150286.687,32.715,43.945,36.133,26.855,58.105,0
150286.690,25.391,34.180,43.457,22.949,55.664,0
150286.694,17.090,26.855,47.363,20.020,-11.230,0
150286.697,24.414,35.156,48.340,26.855,7.324,0
150286.701,29.297,27.832,43.457,27.832,52.734,0
150286.705,30.273,25.391,36.133,26.855,77.637,0
150286.709,25.879,36.133,29.297,25.391,43.457,0
150286.713,22.949,45.410,30.273,27.344,-9.277,0
150286.717,29.785,45.410,36.621,33.691,36.621,0
150286.721,37.109,33.691,32.227,34.180,67.871,0
150286.725,33.203,32.227,28.320,21.973,12.695,0
150286.729,31.738,24.902,38.574,21.973,-27.832,0
150286.733,39.551,21.484,41.504,38.086,42.480,0
150286.735,47.363,43.457,31.738,42.969,96.191,0
150286.738,48.828,54.199,36.133,42.969,53.711,0
150286.742,38.574,55.176,49.805,41.504,-27.344,0
150286.746,41.504,44.434,50.293,42.480,-10.254,0
150286.750,46.875,38.574,50.293,44.922,57.129,0
150286.754,36.133,47.852,49.805,33.203,47.852,0
150286.758,24.902,51.270,46.875,24.902,-33.691,0
150286.762,20.020,41.016,43.945,24.902,-10.742,0
150286.766,26.855,35.645,39.551,29.785,49.316,0
150286.770,29.785,27.344,41.504,31.250,17.090,0
150286.774,19.531,28.320,40.039,23.438,23.438,0
150286.778,18.066,34.668,40.039,21.973,4.395,0
150286.779,25.879,33.691,41.992,26.855,17.578,0
150286.783,27.832,37.109,44.434,26.367,84.961,0
150286.787,27.832,32.227,47.852,21.973,98.145,0
150286.791,25.879,38.574,33.691,20.996,62.500,0
150286.795,28.320,47.852,28.320,25.391,57.129,0
150286.799,36.621,41.504,35.645,26.855,92.773,0
150286.802,34.180,36.621,41.992,23.926,96.191,0
150286.806,21.973,33.691,51.758,18.066,38.574,0
150286.810,20.996,36.621,42.480,13.184,-30.273,0
150286.814,34.180,43.457,38.086,24.902,34.668,0
150286.818,37.598,45.410,35.645,35.156,132.324,0
150286.822,31.250,24.414,29.785,27.832,73.242,0
150286.824,37.598,20.996,43.457,28.809,51.758,0
150286.827,45.898,50.781,50.293,41.992,110.840,0
150286.831,45.410,56.641,48.340,44.434,109.375,0
150286.835,35.645,52.734,45.410,33.203,45.410,0
150286.839,21.973,44.434,29.785,21.484,-3.906,0
150286.843,34.668,42.480,32.715,29.297,41.504,0
150286.847,38.574,37.109,47.363,32.715,95.703,0
150286.851,28.320,34.668,50.293,24.902,41.504,0
150286.855,25.391,35.645,44.922,20.020,2.930,0
150286.859,25.879,28.320,40.527,25.391,36.133,0
150286.863,43.457,25.879,43.945,40.527,83.984,0
150286.867,53.711,30.273,42.969,45.410,55.664,0
150286.869,39.062,41.016,32.227,34.180,-31.250,0
150286.872,29.297,39.062,31.250,24.902,-17.090,0
150286.876,39.062,44.434,36.621,32.227,45.898,0
150286.880,40.527,47.852,36.621,32.715,79.590,0
150286.884,32.715,42.480,42.969,24.902,44.922,0
150286.888,28.809,41.016,46.875,26.367,7.324,0
150286.892,29.785,33.203,46.387,30.762,33.691,0
150286.896,38.574,27.832,38.086,30.273,19.531,0
150286.900,32.227,29.297,39.551,22.461,29.297,0
150286.904,17.578,33.691,47.363,17.578,70.801,0
150286.908,21.484,35.156,37.109,22.949,72.266,0
150286.912,28.320,33.691,30.762,26.367,70.801,0
150286.914,29.297,37.598,37.109,27.344,56.152,0
150286.917,30.273,20.996,46.875,28.809,42.480,0
150286.921,32.715,16.113,46.875,31.738,47.852,0
150286.925,45.410,51.270,39.062,40.039,107.910,0
150286.929,48.828,58.594,41.504,40.039,100.586,0
150286.933,38.086,44.434,47.363,25.879,4.883,0
150286.937,35.645,38.086,45.410,26.855,-56.152,0
150286.941,39.551,38.086,47.852,32.715,27.344,0
150286.945,37.598,43.945,49.316,24.414,74.219,0
150286.949,22.461,38.086,31.250,16.602,16.113,0
150286.953,16.602,31.738,19.531,17.090,-21.973,0
150286.956,30.762,25.879,35.645,24.902,11.230,0
150286.959,38.574,24.414,50.781,30.762,63.477,0
150286.962,33.203,17.578,49.316,22.949,31.250,0
150286.966,27.832,17.090,48.340,18.555,-30.762,0
150286.970,26.855,40.039,34.668,20.996,-17.578,0
150286.974,36.621,51.758,31.738,25.391,47.852,0
150286.978,37.598,50.293,41.504,27.344,43.945,0
150286.982,21.484,43.457,40.527,18.555,-35.156,0
150286.986,20.996,40.527,40.039,20.996,-56.152,0
150286.990,30.762,32.227,37.598,29.297,33.203,0
150286.994,33.691,20.996,41.504,27.832,52.246,0
150286.998,29.297,26.367,43.945,23.926,-38.574,2
150287.001,21.484,39.062,41.992,20.996,-56.152,0
150287.005,24.902,43.945,38.086,22.461,-8.301,0
150287.009,30.762,34.180,30.273,24.902,21.484,0
150287.013,25.879,34.668,37.598,24.414,-12.207,0
150287.017,18.066,47.852,44.434,18.066,-61.523,0
150287.020,34.668,49.316,49.316,27.832,-18.066,0
150287.024,46.387,41.992,49.316,37.598,59.082,0
150287.028,31.738,33.691,36.621,27.344,16.602,0
150287.032,31.738,37.598,36.621,33.691,-28.809,0
150287.036,35.645,37.109,39.551,36.621,21.973,0
150287.040,36.621,36.133,41.016,26.367,79.102,0
150287.044,34.668,39.551,38.086,16.602,53.223,0
150287.048,23.926,39.551,34.180,10.254,9.766,0
150287.064,29.785,39.551,41.504,21.973,8.301,0
150287.068,41.016,33.691,45.410,33.691,62.500,0
150287.072,40.039,31.738,38.086,28.320,66.406,0
150287.076,26.855,44.434,35.156,21.484,-5.371,0
150287.080,18.066,44.922,34.668,20.996,3.906,0
150287.084,21.484,35.645,29.297,23.926,73.242,0
150287.088,27.344,30.762,36.133,24.414,74.707,0
150287.092,31.250,41.992,51.270,26.855,64.453,0
150287.095,27.344,48.828,47.852,26.855,65.918,0
150287.099,29.297,37.598,36.133,32.227,64.941,0
150287.103,37.109,30.762,41.504,36.621,73.242,0
150287.107,30.762,30.762,45.410,25.391,44.434,0
150287.109,23.926,32.227,45.898,21.484,14.160,0
150287.113,29.785,39.062,41.016,28.320,20.996,0
150287.116,41.992,34.180,43.945,36.621,60.547,0
150287.120,38.086,39.062,47.363,34.668,84.961,0
150287.124,24.902,42.969,30.273,21.973,28.809,0
150287.128,27.832,37.109,21.973,24.414,-28.809,0
150287.132,41.504,47.363,36.133,40.039,48.340,0
150287.136,41.504,48.828,42.969,33.203,93.262,0
150287.140,30.762,38.574,41.016,20.508,-7.324,0
150287.144,23.926,37.109,41.992,19.043,-49.316,0
150287.148,30.273,38.086,38.574,25.879,55.664,0
150287.152,39.551,28.320,40.527,33.691,120.117,0
150287.154,35.156,33.203,44.922,33.203,91.797,0
150287.157,23.926,37.109,35.645,27.344,39.551,0
150287.161,31.250,28.809,23.438,28.809,68.359,0
150287.165,36.621,25.879,29.297,31.738,136.230,0
150287.169,27.344,34.668,37.109,25.391,97.656,0
150287.173,25.391,54.688,36.133,26.855,2.930,0
150287.177,40.039,56.152,39.551,39.551,-15.625,0
150287.181,45.410,40.039,38.086,36.621,64.453,0
150287.185,32.227,37.109,36.621,19.043,54.688,0
150287.189,22.461,32.227,41.992,16.602,13.184,0
150287.193,27.832,25.391,42.969,28.320,27.344,0
150287.196,38.574,40.527,42.480,40.527,59.082,0
150287.199,44.922,50.293,29.297,42.480,68.359,0
150287.203,38.574,38.086,16.113,29.297,11.230,0
150287.207,27.832,32.715,34.180,25.391,-11.230,0
150287.211,38.086,33.203,53.711,40.527,18.066,0
150287.215,44.922,33.691,48.828,43.457,-6.348,0
150287.219,29.785,38.086,40.527,29.785,-29.785,0
150287.222,20.996,32.715,39.551,27.832,-45.898,0
150287.226,28.809,33.203,46.387,36.133,-45.898,0
150287.230,40.527,39.551,49.805,37.598,11.230,0
150287.234,38.086,43.945,48.340,36.133,44.922,0
150287.238,27.832,44.434,47.852,32.227,-8.789,0
150287.242,26.855,36.133,37.598,27.344,-58.105,0
150287.247,42.480,32.715,31.738,40.039,-8.789,0
150287.250,50.293,34.180,38.574,42.480,48.340,0
150287.254,43.457,36.621,40.527,33.691,3.906,0
150287.258,40.527,41.504,40.039,39.062,-32.227,0
150287.262,41.992,34.668,42.969,42.969,29.297,0
150287.266,40.039,35.156,42.480,34.668,61.035,0
150287.270,31.738,44.434,50.293,28.809,-10.254,0
150287.274,26.367,50.293,50.293,23.926,-44.434,0
150287.278,36.621,48.828,40.039,30.762,1.465,0
150287.282,43.945,41.504,35.645,37.598,42.480,0
150287.286,41.992,36.621,29.297,31.250,-14.648,0
150287.289,38.574,26.855,26.855,31.250,-54.199,0
150287.291,38.086,27.832,41.504,36.621,0.000,0
150287.295,44.922,48.340,50.293,43.457,63.965,0
150287.299,38.574,50.781,36.133,34.668,47.852,0
150287.303,28.809,34.180,41.504,29.785,-4.395,0
150287.307,35.156,40.527,55.176,33.691,18.066,0
150287.311,42.969,53.711,45.898,38.086,72.754,0
150287.315,41.504,47.852,40.039,40.527,69.824,0
150287.319,27.832,35.156,41.504,31.250,14.160,0
150287.323,22.461,32.227,43.457,26.855,25.391,0
150287.327,33.203,35.156,44.434,31.738,86.426,0
150287.330,38.086,32.715,37.109,31.738,104.492,0
150287.334,23.438,32.227,30.762,18.066,84.473,0
150287.334,15.625,38.086,27.832,15.625,46.875,0
150287.338,24.902,31.250,31.738,26.367,70.312,0
150287.342,32.715,31.250,41.992,31.738,108.887,0
150287.346,29.785,21.484,49.316,27.832,70.801,0
150287.350,23.438,20.508,49.805,22.461,-22.949,0
150287.354,28.809,43.457,46.387,34.668,-13.184,0
150287.358,35.645,48.828,37.598,33.691,57.617,0
150287.362,28.320,42.480,37.598,22.461,63.477,0
150287.365,23.438,38.086,40.527,30.273,41.016,0
150287.369,24.414,43.457,36.621,31.738,8.301,0
150287.373,34.180,37.109,36.621,31.250,57.129,0
150287.377,44.434,34.180,47.363,35.645,68.848,0
150287.379,36.133,41.016,47.852,33.203,8.301,0
150287.383,33.691,41.016,42.480,35.156,12.695,0
150287.387,38.574,35.156,43.457,42.969,66.406,0
150287.391,38.086,18.555,36.133,39.062,68.848,0
150287.395,33.203,22.949,38.574,33.203,17.090,0
150287.399,24.414,46.387,36.621,26.367,-43.457,0
150287.403,29.297,45.898,31.738,25.391,-41.016,0
150287.407,39.551,41.992,35.645,35.156,25.879,0
150287.410,34.180,41.992,36.621,33.203,51.270,0
150287.414,21.973,31.250,33.203,23.926,-13.184,0
150287.418,31.250,26.855,31.738,26.855,0.000,0
150287.422,44.434,37.109,31.250,37.598,83.984,0
150287.439,38.086,41.504,32.715,35.156,75.195,0
150287.442,36.621,49.805,42.480,30.273,-16.113,0
150287.446,36.133,40.527,41.016,28.320,-27.344,0
150287.450,38.574,34.180,28.320,30.273,74.707,0
150287.454,43.457,49.805,32.227,37.598,86.914,0
150287.458,39.551,46.875,41.992,34.180,29.297,0
150287.462,28.809,41.016,36.133,26.367,2.441,0
150287.466,27.344,40.527,23.926,23.438,9.277,0
150287.470,31.250,37.109,31.250,21.973,71.777,0
150287.474,29.785,35.156,44.434,16.113,51.270,0
150287.478,27.344,36.133,43.457,14.160,-13.672,0
150287.482,38.086,33.691,41.992,22.949,39.062,0
150287.483,43.945,36.621,43.945,25.391,83.984,0
150287.487,31.738,36.133,36.621,20.020,47.363,0
150287.491,34.180,29.297,37.109,22.949,20.996,0
150287.495,35.156,39.062,40.039,21.973,13.672,0
150287.499,35.156,42.480,33.203,19.043,76.660,0
150287.503,40.527,36.621,25.391,19.531,78.125,0
150287.507,32.715,39.551,20.020,16.113,6.348,0
150287.511,26.367,40.039,25.879,16.113,-1.465,0
150287.515,34.180,42.480,42.969,20.996,15.137,0
150287.519,35.156,49.316,43.945,19.531,26.367,0
150287.523,30.762,40.039,35.156,17.578,43.945,0
150287.526,30.762,37.598,32.715,23.438,33.691,0
150287.529,30.762,41.992,33.691,24.902,73.730,0
150287.533,31.738,33.691,41.504,21.484,107.422,0
150287.537,28.320,30.273,48.340,21.484,67.383,0
150287.541,18.066,24.414,37.598,12.207,29.297,0
150287.545,15.625,31.250,27.832,6.836,39.062,0
150287.549,21.484,43.457,22.949,11.719,70.312,0
150287.553,19.043,42.969,22.461,11.719,77.637,0
150287.557,12.207,47.363,30.273,8.789,67.871,0
150287.560,16.113,47.852,34.668,13.184,27.344,0
150287.564,29.297,44.434,35.156,21.973,66.406,0
150287.568,30.273,37.109,28.809,21.484,76.172,0
150287.572,20.996,33.691,30.273,18.555,23.926,0
150287.574,21.484,39.062,42.480,22.949,11.719,0
150287.578,28.320,38.086,44.434,24.902,46.875,0
150287.581,33.691,18.555,40.039,21.484,96.680,0
150287.585,28.320,16.602,38.086,17.578,61.035,0
150287.589,21.973,47.852,34.668,17.090,-11.230,0
150287.593,32.715,63.477,40.527,29.297,33.691,0
150287.597,38.574,52.734,44.434,34.668,107.422,0
150287.601,30.762,41.504,39.551,25.391,81.055,0
150287.605,22.461,39.551,35.645,16.113,15.625,0
150287.609,22.949,32.715,30.762,21.484,28.809,0
150287.613,30.273,30.762,35.645,27.344,88.867,1
150287.617,34.668,37.598,35.645,33.691,76.172,0
150287.619,39.551,41.504,34.180,45.898,3.906,0
150287.622,29.785,37.598,38.086,35.645,13.184,0
150287.626,24.414,35.645,36.621,28.809,78.125,0
150287.630,29.785,32.227,43.457,30.273,72.754,0
150287.634,24.902,31.738,49.805,26.367,16.602,0
150287.638,21.484,44.922,46.387,27.344,-21.484,0
150287.642,35.156,48.340,46.875,39.062,43.945,0
150287.646,47.363,44.434,43.457,39.551,63.477,0
150287.650,42.480,39.062,36.133,29.297,19.043,0
150287.654,41.504,36.621,40.527,35.156,5.859,0
150287.658,46.387,34.180,38.086,40.527,2.930,0
150287.662,51.270,36.621,38.086,42.969,31.738,0
150287.664,47.363,42.969,42.969,40.039,25.391,0
150287.667,34.180,39.551,42.480,30.762,-4.883,0
150287.671,39.551,38.574,41.504,32.715,29.785,0
150287.675,52.246,39.551,39.062,39.551,67.383,0
150287.679,47.852,39.551,36.621,34.668,66.895,0
150287.683,38.086,34.180,39.551,29.785,20.508,0
150287.687,40.039,40.527,41.016,35.645,0.000,0
150287.691,41.992,51.270,41.504,38.086,37.109,0
150287.695,36.133,47.363,42.480,29.297,83.496,0
150287.699,21.973,41.504,41.992,19.043,30.762,0
150287.703,15.625,36.133,44.434,19.043,-41.016,0
150287.707,23.926,40.527,45.898,28.809,-9.277,0
150287.709,29.297,44.922,40.039,38.574,56.152,0
150287.712,26.855,44.922,38.574,37.598,57.617,0
150287.716,22.949,40.527,39.551,28.809,-5.371,0
150287.720,30.762,40.527,37.109,35.645,9.766,0
150287.724,37.109,26.367,32.227,41.016,115.723,0
150287.728,37.109,17.578,27.832,29.297,92.773,0
150287.732,35.645,41.016,27.832,22.461,4.395,0
150287.736,31.250,49.316,31.250,18.555,-16.602,0
150287.740,36.133,49.316,41.992,23.926,45.898,0
150287.744,39.551,48.340,49.316,25.391,28.320,0
150287.748,33.203,42.480,45.410,19.043,-51.758,0
150287.752,34.180,42.969,43.457,20.020,-15.625,0
150287.755,39.551,40.527,44.434,27.832,62.500,0
150287.759,42.969,40.039,48.340,32.715,60.059,0
150287.763,37.109,37.109,48.828,27.344,35.156,0
150287.767,28.320,32.227,35.645,21.484,3.906,0
150287.771,29.297,30.273,20.508,20.996,26.855,0
150287.774,35.645,40.039,24.414,20.996,94.727,0
150287.778,34.180,30.762,32.227,17.090,32.715,0
150287.782,32.715,26.855,39.062,22.461,-13.672,0
150287.786,38.574,48.828,44.434,33.691,2.930,0
150287.790,46.875,50.293,45.898,37.598,27.344,0
150287.794,42.480,42.969,46.387,28.809,9.277,0
150287.798,30.762,35.645,38.086,21.973,-46.387,0
150287.814,30.273,33.203,43.945,27.344,-14.160,0
150287.818,33.691,34.668,42.969,29.785,53.711,0
150287.822,35.645,33.691,28.809,26.855,62.500,0
150287.825,27.832,35.156,33.691,21.973,31.250,0
150287.829,20.996,39.062,38.086,22.949,29.297,0
150287.833,32.227,29.297,42.480,31.738,33.691,0
150287.837,39.551,27.344,49.805,36.621,70.801,0
150287.841,31.250,39.062,38.574,31.738,59.570,0
150287.845,21.484,44.922,32.227,21.973,0.977,0
150287.849,28.320,40.039,40.527,20.020,-10.742,0
150287.853,41.992,38.574,50.293,29.297,13.184,0
150287.857,42.480,44.922,44.922,31.738,41.504,0
150287.860,36.621,48.828,37.109,30.762,4.395,0
150287.863,37.109,41.992,38.086,33.203,-20.508,0
150287.867,43.945,30.762,36.621,35.156,52.246,0
150287.871,39.062,30.273,36.133,27.832,53.223,0
150287.875,35.645,33.203,42.480,26.855,-23.438,0
150287.879,43.457,29.297,48.828,32.715,-59.570,0
150287.883,40.039,36.621,42.969,31.738,37.109,0
150287.887,37.109,47.852,35.645,31.250,97.656,0
150287.891,32.715,51.270,31.738,27.344,3.418,0
150287.895,27.832,45.410,34.180,29.785,-51.758,0
150287.899,38.086,37.109,42.969,40.039,43.945,0
150287.903,43.457,40.039,47.363,40.527,108.887,0
150287.904,34.180,42.480,45.898,29.785,38.086,0
150287.908,23.438,34.668,43.945,27.832,-9.277,0
150287.912,25.391,32.227,41.992,34.180,39.551,0
150287.916,34.668,41.016,44.922,37.598,73.242,0
150287.920,32.715,38.086,43.945,33.691,71.289,0
150287.924,27.344,32.227,39.551,27.832,29.297,0
150287.928,26.855,26.855,34.668,29.297,0.488,0
150287.932,36.133,29.297,25.391,37.598,58.105,0
150287.936,44.922,43.457,30.762,35.645,61.035,0
150287.940,35.645,42.480,41.016,21.484,-8.301,0
150287.944,25.879,40.039,52.246,16.602,-24.414,0
150287.947,32.715,26.855,55.664,23.438,12.695,0
150287.950,40.039,22.461,50.781,30.273,94.238,0
150287.954,36.621,39.062,48.340,26.855,77.637,0
150287.958,33.691,42.480,43.457,20.508,1.953,0
150287.962,39.551,40.527,41.504,22.949,44.434,0
150287.965,36.133,29.297,43.945,21.484,68.359,0
150287.969,24.902,29.297,47.852,13.672,26.367,0
150287.973,20.996,41.504,41.016,12.207,0.977,0
150287.977,27.344,39.551,33.203,20.020,-1.953,0
150287.981,38.086,38.086,35.156,33.203,53.711,0
150287.985,41.504,24.414,37.598,39.062,87.402,0
150287.989,35.156,20.996,45.410,36.133,20.020,0
150287.993,30.762,39.551,47.363,35.156,-31.250,0
150287.994,39.062,38.574,42.480,40.039,10.254,0
150287.998,39.062,34.180,42.969,39.062,43.457,0
150288.002,33.203,38.086,42.480,32.715,5.371,0
150288.006,38.086,39.062,42.480,31.738,-25.391,0
150288.010,47.852,41.992,44.434,41.504,33.691,0
150288.014,57.129,42.480,43.457,50.781,70.312,0
150288.018,49.805,35.156,40.527,47.363,28.320,0
150288.022,34.180,31.250,47.363,40.527,-3.906,0
150288.026,30.273,32.227,50.293,41.992,6.348,0
150288.029,36.621,31.250,45.410,47.852,93.262,0
150288.033,31.738,27.832,41.992,42.969,106.934,0
150288.037,22.461,12.695,39.062,36.133,10.254,0
150288.039,26.367,18.066,35.156,40.527,3.418,0
150288.043,34.668,36.621,34.180,45.898,78.613,0
150288.047,33.691,41.992,37.109,42.969,68.359,0
150288.051,27.344,45.410,42.480,37.109,-12.695,0
150288.055,25.391,39.062,47.852,33.203,-26.855,0
150288.059,33.691,34.180,48.828,40.527,48.340,0
150288.063,46.875,29.785,51.270,52.246,96.680,0
150288.067,35.156,36.133,48.828,35.645,36.133,0
150288.071,19.043,43.945,42.969,18.066,-31.250,0
150288.074,35.156,42.480,29.297,29.785,53.711,0
150288.078,42.480,41.504,20.508,29.297,104.980,0
150288.082,29.297,36.621,27.832,19.043,39.062,0
150288.084,26.367,34.668,33.691,20.996,21.973,0
150288.088,38.086,39.551,31.738,31.738,50.293,0
150288.091,47.363,39.062,30.273,37.109,66.406,0
150288.095,45.898,40.527,33.691,37.598,50.293,0
150288.099,40.039,40.527,33.691,37.598,34.180,0
150288.103,41.992,34.668,33.203,40.039,39.062,0
150288.107,47.363,36.133,35.645,36.621,79.102,0
150288.111,46.875,39.062,32.715,26.367,73.242,0
150288.115,38.086,44.434,29.785,22.949,28.809,0
150288.119,39.062,42.969,32.715,29.297,32.227,0
150288.123,54.199,43.457,39.062,40.527,68.359,0
150288.127,55.664,44.922,41.504,40.039,83.008,0
150288.129,40.039,41.016,28.809,32.227,64.941,0
150288.132,31.250,35.645,23.926,26.367,48.340,0
150288.136,41.992,36.133,34.668,28.809,62.988,0
150288.140,52.246,45.410,42.969,35.156,93.750,0
150288.144,43.457,42.480,40.527,28.320,64.941,0
150288.148,36.133,27.832,31.738,24.902,5.371,0
150288.152,38.086,29.297,27.832,27.832,-22.949,0
150288.156,43.945,40.527,34.180,38.086,20.020,0
150288.160,44.922,35.645,35.645,38.574,53.711,0
150288.164,37.109,32.715,30.273,27.344,-20.020,0
150288.168,34.668,42.480,33.203,24.902,-67.871,0
150288.171,38.086,42.480,37.109,23.926,17.578,0
150288.204,37.598,40.039,28.320,24.414,68.848,0
150288.207,31.738,40.527,25.391,25.391,-18.066,0
150288.211,32.715,41.992,39.551,27.344,-61.035,0
150288.215,45.898,29.785,39.551,33.691,-8.301,0
150288.219,47.852,29.785,30.273,31.738,20.020,0
150288.223,34.180,34.668,34.180,19.043,-27.344,0
150288.227,32.227,30.762,40.527,22.461,-59.570,0
150288.231,43.457,46.387,35.645,34.668,8.789,0
150288.235,45.410,41.016,29.785,38.086,65.918,0
150288.239,39.062,24.902,33.691,27.344,1.953,0
150288.243,35.156,40.039,44.922,23.438,-42.480,0
150288.247,38.086,39.551,48.340,33.203,4.883,0
150288.234,46.387,41.992,45.898,39.062,62.988,0
150288.237,38.574,46.875,39.062,28.320,69.824,0
150288.241,19.043,37.598,33.203,10.254,18.555,0
150288.245,24.902,35.645,39.551,14.160,14.160,0
150288.249,35.645,33.691,38.086,24.414,84.473,0
150288.253,33.203,37.598,33.203,21.973,107.910,0
150288.257,30.273,40.039,36.133,15.137,35.156,1
150288.261,32.227,18.066,30.273,21.484,-10.254,0
150288.265,40.039,19.043,29.297,31.738,22.461,0
150288.269,36.133,43.457,41.504,27.344,47.363,0
150288.273,25.391,50.293,44.922,20.020,57.129,0
150288.276,21.973,44.434,44.922,18.066,25.879,0
150288.280,32.227,39.551,42.969,26.855,-21.484,0
150288.284,55.176,43.457,49.316,38.086,11.719,0
150288.288,56.641,48.340,57.617,37.598,19.043,0
150288.292,36.621,46.387,46.875,29.297,-7.812,0
150288.295,32.715,30.762,33.203,28.320,7.812,0
150288.299,40.527,19.043,33.203,35.645,48.340,0
150288.303,38.086,25.391,34.180,36.133,72.266,0
150288.307,31.250,30.273,30.762,32.715,9.277,0
150288.311,30.273,18.066,32.715,32.227,-30.273,0
150288.315,38.086,18.066,41.992,39.551,54.688,0
150288.319,41.504,42.480,45.410,40.527,124.512,0
150288.323,38.086,51.270,40.527,39.062,59.082,0
150288.324,30.762,34.668,31.738,37.109,18.555,0
150288.327,34.668,28.809,37.109,35.645,80.078,0
150288.331,35.645,44.434,46.875,33.203,87.402,0
150288.335,23.926,34.668,46.387,27.344,31.738,0
150288.339,28.809,31.250,44.434,33.203,-14.648,0
150288.343,42.969,43.457,40.527,39.551,11.230,0
150288.347,48.828,45.898,39.062,39.062,80.566,0
150288.351,41.016,33.691,40.039,34.668,34.668,0
150288.355,33.203,28.809,30.273,25.391,-26.855,0
150288.359,36.133,41.992,27.832,29.785,42.480,0
150288.363,42.969,35.156,39.551,41.016,108.887,0
150288.367,44.434,29.785,41.016,36.621,82.031,0
150288.369,38.574,39.551,38.574,31.250,29.785,0
150288.372,42.969,44.434,36.621,39.551,13.672,0
150288.376,52.246,38.086,34.180,43.457,75.684,0
150288.380,43.457,36.133,34.668,33.203,67.871,0
150288.384,32.715,42.480,43.457,30.762,7.812,0
150288.388,28.809,43.457,49.316,35.645,26.367,0
150288.392,30.762,41.016,43.945,41.992,69.336,0
150288.396,37.109,41.992,41.504,40.039,71.777,0
150288.400,29.785,39.062,38.574,31.738,21.973,0
150288.404,25.879,27.344,40.039,37.598,-17.090,0
150288.408,34.180,21.973,54.199,44.434,7.812,0
150288.411,40.527,40.039,55.176,45.898,61.035,0
150288.414,33.691,46.387,45.410,40.039,99.609,0
150288.417,28.809,41.504,39.551,36.133,38.086,0
150288.421,32.715,38.574,41.016,35.645,0.000,0
150288.425,34.668,38.086,37.598,27.344,89.844,0
150288.429,33.691,41.016,32.227,22.461,117.676,0
150288.433,22.949,35.156,35.645,20.020,80.078,0
150288.437,22.949,39.551,27.832,20.508,26.367,0
150288.441,33.691,42.480,20.996,27.344,12.207,0
150288.445,36.621,42.480,31.738,28.320,75.195,0
150288.449,32.227,37.109,40.527,22.949,47.852,0
150288.453,26.367,24.414,31.250,21.973,-12.207,0
150288.457,28.809,28.809,24.414,25.391,13.672,0
150288.459,32.715,36.621,36.621,28.320,72.754,0
150288.463,34.668,47.363,30.762,30.762,55.664,0
150288.467,29.297,52.246,16.602,26.367,-16.602,0
150288.471,26.855,39.551,20.996,20.508,-22.461,0
150288.475,38.086,31.250,35.156,23.926,60.059,0
150288.479,34.180,31.250,47.363,25.391,58.594,0
150288.483,22.461,29.785,47.363,19.531,-32.227,0
150288.486,25.391,22.461,39.551,20.020,-29.785,0
150288.490,31.250,22.461,36.133,25.879,48.340,0
150288.494,35.156,28.809,38.574,28.320,85.938,0
150288.498,33.691,36.133,37.109,27.344,41.016,0
150288.502,29.297,33.203,31.738,27.832,8.301,0
150288.506,42.480,23.438,40.039,38.086,72.754,0
150288.510,41.992,27.832,35.156,30.762,64.941,0
150288.514,26.367,39.551,33.203,18.066,-14.648,0
150288.518,21.973,45.898,41.016,20.508,-31.738,0
150288.522,20.020,33.691,37.109,18.066,-0.977,0
150288.526,25.391,23.438,35.156,14.160,14.648,0
150288.530,24.902,30.762,36.621,8.301,3.418,0
150288.534,11.230,35.645,32.227,1.465,-24.902,0
150288.538,19.043,35.645,24.902,14.160,-26.855,0
150288.542,34.180,36.621,31.250,23.926,30.273,0
150288.546,28.320,25.391,35.156,16.602,37.598,0
150288.549,17.578,20.508,30.273,8.789,-10.254,0
150288.564,20.508,35.645,33.203,12.695,-39.062,0
150288.568,28.320,40.527,41.504,23.926,0.977,0
150288.572,28.809,38.086,40.527,21.484,46.387,0
150288.576,24.414,35.156,37.109,16.602,21.484,0
150288.580,21.973,31.738,28.320,23.926,7.812,0
150288.584,24.902,35.645,25.391,29.297,27.832,0
150288.588,27.832,38.086,40.527,22.949,62.500,0
150288.592,23.926,33.691,47.852,15.625,71.777,0
150288.596,21.484,30.273,45.410,14.648,34.668,0
150288.599,31.738,34.180,45.898,28.320,35.156,0
150288.603,41.992,25.879,48.828,36.133,70.801,0
150288.607,34.180,22.461,49.805,28.809,95.703,0
150288.625,21.973,38.574,45.898,21.484,33.203,0
150288.629,24.902,45.898,43.945,30.273,19.531,0
150288.633,32.715,46.875,44.434,38.574,85.938,0
150288.637,27.832,36.621,44.434,33.691,70.801,0
150288.640,17.090,33.691,41.504,23.926,-0.977,0
150288.644,18.555,35.156,41.992,26.367,-18.555,0
150288.648,37.598,34.180,49.316,41.504,56.152,0
150288.652,41.504,39.551,43.457,37.109,79.102,0
150288.656,34.180,42.480,34.668,28.809,-7.324,0
150288.660,36.133,42.969,35.156,30.273,-66.895,0
150288.664,40.039,29.785,35.645,30.762,26.855,0
150288.668,39.551,23.438,39.551,31.250,115.234,0
150288.654,35.645,36.133,42.480,27.832,41.504,0
150288.658,31.738,47.852,39.062,26.855,-19.531,0
150288.662,31.250,47.852,34.180,23.438,11.719,0
150288.666,34.180,41.504,33.203,22.949,49.805,0
150288.670,38.574,41.992,38.574,23.438,44.434,0
150288.674,33.203,42.480,41.504,17.578,-15.625,0
150288.678,24.414,37.109,38.574,17.090,-9.766,0
150288.682,30.762,36.621,36.133,23.926,70.801,0
150288.685,33.203,33.691,29.297,26.367,70.312,0
150288.689,30.273,34.668,27.832,27.344,18.555,0
150288.693,34.180,36.621,42.969,33.203,17.578,0
150288.697,47.363,35.156,47.363,40.527,92.285,0
150288.699,45.410,25.391,33.691,35.156,64.453,0
150288.702,32.715,26.855,27.832,25.879,3.418,0
150288.706,27.832,44.922,36.133,25.879,-12.695,0
150288.710,36.621,50.781,47.363,35.645,3.418,0
150288.714,49.805,45.410,50.781,46.875,31.250,0
150288.718,46.875,41.016,41.016,41.016,14.648,0
150288.722,38.086,37.109,38.086,33.203,3.418,0
150288.726,34.180,32.715,37.598,36.133,21.484,0
150288.730,36.133,35.645,32.715,33.203,39.062,0
150288.734,30.762,38.086,33.691,21.973,40.527,0
150288.738,23.438,36.133,41.992,19.531,-1.465,0
150288.742,25.879,36.133,43.945,25.879,-5.371,0
150288.745,34.668,39.062,37.598,33.691,32.227,0
150288.749,39.062,26.367,32.227,32.227,69.336,0
150288.753,34.180,26.855,35.156,29.785,41.504,0
150288.757,29.785,51.758,43.945,32.715,22.461,0
150288.760,41.504,51.758,42.969,43.945,110.840,0
150288.764,45.898,36.621,39.062,49.805,113.281,0
150288.768,39.551,37.598,35.156,40.039,19.531,0
150288.772,32.715,33.691,24.902,31.250,-20.020,0
150288.776,31.250,33.203,20.996,33.691,15.625,0
150288.780,44.434,53.711,31.250,41.504,96.191,0
150288.784,46.875,54.199,42.480,34.668,61.523,0
150288.788,39.062,44.434,47.852,28.320,-16.602,0
150288.789,42.480,42.969,47.363,35.156,13.184,0
150288.793,52.734,46.387,48.340,45.898,77.148,0
150288.796,44.922,27.344,42.480,40.527,70.801,0
150288.800,32.715,26.367,26.367,31.738,21.973,0
150288.804,29.785,47.363,22.461,31.250,20.508,0
150288.808,34.180,39.062,25.879,39.551,81.543,0
150288.812,39.062,37.598,46.387,49.805,95.215,0
150288.816,30.273,48.828,55.664,42.969,24.414,0
150288.820,19.043,45.410,47.363,31.738,-4.883,0
150288.824,20.508,34.668,45.898,36.133,30.273,0
150288.828,25.879,34.180,42.480,38.086,62.012,0
150288.832,24.414,36.133,36.133,31.738,25.879,0
150288.834,17.578,34.180,28.809,23.438,-11.719,0
150288.837,25.391,32.715,30.762,26.367,4.883,0
150288.841,42.480,24.414,38.574,35.645,71.289,0
150288.845,44.922,24.902,41.016,34.668,73.242,0
150288.849,39.551,40.527,39.551,31.738,9.766,0
150288.853,39.551,44.434,39.062,34.180,20.508,0
150288.857,41.992,42.480,34.668,33.203,80.078,0
150288.861,39.062,43.457,28.320,24.414,62.988,0
150288.865,26.367,40.527,31.250,17.578,13.184,0
150288.869,16.602,35.156,29.297,17.578,8.789,0
150288.873,25.879,37.109,24.902,21.973,6.348,0
150288.877,35.645,34.180,26.855,22.461,29.785,0
150288.879,31.738,35.156,31.250,20.020,48.828,0
150288.882,29.785,33.691,31.250,16.602,6.348,0
150288.886,38.086,18.555,30.273,19.531,10.254,0
150288.890,37.598,14.648,41.504,22.461,104.004,0
150288.894,28.809,32.715,47.852,20.020,48.340,1
150288.898,19.531,41.504,37.109,12.207,-13.672,0
150288.902,20.020,40.527,29.785,15.625,34.180,0
150288.906,28.809,39.062,29.297,24.902,77.148,0
150288.910,25.879,37.109,29.297,23.926,72.754,0
150288.914,18.066,34.668,41.504,19.531,-34.180,0
150288.918,21.484,27.344,47.363,16.602,-45.898,0
150288.921,33.691,29.297,41.992,21.973,35.156,0
150288.954,37.109,39.062,42.480,25.391,47.363,0
150288.958,27.832,40.039,41.992,17.090,11.230,0
150288.961,23.926,30.273,32.715,16.113,24.414,0
150288.965,32.227,25.391,25.879,26.367,68.359,0
150288.969,34.180,25.879,32.227,25.879,79.102,0
150288.973,27.344,34.668,33.203,21.973,34.180,0
150288.977,20.996,44.434,29.297,21.484,11.230,0
150288.981,23.438,39.551,34.668,26.367,39.551,0
150288.985,31.250,39.551,41.504,34.180,50.781,0
150288.989,33.691,36.133,46.875,31.250,31.738,0
150288.993,25.391,25.879,44.922,24.902,-3.418,0
150288.997,29.785,30.273,43.945,32.227,-16.602,0
150288.984,41.992,38.574,42.480,41.992,54.688,0
150288.987,43.945,39.551,40.527,35.156,68.848,0
150288.991,35.156,41.992,47.852,26.367,4.883,0
150288.995,26.855,30.273,46.875,29.297,-18.555,0
150288.999,33.691,35.156,38.086,32.227,12.207,0
150289.003,38.086,46.875,35.156,27.344,48.340,0
150289.007,34.180,40.039,38.574,23.438,-12.695,0
150289.011,29.297,36.621,36.621,24.414,-48.828,0
150289.015,34.668,36.133,39.551,32.227,25.879,0
150289.019,41.504,35.645,47.852,36.133,91.797,0
150289.023,36.133,35.156,38.086,29.297,47.363,0
150289.027,40.527,30.273,29.785,37.598,17.578,0
150289.029,44.434,32.715,39.551,46.875,34.668,0
150289.033,32.715,28.809,41.016,30.273,84.961,0
150289.036,23.438,27.832,34.180,20.508,108.887,0
150289.040,22.949,38.574,36.133,25.391,58.594,0
150289.044,23.926,36.621,41.016,25.391,6.348,0
150289.048,35.645,42.480,37.109,29.297,59.082,0
150289.052,42.969,45.410,31.738,34.180,60.547,0
150289.056,32.715,37.598,22.949,26.367,-35.645,0
150289.060,26.367,34.180,30.762,21.484,-40.039,0
150289.064,37.109,42.480,53.223,26.855,32.227,0
150289.068,42.480,44.922,50.781,27.832,89.844,0
150289.072,31.738,39.062,35.645,22.461,5.859,0
150289.074,27.344,35.645,37.598,26.367,-31.250,0
150289.078,38.086,38.574,48.828,38.574,57.129,0
150289.082,43.457,35.645,46.387,41.016,97.656,0
150289.086,30.762,22.949,35.645,29.297,61.035,0
150289.090,18.066,32.715,36.133,24.414,13.672,0
150289.093,27.344,47.363,31.250,32.227,28.320,0
150289.097,42.969,44.922,34.180,41.504,89.844,0
150289.101,37.598,37.598,51.270,34.180,84.473,0
150289.105,28.809,38.574,49.316,28.320,-9.277,0
150289.109,32.715,37.109,42.480,33.203,3.418,0
150289.113,41.016,24.902,43.945,35.156,110.352,0
150289.117,34.668,28.320,41.504,29.297,106.934,0
150289.119,17.090,39.551,32.227,20.020,21.973,0
150289.123,13.672,30.762,33.203,22.949,-24.414,0
150289.127,25.879,28.320,37.109,29.297,16.602,0
150289.131,29.297,33.691,31.738,25.879,62.012,0
150289.135,25.879,38.086,31.250,27.832,49.805,0
150289.139,22.461,38.086,45.898,31.250,26.367,0
150289.142,25.391,29.297,41.016,32.715,57.129,0
150289.146,33.691,30.273,32.715,29.297,95.215,0
150289.150,29.297,34.180,42.480,18.066,39.551,0
150289.154,20.508,30.762,44.434,14.648,4.395,0
150289.158,30.762,40.527,39.551,22.461,-10.254,0
150289.162,40.039,34.668,34.668,30.762,16.113,0
150289.164,28.320,20.996,36.133,25.879,59.570,0
150289.168,19.043,34.180,43.457,19.043,44.922,0
150289.172,16.602,33.691,42.480,20.508,-15.625,0
150289.176,22.949,29.785,26.855,22.949,12.695,0
150289.180,26.367,36.621,28.320,21.973,81.055,0
150289.184,19.043,36.621,40.039,17.090,22.461,0
150289.188,21.484,32.715,32.715,19.043,-37.598,0
150289.192,35.156,36.621,33.691,27.832,-7.324,0
150289.196,41.016,44.922,46.387,35.156,34.180,0
150289.200,33.691,37.109,45.898,31.250,6.348,0
150289.203,29.785,26.367,38.086,21.484,-41.016,0
150289.207,35.156,26.367,40.527,26.855,-6.348,0
150289.212,39.551,32.227,37.598,31.250,65.430,0
150289.216,34.180,29.297,32.715,29.785,75.684,0
150289.220,24.902,31.250,35.645,28.320,1.465,0
150289.224,21.973,44.434,35.645,30.273,18.555,0
150289.228,30.762,47.852,39.062,35.645,109.375,0
150289.231,36.133,49.316,42.480,40.527,107.422,0
150289.235,29.785,47.363,37.598,36.133,0.977,0
150289.239,27.832,37.598,27.344,30.273,-39.551,0
150289.243,35.156,28.320,24.902,38.086,111.816,0
150289.247,36.133,17.578,34.668,32.715,135.742,0
150289.251,27.344,22.461,43.457,22.461,44.434,0
150289.255,26.367,39.062,46.875,23.926,11.719,0
150289.254,41.992,41.504,44.434,34.668,18.555,0
150289.258,48.340,40.039,44.922,37.598,23.926,0
150289.262,32.715,24.414,33.203,27.344,-2.441,0
150289.266,25.879,18.066,24.414,26.367,-34.180,0
150289.270,29.785,40.039,35.645,29.785,-6.348,0
150289.274,38.086,41.016,38.086,30.273,88.867,0
150289.278,40.527,35.645,37.109,28.809,57.129,0
150289.282,30.762,39.551,37.109,25.391,0.488,0
150289.286,30.762,33.691,28.320,32.227,17.578,0
150289.290,46.875,37.109,27.344,45.410,42.480,0
150289.293,50.781,41.992,34.180,43.945,41.992,0
150289.297,32.715,37.109,30.273,29.785,-0.488,0
150289.314,25.879,34.668,28.320,28.809,-15.137,0
150289.318,33.203,28.809,38.574,32.227,41.504,0
150289.322,37.598,25.879,43.945,33.203,66.895,0
150289.326,32.715,30.762,44.922,30.762,14.160,0
150289.330,19.531,23.926,37.109,26.367,4.395,0
150289.334,32.227,33.203,39.551,36.621,30.762,0
150289.338,47.852,42.480,30.762,46.387,50.293,0
150289.342,36.133,32.227,14.648,35.645,34.668,0
150289.345,29.297,24.902,29.785,25.391,-27.832,0
150289.349,27.344,29.785,39.551,23.926,-20.996,0
150289.353,32.227,37.598,38.574,28.320,54.688,0
150289.357,32.227,36.133,35.645,27.344,69.336,0
150289.359,29.297,39.551,35.645,26.367,-5.371,0
150289.362,38.574,41.504,40.527,39.062,-30.762,0
150289.366,42.480,32.227,30.762,42.480,67.871,0
150289.370,42.969,34.180,28.320,39.551,104.004,0
150289.374,37.598,40.527,37.109,33.691,30.273,0
150289.378,35.645,22.461,33.691,33.691,-11.230,0
150289.382,48.340,20.508,35.645,47.363,34.180,0
150289.386,52.734,44.434,42.480,51.758,60.547,0
150289.390,46.875,46.875,36.621,42.480,10.742,0
150289.394,42.969,40.039,37.109,35.156,-48.828,0
150289.398,44.922,40.039,33.691,42.480,6.348,0
150289.402,51.758,41.016,30.273,48.828,88.379,0
150289.404,56.152,47.852,41.016,44.434,69.336,0
150289.407,49.805,48.340,45.410,43.457,9.766,0
150289.411,44.922,34.180,35.645,45.898,58.105,0
150289.415,52.734,21.973,32.715,49.805,132.812,0
150289.419,47.363,31.250,37.598,41.504,103.516,0
150289.423,30.273,46.875,35.645,26.367,20.996,0
150289.427,23.926,47.363,33.203,19.531,-22.949,0
150289.431,35.645,38.086,30.273,23.438,40.039,0
150289.435,42.480,39.551,24.414,25.879,53.223,0
150289.439,30.273,44.922,21.973,18.066,-16.602,0
150289.443,27.344,41.992,27.832,19.043,-38.574,0
150289.446,37.109,38.574,36.133,30.273,13.184,0
150289.449,41.016,30.762,36.133,40.039,48.340,0
150289.453,35.156,31.738,34.180,37.109,47.852,0
150289.456,31.250,32.227,36.133,30.762,23.926,0
150289.460,33.691,34.668,37.598,31.738,35.156,0
150289.464,34.668,41.016,32.227,30.273,100.586,0
150289.468,33.203,36.621,31.250,27.344,87.402,0
150289.472,26.855,33.203,36.621,23.926,32.715,0
150289.476,34.180,41.016,41.504,29.785,34.180,0
150289.480,44.922,42.480,42.480,31.250,64.453,0
150289.484,42.480,47.363,41.016,28.320,63.965,0
150289.488,38.574,47.852,18.066,28.320,-4.883,0
150289.492,39.062,37.109,16.602,30.273,-31.738,0
150289.495,48.340,36.133,45.410,36.621,75.195,0
150289.499,53.711,35.645,51.270,34.180,114.746,0
150289.503,41.504,31.250,41.504,22.461,58.594,0
150289.507,30.273,41.016,44.922,24.414,1.465,0
150289.511,38.086,44.922,48.340,38.086,44.434,0
150289.514,44.434,23.926,45.898,41.504,110.840,0
150289.518,32.227,27.344,49.805,33.691,98.145,0
150289.522,18.066,45.898,47.852,23.926,-3.906,0
150289.526,23.438,43.457,38.086,25.391,-52.246,0
150289.530,29.785,35.645,36.133,32.715,35.156,0
150289.534,34.668,36.133,46.387,34.668,48.828,0
150289.538,35.645,47.363,41.504,27.832,13.184,0
150289.539,34.668,41.992,28.320,22.461,7.324,0
150289.543,47.852,37.109,34.668,29.785,40.527,0
150289.547,55.664,50.293,39.551,33.203,63.477,0
150289.551,40.039,50.781,37.598,22.949,5.371,0
150289.555,30.273,16.113,41.016,20.020,-20.020,2
150289.559,43.457,17.090,26.367,34.180,44.434,0
150289.563,46.387,51.758,6.348,32.227,64.941,0
150289.567,37.109,53.223,23.438,21.484,13.672,0
150289.571,30.273,48.340,56.152,27.832,-26.367,0
150289.574,35.156,52.734,64.941,40.039,29.297,0
150289.578,34.668,43.457,57.617,35.645,79.102,0
150289.582,21.973,32.227,55.176,26.367,59.082,0
150289.584,10.742,30.273,44.922,22.461,44.922,0
150289.588,15.625,28.809,40.527,24.902,48.340,0
150289.591,31.738,35.156,49.316,31.738,52.734,0
150289.595,28.320,21.973,42.969,27.344,41.016,0
150289.599,17.090,27.832,28.809,13.672,-11.230,0
150289.603,19.043,47.363,31.250,14.648,-29.785,0
150289.607,35.645,51.758,31.738,27.832,21.484,0
150289.611,39.551,49.805,25.879,22.949,50.293,0
150289.615,26.855,39.062,31.250,11.230,19.531,0
150289.619,23.438,35.156,37.598,10.254,7.324,0
150289.623,35.645,38.086,46.387,25.879,36.621,0
150289.627,41.992,33.203,50.293,34.180,82.031,0
150289.629,31.738,31.250,43.457,26.855,46.875,0
150289.632,22.461,42.480,38.086,24.414,-16.602,0
150289.636,21.973,42.480,38.574,24.902,36.133,0
150289.640,22.949,31.250,31.250,23.438,95.703,0
150289.644,20.996,24.902,31.250,24.414,63.965,0
150289.648,21.973,43.945,45.898,34.180,2.930,0
150289.652,26.855,47.852,48.340,34.180,15.625,0
150289.656,30.273,33.691,48.828,29.785,67.871,0
150289.660,25.879,29.785,46.387,26.367,96.191,0
150289.664,21.484,33.203,40.039,24.902,49.805,0
150289.668,20.508,34.668,39.062,30.273,-16.113,0
150289.672,29.297,35.156,42.969,36.133,31.738,0
150289.675,36.133,37.109,38.574,35.645,86.914,0
150289.679,31.250,42.480,35.156,32.715,25.391,0
150289.683,30.762,45.410,28.320,34.180,-10.254,0
150289.687,42.480,28.320,30.762,40.527,67.383,0
150289.690,45.898,27.344,41.992,38.086,109.375,0
150289.694,39.551,42.969,39.062,27.832,52.734,0
150289.698,30.273,43.457,40.039,19.043,38.574,0
150289.702,29.785,43.457,46.875,24.414,72.754,0
150289.706,33.203,33.203,46.875,29.785,96.680,0
150289.710,21.484,28.809,34.180,18.555,57.617,0
150289.714,13.184,35.156,27.344,17.090,-41.992,0
150289.718,19.531,41.992,34.668,25.879,-52.246,0
150289.734,34.668,42.480,46.875,33.203,8.301,0
150289.738,36.621,36.133,54.688,35.156,13.672,0
150289.742,18.066,35.645,45.898,25.391,-19.531,0
150289.746,9.277,33.203,34.668,18.555,11.719,0
150289.750,24.414,19.531,39.551,28.809,42.969,0
150289.754,27.832,23.926,44.434,25.879,38.574,0
150289.758,17.090,36.133,42.969,11.230,-24.414,0
150289.762,19.043,34.180,35.645,13.672,-47.363,0
150289.766,29.785,36.621,36.133,26.855,39.062,0
150289.770,38.574,45.898,50.781,33.691,53.711,0
150289.774,31.738,45.898,46.387,24.414,33.691,0
150289.777,18.555,40.527,28.320,16.602,2.441,0
150289.779,27.344,37.109,28.320,27.344,-11.230,0
150289.783,40.527,38.086,35.645,36.133,47.852,0
150289.787,37.598,36.621,40.039,32.715,59.570,0
150289.791,27.832,33.691,41.016,31.738,17.578,0
150289.795,23.926,33.691,38.086,37.598,-18.555,0
150289.799,34.180,21.484,42.969,43.457,-6.836,0
150289.803,35.645,9.766,47.852,38.086,22.461,0
150289.806,28.809,32.227,45.898,33.203,-13.184,0
150289.810,31.250,56.641,41.016,36.133,-63.965,0
150289.814,40.039,61.035,35.645,37.598,16.602,0
150289.818,42.480,54.199,38.574,37.109,85.449,0
150289.822,38.574,44.434,35.645,32.715,49.316,0
150289.824,41.992,38.574,43.457,34.180,-14.648,0
150289.828,43.945,30.762,45.410,37.109,25.879,0
150289.832,42.480,21.484,41.992,39.062,101.074,0
150289.836,43.945,16.113,43.457,40.039,40.039,0
150289.840,39.062,38.086,37.109,38.086,-33.203,0
150289.844,39.062,59.570,34.180,38.574,-45.410,0
150289.848,45.410,58.105,36.133,33.203,34.668,0
150289.851,43.945,48.340,42.480,25.879,32.227,0
150289.855,41.504,38.574,47.363,29.297,-62.988,0
150289.859,38.574,32.227,41.992,31.738,-45.410,0
150289.863,48.340,41.992,41.016,43.457,44.434,0
150289.867,60.547,53.711,47.852,46.387,83.496,0
150289.869,43.457,29.785,42.969,30.273,29.297,0
150289.873,32.715,31.250,34.180,29.785,-10.742,0
150289.877,47.363,46.875,29.297,41.992,46.387,0
150289.881,54.688,36.621,36.621,50.293,61.523,0
150289.885,41.992,35.645,40.039,42.969,-3.418,0
150289.889,29.785,47.363,39.062,40.039,-38.086,0
150289.893,30.273,52.246,48.828,47.852,9.766,0
150289.897,38.574,46.875,52.734,41.992,31.738,0
150289.901,33.203,41.016,43.945,31.738,21.484,0
150289.904,21.484,38.086,34.668,32.227,18.066,0
150289.908,24.414,43.945,34.668,34.180,16.602,0
150289.912,35.645,40.527,42.969,34.180,37.109,0
150289.929,36.133,30.762,46.387,26.367,46.387,0
150289.932,30.762,30.273,44.922,20.020,21.973,0
150289.936,30.762,31.250,45.898,26.855,-0.977,0
150289.940,42.480,26.367,43.945,37.109,40.039,0
150289.944,49.805,33.203,48.340,39.551,52.246,0
150289.948,33.691,51.270,48.340,28.809,3.906,0
150289.952,17.090,45.898,33.203,20.508,-13.672,0
150289.956,20.996,41.016,26.367,21.973,4.395,0
150289.960,24.902,39.062,32.715,25.391,80.078,0
150289.964,20.020,34.180,44.922,26.367,79.102,0
150289.968,15.625,34.180,51.270,24.902,2.930,0
150289.972,25.391,41.504,47.363,34.180,5.371,0
150289.962,37.109,45.410,44.434,40.527,65.918,0
150289.965,33.691,38.574,42.969,29.785,48.828,0
150289.969,27.344,33.203,43.945,21.484,0.977,0
150289.973,28.320,41.504,40.527,27.832,17.578,0
150289.977,38.086,46.875,38.574,34.668,96.680,0
150289.981,37.109,45.898,33.203,33.691,92.773,0
150289.985,27.832,35.156,29.297,28.320,20.996,0
150289.989,28.809,34.668,37.109,28.809,21.484,0
150289.993,31.738,45.410,39.551,33.691,65.918,0
150289.997,31.738,44.434,35.156,34.668,82.031,0
150290.001,31.250,40.527,36.133,25.391,35.156,0
150290.004,30.762,38.086,43.945,21.484,10.254,0
150290.004,38.086,44.434,50.293,33.691,61.523,0
150290.008,41.504,37.109,49.805,37.598,103.027,0
150290.011,32.715,27.832,39.551,27.832,80.566,0
150290.015,21.484,28.320,31.738,22.461,31.250,0
150290.019,22.461,22.949,33.203,30.273,50.293,0
150290.023,32.715,20.020,38.086,36.621,91.797,0
150290.027,35.156,31.250,42.480,32.715,18.066,0
150290.031,29.297,41.992,37.109,26.367,-49.316,0
150290.035,28.320,36.133,35.156,23.926,-23.438,0
150290.039,36.621,31.250,42.480,29.297,11.230,0
150290.043,35.645,39.551,45.898,27.344,43.457,0
150290.047,26.367,45.410,48.828,21.484,66.406,0
150290.064,21.973,28.320,46.387,19.531,48.340,0
150290.068,40.527,27.832,41.016,30.762,110.352,0
150290.071,50.781,32.715,32.227,33.691,114.258,0
150290.075,32.227,28.320,31.250,16.602,29.297,0
150290.079,25.879,43.457,31.250,20.508,-14.160,0
150290.083,34.668,52.734,35.645,32.227,11.719,0
150290.087,32.715,39.551,36.621,24.902,93.262,0
150290.091,22.461,28.320,27.832,15.137,69.824,0
150290.095,14.648,31.738,26.855,11.719,-12.695,0
150290.099,20.508,13.672,33.203,16.113,-47.852,1
150290.103,37.598,15.137,49.316,25.879,17.578,0
150290.107,42.969,46.387,47.363,29.785,65.430,0
150290.109,32.227,45.898,29.785,23.926,7.812,0
150290.112,31.738,41.016,27.344,22.949,-10.742,0
150290.116,37.109,45.898,32.227,29.297,67.871,0
150290.120,41.016,49.316,40.039,28.809,79.590,0
150290.124,38.086,43.945,42.480,24.414,16.113,0
150290.128,34.668,34.668,33.203,23.438,-4.883,0
150290.132,39.551,21.973,35.156,30.273,18.066,0
150290.136,41.016,26.367,43.945,33.691,72.266,0
150290.140,35.156,41.992,42.480,30.762,30.762,0
150290.144,25.391,42.969,45.410,24.414,-33.691,0
150290.148,25.391,31.250,39.062,23.926,1.465,0
150290.152,33.203,26.855,30.762,27.344,54.688,0
150290.154,31.738,38.086,38.086,22.949,9.766,0
150290.157,37.109,43.457,40.527,26.367,-59.082,0
150290.161,45.410,40.527,33.203,28.320,-39.551,0
150290.165,43.457,36.133,24.414,25.879,20.020,0
150290.169,45.410,47.363,28.320,25.391,43.945,0
150290.173,39.551,51.270,36.621,20.508,-17.578,0
150290.177,39.062,41.504,41.992,28.320,-27.832,0
150290.181,39.062,33.691,39.062,31.738,49.805,0
150290.185,33.691,19.043,38.574,24.414,34.668,0
150290.189,27.832,16.113,41.992,18.066,2.441,0
150290.193,19.043,31.738,38.086,15.137,7.812,0
150290.196,27.832,38.086,37.598,28.320,19.531,0
150290.199,41.992,42.480,36.621,41.016,63.477,0
150290.203,33.691,44.922,39.062,35.156,30.762,0
150290.207,29.785,51.270,42.480,31.250,0.488,0
150290.211,39.062,51.270,42.480,38.574,46.875,0
150290.215,38.574,40.039,40.527,41.016,75.684,0
150290.219,26.855,28.320,36.133,27.832,58.594,0
150290.223,24.414,27.344,44.922,21.484,21.973,0
150290.227,30.273,38.574,53.711,30.273,1.953,0
150290.230,34.180,44.434,43.945,32.227,29.297,0
150290.234,30.762,34.668,35.156,26.367,58.594,0
150290.238,29.297,24.902,36.621,29.297,12.207,0
150290.242,34.180,32.715,41.504,38.574,10.742,0
150290.244,34.180,48.340,38.086,38.086,75.195,0
150290.248,34.668,47.363,31.738,34.180,104.492,0
150290.251,33.691,39.551,25.391,33.691,96.680,0
150290.255,34.668,41.504,33.691,41.016,0.488,0
150290.259,41.504,38.574,43.945,41.016,20.996,0
150290.263,42.480,37.598,47.852,38.574,95.703,0
150290.267,37.109,41.992,53.711,39.062,27.832,0
150290.271,34.180,44.922,51.270,32.227,-23.926,0
150290.275,31.738,37.598,40.039,25.391,-3.906,0
150290.279,36.621,28.809,33.691,28.809,59.082,0
150290.283,43.457,37.598,39.551,37.598,62.500,0
150290.287,37.598,30.273,41.504,36.621,0.977,0
150290.289,30.762,21.484,39.062,33.203,15.625,0
150290.293,35.156,39.062,37.109,40.039,87.891,0
150290.297,39.551,45.898,36.133,41.504,98.145,0
150290.301,28.809,39.062,35.645,31.738,60.059,0
150290.305,26.367,32.227,33.203,36.621,33.691,0
150290.308,35.156,35.156,30.762,44.434,70.312,0
150290.312,34.668,40.527,34.180,36.133,98.633,0
150290.316,30.273,41.992,39.551,32.227,36.621,0
150290.320,22.461,38.574,40.039,34.668,-17.578,0
150290.324,25.879,34.180,45.410,41.992,22.461,0
150290.328,31.738,24.902,38.574,42.969,50.293,0
150290.332,28.320,22.461,28.320,33.691,10.742,0
150290.334,23.438,44.434,40.527,27.344,10.254,0
150290.338,25.391,42.480,43.457,28.320,12.695,0
150290.342,31.738,36.133,34.180,30.762,44.922,0
150290.346,37.109,42.969,35.645,30.762,57.129,0
150290.350,32.715,42.480,43.457,31.738,24.414,0
150290.354,27.832,41.504,39.551,31.738,-6.836,0
150290.357,36.621,39.551,33.691,36.621,8.789,0
150290.361,41.992,32.715,38.574,40.039,64.941,0
150290.365,37.598,41.016,41.992,37.109,37.598,0
150290.369,36.621,43.457,45.410,41.504,-14.160,0
150290.373,37.598,30.273,38.086,38.086,32.227,0
150290.377,34.180,27.344,30.762,31.250,76.172,0
150290.379,31.250,34.668,25.879,26.855,60.059,0
150290.383,32.227,34.668,25.391,26.367,5.859,0
150290.387,40.527,31.738,37.109,34.668,-4.395,0
150290.391,50.293,47.852,44.922,38.574,54.688,0
150290.395,38.086,52.246,40.039,28.809,55.176,0
150290.399,18.555,40.527,35.645,23.438,21.973,0
150290.403,21.973,35.645,40.527,26.367,-0.977,0
150290.407,31.250,27.832,45.898,30.762,44.922,0
150290.411,30.762,30.273,39.062,32.227,79.590,0
150290.415,25.391,35.156,34.668,29.785,-4.883,0
150290.419,25.879,38.086,38.086,32.227,-22.949,0
150290.422,31.738,49.316,37.598,33.203,55.176,0
150290.425,36.133,50.293,34.180,25.879,81.055,0
150290.429,26.855,39.062,36.133,17.578,15.137,0
150290.433,22.461,34.180,45.410,23.438,-45.410,0
150290.437,32.715,25.879,37.598,33.203,5.371,0
150290.441,30.762,26.367,23.926,30.273,88.379,0
150290.445,21.484,28.320,34.668,22.949,14.160,0
150290.448,13.672,23.438,43.945,14.648,-47.363,0
150290.452,19.531,31.250,43.457,19.043,33.203,0
150290.456,31.250,35.156,42.480,27.832,111.328,0
150290.460,30.762,43.945,41.504,27.344,82.520,0
150290.464,28.809,49.805,39.062,24.902,-18.555,0
150290.468,34.668,48.828,36.133,27.344,-15.137,0
150290.484,48.340,49.316,36.621,43.457,50.781,0
150290.488,47.852,42.969,35.645,45.410,77.148,0
150290.491,33.691,32.715,30.273,29.785,14.648,0
150290.495,28.320,33.691,35.645,32.227,-41.992,0
150290.499,34.180,25.879,42.969,40.039,20.508,0
150290.503,43.945,28.320,42.969,44.922,11.230,0
150290.507,40.039,41.016,40.039,41.504,-19.531,0
150290.511,36.621,37.598,42.480,37.109,26.367,0
150290.515,42.480,34.668,41.504,38.574,44.922,0
150290.519,53.223,49.805,40.039,39.551,56.152,0
150290.523,52.246,54.688,41.016,42.480,72.266,0
150290.527,33.691,46.387,36.621,34.668,9.277,0
150290.529,32.227,44.434,37.598,37.598,29.297,0
150290.532,42.969,41.992,40.527,43.945,106.445,0
150290.536,41.016,29.297,35.156,33.691,74.707,0
150290.540,38.574,23.438,30.273,30.762,49.805,0
150290.544,42.480,44.922,30.762,37.109,16.113,0
150290.548,45.410,53.223,30.273,44.434,8.301,0
150290.552,36.621,44.922,32.715,38.574,44.434,0
150290.556,32.227,37.598,49.316,34.180,-4.395,0
150290.560,33.203,42.480,58.105,34.180,-70.312,0
150290.564,35.156,44.922,44.922,29.297,-16.113,0
150290.568,38.086,40.527,40.527,29.785,40.527,0
150290.572,29.785,42.480,40.039,29.785,10.742,0
150290.574,27.832,40.039,37.598,35.156,-50.781,0
150290.577,39.551,23.926,35.645,41.504,-32.715,0
150290.581,37.109,23.438,31.738,35.645,41.992,0
150290.585,29.785,40.039,29.297,31.250,10.254,0
150290.589,28.809,40.039,27.344,30.762,-75.684,0
150290.593,31.250,37.598,33.691,33.691,-46.875,0
150290.597,33.691,36.621,43.945,37.598,38.086,0
150290.601,31.250,34.180,41.504,37.109,34.668,0
150290.605,26.367,34.668,34.668,28.320,-38.086,0
150290.609,22.461,36.621,35.156,26.855,-39.062,0
150290.613,24.902,41.016,31.250,33.203,21.973,0
150290.617,28.809,41.016,29.785,31.250,6.348,0
150290.619,24.902,27.344,37.109,30.273,-41.992,0
150290.622,25.879,29.785,40.527,33.203,-37.109,0
150290.626,40.039,46.387,44.434,38.574,20.508,0
150290.630,38.574,30.273,41.992,31.738,64.453,0
150290.634,29.297,13.672,34.668,23.438,47.852,0
150290.638,26.855,34.180,34.180,26.367,-6.836,0
150290.642,27.832,48.340,33.691,28.320,25.391,1
150290.646,28.809,41.504,37.109,28.809,89.844,0
150290.650,25.391,34.180,36.621,23.438,61.035,0
150290.654,27.344,41.992,35.645,21.973,27.344,0
150290.658,33.691,42.969,38.574,32.715,25.391,0
150290.662,37.598,36.133,33.691,37.598,72.754,0
150290.664,36.133,40.527,36.133,35.156,64.941,0
150290.668,29.297,41.992,44.434,29.785,-21.973,0
150290.672,30.762,33.691,51.758,30.273,-25.391,0
150290.676,38.086,31.738,55.664,38.086,42.969,0
150290.680,35.645,23.926,37.109,34.668,63.965,0
150290.684,27.344,22.461,20.508,24.414,-0.488,0
150290.688,22.461,43.457,28.320,21.484,-36.133,0
150290.692,37.598,50.781,40.039,32.227,8.789,0
150290.695,46.875,42.969,38.574,39.551,92.285,0
150290.699,34.668,38.086,35.156,29.297,78.125,0
150290.703,23.926,40.527,42.969,21.973,21.484,0
150290.707,27.832,41.016,36.133,27.832,31.738,0
150290.710,37.109,38.574,31.738,29.785,99.121,0
150290.714,36.621,35.645,46.875,26.367,103.516,0
150290.718,26.855,38.574,50.293,22.461,-1.953,0
150290.722,31.738,39.551,44.922,26.367,-37.598,0
150290.726,39.062,32.227,43.457,34.180,58.594,0
150290.729,30.273,35.156,40.527,28.320,71.289,0
150290.733,23.926,32.715,33.203,22.949,-15.137,0
150290.737,26.855,20.508,28.320,28.809,-32.227,0
150290.741,36.621,32.715,29.785,39.551,2.441,0
150290.745,51.270,46.387,41.016,44.922,31.738,0
150290.749,55.176,46.875,54.688,45.410,21.973,0
150290.753,38.574,41.504,45.410,35.645,-22.461,0
150290.754,39.062,41.992,33.691,35.645,3.418,0
150290.758,48.340,37.109,36.133,34.180,79.590,0
150290.761,44.434,32.715,26.367,26.855,29.785,0
150290.765,32.227,38.574,25.391,24.902,-48.340,0
150290.769,29.297,30.273,39.551,25.391,-10.254,0
150290.773,43.457,23.926,46.387,32.715,63.965,0
150290.777,45.898,29.785,43.945,32.227,48.828,0
150290.781,31.738,22.949,37.598,21.484,-1.465,0
150290.785,27.832,31.250,37.109,23.438,27.832,0
150290.789,37.598,40.527,40.527,33.203,77.637,0
150290.793,41.016,41.992,38.574,34.668,58.594,0
150290.797,36.621,39.551,34.668,31.738,16.602,0
150290.814,32.715,32.715,30.762,33.203,-15.137,0
150290.818,40.527,33.203,30.273,44.922,39.551,0
150290.822,45.898,30.273,40.527,52.734,103.027,0
150290.826,35.645,25.391,44.922,45.898,75.684,0
150290.830,27.832,25.391,47.852,41.016,-21.484,0
150290.834,37.109,31.250,42.480,43.945,-25.879,0
150290.838,43.457,29.785,32.227,46.387,77.148,0
150290.841,38.086,30.273,37.109,37.109,73.730,0
150290.845,27.832,33.691,39.551,29.297,0.977,0
150290.849,32.715,25.391,38.574,35.645,26.367,0
150290.853,47.852,30.273,40.039,44.922,75.195,0
150290.857,44.434,43.945,36.621,43.457,66.406,0
150290.859,30.273,42.480,36.133,33.203,5.371,0
150290.863,29.297,39.551,41.992,31.250,-20.996,0
150290.867,39.551,33.203,42.480,35.645,63.965,0
150290.871,36.621,28.809,41.504,36.133,88.379,0
150290.875,26.367,26.855,39.551,30.762,-4.395,0
150290.878,27.344,22.461,30.273,34.180,-59.082,0
150290.882,40.039,21.484,26.367,44.434,8.789,0
150290.886,43.457,30.273,26.367,44.922,98.633,0
150290.890,32.715,26.367,34.668,38.574,51.270,0
150290.894,27.344,27.832,47.852,31.250,4.883,0
150290.898,30.762,53.223,54.199,31.738,55.176,0
150290.902,32.715,44.434,42.480,33.691,112.305,0
150290.904,31.738,31.738,36.621,30.762,76.660,0
150290.908,26.367,35.645,45.898,31.250,3.418,0
150290.912,26.367,31.250,38.086,32.227,14.160,0
150290.916,38.574,20.508,26.855,33.203,108.887,0
150290.920,42.969,19.531,26.367,34.180,106.934,0
150290.924,40.527,33.203,37.598,38.574,18.066,0
150290.928,32.227,36.621,44.922,36.621,-17.578,0
150290.932,39.551,37.598,44.434,38.574,7.324,0
150290.935,56.641,40.039,48.340,48.340,23.438,0
150290.939,43.945,41.016,39.551,36.621,-21.484,0
150290.943,29.785,47.363,29.297,26.367,-24.414,0
150290.947,42.480,37.109,31.738,36.621,33.203,0
150290.951,47.363,35.156,35.156,40.527,63.477,0
150290.955,38.574,41.016,42.969,35.156,44.434,0
150290.959,31.250,37.109,53.711,33.203,14.648,0
150290.962,32.715,43.945,44.922,31.738,38.574,0
150290.966,38.086,47.852,40.039,29.785,51.758,0
150290.970,33.203,41.992,42.480,24.414,53.711,0
150290.974,29.297,38.086,41.992,24.902,17.578,0
150290.978,29.297,30.273,43.945,30.762,-27.344,0
150290.982,38.086,29.297,38.574,33.691,46.387,0
150290.986,41.504,45.410,30.273,35.156,64.941,0
150290.990,33.691,41.016,30.273,32.227,27.344,0
150290.994,32.715,25.391,33.691,37.109,4.395,0
150290.994,38.574,39.551,35.645,44.434,47.852,0
150290.998,40.527,46.875,32.715,39.062,116.699,0
150291.002,41.992,45.410,30.762,35.645,55.176,0
150291.006,32.715,40.527,36.621,26.367,-2.930,0
150291.010,26.855,32.227,33.203,20.996,25.879,0
150291.014,38.574,34.180,34.180,29.297,67.871,0
150291.018,38.574,37.598,30.762,29.785,59.570,0
150291.022,27.344,39.062,11.230,22.461,-21.484,0
150291.025,32.227,39.062,16.602,24.902,-20.020,0
150291.029,45.410,42.969,36.133,34.180,105.469,0
150291.033,41.992,46.387,42.480,33.203,83.008,0
150291.037,25.879,25.879,45.410,23.438,-9.277,0
150291.040,21.973,23.926,43.945,24.414,-28.320,0
150291.044,34.180,51.270,41.992,40.039,55.664,0
150291.048,29.785,47.852,33.691,39.062,89.355,0
150291.051,15.137,34.180,20.020,26.367,20.996,0
150291.055,18.066,36.621,24.902,25.879,-13.672,0
150291.059,33.691,33.203,32.227,34.668,34.180,0
150291.063,40.039,36.133,32.715,35.645,96.680,0
150291.067,24.902,37.109,28.809,26.855,19.531,0
150291.071,23.438,35.156,33.203,28.320,-20.020,0
150291.075,40.527,42.969,47.363,41.016,73.730,0
150291.079,45.410,43.457,35.156,41.504,122.559,0
150291.083,41.992,40.039,23.926,35.156,96.680,0
150291.085,33.691,34.668,39.062,32.715,27.344,0
150291.089,32.715,33.203,47.363,36.621,20.996,0
150291.092,39.551,44.922,40.527,38.574,85.449,0
150291.096,37.598,43.457,35.156,31.738,62.988,0
150291.100,27.344,35.156,29.297,28.809,-5.371,0
150291.104,30.762,40.039,30.762,37.598,-4.883,0
150291.108,41.016,40.039,44.434,42.969,29.297,0
150291.112,40.527,34.668,49.805,41.016,39.062,0
150291.116,30.273,39.062,45.410,35.156,34.180,0
150291.120,34.180,40.527,37.598,37.598,-11.719,0
150291.124,49.316,35.156,28.809,45.898,1.465,0
150291.128,40.527,35.645,27.832,40.527,78.125,0
150291.129,31.738,41.016,36.621,38.086,29.785,0
150291.133,33.691,34.668,44.434,39.062,-8.789,0
150291.136,37.109,41.016,39.062,36.133,29.297,0
150291.140,45.898,56.152,33.691,41.016,81.055,0
150291.144,44.922,45.898,35.645,38.086,98.633,0
150291.148,36.621,35.645,25.879,35.156,32.715,0
150291.152,33.691,35.645,27.832,35.645,-24.902,0
150291.156,43.945,41.992,46.875,42.969,12.695,0
150291.160,41.504,41.504,51.270,39.551,16.113,0
150291.164,21.973,33.691,48.828,22.461,-54.199,0
150291.168,22.461,41.992,45.898,24.414,-57.617,0
150291.172,32.715,43.945,33.203,31.250,3.418,0
150291.175,34.668,26.855,31.738,27.832,47.852,0
150291.179,31.250,33.691,41.992,20.996,-17.090,0
150291.183,24.414,54.688,43.945,19.043,-39.062,0
150291.187,33.203,54.199,44.922,31.250,40.527,0
150291.191,39.062,47.852,41.016,34.180,100.098,0
150291.194,31.738,34.668,34.180,23.926,59.082,0
150291.198,20.996,23.926,30.762,11.719,-6.836,0
150291.202,18.555,29.297,34.668,12.207,30.762,0
150291.206,31.250,43.945,41.992,25.879,65.430,0
150291.210,31.250,47.363,44.922,21.973,40.039,0
150291.214,21.484,38.574,47.852,18.555,-12.207,0
150291.218,24.414,36.621,49.805,25.879,-4.395,0
150291.234,27.832,40.039,36.133,25.879,79.590,0
150291.237,29.297,35.156,21.484,27.344,95.703,0
150291.241,29.785,41.016,22.461,29.297,38.574,0
150291.245,21.484,40.039,31.738,24.902,23.438,0
150291.249,33.691,36.133,45.898,36.133,58.594,0
150291.253,42.969,40.527,53.223,42.480,69.824,0
150291.257,33.203,33.203,49.805,33.691,29.785,0
150291.261,26.855,28.809,44.922,28.809,-5.371,0
150291.265,31.250,30.273,33.203,34.668,1.465,0
150291.269,37.109,28.320,21.484,36.621,41.016,0
150291.273,29.785,32.227,24.902,28.320,46.387,0
150291.277,20.508,39.551,30.273,28.320,2.930,0
150291.279,25.391,45.898,36.133,31.738,24.414,0
150291.283,34.668,39.551,44.922,35.645,83.984,0
150291.286,28.809,38.574,46.875,23.926,76.660,0
150291.290,17.090,53.223,41.504,14.648,36.621,0
150291.294,12.695,40.039,34.668,17.090,6.348,0
150291.298,25.391,23.926,36.133,21.484,66.895,0
150291.302,32.227,29.785,37.598,24.902,60.059,0
150291.306,25.391,34.668,32.715,22.461,1.465,0
150291.310,24.902,31.250,35.645,23.926,-6.348,0
150291.314,31.738,31.738,43.945,29.297,34.668,0
150291.318,34.180,34.180,40.039,31.738,75.195,0
150291.322,33.203,40.039,38.086,34.668,18.555,0
150291.324,32.715,43.945,42.969,35.156,6.348,0
150291.327,33.691,34.180,37.598,35.156,65.430,0
150291.331,37.598,28.809,32.715,36.133,101.562,1
150291.335,36.133,35.645,37.109,35.156,76.172,0
150291.339,30.762,27.832,38.574,31.738,6.836,0
150291.343,33.203,35.156,42.480,32.227,-1.465,0
150291.347,35.645,47.363,36.133,34.180,69.824,0
150291.351,34.180,31.250,32.227,30.273,55.664,0
150291.355,30.762,31.250,44.434,27.344,-12.207,0
150291.359,23.926,42.969,44.434,27.344,-0.977,0
150291.363,23.926,39.062,34.668,24.414,60.547,0
150291.367,30.762,35.645,33.691,25.879,72.266,0
150291.369,34.180,41.992,40.039,28.320,29.785,0
150291.372,28.809,40.527,26.367,23.438,1.953,0
150291.376,36.133,36.133,29.297,27.832,35.645,0
150291.380,45.410,29.785,48.828,34.668,71.777,0
150291.384,36.621,30.273,44.922,28.320,23.438,0
150291.388,30.273,42.969,31.738,21.973,-26.367,0
150291.392,36.621,40.039,38.086,30.762,10.742,0
150291.396,41.504,35.645,43.457,34.668,38.086,0
150291.400,33.203,39.062,31.738,26.855,15.137,0
150291.404,17.578,35.156,28.809,18.555,11.719,0
150291.408,18.555,26.855,41.504,21.484,39.062,0
150291.412,40.039,31.738,52.734,33.691,91.797,0
150291.415,39.551,38.086,43.945,28.320,33.203,0
150291.419,26.367,39.551,31.250,20.996,-31.738,0
150291.423,30.273,41.992,26.367,22.461,-4.395,0
150291.427,33.691,40.527,29.297,28.809,52.246,0
150291.431,40.039,39.062,35.156,39.062,79.590,0
150291.434,41.016,42.480,35.156,39.062,27.832,0
150291.438,30.762,33.203,39.062,34.668,-13.184,0
150291.442,31.738,12.207,41.504,31.738,0.488,0
150291.446,37.598,23.438,40.527,29.297,97.168,0
150291.450,35.645,45.898,41.504,27.344,80.078,0
150291.454,33.691,50.293,37.598,31.250,-12.695,0
150291.458,32.227,41.992,26.855,32.227,43.457,0
150291.459,33.203,35.645,25.879,30.762,140.137,0
150291.463,34.668,36.133,41.504,29.785,142.578,0
150291.466,30.762,39.062,47.363,26.367,24.902,0
150291.470,32.227,39.551,37.598,27.832,-39.551,0
150291.474,43.945,36.621,39.062,37.109,34.668,0
150291.478,49.805,33.203,46.875,40.527,61.035,0
150291.482,35.645,35.156,40.527,31.738,-32.715,0
150291.486,30.762,31.250,37.109,28.809,-45.898,0
150291.490,47.363,18.066,39.551,38.574,51.758,0
150291.494,51.270,37.109,31.250,38.574,87.402,0
150291.498,38.086,50.293,29.297,32.715,47.363,0
150291.502,36.133,45.410,39.062,36.621,12.207,0
150291.504,45.898,47.363,39.551,43.457,21.484,0
150291.508,50.293,41.504,32.227,46.875,29.785,0
150291.512,47.852,35.156,41.016,43.945,-4.395,0
150291.516,36.621,29.785,48.828,33.691,-39.062,0
150291.520,32.715,30.762,46.875,32.715,-34.180,0
150291.523,39.551,36.133,49.805,39.551,25.879,0
150291.527,35.645,29.785,40.527,31.250,-9.766,0
150291.531,29.297,36.621,33.691,22.461,-57.129,0
150291.535,25.879,26.367,35.645,19.531,-29.297,0
150291.539,29.785,20.508,41.504,22.461,28.809,0
150291.543,34.180,44.434,43.945,21.973,59.570,0
150291.547,27.344,51.270,31.250,20.508,16.602,0
150291.564,27.832,47.852,29.297,32.227,-5.371,0
150291.568,40.039,44.922,39.062,41.992,29.297,0
150291.572,43.457,39.551,40.527,38.574,51.758,0
150291.576,38.574,40.039,45.898,32.715,33.691,0
150291.580,29.785,33.691,45.410,26.367,-24.902,0
150291.584,31.738,32.227,37.109,24.902,-56.152,0
150291.588,43.945,29.785,45.898,34.668,19.531,0
150291.591,45.410,21.973,46.875,36.621,77.148,0
150291.595,31.250,40.039,31.738,29.785,18.555,0
150291.599,26.855,51.758,31.738,27.832,-7.324,0
150291.603,37.109,43.945,41.504,35.156,68.359,0
150291.607,42.480,35.156,44.922,41.016,94.727,0
150291.609,33.691,33.203,46.387,36.621,48.340,0
150291.613,27.344,37.598,43.945,35.156,13.184,0
150291.617,37.598,38.574,30.762,41.504,79.590,0
150291.621,41.016,30.762,29.785,36.621,101.562,0
150291.625,38.086,35.156,36.133,27.832,42.969,0
150291.629,39.062,37.598,37.109,36.133,-20.020,0
150291.632,41.016,33.203,36.621,45.898,-5.859,0
150291.636,43.457,30.273,37.598,43.945,97.656,0
150291.640,35.645,17.578,35.156,33.203,61.523,0
150291.644,23.926,29.297,36.133,23.438,-51.270,0
150291.648,29.297,43.945,37.598,26.367,-20.996,0
150291.652,39.062,39.551,34.668,35.156,59.082,0
150291.654,32.715,40.039,27.344,33.203,44.922,0
150291.658,25.879,42.969,30.273,28.320,-7.812,0
150291.662,31.250,37.109,43.457,32.715,-18.066,0
150291.666,41.016,37.598,54.199,40.527,33.203,0
150291.670,41.504,46.387,52.246,38.086,50.781,0
150291.673,28.320,39.551,44.922,25.879,7.324,0
150291.677,27.832,39.551,39.062,26.367,-22.461,0
150291.681,37.109,27.344,29.297,29.785,60.547,0
150291.685,33.691,16.602,32.227,22.461,78.125,0
150291.689,22.949,35.645,31.250,15.137,20.020,0
150291.693,22.949,46.387,27.344,16.113,59.082,0
150291.697,35.156,45.898,36.621,20.020,80.566,0
150291.699,38.086,37.109,43.457,20.996,69.824,0
150291.703,36.133,36.133,41.016,21.973,64.941,0
150291.706,28.320,39.062,35.645,23.926,16.113,0
150291.710,27.832,32.227,34.668,29.785,-6.836,0
150291.714,38.086,28.320,41.016,37.109,68.848,0
150291.718,38.086,33.691,45.410,34.668,26.855,0
150291.722,28.809,29.785,44.434,30.762,-42.480,0
150291.726,26.367,24.414,47.363,31.738,-55.664,0
150291.730,24.414,32.715,35.156,25.391,2.441,0
150291.734,18.555,26.367,30.762,20.996,56.152,0
150291.738,11.230,23.438,38.086,19.531,11.719,0
150291.742,15.137,45.898,39.551,22.949,-20.020,0
150291.744,33.203,53.223,45.410,34.668,29.785,0
150291.747,41.016,41.992,46.875,33.691,78.125,0
150291.751,35.645,31.250,38.574,26.367,48.828,0
150291.755,31.738,25.879,32.227,25.879,3.906,0
150291.759,38.574,29.297,35.645,33.203,31.250,0
150291.763,45.410,30.762,43.945,40.039,77.637,0
150291.767,33.691,28.320,42.969,33.203,21.484,0
150291.771,25.391,36.133,42.480,22.461,-43.457,0
150291.775,29.297,41.504,40.039,22.949,-45.410,0
150291.779,40.527,41.016,36.133,33.691,25.391,0
150291.783,51.758,31.250,44.434,36.621,70.801,0
150291.787,38.086,27.832,40.527,26.855,9.277,0
150291.789,25.879,41.016,33.203,25.391,-5.859,0
150291.792,38.086,41.992,43.457,34.180,57.617,0
150291.796,47.363,29.297,49.805,37.598,77.148,0
150291.800,37.598,23.926,45.898,29.785,34.180,0
150291.804,32.227,36.621,45.410,26.367,-10.254,0
150291.808,36.621,34.180,34.668,32.227,10.254,0
150291.812,40.039,27.832,31.250,35.156,35.156,0
150291.816,41.016,38.574,47.852,35.645,-20.996,0
150291.820,37.598,39.062,52.246,31.738,-43.457,0
150291.824,39.551,31.250,39.062,31.738,-12.695,0
150291.828,41.992,31.738,32.715,35.156,17.090,0
150291.832,38.086,34.180,35.645,30.762,24.902,0
150291.834,30.762,14.160,43.945,23.926,-3.418,0
150291.838,34.668,10.254,43.457,30.273,-14.648,0
150291.841,47.363,30.273,34.180,39.551,30.762,0
150291.845,50.293,34.668,37.109,38.086,60.547,0
150291.849,39.551,28.809,25.879,30.273,33.203,0
150291.853,34.668,28.809,19.531,31.250,12.695,0
150291.857,48.828,37.109,38.574,39.062,17.090,0
150291.861,51.758,31.250,38.086,33.691,50.293,0
150291.865,34.180,26.855,32.227,26.855,56.641,0
150291.869,32.715,35.156,41.992,28.809,50.781,1
150291.873,41.016,34.668,41.016,30.273,53.223,0
150291.877,38.086,26.367,33.203,26.855,64.453,0
150291.880,37.598,33.691,33.691,29.785,58.594,0
150291.884,29.785,23.926,20.996,27.832,4.395,0
150291.888,27.832,23.438,15.625,24.902,-4.883,0
150291.892,41.016,40.039,32.227,31.738,85.938,0
150291.895,47.363,39.551,33.691,35.156,104.492,0
150291.899,37.109,40.527,26.855,26.855,51.758,0
150291.903,30.273,38.574,32.227,20.020,27.344,0
150291.907,42.480,41.016,37.598,31.250,52.734,0
150291.911,43.457,32.715,41.992,34.668,81.055,0
150291.915,31.250,29.297,40.039,27.832,35.156,0
150291.919,33.691,36.133,27.832,29.297,3.418,0
150291.923,39.062,33.203,25.879,31.250,71.777,0
150291.940,40.527,41.016,34.180,30.273,132.812,0
150291.944,32.227,27.832,41.016,26.367,107.910,0
150291.948,13.184,16.113,28.320,18.066,25.879,0
150291.952,18.066,30.273,23.438,19.531,30.762,0
150291.955,32.227,34.668,41.016,25.879,85.938,0
150291.959,31.250,41.992,48.340,21.484,26.855,0
150291.963,24.414,41.016,45.898,15.137,-18.066,0
150291.967,31.250,34.668,39.551,21.484,23.438,0
150291.971,38.574,30.762,33.691,23.926,87.891,0
150291.975,31.250,29.297,34.180,18.555,79.590,0
150291.979,26.367,31.250,28.320,17.578,-9.277,0
150291.983,28.320,29.297,23.926,20.996,-18.555,0
150291.984,38.574,29.785,36.133,34.180,43.457,0
150291.988,32.227,20.508,35.645,30.273,46.875,0
150291.991,17.578,17.090,25.879,18.555,0.977,0
150291.995,16.113,36.621,32.227,15.625,-4.883,0
150291.999,24.902,49.316,44.434,23.438,72.754,0
150292.003,22.949,41.016,38.086,21.484,116.211,0
150292.007,20.020,32.715,32.227,12.207,60.059,0
150292.011,20.020,31.738,28.809,14.160,22.949,0
150292.015,28.809,20.020,31.738,19.043,43.945,0
150292.019,42.969,23.438,43.457,26.367,65.918,0
150292.023,36.621,37.109,43.457,26.367,68.359,0
150292.027,28.320,37.109,40.039,21.484,25.391,0
150292.029,36.133,32.715,35.645,23.926,-1.953,0
150292.033,44.434,42.480,32.715,30.273,74.707,0
150292.037,38.086,35.156,36.621,28.320,114.746,0
150292.041,18.555,25.879,37.109,18.066,41.504,0
150292.044,12.695,32.715,37.598,17.578,8.301,0
150292.048,28.809,32.227,35.645,26.855,57.617,0
150292.052,37.598,32.715,32.715,27.344,96.191,0
150292.056,31.738,37.109,31.250,21.484,41.016,0
150292.060,29.785,44.922,33.203,22.949,-38.574,0
150292.064,34.668,42.480,33.691,27.832,20.996,0
150292.068,30.273,28.809,28.320,20.996,104.980,0
150292.072,25.391,31.738,31.738,14.648,57.617,0
150292.074,28.809,35.156,28.320,17.578,-20.996,0
150292.078,33.203,28.809,20.020,23.926,-6.836,0
150292.082,37.109,33.203,34.180,34.180,62.988,0
150292.086,29.297,20.996,49.805,30.273,79.590,0
150292.090,17.090,15.137,48.340,18.555,0.488,0
150292.094,14.648,30.273,40.527,18.066,-29.297,0
150292.098,24.414,36.621,38.086,25.391,43.945,0
150292.102,25.391,36.133,36.621,24.902,53.223,0
150292.105,18.066,29.297,34.180,18.555,-53.223,0
150292.109,17.578,31.250,31.250,24.902,-51.758,0
150292.113,22.949,29.785,26.855,32.227,25.391,0
150292.117,32.227,26.855,27.344,32.715,63.477,0
150292.119,35.156,30.273,32.227,31.738,36.621,0
150292.123,27.832,28.320,31.738,28.809,-12.695,0
150292.127,25.879,26.367,31.250,30.273,14.160,0
150292.131,37.109,27.832,35.645,34.180,75.195,0
150292.135,36.133,23.926,32.227,30.273,62.012,0
150292.139,26.367,28.320,33.691,27.832,-15.137,0
150292.143,31.250,46.387,37.598,31.738,6.836,0
150292.147,40.039,47.363,38.086,31.738,91.797,0
150292.151,41.016,37.598,44.922,34.180,77.637,0
150292.155,38.574,36.133,39.062,37.109,12.695,0
150292.159,28.809,27.344,23.438,31.250,33.691,0
150292.162,32.715,20.508,30.273,31.738,114.746,0
150292.166,40.527,33.691,42.969,33.203,102.051,0
150292.170,28.320,41.016,42.969,24.902,61.523,0
150292.174,20.020,39.062,34.668,22.461,53.223,0
150292.178,33.691,41.016,27.832,29.297,58.105,0
150292.181,43.945,43.945,34.180,30.762,83.984,0
150292.185,39.062,33.691,43.945,27.832,77.148,0
150292.189,37.109,24.902,48.340,25.879,-18.066,0
150292.193,30.273,30.762,46.875,22.949,-15.625,0
150292.197,29.297,38.086,35.645,23.438,62.500,0
150292.201,35.156,44.922,30.273,25.391,58.594,0
150292.205,32.227,43.457,40.039,24.414,21.973,0
150292.209,34.180,40.527,45.898,27.832,16.602,0
150292.209,40.039,47.363,41.504,32.227,76.660,0
150292.213,39.551,45.410,39.551,31.738,73.730,0
150292.216,28.320,37.109,43.457,20.508,-11.719,0
150292.220,24.902,36.621,41.016,17.578,-23.926,0
150292.224,38.574,37.598,42.969,35.645,41.992,0
150292.228,39.551,39.062,42.480,39.062,89.355,0
150292.232,32.715,34.668,33.691,30.273,21.484,0
150292.236,35.156,33.203,34.180,30.762,-41.016,0
150292.240,40.039,46.387,35.156,33.203,39.062,0
150292.244,42.480,47.852,38.574,34.180,112.305,0
150292.248,30.273,39.062,43.457,28.809,31.738,0
150292.252,20.508,35.645,38.086,23.438,-41.016,0
150292.254,27.344,42.969,37.109,29.785,-11.719,0
150292.257,41.016,43.945,41.504,37.598,58.594,0
150292.261,44.922,36.133,46.875,39.062,36.621,0
150292.265,30.762,35.156,40.527,30.273,-40.039,0
150292.269,24.902,37.598,32.715,27.832,-26.855,0
150292.273,35.156,37.109,37.598,34.668,18.555,0
150292.277,35.645,21.484,35.156,21.973,-7.812,0
150292.281,24.414,24.902,33.203,15.137,-13.184,0
150292.285,17.090,39.551,30.762,19.043,7.324,0
150292.289,31.738,41.992,32.715,24.414,29.297,0
150292.293,44.434,43.457,45.410,30.273,62.500,0
150292.297,35.645,41.992,43.945,28.809,42.969,0
150292.314,24.902,41.992,33.203,24.902,-15.137,0
150292.318,33.203,40.039,32.715,33.691,12.207,0
150292.321,41.504,36.621,36.621,41.504,50.293,0
150292.325,31.738,38.574,33.691,33.691,7.324,0
150292.329,23.926,33.691,31.738,25.879,-34.668,0
150292.333,35.156,28.320,35.645,34.180,-14.160,0
150292.337,43.457,26.367,38.574,39.062,55.664,0
150292.341,36.133,22.461,32.715,32.227,42.969,0
150292.345,37.598,44.922,31.738,36.133,3.418,0
150292.349,41.504,59.570,38.574,34.668,-16.113,0
150292.353,36.621,43.457,39.062,25.879,0.977,0
150292.357,33.691,34.668,37.598,22.461,48.828,0
150292.359,27.344,36.621,37.598,19.043,29.297,0
150292.363,22.949,30.762,39.062,17.090,-11.719,0
150292.366,31.250,26.367,37.109,20.508,31.738,0
150292.370,40.527,25.391,33.691,26.855,47.363,0
150292.374,35.156,28.809,35.645,26.367,-10.742,0
150292.378,30.762,39.062,46.875,26.855,-24.902,0
150292.382,41.992,45.898,49.805,36.133,25.391,0
150292.386,42.969,37.109,41.016,38.086,75.684,1
150292.390,29.297,18.066,35.645,24.902,51.270,0
150292.394,25.391,32.715,38.086,16.602,-48.340,0
150292.398,29.297,49.805,36.133,25.391,-35.645,0
150292.402,36.133,42.969,34.668,37.109,59.082,0
150292.404,34.668,36.621,41.504,36.133,66.406,0
150292.408,21.973,31.250,40.527,29.297,30.273,0
150292.412,13.672,29.297,34.668,24.414,34.180,0
150292.416,30.273,36.133,35.156,33.203,64.453,0
150292.420,39.062,37.598,39.551,37.598,34.180,0
150292.424,27.832,33.203,47.852,29.297,-12.207,0
150292.428,23.926,32.227,46.875,26.855,0.977,0
150292.432,29.297,36.133,39.062,36.621,53.223,0
150292.435,41.016,33.691,42.480,43.945,62.500,0
150292.439,33.691,27.832,42.480,29.785,0.977,0
150292.443,18.066,38.574,28.809,18.066,4.395,0
150292.447,28.809,37.109,30.762,28.320,74.707,0
150292.449,36.621,25.391,38.574,28.809,84.473,0
150292.453,31.738,33.203,38.086,24.414,52.246,0
150292.457,26.367,41.504,40.527,25.391,-12.695,0
150292.460,30.762,41.504,42.480,28.809,-2.441,0
150292.464,45.410,36.133,48.340,39.062,85.938,0
150292.468,37.109,30.762,40.527,30.762,51.758,0
150292.472,21.484,41.992,36.133,22.461,6.348,0
150292.476,22.949,45.898,39.062,25.879,-1.465,0
150292.480,32.227,27.832,32.227,24.414,20.020,0
150292.484,28.809,23.438,29.297,24.414,57.129,0
150292.488,22.949,35.645,35.645,23.926,2.930,0
150292.492,30.273,43.457,36.133,31.250,-67.383,0
150292.494,38.574,41.992,29.785,41.016,1.465,0
150292.498,41.992,33.691,35.645,35.645,75.684,0
150292.501,32.227,36.621,48.340,22.461,47.852,0
150292.505,25.879,39.551,47.852,18.555,-8.301,0
150292.509,30.273,34.180,37.598,22.949,9.277,0
150292.513,32.715,36.621,36.621,25.391,67.871,0
150292.517,29.785,34.180,40.039,20.996,25.879,0
150292.521,22.461,27.832,31.738,18.555,-9.277,0
150292.525,22.461,34.180,33.203,20.508,-0.488,0
150292.529,29.785,17.578,36.621,26.855,83.984,0
150292.533,31.738,12.695,35.156,29.785,108.398,0
150292.537,20.996,36.133,42.480,20.996,14.160,0
150292.539,15.625,46.387,37.598,22.949,-34.180,0
150292.543,27.832,48.828,30.762,32.227,58.105,0
150292.546,33.203,50.293,41.504,26.367,92.773,0
150292.550,24.902,41.504,42.480,22.949,39.062,0
150292.554,17.578,27.832,30.273,24.414,8.301,0
150292.558,28.320,32.715,32.715,27.344,45.898,0
150292.562,41.016,37.598,50.293,29.297,110.352,0
150292.566,24.414,34.668,44.434,16.113,50.293,0
150292.570,21.973,38.574,36.621,15.137,12.695,0
150292.574,34.180,21.484,35.156,28.320,46.875,0
150292.578,34.180,19.531,32.715,30.273,68.848,0
150292.582,32.715,50.781,38.086,32.715,46.875,0
150292.584,22.949,54.199,40.527,24.902,-19.531,0
150292.588,19.531,43.945,40.527,25.391,-19.043,0
150292.592,35.645,33.203,42.969,35.645,7.324,0
150292.596,39.062,32.715,42.969,30.762,26.367,0
150292.600,28.320,31.250,40.527,23.438,28.320,0
150292.604,31.250,27.832,36.621,28.320,2.930,0
150292.608,40.527,31.250,31.738,35.645,14.648,0
150292.611,41.992,39.062,40.527,38.574,61.035,0
150292.615,32.715,37.109,45.410,33.203,73.242,0
150292.619,19.531,25.879,38.086,23.926,22.949,0
150292.623,20.996,33.691,41.016,29.297,30.762,0
150292.627,26.855,41.504,45.410,33.203,109.863,0
150292.632,20.508,37.598,39.551,25.879,87.402,0
150292.636,9.277,28.809,33.691,25.879,18.555,0
150292.640,17.090,34.180,35.645,34.180,22.949,0
150292.644,32.227,38.574,37.109,38.574,77.637,0
150292.647,33.691,30.273,40.527,35.156,74.219,0
150292.651,23.926,29.297,44.922,28.809,18.066,0
150292.655,18.066,26.855,41.016,22.461,8.301,0
150292.659,27.832,29.297,41.016,26.367,54.199,0
150292.663,30.762,28.320,41.992,24.902,92.285,0
150292.667,23.926,25.879,39.062,17.578,50.781,0
150292.671,25.391,42.969,30.273,20.020,-34.180,0
150292.675,37.109,44.922,26.367,24.414,-8.301,0
150292.690,42.969,38.086,34.180,24.414,56.641,0
150292.694,32.715,33.691,35.645,19.531,25.879,0
150292.698,26.855,31.250,32.227,16.602,-14.160,0
150292.701,30.762,21.484,30.273,24.902,29.785,0
150292.705,35.156,15.625,34.668,32.227,104.004,0
150292.709,31.738,29.297,34.668,22.461,53.223,0
150292.713,21.973,35.156,34.180,14.648,-40.039,0
150292.717,26.367,37.598,41.504,25.391,-0.488,0
150292.721,34.180,31.738,40.039,30.762,85.449,0
150292.725,31.738,18.066,33.691,24.902,87.402,0
150292.729,27.832,27.832,30.762,22.461,33.691,0
150292.733,24.902,36.621,29.785,20.020,28.809,0
150292.735,34.668,35.156,29.785,26.855,54.688,0
150292.739,41.504,36.621,27.344,32.715,44.434,0
150292.742,32.227,37.598,30.762,27.344,1.953,0
150292.746,23.926,32.715,38.574,29.297,-5.371,0
150292.750,37.109,35.156,45.898,44.434,66.406,0
150292.754,41.016,29.785,40.039,40.527,104.004,0
150292.758,24.414,28.320,33.203,22.461,35.156,0
150292.762,21.973,38.574,30.273,21.484,-23.926,0
