timestamps,TP9,AF7,AF8,TP10,Right AUX,Marker0
150574.092,18.555,20.996,27.832,11.719,44.922,0
150574.095,36.621,24.414,23.926,26.367,84.473,0
150574.099,27.344,25.879,30.762,20.996,24.414,0
150574.103,20.996,22.949,35.645,15.625,-9.277,0
150574.107,33.691,35.645,37.598,29.297,52.734,0
150574.111,43.457,40.039,25.879,35.645,82.031,0
150574.115,48.340,29.785,13.672,42.480,38.086,0
150574.119,48.828,40.527,26.855,50.781,-11.719,0
150574.123,43.457,46.875,45.898,48.340,-2.441,0
150574.127,43.945,33.203,49.805,45.898,98.145,0
150574.131,39.062,32.227,45.898,33.203,128.906,0
150574.135,15.137,35.156,29.785,13.672,26.855,0
150574.136,26.855,43.945,19.043,30.273,-24.414,0
150574.140,49.316,50.781,19.531,52.246,59.570,0
150574.144,41.992,40.039,34.180,32.227,114.746,0
150574.148,31.250,25.391,42.480,16.113,53.223,0
150574.152,24.902,26.367,32.227,18.066,1.465,0
150574.156,38.086,47.363,30.762,29.785,56.641,0
150574.160,56.641,51.758,41.016,45.898,91.309,0
150574.164,46.387,44.922,30.273,45.898,37.109,0
150574.168,31.738,36.621,14.160,34.180,12.695,0
150574.172,43.457,32.227,26.855,39.062,34.180,0
150574.176,49.805,44.434,29.785,44.922,63.477,0
150574.179,47.363,42.480,27.344,39.062,60.547,0
150574.181,50.781,43.945,50.781,44.922,26.367,0
150574.185,48.828,43.945,52.734,51.758,-40.527,0
150574.189,49.805,33.203,29.785,51.270,-15.137,0
150574.193,39.062,26.855,19.043,35.645,79.102,0
150574.197,24.902,27.344,25.391,27.832,13.672,0
150574.201,25.879,33.691,35.156,28.809,-39.551,0
150574.205,35.156,37.598,34.668,26.367,5.859,0
150574.209,45.410,41.016,36.621,35.156,62.500,0
150574.213,37.598,36.621,32.227,35.645,46.387,0
150574.217,33.203,37.109,20.996,32.227,-19.043,0
150574.220,45.898,33.691,20.020,41.992,-15.625,0
150574.224,51.270,23.438,37.109,52.246,49.805,0
150574.241,42.969,36.133,44.922,43.457,56.641,0
150574.245,43.457,41.504,39.062,35.645,-21.973,0
150574.249,44.434,29.297,36.133,40.527,-12.207,0
150574.253,48.340,21.484,41.992,49.316,12.207,0
150574.257,59.082,27.832,51.758,51.270,9.766,0
150574.261,39.062,37.598,31.738,30.273,1.465,0
150574.265,30.762,42.480,15.625,30.273,-25.879,0
150574.269,49.316,38.574,14.648,44.922,31.738,0
150574.273,41.992,31.738,11.230,30.762,83.008,0
150574.277,29.785,30.762,37.109,23.438,-25.879,0
150574.280,31.738,36.133,55.664,29.297,-87.402,0
150574.284,37.598,28.320,46.875,35.645,5.371,0
150574.286,48.828,20.020,48.828,45.410,45.898,0
150574.290,46.875,41.016,45.898,43.457,5.371,0
150574.294,22.461,46.875,34.180,31.250,-13.672,2
150574.298,17.090,35.156,33.691,31.738,72.266,0
150574.302,35.645,35.156,32.715,37.598,98.145,0
150574.306,41.992,36.133,35.156,33.691,22.461,0
150574.310,38.086,34.668,39.551,36.133,-24.902,0
150574.314,38.574,24.902,29.785,39.551,-17.090,0
150574.318,46.387,26.367,11.719,38.574,57.617,0
150574.322,45.898,44.922,25.391,30.273,43.945,0
150574.325,25.391,39.551,39.551,17.090,-18.555,0
150574.329,19.531,29.785,36.133,22.461,-31.738,0
150574.333,36.133,31.738,44.922,32.715,-7.812,0
150574.337,36.621,16.113,47.363,27.832,27.344,0
150574.341,20.020,10.742,43.457,17.578,-21.484,0
150574.344,19.043,28.809,40.039,21.973,-43.457,0
150574.348,37.598,34.180,24.414,34.668,28.320,0
150574.352,40.039,31.250,19.531,27.832,55.664,0
150574.356,25.879,39.551,39.062,14.648,27.832,0
150574.360,12.207,45.410,37.598,9.277,-3.418,0
150574.364,0.488,31.738,25.391,4.883,-10.742,0
150574.368,16.113,28.809,29.785,14.648,30.762,0
150574.372,27.344,31.738,35.645,28.320,37.109,0
150574.376,21.973,23.926,34.180,25.879,5.371,0
150574.376,29.785,30.762,39.062,27.832,19.043,0
150574.380,48.828,41.504,45.410,46.875,80.566,0
150574.384,58.594,37.598,48.828,52.734,83.496,0
150574.388,36.133,31.738,50.293,30.762,34.180,0
150574.392,6.348,31.738,28.320,11.230,26.367,0
150574.396,12.695,32.715,20.508,14.160,85.938,0
150574.400,25.879,33.203,30.762,13.184,133.301,0
150574.404,18.555,25.391,19.043,5.371,75.195,0
150574.408,20.996,33.691,26.367,10.742,-2.441,0
150574.412,39.062,47.852,45.410,23.926,33.203,0
150574.416,33.691,36.621,36.621,21.973,96.191,0
150574.419,21.484,32.715,28.809,13.672,86.914,0
150574.421,19.531,40.527,35.156,17.578,61.523,0
150574.425,30.762,34.180,40.527,34.668,66.406,0
150574.429,47.852,32.227,33.203,43.457,90.332,0
150574.433,38.086,19.043,25.879,33.203,65.430,0
150574.437,30.762,20.020,28.320,29.785,4.883,0
150574.441,42.969,45.898,29.297,47.363,1.465,0
150574.445,47.852,42.969,28.320,53.223,53.711,0
150574.449,44.922,39.062,31.738,40.039,61.035,0
150574.453,29.785,41.016,40.039,24.414,-6.348,0
150574.457,15.137,37.109,35.156,21.973,-46.387,0
150574.461,22.461,29.785,27.344,27.832,0.488,0
150574.464,30.273,27.344,28.320,20.508,74.219,0
150574.467,23.926,37.598,29.785,20.996,81.055,0
150574.471,35.645,49.805,43.457,39.551,31.250,0
150574.475,55.176,39.062,52.246,61.035,40.527,0
150574.479,51.270,36.621,41.504,55.176,91.797,0
150574.483,29.297,42.969,33.203,30.762,62.988,0
150574.487,8.301,32.715,30.273,19.531,5.859,0
150574.490,21.484,28.809,27.344,23.438,-22.461,0
150574.494,31.738,32.227,26.855,21.973,28.320,0
150574.498,21.484,25.879,25.391,17.578,93.750,0
150574.502,13.184,30.762,35.156,21.973,27.344,0
150574.506,19.531,45.898,40.039,25.879,-7.812,0
150574.510,34.180,46.387,36.621,32.227,64.453,0
150574.512,39.551,34.180,36.621,38.574,68.848,0
150574.516,30.762,27.344,30.762,38.086,47.852,0
150574.520,18.555,38.574,22.461,28.320,-39.551,0
150574.524,28.320,32.715,28.320,33.203,-37.598,0
150574.527,50.293,24.414,43.457,46.387,71.289,0
150574.531,44.434,47.852,47.363,41.504,39.551,0
150574.535,28.809,41.016,31.250,24.902,-34.668,0
150574.539,24.414,20.996,24.902,17.578,-27.344,0
150574.543,29.297,26.855,27.832,23.926,72.754,0
150574.547,30.273,31.250,26.855,23.926,94.238,0
150574.551,30.273,36.621,37.598,24.414,19.043,0
150574.555,37.109,38.086,44.434,30.762,-10.742,0
150574.560,48.340,31.250,48.828,27.832,50.293,0
150574.564,55.176,30.762,56.152,28.809,60.547,0
150574.567,52.246,39.551,51.270,35.156,-16.602,0
150574.571,47.852,35.156,37.109,41.504,-36.133,0
150574.575,52.246,25.391,29.785,42.969,19.531,0
150574.579,62.012,52.734,30.273,45.410,76.172,0
150574.583,49.805,54.688,38.086,33.691,15.625,0
150574.587,26.855,22.949,33.203,25.391,-31.250,0
150574.591,32.227,25.879,34.668,32.715,37.109,0
150574.595,31.738,37.109,34.180,27.832,82.031,0
150574.599,20.020,36.621,42.969,21.484,55.664,0
150574.603,18.555,40.039,57.617,25.879,13.672,0
150574.617,23.926,33.203,39.551,36.621,14.160,0
150574.621,32.715,18.555,20.508,35.156,75.684,0
150574.625,32.715,16.602,27.344,27.344,66.406,0
150574.629,26.855,14.648,41.016,29.297,-8.789,0
150574.633,40.527,23.926,40.039,40.527,14.160,0
150574.637,55.176,34.668,26.367,47.852,67.383,0
150574.641,44.434,30.762,24.902,37.598,72.754,0
150574.645,39.062,39.062,34.668,36.621,49.805,0
150574.649,35.645,48.828,49.805,38.086,20.996,0
150574.653,30.273,38.574,54.688,34.668,55.176,0
150574.657,43.457,35.156,44.434,38.574,114.746,0
150574.660,61.523,51.270,32.227,44.434,63.965,0
150574.662,34.180,45.898,23.438,29.297,-10.254,0
150574.666,15.625,36.621,29.297,19.043,33.203,0
150574.670,29.297,36.133,41.992,25.879,74.219,0
150574.674,29.785,33.691,39.551,23.926,77.637,0
150574.678,28.809,33.691,33.691,27.344,29.785,0
150574.682,32.715,38.574,26.367,32.227,3.418,0
150574.686,41.016,27.344,28.320,34.180,82.520,0
150574.690,44.922,11.230,35.645,36.621,115.234,0
150574.694,37.109,29.785,24.902,33.691,73.730,0
150574.698,36.133,50.293,25.879,31.738,22.949,0
150574.701,41.992,55.664,46.387,33.691,56.641,0
150574.705,40.039,55.664,39.551,30.273,88.379,0
150574.707,32.227,44.434,28.809,14.648,12.207,0
150574.711,28.320,33.203,38.086,21.973,1.953,0
150574.715,41.016,43.945,43.945,41.992,56.152,0
150574.719,40.039,44.922,34.668,27.832,103.516,0
150574.723,29.785,31.250,30.273,20.020,111.328,0
150574.727,35.645,37.109,34.668,31.738,39.062,0
150574.731,47.852,18.066,39.062,42.480,20.020,0
150574.735,56.641,-0.488,41.504,40.527,115.723,0
150574.739,51.270,36.621,36.133,34.668,67.871,0
150574.742,38.086,50.781,21.973,22.461,-19.043,0
150574.746,25.879,40.527,19.043,16.113,-4.395,0
150574.750,30.762,27.832,39.551,27.344,52.734,0
150574.752,35.156,25.391,46.387,29.785,40.527,0
150574.755,26.855,34.180,29.297,20.508,-9.277,0
150574.759,18.555,40.527,22.461,22.461,-19.043,0
150574.763,24.414,37.598,34.180,33.203,33.691,0
150574.767,42.969,20.020,49.805,39.551,101.562,0
150574.771,36.133,18.555,44.922,33.691,56.152,0
150574.775,26.367,37.598,34.668,27.832,-25.879,0
150574.779,30.273,41.992,27.832,26.855,21.484,0
150574.783,29.297,31.250,20.020,22.461,64.941,0
150574.787,33.203,27.832,18.066,21.973,30.273,0
150574.791,37.109,27.832,32.227,24.902,5.371,0
150574.795,57.129,27.832,54.688,37.598,15.625,0
150574.798,72.754,34.668,53.223,51.270,69.824,0
150574.802,54.688,42.969,46.875,44.434,44.434,0
150574.806,35.156,50.293,40.039,23.926,0.000,0
150574.809,33.203,46.875,30.762,23.926,-10.254,0
150574.813,43.945,35.645,25.879,36.133,14.648,0
150574.817,45.410,13.184,15.625,36.621,41.992,0
150574.821,34.180,11.230,25.391,21.973,15.137,0
150574.825,33.691,41.016,36.621,17.090,-47.363,0
150574.829,51.270,50.293,37.598,34.180,-9.277,0
150574.833,58.594,47.363,42.969,43.457,58.594,0
150574.837,50.781,48.828,39.062,43.457,16.602,0
150574.841,48.828,49.316,36.133,49.316,-30.762,0
150574.842,43.457,40.527,33.203,42.480,-2.930,0
150574.845,39.551,34.668,29.297,29.785,59.570,0
150574.849,42.480,41.992,39.062,28.809,33.203,0
150574.853,27.832,20.508,40.039,18.555,-18.555,0
150574.857,33.691,17.090,30.762,22.949,6.348,0
150574.861,47.852,35.156,27.344,34.180,60.059,0
150574.865,40.527,16.113,29.785,25.391,48.828,0
150574.869,36.133,30.273,42.480,22.949,-21.973,0
150574.873,32.227,63.965,34.668,21.973,-29.785,0
150574.877,39.062,52.246,32.715,22.461,18.555,0
150574.881,27.344,31.738,41.504,17.578,20.020,0
150574.884,17.090,31.250,32.227,9.277,18.555,0
150574.886,14.160,25.879,29.785,11.230,-1.953,0
150574.890,10.742,20.508,22.949,19.043,15.625,0
150574.894,25.391,30.273,18.066,23.926,50.781,0
150574.898,27.344,43.457,34.180,22.949,36.621,0
150574.902,22.949,40.527,40.039,23.438,3.418,0
150574.906,26.855,31.738,30.762,26.367,14.160,0
150574.910,37.598,38.574,38.574,35.645,58.105,0
150574.914,44.434,37.109,36.133,37.109,14.648,0
150574.918,39.062,30.273,18.066,35.645,-8.301,0
150574.922,42.480,49.316,31.738,38.574,27.832,0
150574.925,53.223,44.434,49.805,34.180,67.383,0
150574.929,43.457,27.344,49.805,30.762,87.402,0
150574.932,25.879,28.320,44.922,25.879,23.926,0
150574.935,20.508,28.809,38.086,22.949,-17.090,0
150574.939,31.250,33.203,39.062,32.715,55.176,0
150574.943,32.227,22.461,31.250,26.855,84.961,0
150574.947,27.832,25.879,31.250,22.949,52.246,0
150574.951,39.062,37.598,36.133,36.621,22.461,0
150574.955,40.039,29.297,28.809,38.574,41.504,0
150574.959,44.922,45.898,41.992,45.410,104.004,0
150574.963,39.062,43.457,41.504,34.668,93.750,0
150574.967,18.555,27.344,27.832,16.113,1.953,1
150574.971,20.020,28.809,26.367,19.531,21.973,0
150574.974,37.109,30.273,26.855,32.227,132.812,0
150574.991,43.945,35.645,29.297,40.039,110.352,0
150574.995,44.434,41.016,29.297,35.645,12.695,0
150574.999,53.711,42.969,24.902,41.016,2.930,0
150575.003,57.617,46.875,21.973,53.223,35.645,0
150575.007,54.688,50.293,31.250,47.852,39.062,0
150575.011,42.969,37.598,41.992,32.227,0.977,0
150575.015,34.180,24.902,40.039,32.227,12.695,0
150575.019,41.016,28.320,31.738,40.039,76.660,0
150575.023,36.621,27.344,20.996,36.621,101.562,0
150575.027,24.902,34.668,23.438,27.832,54.199,0
150575.031,25.391,39.551,34.668,25.391,19.531,0
150575.034,24.902,34.668,40.527,35.156,52.246,0
150575.036,32.715,39.062,38.086,46.387,86.914,0
150575.040,37.598,36.621,34.668,41.016,6.348,0
150575.044,26.367,33.691,30.762,28.320,-54.199,0
150575.048,32.715,41.016,31.250,36.621,-26.367,0
150575.052,41.992,37.598,45.898,51.758,29.297,0
150575.056,30.762,26.855,44.434,37.598,52.734,0
150575.060,12.207,20.020,33.691,15.137,-9.766,0
150575.064,21.484,9.277,32.715,22.949,-21.973,0
150575.068,37.109,11.719,34.668,36.621,27.832,0
150575.072,31.250,35.645,32.227,29.297,32.715,0
150575.076,27.832,55.176,31.250,32.715,-3.418,0
150575.079,29.297,55.664,23.926,32.227,-34.180,0
150575.082,26.855,38.574,13.672,22.461,-3.418,0
150575.085,17.578,30.762,12.695,8.301,35.645,0
150575.089,10.254,25.391,26.855,-2.930,25.879,0
150575.093,18.066,23.926,45.898,11.230,-2.441,0
150575.097,28.809,17.090,43.945,23.926,4.395,0
150575.101,37.598,10.742,37.598,27.344,49.805,0
150575.105,40.039,18.066,45.898,35.645,50.781,0
150575.109,29.785,30.762,33.203,32.227,10.742,0
150575.113,29.785,42.969,26.367,32.227,-33.691,0
150575.117,28.320,38.086,30.762,34.180,13.184,0
150575.121,23.926,32.715,23.438,27.832,66.895,0
150575.125,23.438,28.320,28.320,24.414,19.043,0
150575.127,25.391,28.809,43.457,30.762,-20.508,0
150575.131,38.086,28.809,42.480,45.410,39.551,0
150575.135,47.363,19.531,29.297,50.293,81.055,0
150575.139,46.387,21.973,31.250,51.758,22.461,0
150575.142,39.062,34.668,36.133,53.711,-22.461,0
150575.146,43.945,41.504,42.969,50.293,37.109,0
150575.150,42.969,35.156,33.691,35.156,84.961,0
150575.154,40.527,41.992,40.527,34.180,39.551,0
150575.158,40.039,43.945,56.152,37.598,-20.020,0
150575.162,38.086,25.391,44.922,29.297,-17.090,0
150575.166,49.316,33.691,43.945,40.527,77.148,0
150575.170,54.688,45.898,46.875,54.688,65.430,0
150575.172,30.273,35.156,34.180,37.109,-30.273,0
150575.176,18.555,23.438,35.645,25.391,-6.348,0
150575.180,38.086,21.484,42.480,41.992,82.520,0
150575.184,38.574,22.461,32.715,43.457,76.660,0
150575.188,26.855,27.344,31.738,40.527,25.391,0
150575.191,36.133,31.250,49.316,52.734,-3.906,0
150575.195,52.246,39.062,56.152,61.523,40.527,0
150575.199,51.270,41.504,54.199,47.852,100.586,0
150575.203,36.621,30.762,42.969,32.715,20.508,0
150575.207,33.203,26.855,34.668,39.551,-42.480,0
150575.211,44.434,46.387,33.203,46.875,-12.695,0
150575.215,49.316,53.223,22.461,43.945,45.898,0
150575.217,37.109,43.945,20.996,31.250,20.996,0
150575.221,33.203,41.504,37.109,20.020,-40.527,0
150575.225,44.922,33.691,42.969,23.926,9.766,0
150575.229,49.805,26.855,43.945,28.809,51.758,0
150575.233,52.246,28.320,46.387,34.668,54.199,0
150575.237,49.805,35.645,40.039,33.203,11.719,0
150575.241,46.387,33.691,34.668,25.879,1.953,0
150575.245,47.363,29.297,34.180,31.250,46.875,0
150575.249,45.410,40.039,28.320,38.086,39.551,0
150575.253,40.527,37.598,18.066,43.945,18.066,0
150575.257,38.086,32.715,20.508,50.781,-19.043,0
150575.260,62.012,52.734,44.922,72.754,7.324,0
150575.264,63.477,49.316,49.316,66.895,63.965,0
150575.268,39.062,21.973,32.227,40.039,29.785,0
150575.272,37.598,21.973,36.133,41.992,-48.340,0
150575.276,43.945,34.180,46.387,47.852,-23.438,0
150575.280,30.273,30.762,35.645,28.809,54.199,0
150575.284,11.230,29.785,34.180,7.812,41.016,0
150575.288,17.578,34.180,40.527,13.184,-5.859,0
150575.292,19.043,35.645,41.504,19.043,-5.371,0
150575.296,36.621,38.086,48.340,32.715,61.035,0
150575.300,52.246,35.156,55.176,39.551,82.520,0
150575.304,30.273,16.602,45.898,24.902,26.855,0
150575.307,28.809,25.391,36.133,20.020,19.531,0
150575.307,33.691,43.457,28.809,20.020,75.684,0
150575.311,22.461,31.250,29.297,12.207,72.266,0
150575.315,20.996,26.855,30.273,14.160,15.137,0
150575.319,25.391,28.809,25.391,23.926,-24.414,0
150575.323,29.297,25.879,26.367,36.133,17.578,0
150575.327,43.457,28.320,34.668,45.898,63.477,0
150575.331,49.805,32.715,44.434,41.992,5.859,0
150575.335,38.086,36.621,43.457,46.387,-43.457,0
150575.339,36.621,34.180,46.875,59.570,-0.977,0
150575.342,39.062,37.109,52.734,50.781,53.711,0
150575.346,26.855,36.621,40.527,29.297,73.242,0
150575.350,22.461,21.484,32.715,28.320,35.156,0
150575.367,25.879,6.348,41.016,38.574,21.973,0
150575.371,33.203,25.879,41.992,40.039,93.262,0
150575.375,33.203,40.039,28.320,27.832,129.883,0
150575.379,28.320,38.574,20.508,23.438,60.059,0
150575.383,31.738,41.504,40.039,30.273,0.977,0
150575.387,32.227,33.691,41.992,26.367,51.758,0
150575.391,33.203,36.133,25.879,24.902,63.477,0
150575.395,28.809,35.645,36.621,25.391,27.832,0
150575.399,39.551,32.227,55.664,39.062,-7.324,0
150575.403,64.941,40.527,56.641,62.500,16.113,0
150575.407,57.129,41.504,40.039,54.199,66.895,0
150575.410,30.762,27.832,26.855,36.621,55.176,0
150575.412,18.066,25.391,25.391,35.156,4.883,0
150575.415,23.926,21.484,38.086,42.480,16.602,0
150575.419,43.945,32.715,48.340,53.711,84.473,0
150575.423,44.434,49.805,32.227,51.270,62.988,0
150575.427,28.809,41.992,23.438,35.645,0.488,0
150575.431,25.879,24.902,35.156,24.902,5.371,0
150575.435,44.922,20.996,36.621,36.621,91.309,0
150575.439,48.828,31.250,25.391,39.551,62.988,0
150575.443,47.363,41.504,29.785,37.109,-27.832,0
150575.447,42.480,51.758,42.969,38.086,-48.828,0
150575.451,37.598,37.109,38.086,38.574,25.879,0
150575.454,36.621,20.020,31.250,36.621,108.887,0
150575.456,18.555,32.715,36.133,21.973,71.289,0
150575.460,11.719,39.551,36.133,15.625,21.973,0
150575.464,34.180,34.180,35.645,29.297,71.289,0
150575.468,48.828,27.832,41.992,42.969,88.867,0
150575.472,31.250,32.227,41.016,29.785,42.480,0
150575.476,9.766,35.156,37.109,14.648,22.461,0
150575.480,16.602,36.621,33.203,24.414,39.551,0
150575.484,36.133,39.551,33.203,34.668,81.543,0
150575.488,45.898,34.180,40.527,37.598,77.148,0
150575.492,41.504,31.250,47.852,40.039,-1.953,0
150575.495,35.156,38.574,47.363,41.504,-7.812,0
150575.499,33.691,37.109,37.598,46.387,88.379,0
150575.501,22.949,25.879,22.461,36.133,104.492,0
150575.505,13.672,28.809,31.738,24.902,40.039,0
150575.509,11.230,18.555,50.781,29.297,13.672,0
150575.513,28.809,13.184,48.340,43.945,71.777,0
150575.517,35.645,46.875,19.531,46.387,84.961,0
150575.521,17.578,57.129,25.879,27.344,60.059,0
150575.525,23.926,42.969,55.664,25.879,31.250,0
150575.529,32.227,39.062,51.758,28.809,37.109,0
150575.533,29.297,36.621,49.316,19.531,78.613,0
150575.537,29.297,31.250,48.828,20.996,66.895,0
150575.541,19.531,24.414,36.621,21.484,-2.441,0
150575.544,20.996,29.297,27.832,20.508,-20.020,0
150575.548,30.762,30.273,27.344,19.531,32.227,0
150575.552,35.645,23.926,33.691,15.137,21.973,0
150575.556,30.273,14.160,37.109,20.020,-20.996,0
150575.560,21.484,31.250,32.715,25.391,-33.691,0
150575.563,30.273,38.574,23.438,29.785,3.906,0
150575.567,36.621,33.203,19.043,31.250,42.969,0
150575.571,28.320,41.016,33.691,26.855,16.113,0
150575.575,32.227,49.316,46.387,29.785,-31.250,0
150575.579,41.016,49.316,46.875,35.156,18.555,0
150575.583,44.922,37.109,40.039,37.109,88.379,0
150575.587,50.293,40.039,30.273,39.551,61.523,0
150575.591,40.527,44.434,32.715,39.062,6.836,0
150575.592,23.438,27.344,35.156,21.973,24.902,0
150575.595,24.414,22.461,34.180,16.113,77.148,0
150575.599,23.926,33.203,38.574,23.926,53.223,1
150575.603,20.996,37.109,39.062,18.555,15.625,0
150575.607,25.879,25.391,36.133,15.625,40.039,0
150575.611,34.180,17.090,32.227,23.926,86.914,0
150575.615,37.598,34.668,26.367,19.043,71.777,0
150575.619,32.227,44.434,29.297,10.742,-24.414,0
150575.623,31.250,39.551,30.762,17.578,-35.156,0
150575.627,38.574,39.551,25.879,31.250,56.641,0
150575.631,43.457,43.457,25.879,35.645,99.609,0
150575.635,36.133,45.410,27.832,25.391,43.457,0
150575.636,32.715,43.945,34.668,23.926,-13.672,0
150575.640,45.898,42.480,36.133,35.156,36.621,0
150575.644,51.758,43.457,35.156,40.039,79.102,0
150575.648,46.387,41.016,37.109,33.203,26.855,0
150575.652,39.062,33.203,35.645,26.367,-14.160,0
150575.656,38.086,29.297,36.133,33.203,19.531,0
150575.660,46.875,36.133,36.133,39.551,67.383,0
150575.664,41.504,41.016,36.133,30.762,48.340,0
150575.668,28.809,38.086,38.574,23.438,4.395,0
150575.672,26.855,30.762,36.133,23.926,-0.977,0
150575.676,34.668,11.719,26.367,26.855,46.387,0
150575.679,48.828,-2.930,37.598,34.180,57.129,0
150575.681,50.781,22.461,50.293,37.109,30.762,0
150575.685,37.109,51.758,39.551,32.227,29.785,0
150575.689,38.086,44.922,33.691,36.621,46.875,0
150575.693,38.574,30.762,31.250,39.551,59.570,0
150575.697,26.367,31.250,24.902,27.832,39.062,0
150575.701,16.113,32.227,30.273,16.113,-13.672,0
150575.705,30.273,32.227,38.086,23.926,5.371,0
150575.709,23.926,22.461,23.926,27.344,91.797,0
150575.713,7.324,20.996,14.160,20.996,70.801,0
150575.717,16.602,20.508,24.902,27.832,22.949,0
150575.720,33.691,21.973,33.203,31.250,65.430,0
150575.724,49.316,47.852,42.480,34.180,142.090,0
150575.728,41.992,36.133,34.180,35.645,134.277,0
150575.732,22.461,20.508,20.996,20.508,41.016,0
150575.736,19.531,30.762,30.273,14.160,8.789,0
150575.740,27.344,31.738,38.574,20.996,72.754,0
150575.743,41.016,27.832,38.086,29.297,77.637,0
150575.747,44.922,36.621,36.621,36.133,27.344,0
150575.751,38.574,33.691,40.039,42.480,-3.906,0
150575.755,42.969,27.832,35.156,47.363,40.527,0
150575.759,46.875,38.574,23.926,42.480,75.195,0
150575.763,33.691,23.926,28.809,26.367,21.973,0
150575.767,20.508,23.926,41.016,18.555,-11.230,0
150575.771,26.367,38.086,30.762,23.926,31.250,0
150575.787,47.852,49.805,18.066,39.062,65.430,0
150575.791,59.570,46.875,21.484,47.363,21.484,0
150575.795,58.105,41.016,35.645,47.363,-50.781,0
150575.799,38.574,29.785,48.340,45.898,-46.387,0
150575.803,26.367,18.066,41.992,37.109,60.059,0
150575.807,32.227,28.809,33.691,31.250,57.129,0
150575.811,19.043,28.320,25.879,26.367,19.043,0
150575.815,12.695,20.996,20.508,22.461,28.809,0
150575.819,40.039,23.926,31.738,36.133,59.570,0
150575.822,48.828,31.738,42.480,42.969,102.051,0
150575.826,33.203,43.945,40.527,30.273,50.781,0
150575.830,22.461,40.527,39.551,20.020,0.000,0
150575.832,27.832,28.809,41.992,24.902,35.645,0
150575.836,39.062,32.715,31.738,36.621,63.965,0
150575.840,31.738,45.410,21.973,32.227,32.715,0
150575.844,22.461,44.922,38.574,28.809,-23.926,0
150575.848,19.531,28.809,40.527,25.879,4.395,0
150575.851,28.809,25.391,32.715,31.738,77.637,0
150575.855,33.203,30.762,32.715,33.691,64.941,0
150575.859,22.461,34.668,30.273,30.273,7.324,0
150575.863,28.320,29.785,37.598,37.598,-20.508,0
150575.867,36.133,16.113,30.273,31.250,15.625,0
150575.871,28.809,14.648,20.020,22.461,42.480,0
150575.875,20.020,22.949,31.250,18.555,-6.836,0
150575.878,13.672,36.133,39.062,14.160,-29.297,0
150575.881,12.207,35.645,36.133,16.113,15.137,0
150575.885,20.508,38.574,28.809,17.090,60.547,0
150575.889,20.020,36.133,18.555,9.766,21.484,0
150575.893,24.902,39.551,23.926,25.879,-28.320,0
150575.897,41.016,46.387,30.273,34.180,-8.789,0
150575.901,43.945,39.062,30.273,25.391,63.477,0
150575.905,34.668,27.832,24.414,21.973,27.832,0
150575.909,23.438,19.531,14.648,14.648,-47.363,0
150575.913,40.039,30.273,36.621,29.785,8.789,0
150575.917,57.129,20.996,54.199,41.504,75.195,0
150575.921,46.875,30.762,46.875,36.133,36.621,0
150575.922,26.855,54.688,39.551,32.715,-14.648,0
150575.926,18.555,48.828,32.715,24.414,21.973,0
150575.930,30.273,47.363,25.879,24.414,83.008,0
150575.934,36.621,39.551,19.531,29.785,74.219,0
150575.938,35.156,37.109,30.762,33.203,-2.441,0
150575.942,34.180,39.551,42.480,36.621,5.859,0
150575.946,44.434,22.461,35.645,43.945,91.309,0
150575.950,47.363,9.766,21.484,34.180,56.152,0
150575.954,36.621,20.508,19.531,22.949,-8.301,0
150575.958,32.715,40.527,31.250,28.320,3.418,0
150575.961,36.621,30.273,38.574,32.715,28.320,0
150575.965,39.062,28.809,37.109,36.133,76.172,0
150575.968,38.086,39.551,37.598,32.715,91.309,0
150575.971,30.762,38.574,42.969,29.297,65.918,0
150575.975,29.297,49.316,41.992,33.203,60.547,0
150575.979,40.527,40.039,34.668,35.645,114.746,0
150575.983,35.156,25.391,30.762,27.832,108.887,0
150575.987,28.320,23.926,28.809,30.273,24.414,0
150575.991,38.574,22.949,35.645,43.457,7.812,0
150575.995,45.898,28.320,39.551,44.922,54.688,0
150575.999,42.480,34.668,37.109,34.180,74.219,0
150576.003,22.949,24.902,28.320,18.066,20.508,0
150576.007,16.113,19.043,29.785,18.555,-38.086,0
150576.011,26.367,41.016,29.785,32.715,-8.789,0
150576.014,33.691,56.152,28.320,32.715,52.734,0
150576.018,33.691,43.945,26.367,31.250,32.227,0
150576.022,34.668,35.156,34.180,41.504,-33.691,0
150576.026,36.621,40.039,45.898,44.434,6.348,0
150576.030,43.457,30.273,41.992,44.434,49.316,0
150576.034,52.246,29.785,52.734,52.734,44.922,0
150576.038,44.922,39.551,44.434,43.945,-2.930,0
150576.042,22.949,38.086,22.461,17.578,-10.254,0
150576.046,21.973,36.133,13.184,15.137,83.496,0
150576.049,37.598,47.363,11.230,27.344,79.590,0
150576.053,35.156,61.035,21.973,29.297,16.113,0
150576.057,30.273,54.199,29.785,30.762,-11.230,0
150576.057,38.086,28.809,24.414,32.715,61.035,0
150576.061,43.457,26.367,29.785,35.645,80.078,0
150576.065,34.668,40.039,40.039,32.715,3.418,0
150576.069,25.391,39.551,39.551,27.832,-36.133,0
150576.073,38.574,37.109,33.691,38.086,-2.441,0
150576.077,41.992,41.504,21.484,37.598,42.480,0
150576.081,38.574,46.875,23.926,31.250,-1.953,0
150576.085,40.527,51.270,33.691,37.598,-46.387,0
150576.089,41.504,40.527,33.691,43.945,11.719,0
150576.092,47.852,25.391,34.180,46.387,107.422,0
150576.096,43.457,29.785,32.715,40.527,135.254,0
150576.100,36.621,45.898,36.133,31.738,68.359,0
150576.116,47.363,37.598,48.828,40.527,25.879,0
150576.120,47.852,29.297,45.410,42.969,61.523,0
150576.124,50.781,52.246,41.016,41.504,58.594,0
150576.128,45.410,49.316,38.574,32.715,-10.254,0
150576.132,28.320,34.180,27.344,21.484,-2.930,0
150576.136,37.109,35.645,26.855,34.180,60.059,0
150576.140,30.762,21.484,26.367,20.020,94.238,0
150576.144,18.555,15.625,32.715,7.812,48.340,0
150576.148,24.902,34.668,44.922,23.926,-40.527,0
150576.152,33.691,42.969,38.574,31.738,-37.598,0
150576.156,48.340,38.574,34.180,37.598,46.387,0
150576.159,47.363,28.809,38.574,39.062,45.410,0
150576.161,40.527,28.809,38.574,38.574,-32.715,0
150576.165,47.363,34.180,41.992,45.898,3.906,0
150576.169,57.129,49.316,30.273,53.711,82.520,0
150576.173,44.434,43.945,20.996,38.086,66.406,0
150576.177,12.207,25.879,28.320,10.742,-21.484,0
150576.181,1.953,26.855,33.691,4.395,-21.484,0
150576.185,16.602,31.738,34.668,19.531,22.949,0
150576.189,31.250,39.062,35.156,28.320,42.969,0
150576.193,29.297,39.062,40.039,28.320,38.086,0
150576.197,39.062,44.434,32.227,37.109,-12.695,0
150576.200,59.082,41.992,24.902,43.457,27.344,0
150576.204,48.828,37.598,32.715,40.039,98.633,0
150576.206,28.809,32.715,28.320,31.738,44.922,0
150576.210,25.879,29.297,31.738,24.902,-21.973,0
150576.214,31.738,27.832,38.086,20.996,32.227,0
150576.218,32.227,38.086,29.785,17.578,93.262,0
150576.222,39.551,41.992,37.109,26.367,70.801,0
150576.226,41.504,39.551,44.922,39.551,23.926,0
150576.230,35.156,39.551,33.203,37.598,12.207,0
150576.234,30.273,29.297,19.531,24.414,80.566,0
150576.238,30.762,31.250,17.090,28.809,72.754,0
150576.242,33.691,40.527,18.066,36.133,-34.180,0
150576.245,32.227,44.434,21.484,33.203,-54.199,0
150576.249,49.805,39.551,28.320,39.551,19.043,0
150576.251,59.570,24.414,33.203,45.410,59.570,0
150576.255,42.480,21.973,41.992,36.133,34.668,0
150576.259,37.598,38.574,50.293,29.297,6.836,0
150576.263,46.387,40.039,48.340,37.598,21.973,0
150576.267,39.062,29.785,40.039,29.785,50.781,0
150576.271,32.227,38.574,34.180,30.273,33.691,0
150576.275,23.926,42.969,25.391,29.297,-18.555,0
150576.279,26.855,18.066,19.043,26.855,-5.371,0
150576.283,50.293,29.785,30.762,48.340,61.035,0
150576.287,47.363,47.852,40.039,45.898,40.039,0
150576.290,35.156,41.016,41.992,34.180,-34.668,0
150576.294,25.879,28.809,41.504,27.344,-19.531,0
150576.297,35.645,5.859,37.598,32.227,67.383,0
150576.301,48.340,24.414,36.621,46.387,90.820,2
150576.304,41.016,55.176,25.391,41.992,-10.254,0
150576.308,44.434,52.734,21.484,37.109,-69.824,0
150576.312,56.641,53.711,32.715,47.363,38.574,0
150576.316,52.246,42.480,44.922,51.270,83.496,0
150576.320,48.340,42.969,45.410,45.898,8.301,0
150576.324,44.922,46.387,37.598,38.086,-32.227,0
150576.328,32.715,30.273,31.250,29.785,36.133,0
150576.332,35.156,24.902,26.855,40.039,94.727,0
150576.336,38.574,31.738,32.715,36.133,82.031,0
150576.340,37.109,38.086,33.691,24.414,55.664,0
150576.341,41.992,43.945,26.855,35.645,29.297,0
150576.345,48.828,22.949,28.320,44.922,76.660,0
150576.349,47.363,23.438,35.645,40.527,75.684,0
150576.353,46.875,56.152,30.762,47.363,1.465,0
150576.357,45.898,55.664,29.297,52.734,-25.391,0
150576.361,61.523,51.758,58.594,56.152,23.438,0
150576.365,69.336,52.734,67.383,53.711,41.504,0
150576.369,33.691,43.457,42.969,25.391,-33.203,0
150576.373,13.184,20.508,23.438,8.301,-46.387,0
150576.377,30.762,23.438,21.484,23.926,65.430,0
150576.381,42.480,41.016,20.020,31.250,91.797,0
150576.384,34.668,38.574,22.461,25.391,30.273,0
150576.386,30.762,33.203,34.180,33.203,19.043,0
150576.390,47.852,26.367,39.062,55.176,38.574,0
150576.394,64.453,31.738,31.738,64.453,69.336,0
150576.398,51.270,45.898,39.062,45.410,39.062,0
150576.402,23.926,43.945,46.387,31.250,-9.766,0
150576.406,19.531,47.852,37.598,28.320,-4.883,0
150576.410,24.902,44.922,25.879,18.066,24.902,0
150576.414,23.438,30.762,22.461,14.648,54.199,0
150576.418,18.555,25.879,24.414,18.066,19.531,0
150576.422,23.926,34.668,30.762,24.414,-28.320,0
150576.426,41.016,38.574,35.156,32.715,-16.602,0
150576.429,47.852,36.621,33.691,38.574,13.672,0
150576.431,38.086,40.039,28.320,35.645,-2.441,0
150576.435,30.762,37.109,29.297,34.180,-20.508,0
150576.439,38.574,36.133,42.480,42.969,25.391,0
150576.443,56.152,45.410,50.781,49.805,51.758,0
150576.447,53.711,34.180,45.410,42.969,17.090,0
150576.451,29.297,25.391,39.551,30.762,-19.043,0
150576.455,32.227,28.320,29.785,28.809,-12.207,0
150576.459,41.992,24.902,28.320,35.156,48.340,0
150576.463,31.250,39.062,30.762,32.227,48.340,0
150576.467,17.090,44.434,23.926,17.578,-10.254,0
150576.470,20.508,35.645,22.949,15.137,14.648,0
150576.474,41.504,36.621,37.109,35.645,74.707,0
150576.478,55.664,37.109,43.457,46.875,90.820,0
150576.482,49.805,34.668,27.344,38.574,19.531,0
150576.486,45.898,40.527,29.297,40.527,-58.105,0
150576.490,45.898,34.180,28.320,39.062,13.184,0
150576.494,47.852,31.738,24.902,23.926,84.961,0
150576.497,42.969,40.527,47.363,20.020,28.809,0
150576.501,26.367,33.691,46.387,21.484,-7.324,0
150576.505,26.367,37.109,30.273,24.902,40.039,0
150576.509,31.250,45.410,32.227,27.344,66.406,0
150576.513,19.531,39.551,33.203,16.602,33.691,0
150576.517,13.184,40.039,32.715,11.230,-6.348,0
150576.521,21.484,30.762,28.320,16.602,-2.441,0
150576.537,37.598,26.367,33.691,28.809,28.809,0
150576.541,46.387,43.457,29.785,37.598,35.645,0
150576.545,29.297,45.410,24.902,33.691,-4.883,0
150576.549,14.648,28.320,35.645,17.090,-13.672,0
150576.553,20.996,20.508,36.133,13.184,75.195,0
150576.557,22.949,16.113,35.156,14.160,38.086,0
150576.560,22.461,10.742,37.109,14.648,-39.551,0
150576.564,28.320,27.832,36.133,27.344,19.043,0
150576.568,48.828,48.828,37.109,50.293,56.641,0
150576.572,55.176,52.246,33.203,45.410,76.172,0
150576.576,37.598,45.898,33.203,26.367,48.828,0
150576.580,39.062,41.992,41.016,33.203,-28.809,0
150576.582,38.086,41.504,21.484,31.250,5.859,0
150576.586,39.551,19.043,17.578,28.320,47.363,0
150576.590,34.668,14.648,33.203,22.461,9.277,0
150576.594,31.250,43.945,35.156,21.484,-32.715,0
150576.598,35.645,42.480,29.785,32.227,-32.227,0
150576.602,38.574,37.109,32.715,38.086,6.836,0
150576.606,33.203,36.621,41.504,37.598,2.930,0
150576.609,36.133,36.133,48.828,40.527,-36.133,0
150576.613,49.316,40.527,44.434,51.270,-21.973,0
150576.617,41.504,37.109,32.227,45.410,71.289,0
150576.621,32.715,32.715,25.879,30.273,103.516,0
150576.625,36.621,31.738,31.250,31.250,6.836,0
150576.627,35.156,30.762,40.039,40.039,-18.555,0
150576.631,26.367,30.762,33.203,33.203,71.777,0
150576.634,31.738,27.832,34.180,29.297,123.047,0
150576.638,29.785,31.738,41.504,31.250,64.453,0
150576.642,29.297,38.574,42.480,31.738,0.977,0
150576.646,46.387,36.621,46.875,41.016,41.504,0
150576.650,46.387,34.180,40.527,45.410,103.027,0
150576.654,37.598,31.738,29.785,40.527,68.848,0
150576.658,28.809,33.691,28.809,37.109,-9.766,0
150576.662,30.762,34.668,34.180,41.992,22.461,0
150576.666,41.016,24.414,41.016,40.527,83.008,0
150576.670,41.504,26.855,47.363,35.156,65.918,0
150576.671,40.527,39.062,47.363,41.504,19.043,0
150576.675,36.133,32.715,41.504,35.645,-39.551,0
150576.679,41.992,25.879,34.668,32.715,26.855,0
150576.683,36.621,26.367,15.137,25.391,87.402,0
150576.687,27.832,21.973,20.020,15.137,-3.418,0
150576.691,32.227,34.180,35.156,27.344,-47.852,0
150576.695,34.668,42.969,29.297,31.738,39.062,0
150576.699,36.621,39.551,27.832,21.973,89.844,0
150576.703,36.133,39.551,42.480,21.484,71.777,0
150576.707,25.391,36.621,44.922,20.020,31.250,0
150576.711,21.973,34.180,37.109,23.438,12.207,0
150576.714,39.062,27.832,28.320,31.250,72.266,0
150576.716,35.645,21.484,23.438,23.438,93.750,0
150576.720,22.461,30.762,32.227,25.391,21.484,0
150576.724,24.414,32.715,28.809,25.879,-14.648,0
150576.728,33.691,39.062,34.180,20.508,72.754,0
150576.732,36.133,35.156,39.551,23.438,104.004,0
150576.736,30.273,21.973,30.273,26.855,40.527,0
150576.740,35.645,32.227,33.691,35.645,3.418,0
150576.744,52.734,41.016,45.410,50.293,34.668,0
150576.748,58.105,46.387,47.363,50.293,105.957,0
150576.752,49.316,50.293,41.992,41.504,79.590,0
150576.755,40.039,40.527,27.832,29.297,-31.250,0
150576.759,48.340,28.320,21.484,27.344,-14.648,0
150576.761,54.199,30.273,25.879,38.574,95.215,0
150576.765,43.945,34.180,31.738,34.668,83.008,0
150576.769,40.527,41.016,37.598,35.156,2.930,0
150576.773,44.434,45.410,35.645,38.086,-3.906,0
150576.777,51.758,30.762,33.691,39.551,49.805,0
150576.781,51.758,24.902,39.551,37.598,73.730,0
150576.785,46.387,46.875,39.551,37.598,-7.324,0
150576.789,44.922,53.223,29.785,38.574,-22.461,0
150576.793,52.246,41.992,35.645,45.898,97.656,0
150576.797,53.223,29.297,34.668,42.480,115.723,0
150576.801,35.645,25.879,28.320,24.414,35.645,0
150576.804,25.879,26.367,26.855,21.484,25.879,0
150576.806,38.574,30.273,27.832,32.227,65.918,0
150576.810,58.594,28.809,32.715,41.504,80.566,0
150576.814,47.852,27.344,34.180,38.086,44.434,0
150576.818,22.461,32.715,34.668,32.227,-6.348,0
150576.822,25.879,30.762,37.598,27.344,41.016,0
150576.826,36.133,40.039,43.457,27.344,96.191,0
150576.830,30.273,43.945,41.016,24.902,3.906,0
150576.834,16.602,33.691,27.344,17.578,-61.523,0
150576.838,24.414,30.273,30.762,26.855,1.953,0
150576.842,44.434,29.785,36.621,37.598,60.059,1
150576.846,56.641,38.086,35.645,41.504,59.082,0
150576.849,41.504,37.109,32.715,36.621,26.367,0
150576.867,24.902,29.297,36.621,27.832,27.832,0
150576.870,38.086,28.809,39.062,28.809,90.332,0
150576.874,41.504,29.785,33.203,31.738,98.633,0
150576.878,25.391,35.645,39.551,32.227,33.691,0
150576.882,23.926,35.156,43.945,39.062,-40.039,0
150576.886,38.086,40.527,39.062,43.945,-2.441,0
150576.890,41.016,26.855,39.062,37.109,81.543,0
150576.894,33.203,15.625,32.227,38.086,36.621,0
150576.898,29.297,35.645,29.785,41.992,-20.508,0
150576.902,32.715,33.691,40.039,43.457,0.977,0
150576.906,46.387,25.879,41.504,43.945,74.707,0
150576.910,41.992,40.039,42.969,32.715,69.824,0
150576.911,23.926,41.016,29.297,17.578,20.996,0
150576.915,28.320,35.645,15.137,21.973,50.781,0
150576.919,45.410,42.480,35.156,38.086,94.727,0
150576.923,56.641,41.016,51.270,43.945,113.281,0
150576.927,52.246,40.527,46.875,41.504,53.711,0
150576.931,27.832,13.184,28.320,29.785,-17.578,0
150576.935,33.203,13.184,16.113,34.180,38.574,0
150576.939,54.688,51.270,31.738,46.875,67.871,0
150576.943,35.645,42.480,42.480,31.250,-17.090,0
150576.947,17.578,33.203,37.109,20.508,-72.266,0
150576.950,25.879,32.715,35.156,29.785,0.000,0
150576.954,31.250,26.855,38.574,34.180,41.992,0
150576.956,22.461,33.691,44.434,28.809,-21.484,0
150576.960,18.066,38.574,34.668,27.832,-42.969,0
150576.964,22.949,30.762,15.137,26.855,0.488,0
150576.968,32.227,27.344,35.156,29.297,69.336,0
150576.972,26.367,31.738,47.363,24.414,61.523,0
150576.976,19.043,41.992,42.969,21.484,-2.930,0
150576.980,20.508,40.039,37.109,23.926,-5.371,0
150576.984,33.691,26.855,30.273,33.203,54.199,0
150576.988,44.434,18.555,39.551,41.504,49.805,0
150576.992,36.621,30.762,34.180,35.156,-3.418,0
150576.996,29.785,40.527,18.555,34.180,22.461,0
150576.999,38.574,29.785,22.461,38.086,52.246,0
150577.003,51.270,34.180,27.344,39.062,60.547,0
150577.007,41.504,43.945,33.203,36.621,25.391,0
150577.011,18.555,38.574,42.480,23.926,-27.344,0
150577.015,19.043,35.645,36.133,17.578,17.090,0
150577.019,33.203,33.691,24.414,18.555,83.496,0
150577.023,24.902,29.785,25.879,13.184,59.570,0
150577.026,13.672,33.691,29.297,14.648,12.207,0
150577.030,32.715,29.785,38.574,34.668,27.832,0
150577.034,55.664,34.668,41.992,46.875,58.594,0
150577.038,48.340,41.504,26.367,35.156,49.316,0
150577.042,35.156,37.109,27.344,31.738,6.348,0
150577.046,41.016,44.434,44.434,37.109,5.371,0
150577.047,40.527,37.109,42.969,35.156,43.457,0
150577.051,35.156,21.484,37.109,34.668,75.684,0
150577.055,38.086,23.438,34.180,34.180,32.227,0
150577.059,26.855,42.480,21.484,25.391,7.812,0
150577.063,30.762,45.898,33.691,30.273,51.270,0
150577.066,38.086,39.551,40.039,34.180,72.266,0
150577.070,29.785,29.297,30.762,29.785,36.133,0
150577.074,22.461,23.438,29.297,23.926,-38.574,0
150577.078,26.855,35.645,38.574,21.484,3.418,0
150577.082,41.504,42.480,33.203,30.273,129.395,0
150577.086,35.645,40.527,23.438,29.785,98.145,0
150577.090,19.531,34.180,29.785,20.020,-15.137,0
150577.092,24.414,40.039,39.551,25.879,-49.805,0
150577.096,38.574,45.898,47.363,38.086,30.762,0
150577.100,33.203,41.992,41.504,32.227,39.551,0
150577.104,21.973,35.645,40.039,18.066,-21.484,0
150577.108,18.066,31.738,40.039,10.742,-16.602,0
150577.112,24.902,34.180,35.645,21.973,17.578,0
150577.116,30.273,33.203,28.809,23.926,62.500,0
150577.120,24.902,36.133,29.785,17.090,19.531,0
150577.124,26.367,20.020,27.832,21.973,-42.480,0
150577.128,42.969,30.273,29.785,39.551,2.441,0
150577.131,54.199,49.805,40.527,50.781,58.105,0
150577.135,45.898,38.574,46.875,43.457,43.945,0
150577.138,26.855,31.738,46.875,29.297,-23.926,0
150577.141,34.668,37.598,46.387,34.180,-6.348,0
150577.145,46.875,36.621,32.227,34.180,83.008,0
150577.149,32.715,34.180,31.250,20.508,89.844,0
150577.153,18.555,38.086,32.715,18.555,44.434,0
150577.157,22.949,37.109,32.715,23.438,38.086,0
150577.161,33.203,35.156,41.992,27.344,66.406,0
150577.165,31.250,35.645,41.504,27.832,63.477,0
150577.169,33.691,41.504,45.898,33.691,24.414,0
150577.173,31.250,36.621,41.504,36.133,31.738,0
150577.177,23.926,17.578,23.438,27.832,62.988,0
150577.181,30.273,23.926,20.508,26.855,62.500,0
150577.182,34.180,42.969,34.668,31.738,47.363,0
150577.186,33.691,53.711,42.969,35.645,16.113,0
150577.190,35.645,49.805,38.086,39.062,68.359,0
150577.194,39.551,39.062,32.715,33.203,141.113,0
150577.198,32.715,24.902,31.250,16.602,78.125,0
150577.202,26.367,27.832,34.668,14.160,-39.062,0
150577.206,37.598,36.133,32.715,33.691,-20.996,0
150577.209,47.363,33.691,34.180,43.945,57.129,0
150577.213,43.457,38.086,35.156,37.109,41.992,0
150577.217,38.086,32.227,31.738,32.715,-9.277,0
150577.221,37.109,20.020,35.645,41.504,13.184,0
150577.225,39.062,39.062,32.227,47.363,43.945,0
150577.229,38.086,51.270,29.785,44.434,68.359,0
150577.233,32.227,44.922,33.203,32.715,-6.836,0
150577.237,31.250,36.133,37.598,29.785,-23.926,0
150577.241,37.109,31.250,41.016,36.621,68.848,0
150577.245,38.574,39.062,35.645,33.203,71.777,0
150577.249,32.715,40.039,27.344,28.320,-7.812,0
150577.252,34.180,45.898,28.809,34.668,-35.645,0
150577.256,41.016,41.016,32.715,41.504,49.316,0
150577.260,46.875,28.320,35.156,41.504,94.238,0
150577.264,50.293,29.785,32.227,41.504,42.480,0
150577.268,47.363,34.668,33.203,37.109,-6.836,0
150577.272,48.340,20.996,38.574,40.527,14.160,0
150577.287,44.434,11.719,32.715,50.781,73.242,0
150577.291,41.504,37.109,35.156,46.387,66.406,0
150577.294,34.668,47.363,39.062,34.668,12.207,0
150577.298,32.715,41.992,31.250,30.273,-14.648,0
150577.302,44.922,49.805,41.016,39.551,33.691,0
150577.306,44.922,50.781,50.781,37.598,66.406,0
150577.310,39.551,37.598,40.039,28.320,-15.625,0
150577.314,33.203,28.320,18.066,28.809,-31.250,0
150577.318,42.969,29.785,16.602,43.945,45.410,0
150577.322,50.781,33.203,36.621,54.199,62.500,0
150577.326,37.598,31.250,37.598,43.457,30.273,0
150577.330,23.438,34.668,29.297,31.250,-49.316,0
150577.331,28.320,29.785,29.297,29.297,-15.137,0
150577.335,41.016,16.113,34.180,35.645,53.223,0
150577.339,41.504,37.109,38.574,39.551,28.320,0
150577.343,32.715,47.852,33.203,31.738,-17.578,0
150577.347,33.203,33.203,28.809,27.832,-11.719,0
150577.351,38.574,32.715,26.855,42.480,62.500,0
150577.355,37.109,35.156,27.344,36.621,42.480,0
150577.359,33.691,40.527,38.086,24.414,8.301,0
150577.363,34.668,38.574,42.480,20.996,24.902,0
150577.367,41.016,30.762,37.598,20.508,50.293,0
150577.370,42.969,34.668,34.668,28.320,107.910,0
150577.374,29.785,31.250,32.227,24.414,55.176,0
150577.376,21.973,22.461,29.297,13.184,-21.484,0
150577.380,23.926,13.672,21.484,13.184,26.367,0
150577.384,28.809,29.785,26.367,24.414,72.754,0
150577.388,35.645,48.340,47.852,36.133,9.766,0
150577.392,25.391,45.898,47.852,31.738,-44.434,0
150577.396,23.926,43.945,38.086,33.691,32.227,0
150577.400,43.457,45.410,33.691,41.504,122.070,0
150577.404,32.715,34.668,21.484,31.250,80.566,0
150577.408,21.484,28.320,31.738,21.484,4.395,0
150577.412,31.738,25.879,39.062,23.926,13.672,0
150577.416,34.668,18.555,35.645,30.273,82.031,0
150577.419,37.598,26.367,31.250,29.297,75.684,0
150577.421,31.738,40.039,17.090,20.508,-24.902,0
150577.425,38.086,46.387,29.785,29.297,-62.988,0
150577.429,55.176,53.223,46.387,43.457,16.113,0
150577.433,47.363,45.410,39.062,30.762,105.957,0
150577.437,38.086,33.203,38.574,28.320,75.684,0
150577.441,29.785,28.320,41.016,27.344,30.762,0
150577.445,23.926,32.227,33.203,25.879,75.195,0
150577.449,40.527,41.992,31.250,35.156,109.375,0
150577.453,31.738,33.691,27.344,24.902,63.477,0
150577.457,6.348,22.461,13.672,9.766,23.926,0
150577.461,16.113,28.809,18.555,20.996,20.020,0
150577.464,42.480,43.945,39.062,34.668,61.523,0
150577.468,37.598,46.875,45.410,26.855,65.918,0
150577.472,25.391,40.039,42.969,20.508,26.855,0
150577.476,34.668,28.320,47.363,28.320,31.250,0
150577.479,48.340,21.484,35.156,33.203,51.758,0
150577.483,54.199,27.832,23.926,38.574,62.988,0
150577.487,38.086,25.879,35.645,34.180,13.672,0
150577.491,21.484,28.809,44.434,25.391,-44.922,2
150577.495,32.715,35.645,37.598,30.762,-6.836,0
150577.499,37.598,41.992,29.297,24.414,54.688,0
150577.503,30.762,42.969,29.297,14.160,29.297,0
150577.507,38.086,36.621,31.738,19.531,-12.695,0
150577.511,36.133,34.668,40.039,23.438,56.152,0
150577.512,29.297,26.367,30.762,19.043,75.684,0
150577.515,39.551,30.762,36.621,24.414,-8.301,0
150577.519,28.809,27.344,44.434,18.555,-53.711,0
150577.523,16.602,18.066,32.227,9.277,-22.949,0
150577.527,30.762,41.504,34.180,18.555,60.547,0
150577.531,37.109,52.246,36.621,26.855,59.570,0
150577.535,26.855,42.480,28.809,20.508,-18.066,0
150577.539,21.973,38.574,25.879,8.301,-37.598,0
150577.543,36.621,33.203,26.367,18.555,31.738,0
150577.547,41.992,30.273,29.785,31.250,75.684,0
150577.551,27.832,28.809,32.227,18.066,8.789,0
150577.554,29.785,38.086,28.809,16.113,-24.414,0
150577.556,41.016,25.879,28.320,29.785,60.547,0
150577.560,51.758,26.855,39.062,42.969,112.793,0
150577.564,56.641,55.664,47.363,44.434,55.664,0
150577.568,41.016,31.250,34.180,34.668,-3.418,0
150577.572,37.109,19.531,21.973,35.156,32.227,0
150577.576,42.480,45.898,24.414,38.086,80.078,0
150577.580,28.809,51.758,32.715,22.949,19.531,0
150577.584,20.996,44.434,37.109,7.812,-21.484,0
150577.588,31.738,31.250,29.785,15.625,31.250,0
150577.592,40.039,25.879,27.344,31.738,57.617,0
150577.595,36.133,38.574,32.715,31.738,62.988,0
150577.599,24.902,31.738,33.203,23.438,-3.418,0
150577.616,25.391,23.438,40.039,29.297,-53.711,0
150577.620,34.668,39.551,44.922,35.156,23.926,0
150577.624,30.273,33.691,33.691,19.531,44.922,0
150577.628,13.672,20.020,28.320,5.371,-1.953,0
150577.632,0.488,25.391,28.320,2.930,-7.812,0
150577.636,18.066,28.320,37.109,17.578,39.062,0
150577.640,32.227,27.832,41.016,25.391,88.379,0
150577.644,25.391,37.598,27.832,21.973,44.922,0
150577.648,23.926,44.922,19.043,17.090,-20.508,0
150577.652,26.855,38.574,14.648,20.996,-7.812,0
150577.656,33.691,30.273,24.902,29.297,38.574,0
150577.659,48.340,30.273,47.852,37.598,76.172,0
150577.662,44.922,28.809,57.129,35.156,40.039,0
150577.666,37.598,25.879,51.270,29.785,31.738,0
150577.670,45.410,29.785,41.504,33.203,69.824,0
150577.674,38.086,40.527,24.414,24.902,67.871,0
150577.678,23.438,41.504,15.625,14.160,9.277,0
150577.682,23.438,33.203,21.484,15.137,-3.418,0
150577.685,32.227,35.156,27.832,28.809,61.523,0
150577.689,37.598,39.062,31.738,33.203,79.590,0
150577.693,33.203,45.898,34.668,33.691,25.391,0
150577.697,26.855,41.504,30.762,28.809,-45.410,0
150577.701,42.480,39.062,43.945,36.621,28.809,0
150577.705,50.293,37.109,55.664,40.527,125.000,0
150577.707,24.902,18.066,36.133,15.137,54.688,0
150577.711,5.371,18.066,26.855,-0.488,-25.879,0
150577.714,13.184,17.578,31.738,9.766,-13.672,0
150577.718,30.762,20.508,27.344,20.020,27.344,0
150577.722,28.809,35.645,21.973,13.184,54.688,0
150577.726,26.367,48.340,19.043,14.648,8.789,0
150577.730,31.250,45.898,15.625,23.438,11.719,0
150577.734,41.016,35.156,20.508,26.367,107.910,0
150577.738,52.734,32.715,35.156,24.902,103.516,0
150577.742,43.945,36.133,40.527,18.066,37.109,0
150577.746,34.668,37.109,38.574,24.414,3.906,0
150577.750,41.992,34.668,31.250,33.691,51.758,0
150577.752,46.875,32.227,21.484,31.738,77.148,0
150577.756,36.621,27.344,17.578,22.461,22.461,0
150577.760,29.785,20.020,29.297,26.855,9.277,0
150577.764,37.109,19.043,41.016,34.180,48.340,0
150577.768,45.898,33.691,33.691,33.691,110.840,0
150577.772,46.875,46.875,32.227,37.109,81.055,0
150577.776,37.109,48.340,32.227,34.668,11.719,0
150577.780,35.645,41.504,32.227,34.668,21.484,0
150577.784,40.527,35.645,28.809,31.250,55.664,0
150577.787,33.691,29.785,25.391,26.367,54.688,0
150577.791,27.832,29.785,30.273,21.484,-1.953,0
150577.795,31.250,17.090,33.691,17.090,-23.926,0
150577.798,33.203,22.461,32.715,22.949,33.691,0
150577.801,39.551,47.363,41.992,24.902,74.707,0
150577.805,29.297,42.480,43.457,25.879,25.879,0
150577.809,19.043,40.039,33.203,30.273,-28.320,0
150577.813,40.039,43.457,30.273,35.645,50.781,0
150577.817,57.617,43.945,36.133,42.480,113.770,0
150577.821,47.852,41.016,45.898,38.574,67.383,0
150577.825,35.156,37.598,44.922,23.438,-3.906,0
150577.829,41.504,31.738,40.039,28.320,-6.836,0
150577.833,48.340,37.109,37.109,39.551,69.336,0
150577.837,47.363,42.480,38.574,39.062,40.527,0
150577.840,27.344,37.109,38.086,22.949,-35.645,0
150577.842,18.066,32.715,36.133,18.066,-39.062,0
150577.846,31.250,26.855,40.039,31.250,42.480,0
150577.850,35.645,24.414,43.457,28.809,73.730,0
150577.854,20.996,27.344,37.598,18.555,35.645,0
150577.858,16.113,24.902,36.621,18.555,-0.977,0
150577.862,32.715,28.809,37.109,24.902,41.992,0
150577.866,32.715,36.133,32.227,16.602,109.863,0
150577.870,25.391,42.480,31.250,7.812,60.547,0
150577.874,27.832,49.805,17.090,11.719,-10.254,0
150577.878,42.480,44.922,21.973,23.926,19.043,0
150577.882,45.410,38.086,41.992,25.879,91.309,0
150577.885,31.738,29.785,43.945,10.742,70.801,0
150577.886,30.273,31.250,41.016,11.230,0.977,0
150577.890,39.551,37.598,36.133,20.020,22.461,0
150577.894,47.363,32.715,38.574,30.273,82.031,0
150577.898,47.363,33.203,39.062,29.785,78.613,0
150577.902,42.969,48.828,34.668,29.297,27.344,0
150577.906,35.156,41.992,32.715,32.715,16.113,0
150577.910,24.902,25.391,21.484,20.996,79.590,0
150577.914,29.297,34.180,8.789,13.672,52.734,0
150577.918,20.020,34.668,13.184,8.789,17.090,0
150577.922,22.461,34.180,29.297,12.207,46.875,0
150577.926,52.734,38.086,40.527,30.762,94.238,0
150577.929,51.270,37.598,43.945,34.668,114.746,0
150577.933,27.832,32.715,36.621,24.902,88.379,0
150577.937,23.926,34.180,29.785,24.414,52.734,0
150577.941,41.992,38.086,25.879,26.855,47.852,0
150577.944,56.641,23.926,40.527,28.809,100.586,0
150577.948,46.387,24.414,53.223,22.949,116.211,0
150577.952,32.227,58.105,43.945,16.113,51.270,0
150577.956,25.879,61.035,38.086,14.160,19.531,0
150577.960,31.250,39.551,26.367,11.719,97.168,0
150577.964,40.039,34.180,20.020,14.648,111.328,0
150577.968,27.832,30.273,24.414,15.625,15.625,0
150577.972,25.391,31.738,36.133,15.137,-31.738,0
150577.976,41.992,33.691,41.016,18.555,56.641,0
150577.992,45.898,30.273,30.762,24.414,95.703,0
150577.995,41.016,18.066,28.809,27.832,20.996,0
150577.999,39.551,24.902,32.715,26.855,-24.902,0
150578.003,31.250,46.387,28.809,16.602,19.531,0
150578.007,29.785,44.922,33.203,12.207,91.797,0
150578.011,24.902,36.621,30.762,9.277,49.316,0
150578.015,20.020,34.668,28.809,6.348,-21.484,0
150578.019,27.832,33.691,35.645,13.184,38.086,0
150578.023,37.598,34.180,41.504,23.926,105.469,0
150578.027,31.738,30.762,40.527,20.020,54.199,0
150578.031,32.227,27.344,34.180,19.531,5.859,0
150578.035,45.898,36.133,38.574,41.504,37.598,0
150578.036,49.316,35.156,33.691,40.039,118.164,0
150578.040,42.969,27.832,26.855,15.625,122.559,0
150578.044,22.949,22.949,31.250,0.000,19.043,0
150578.048,21.973,33.203,33.203,8.301,6.348,0
150578.052,32.227,44.922,35.645,16.602,88.379,0
150578.056,37.109,23.438,36.621,15.137,98.145,0
150578.060,36.133,24.414,28.320,10.742,54.199,0
150578.064,28.320,45.898,21.484,3.906,14.160,0
150578.068,43.945,41.992,33.691,17.578,40.039,0
150578.072,57.129,47.363,32.715,27.344,62.988,0
150578.075,49.805,48.340,21.484,30.273,23.926,0
150578.079,45.410,38.574,28.809,28.320,-12.207,0
150578.081,43.457,35.645,36.133,20.996,-20.020,0
150578.085,32.227,34.668,39.062,9.766,23.438,0
150578.089,18.555,35.156,38.086,-3.418,47.852,1
150578.093,13.184,30.762,40.527,2.930,-2.930,0
150578.097,12.207,19.531,41.504,14.648,-30.762,0
150578.101,13.672,16.602,34.180,17.090,31.738,0
150578.105,20.020,21.973,31.250,18.066,47.852,0
150578.109,24.414,26.855,42.480,28.809,11.719,0
150578.113,26.367,36.621,48.828,30.762,-15.137,0
150578.117,32.715,26.367,37.109,26.855,14.160,0
150578.121,39.551,17.090,32.227,34.180,80.078,0
150578.124,30.762,17.090,31.250,22.949,35.645,0
150578.126,20.020,13.672,35.645,13.184,-11.230,0
150578.130,33.203,18.066,36.621,21.973,14.648,0
150578.134,62.988,30.762,35.156,44.434,78.125,0
150578.138,56.152,45.410,34.180,43.945,70.801,0
150578.142,20.996,40.527,28.320,18.066,-16.602,0
150578.146,20.508,32.227,34.668,17.090,-10.742,0
150578.150,34.668,29.297,26.855,21.973,74.219,0
150578.154,36.621,35.645,16.602,21.973,80.078,0
150578.158,33.691,38.086,22.461,15.137,-32.227,0
150578.162,37.598,24.414,36.133,24.902,-45.410,0
150578.166,51.270,28.320,41.504,40.039,65.918,0
150578.169,50.781,42.480,28.809,27.832,68.359,0
150578.171,39.551,30.762,29.297,14.648,15.137,0
150578.175,27.832,17.578,39.551,18.066,27.832,0
150578.179,22.461,23.438,34.180,21.973,49.805,0
150578.183,34.180,32.715,36.621,27.344,78.125,0
150578.187,33.203,31.738,31.250,27.344,40.039,0
150578.191,35.645,37.109,38.574,35.645,-47.363,0
150578.195,40.039,36.133,50.781,50.781,-11.230,0
150578.199,36.621,18.555,37.109,51.270,73.730,0
150578.203,31.738,20.996,23.438,35.645,46.387,0
150578.207,9.766,33.691,12.695,9.277,9.277,0
150578.210,20.508,41.016,23.926,19.531,37.109,0
150578.214,46.387,49.805,43.945,39.062,56.641,0
150578.218,31.250,41.016,37.598,16.113,41.504,0
150578.222,24.902,39.551,36.621,9.766,-3.418,0
150578.226,37.109,47.852,37.598,23.438,-48.828,0
150578.229,39.062,41.992,27.344,20.020,0.488,0
150578.233,42.480,29.785,24.902,11.719,96.680,0
150578.237,36.621,27.344,21.973,7.812,82.031,0
150578.241,26.367,42.969,21.973,5.859,7.324,0
150578.245,38.574,39.551,28.320,20.996,0.000,0
150578.249,41.504,37.109,20.508,25.879,56.641,0
150578.253,26.855,42.480,11.230,12.207,68.359,0
150578.257,30.762,39.062,25.391,19.531,27.344,0
150578.261,37.109,38.574,32.715,27.832,74.707,0
150578.262,31.738,37.598,28.320,30.762,121.582,0
150578.266,32.227,36.621,25.879,32.227,98.145,0
150578.269,24.414,38.086,32.227,24.414,46.387,0
150578.273,20.996,32.715,32.227,22.949,12.695,0
150578.277,27.832,25.879,24.902,31.738,43.457,0
150578.281,26.855,25.391,30.273,30.762,54.199,0
150578.285,18.066,25.391,32.227,20.020,3.906,0
150578.289,33.203,41.504,47.363,40.039,-25.879,0
150578.293,53.711,28.809,46.387,55.176,34.668,0
150578.297,48.828,12.207,28.320,41.992,84.961,0
150578.301,47.852,42.969,33.203,41.016,37.109,0
150578.305,42.969,34.180,27.344,33.691,-27.344,0
150578.307,40.527,22.949,19.043,34.180,34.668,0
150578.311,47.363,48.340,31.250,44.434,89.844,0
150578.315,46.387,56.641,34.180,40.527,50.293,0
150578.319,33.203,48.340,27.344,26.855,-17.578,0
150578.322,29.297,37.598,21.973,18.555,-17.578,0
150578.326,39.062,28.320,22.461,20.020,51.758,0
150578.330,46.875,32.227,33.691,22.461,46.387,0
150578.334,40.039,39.062,46.387,27.832,-4.883,0
150578.338,31.250,33.203,49.805,29.297,-18.555,0
150578.342,47.363,28.320,45.898,35.645,26.855,0
150578.346,57.129,36.133,40.039,39.551,45.410,0
150578.350,45.898,47.363,18.555,32.227,-8.789,0
150578.367,31.738,52.734,5.859,21.973,-30.273,0
150578.371,26.367,30.273,18.066,12.695,1.465,0
150578.375,24.414,10.742,32.227,15.137,31.250,0
150578.379,23.926,23.926,41.992,16.602,13.184,0
150578.383,22.949,27.832,42.969,18.555,3.906,0
150578.387,26.367,20.020,41.504,28.809,25.879,0
150578.391,32.227,19.043,32.715,31.250,36.133,0
150578.395,25.879,31.250,21.973,20.020,18.066,0
150578.399,16.602,41.504,26.855,15.137,-5.371,0
150578.403,22.949,31.738,33.691,28.809,-13.672,0
150578.406,34.668,22.949,32.227,36.621,17.578,0
150578.410,32.227,36.133,31.738,36.133,31.738,0
150578.412,30.762,41.016,42.969,39.062,0.488,0
150578.416,34.180,27.832,45.410,35.645,14.648,0
150578.420,41.016,12.695,39.551,38.086,101.562,0
150578.424,56.641,36.133,43.457,51.758,118.164,0
150578.428,39.062,50.781,32.227,43.945,51.758,0
150578.432,12.695,34.180,15.625,25.879,8.301,0
150578.436,28.809,33.203,12.207,26.855,40.039,0
150578.440,42.969,32.227,19.043,31.250,65.430,0
150578.443,39.062,32.715,29.785,34.668,28.809,0
150578.447,36.621,21.484,37.598,34.180,-3.906,0
150578.451,48.828,9.766,45.410,38.574,8.301,0
150578.455,52.246,20.996,36.621,46.387,65.918,0
150578.458,38.086,34.668,29.785,42.969,75.195,0
150578.462,24.902,48.340,39.062,38.086,10.742,0
150578.466,28.320,46.875,37.598,37.598,-9.277,0
150578.470,50.293,40.527,38.086,44.922,62.500,0
150578.473,55.176,35.645,48.340,49.805,55.176,0
150578.477,42.480,31.738,36.133,50.781,-26.855,0
150578.481,31.250,29.297,23.438,45.410,-43.457,0
150578.485,33.203,20.996,26.855,44.434,33.203,0
150578.489,41.992,19.531,31.738,44.922,34.180,0
150578.493,35.156,25.879,30.762,34.668,-26.367,0
150578.497,22.949,41.992,32.227,35.645,-30.762,0
150578.501,30.273,31.738,34.180,45.410,16.113,0
150578.501,43.945,10.254,31.250,49.805,81.543,0
150578.505,41.016,33.691,35.156,49.316,68.848,0
150578.509,39.062,48.828,40.527,41.016,29.785,0
150578.513,42.480,41.016,37.109,37.598,31.738,0
150578.517,43.945,37.598,30.273,48.828,95.215,0
150578.521,44.922,30.273,30.762,48.340,86.426,0
150578.525,26.367,22.461,27.344,28.809,3.418,0
150578.529,17.578,27.832,22.461,24.414,-16.113,0
150578.533,38.086,34.180,26.367,37.109,-2.930,0
150578.537,40.039,29.297,29.785,39.551,39.062,0
150578.541,22.461,32.715,30.273,34.180,52.246,0
150578.544,29.297,20.508,35.645,37.598,8.301,0
150578.561,53.223,22.949,45.898,55.176,37.598,0
150578.565,56.152,50.781,44.922,61.523,62.012,0
150578.569,43.457,49.805,36.133,49.805,9.277,0
150578.573,28.809,39.551,30.762,36.621,-19.043,0
150578.577,23.926,35.156,23.438,25.391,29.785,0
150578.581,21.973,33.203,21.484,21.484,97.656,0
150578.585,14.160,28.809,27.344,25.391,70.801,0
150578.589,8.789,30.273,29.297,27.344,-33.691,0
150578.593,16.113,30.762,33.691,34.180,-26.855,0
150578.597,35.156,30.762,37.598,41.504,63.477,0
150578.601,39.551,20.508,34.668,35.156,60.547,0
150578.604,32.715,21.973,35.156,35.645,12.207,0
150578.591,32.715,21.973,14.648,41.504,-20.996,0
150578.595,45.898,23.926,17.090,44.922,54.688,0
150578.599,46.387,52.246,46.387,42.969,73.242,0
150578.603,25.391,51.758,44.922,31.250,-43.457,0
150578.607,19.043,47.852,32.227,27.344,-41.992,0
150578.611,24.414,39.551,30.762,35.645,31.250,0
150578.615,31.250,23.926,32.715,41.992,60.547,0
150578.619,31.250,28.320,35.645,39.551,39.551,0
150578.623,27.832,32.715,27.832,38.574,-5.371,0
150578.627,41.992,38.574,31.250,53.711,16.602,0
150578.631,50.293,42.969,32.715,55.176,72.754,0
150578.634,39.551,35.645,33.203,35.156,22.461,0
150578.636,23.438,20.508,33.691,27.344,-27.344,0
150578.640,27.344,18.066,30.762,33.691,-2.441,0
150578.644,48.340,41.016,34.668,47.852,38.574,0
150578.648,43.945,43.457,38.574,45.898,63.965,0
150578.652,25.879,33.691,36.621,38.086,21.484,1
150578.656,28.320,32.227,27.344,46.875,3.906,0
150578.660,37.598,31.250,21.484,45.898,63.965,0
150578.664,36.133,30.762,25.391,38.086,97.656,0
150578.668,33.691,39.062,27.832,40.039,74.707,0
150578.672,30.762,46.387,35.645,41.016,58.594,0
150578.675,32.715,41.504,37.109,38.574,40.039,0
150578.679,33.691,30.273,26.367,27.832,60.059,0
150578.683,27.344,28.809,21.484,18.066,42.480,0
150578.687,27.832,30.273,28.320,20.996,-29.785,0
150578.691,35.156,20.508,41.992,38.574,10.742,0
150578.694,41.992,22.949,33.691,47.363,79.590,0
150578.698,36.133,41.504,26.367,41.016,83.984,0
150578.702,27.344,45.898,40.039,38.574,9.277,0
150578.706,21.973,35.645,41.504,36.621,-25.879,0
150578.710,30.762,36.621,41.016,39.062,71.777,0
150578.714,31.250,28.320,34.180,40.039,113.770,0
150578.718,21.973,27.832,26.367,40.039,28.320,0
150578.722,29.785,35.156,26.367,42.969,13.184,0
150578.726,47.852,31.250,30.762,48.340,44.922,0
150578.741,54.199,20.996,35.645,50.293,41.992,0
150578.745,40.039,28.320,27.344,41.016,31.738,0
150578.749,35.645,52.734,16.113,43.457,2.930,0
150578.753,46.875,50.781,16.113,49.316,12.207,0
150578.757,41.504,34.668,31.250,35.156,81.055,0
150578.761,27.832,25.879,42.480,20.020,64.453,0
150578.765,24.902,25.879,41.016,19.531,-24.902,0
150578.769,31.738,31.738,41.504,30.762,12.207,0
150578.773,49.805,32.227,39.062,46.875,78.125,0
150578.777,58.594,39.551,38.574,54.199,66.406,0
150578.781,42.969,46.387,34.668,41.016,11.230,0
150578.784,38.086,33.691,33.691,37.109,-7.812,0
150578.786,57.617,35.645,38.086,47.363,74.219,0
150578.790,65.430,28.320,39.062,50.293,93.750,0
150578.794,45.898,26.855,32.715,39.062,6.348,0
150578.798,31.738,49.805,22.461,32.715,-6.348,0
150578.802,40.039,51.270,21.484,35.645,84.961,0
150578.806,42.480,40.039,24.902,31.250,90.820,0
150578.810,29.297,37.109,36.621,36.621,18.555,0
150578.814,29.785,41.016,50.293,45.898,-2.930,0
150578.818,42.480,35.645,44.922,48.828,58.594,0
150578.822,37.598,24.414,36.621,40.039,74.219,0
150578.826,25.879,25.879,42.969,33.203,12.207,0
150578.829,27.344,35.645,43.457,35.156,-20.508,0
150578.832,28.809,35.645,23.438,35.645,15.137,0
150578.836,29.785,29.785,11.719,38.086,66.406,0
150578.840,29.297,18.555,24.902,32.715,64.941,0
150578.844,23.438,26.855,30.273,27.832,18.555,0
150578.847,22.461,43.457,32.227,36.621,-7.812,0
150578.851,34.180,45.410,32.227,44.434,40.527,0
150578.855,48.340,41.016,36.133,44.922,62.012,0
150578.859,30.762,33.203,38.574,33.691,24.902,0
150578.863,9.766,30.273,28.320,20.996,-10.742,0
150578.867,24.414,26.855,22.949,27.344,4.883,0
150578.871,44.434,33.203,25.879,45.898,69.824,0
150578.875,33.203,31.738,32.227,41.504,53.223,0
150578.877,18.066,17.578,40.039,28.809,-42.969,0
150578.881,32.227,13.672,41.504,37.109,6.836,0
150578.885,36.133,28.809,30.273,35.645,86.914,0
150578.889,20.508,41.504,22.461,19.531,46.387,0
150578.892,9.766,42.969,27.832,16.602,7.812,0
150578.896,18.555,40.527,37.598,27.832,8.789,0
150578.900,35.645,34.668,41.016,40.039,68.359,0
150578.904,33.691,34.180,39.551,34.668,54.688,0
150578.908,20.020,28.809,38.574,25.391,-39.062,0
150578.912,20.996,28.809,35.645,28.809,-44.922,0
150578.916,49.805,40.527,40.039,47.852,32.715,0
150578.920,61.035,44.922,46.875,56.641,97.168,0
150578.924,32.715,31.250,33.203,38.086,68.848,0
150578.928,15.137,33.203,38.086,34.668,-1.953,0
150578.932,32.227,45.410,52.246,47.852,48.828,0
150578.936,40.527,35.645,39.551,41.016,93.262,0
150578.940,28.320,18.066,33.203,25.879,44.922,0
150578.944,13.672,16.602,39.062,25.879,21.484,0
150578.947,22.461,30.762,44.922,38.086,48.828,0
150578.951,33.203,38.086,38.086,36.621,75.684,0
150578.955,29.785,44.434,29.297,34.668,29.785,0
150578.959,23.926,41.504,34.180,38.086,3.906,0
150578.963,18.555,37.109,37.598,35.645,3.906,0
150578.967,21.973,37.598,22.461,35.156,88.379,0
150578.967,28.809,33.691,12.695,35.156,84.473,0
150578.971,20.508,33.691,22.949,32.227,-4.395,0
150578.975,9.766,32.227,28.320,25.879,-28.320,0
150578.979,22.461,30.273,33.203,33.691,-1.465,0
150578.983,34.180,14.648,44.434,43.945,63.965,0
150578.987,41.504,33.691,54.199,55.176,33.203,0
150578.991,47.852,53.223,49.805,67.871,-24.414,0
150578.995,44.922,35.645,34.180,55.176,-18.066,0
150578.998,41.504,33.203,28.320,38.086,27.832,0
150579.002,30.762,36.621,27.344,35.156,19.531,0
150579.006,29.297,50.781,23.438,31.738,-47.852,0
150579.010,30.762,44.922,18.555,30.273,8.301,0
150579.012,39.062,34.668,25.391,39.062,108.887,0
150579.016,50.293,33.691,32.227,42.969,74.219,0
150579.020,49.316,38.086,48.340,47.363,8.789,0
150579.024,50.781,53.223,52.246,52.246,24.414,0
150579.028,49.316,37.598,32.227,44.922,76.172,0
150579.032,45.410,15.137,21.484,41.504,56.641,0
150579.036,33.691,24.414,26.367,35.156,-24.902,0
150579.040,24.414,43.945,31.738,31.250,-57.129,0
150579.043,37.109,48.828,33.691,43.945,12.695,0
150579.047,49.316,40.527,36.621,47.363,71.777,0
150579.051,48.828,49.316,37.109,48.828,21.484,0
150579.055,45.410,51.758,30.762,54.688,-22.461,0
150579.057,48.340,37.598,28.320,48.828,4.395,0
150579.060,51.758,34.668,34.668,45.898,72.266,0
150579.064,40.039,26.367,26.367,34.180,68.848,0
150579.068,26.855,22.461,18.066,25.879,22.949,0
150579.072,27.344,24.902,21.973,36.133,29.785,0
150579.076,37.109,31.738,31.250,50.293,50.781,0
150579.080,36.133,31.738,34.668,45.898,29.785,0
150579.084,37.598,30.273,41.016,46.387,1.465,0
150579.088,44.922,51.758,41.504,58.594,1.953,0
150579.092,43.457,54.199,31.738,50.781,19.043,0
150579.096,43.457,47.852,32.715,42.969,38.086,0
150579.100,38.086,38.086,28.809,37.109,42.969,0
150579.116,31.250,17.578,25.391,31.250,3.418,0
150579.120,32.227,20.020,22.461,30.273,34.668,0
150579.124,41.504,34.180,29.297,37.109,103.027,0
150579.128,48.340,29.297,38.086,42.480,62.012,0
150579.132,41.016,26.855,41.504,48.340,14.160,0
150579.136,40.527,35.156,45.410,58.594,47.363,0
150579.140,42.480,51.270,27.344,55.176,95.703,0
150579.144,37.598,56.152,31.250,43.945,89.355,0
150579.148,30.273,42.969,41.016,38.086,7.324,0
150579.152,24.902,34.668,28.320,32.227,-40.039,0
150579.155,32.715,30.273,24.902,27.344,15.137,0
150579.159,45.410,29.297,32.715,29.297,39.551,0
150579.161,42.480,38.574,37.598,24.902,4.883,0
150579.165,26.855,31.738,35.156,15.625,-29.297,0
150579.169,28.320,15.625,30.273,27.344,4.395,0
150579.173,29.297,23.438,20.996,30.273,85.938,0
150579.177,25.879,28.320,21.484,22.949,52.246,0
150579.181,25.879,34.180,30.273,28.809,-20.996,0
150579.185,32.227,54.688,33.203,36.133,18.066,0
150579.189,37.598,44.434,32.715,31.738,80.078,0
150579.193,40.527,35.156,35.156,32.715,36.621,0
150579.197,36.133,48.340,40.039,41.992,-54.688,0
150579.200,32.227,43.945,35.645,42.480,-25.879,0
150579.204,41.016,26.855,31.250,41.504,100.098,0
150579.207,41.992,32.715,37.109,36.621,98.633,0
150579.211,22.949,41.016,36.133,24.902,13.672,0
150579.215,9.766,30.762,32.227,24.414,-14.160,0
150579.219,21.973,28.320,37.109,31.738,63.965,0
150579.223,31.250,30.762,40.039,28.809,134.766,0
150579.227,22.949,26.367,32.227,23.438,61.035,0
150579.231,21.973,36.133,24.902,31.738,-1.953,0
150579.234,40.039,43.945,19.043,39.062,69.824,0
150579.238,44.434,31.250,32.227,36.621,89.355,0
150579.242,28.809,34.180,43.945,29.785,22.461,0
150579.246,19.043,33.203,39.551,23.926,0.488,0
150579.250,35.645,30.762,39.062,28.320,57.617,0
150579.252,39.062,42.969,36.133,27.832,124.512,0
150579.255,19.531,37.109,35.156,15.625,110.352,1
150579.259,16.113,25.879,36.133,11.719,45.898,0
150579.263,23.438,33.691,30.762,22.461,2.930,0
150579.267,41.992,44.922,32.227,38.086,75.684,0
150579.271,37.598,37.598,35.645,35.156,100.098,0
150579.275,14.160,27.344,29.297,17.578,-13.184,0
150579.279,19.043,30.273,32.227,18.066,-35.645,0
150579.283,39.062,42.480,41.504,30.762,28.809,0
150579.287,44.434,32.715,36.133,36.133,65.430,0
150579.291,36.621,26.367,17.578,23.926,27.344,0
150579.294,33.203,34.180,23.926,19.043,-39.062,0
150579.297,50.781,44.434,40.527,37.598,10.742,0
150579.300,61.035,46.387,39.551,38.086,87.402,0
150579.304,44.434,26.367,39.062,25.391,60.547,0
150579.308,32.227,24.902,43.945,23.926,-35.156,0
150579.312,41.504,37.109,42.480,31.250,-47.363,0
150579.316,52.734,44.922,21.484,34.668,53.223,0
150579.320,42.969,40.527,19.043,28.320,74.707,0
150579.324,28.809,31.738,38.574,26.855,3.906,0
150579.328,29.785,20.996,43.457,21.484,-2.930,0
150579.332,41.016,13.184,41.016,23.926,88.379,0
150579.336,37.598,34.668,27.344,20.996,105.957,0
150579.340,28.809,47.852,29.297,15.625,35.645,0
150579.341,38.086,47.363,37.598,22.949,-1.465,0
150579.345,53.223,40.039,36.621,30.762,59.570,0
150579.349,58.594,37.598,32.227,37.598,76.660,0
150579.353,33.691,41.504,18.555,18.555,7.324,0
150579.357,21.484,34.180,20.020,5.371,-37.109,0
150579.361,45.898,32.227,38.086,21.973,17.578,0
150579.365,53.223,27.344,46.875,32.715,81.055,0
150579.369,34.668,26.367,39.062,27.344,33.691,0
150579.373,24.414,35.645,31.250,27.344,-11.719,0
150579.377,22.949,32.715,29.297,30.762,16.113,0
150579.380,30.762,19.531,32.227,27.832,76.172,0
150579.384,34.180,17.090,33.691,25.391,80.078,0
150579.386,36.133,46.387,41.992,37.109,29.785,0
150579.390,41.992,54.688,35.156,40.039,28.320,0
150579.394,40.527,34.668,27.832,31.250,78.125,0
150579.398,38.574,19.043,40.039,25.879,47.363,0
150579.402,26.855,19.531,39.551,26.855,3.418,0
150579.406,23.438,32.227,33.691,36.133,-22.461,0
150579.410,41.016,41.504,31.250,38.574,9.766,0
150579.414,47.852,41.504,32.715,33.691,61.035,0
150579.418,27.832,31.250,33.203,27.344,58.105,0
150579.422,16.602,31.738,27.344,24.414,14.160,0
150579.426,34.668,29.297,41.016,37.109,-2.930,0
150579.429,40.039,24.902,51.270,41.504,83.008,0
150579.434,27.344,29.297,39.551,25.391,82.031,0
150579.438,20.508,34.668,27.344,17.578,13.184,0
150579.442,24.414,41.504,32.227,29.785,32.227,0
150579.445,33.203,39.062,35.645,40.039,75.684,0
150579.449,31.738,29.297,20.020,34.180,94.238,0
150579.453,27.344,27.344,17.090,33.691,29.785,0
150579.457,29.785,34.668,41.504,39.551,-13.184,0
150579.461,41.504,33.203,41.504,42.969,51.270,0
150579.465,45.898,25.879,31.250,43.945,66.895,0
150579.469,27.344,17.090,40.039,35.156,-18.555,0
150579.473,20.996,13.184,44.434,33.203,-25.391,0
150579.477,28.809,26.855,37.598,36.621,55.664,0
150579.492,33.203,30.273,19.531,31.738,96.680,0
150579.496,42.480,41.504,27.344,42.480,43.457,0
150579.500,37.598,45.898,42.969,45.410,-10.254,0
150579.504,29.297,28.809,42.480,45.410,30.273,0
150579.508,29.785,19.531,37.109,40.527,82.520,0
150579.512,25.391,27.832,34.668,35.645,47.363,0
150579.516,19.531,36.621,32.715,34.668,-4.395,0
150579.520,23.926,34.180,30.762,26.367,30.762,0
150579.524,30.273,33.691,31.738,25.391,94.238,0
150579.528,31.250,24.902,33.203,27.344,84.961,0
150579.531,28.809,15.137,31.738,29.297,22.461,0
150579.535,30.273,30.273,29.785,33.691,14.160,0
150579.538,44.434,36.133,31.738,38.574,67.871,0
150579.541,49.316,40.039,34.180,37.598,77.637,0
150579.545,40.527,51.758,46.387,31.250,25.391,0
150579.549,36.133,49.316,47.363,25.391,22.949,0
150579.553,41.016,39.062,31.250,27.344,53.711,0
150579.557,40.039,27.344,22.461,23.438,71.777,0
150579.561,39.062,19.531,20.508,11.719,29.297,0
150579.565,34.668,29.297,24.414,13.672,-24.902,0
150579.569,24.414,30.762,31.738,19.531,20.508,0
150579.573,24.902,7.812,25.879,14.160,54.199,0
150579.577,29.785,26.855,21.973,17.090,28.809,0
150579.581,20.996,52.734,27.832,16.602,2.930,0
150579.582,11.719,36.621,25.879,3.906,-17.578,0
150579.586,21.484,26.367,23.926,11.230,37.598,0
150579.590,23.926,29.785,26.855,14.160,76.172,0
150579.594,27.832,33.203,42.969,14.648,-5.859,0
150579.598,39.062,33.203,55.664,26.855,-24.902,0
150579.602,43.457,33.203,46.875,33.691,32.715,0
150579.606,49.316,32.715,30.273,34.180,59.570,0
150579.610,45.410,31.250,37.598,26.855,20.996,0
150579.613,29.297,29.785,34.668,18.555,-20.996,0
150579.617,30.273,22.461,16.602,13.672,6.348,0
150579.621,31.738,25.879,19.531,13.672,83.496,0
150579.625,26.855,37.109,29.297,9.277,80.566,0
150579.627,23.926,37.109,34.668,7.812,-4.883,0
150579.631,37.598,35.645,32.715,25.391,6.348,0
150579.635,54.688,39.062,34.180,38.574,91.309,0
150579.639,52.734,38.086,41.016,36.621,82.520,0
150579.643,52.734,38.574,42.480,35.156,-12.695,0
150579.647,45.898,43.945,35.645,32.715,-10.742,0
150579.650,44.434,39.062,32.227,27.832,71.289,0
150579.654,47.852,34.668,39.062,20.508,90.820,0
150579.658,26.367,19.531,41.504,9.277,17.578,0
150579.662,12.695,4.883,39.062,9.277,-33.691,0
150579.666,28.320,18.555,33.691,23.926,19.531,0
150579.670,40.039,34.668,33.203,29.785,47.852,0
150579.673,28.809,39.062,34.180,20.020,-6.348,0
150579.677,26.855,43.945,40.039,17.578,-36.133,0
150579.681,49.805,44.922,42.480,37.109,-7.324,0
150579.685,64.453,41.992,41.016,54.199,56.152,0
150579.689,45.898,35.156,29.297,37.598,52.246,0
150579.693,29.297,32.715,22.461,18.555,2.930,0
150579.696,28.809,29.785,36.133,24.414,16.113,0
150579.700,42.480,25.879,43.945,33.203,71.777,0
150579.704,48.828,19.043,36.621,34.180,71.777,0
150579.708,26.855,27.832,27.832,23.926,18.555,0
150579.712,14.648,38.086,23.926,12.695,3.906,0
150579.716,39.551,46.875,38.574,26.855,75.684,0
150579.716,57.617,56.152,49.805,39.551,99.121,0
150579.720,37.109,37.109,38.086,23.926,51.270,0
150579.724,27.344,29.785,36.133,16.113,2.441,0
150579.728,30.762,22.461,30.762,17.578,17.090,0
150579.732,37.109,25.879,27.344,21.973,72.754,0
150579.736,41.504,35.645,32.227,23.438,27.344,0
150579.740,29.785,30.762,31.738,19.531,-42.969,0
150579.744,29.297,25.391,36.133,26.855,-30.273,0
150579.748,36.621,26.855,33.691,23.438,65.430,0
150579.752,41.016,34.668,39.551,21.484,95.703,0
150579.755,35.645,28.809,47.852,22.949,52.246,0
150579.759,37.598,35.645,50.781,23.438,50.781,0
150579.761,52.246,53.223,44.922,33.203,83.984,0
150579.765,51.270,49.316,30.762,31.250,66.406,0
150579.769,26.367,34.668,21.484,7.324,-19.043,0
150579.773,20.020,29.297,39.062,6.836,-56.641,0
150579.777,44.922,28.809,49.805,24.902,11.719,0
150579.781,47.852,29.297,37.598,22.461,70.801,0
150579.785,32.715,33.691,39.551,17.578,18.555,0
150579.789,32.227,37.598,39.551,15.625,-56.641,0
150579.793,43.457,27.344,41.016,24.414,-1.953,0
150579.797,49.805,20.020,44.434,36.621,101.074,0
150579.800,42.480,36.621,44.434,27.344,64.453,0
150579.804,26.855,42.969,42.969,12.207,-53.711,0
150579.806,13.184,30.762,25.879,6.348,-18.555,0
150579.810,17.090,19.531,21.973,6.836,55.664,0
150579.814,23.438,20.996,28.809,2.930,54.688,0
150579.818,24.902,35.156,25.879,3.418,14.648,0
150579.822,36.133,45.898,32.227,13.184,6.836,0
150579.826,47.363,41.992,46.875,25.391,75.195,0
150579.830,50.781,41.504,41.016,25.879,59.082,0
150579.834,34.180,32.227,23.438,6.836,-12.695,0
150579.838,19.531,8.789,19.043,-0.488,-5.371,0
150579.842,32.715,20.996,38.574,11.230,40.039,0
150579.846,40.527,40.527,45.410,14.160,82.520,0
150579.849,25.879,41.992,34.668,6.836,43.457,0
150579.867,24.414,46.387,37.109,10.254,-31.250,0
150579.871,39.551,48.828,43.457,25.391,-24.902,0
150579.874,40.039,30.762,40.039,22.461,49.805,0
150579.878,29.785,23.926,34.180,5.371,34.668,0
150579.882,24.414,31.738,27.832,2.441,-9.766,0
150579.886,27.344,25.879,31.250,14.648,0.977,0
150579.890,41.504,24.414,26.855,30.273,49.805,0
150579.894,42.969,24.902,20.020,23.438,98.145,2
150579.898,25.391,33.691,23.438,7.812,39.551,0
150579.902,19.043,46.387,30.762,10.254,-37.598,0
150579.906,31.250,42.480,40.039,20.020,36.133,0
150579.910,34.180,34.668,40.527,14.160,115.234,0
150579.911,24.902,31.250,39.062,10.254,32.715,0
150579.915,36.133,33.203,30.273,20.020,-27.344,0
150579.919,43.945,30.273,27.344,20.020,3.906,0
150579.923,33.203,15.625,32.715,12.695,48.828,0
150579.927,27.832,19.043,30.762,13.672,41.016,0
150579.931,24.902,38.086,24.902,15.137,-45.410,0
150579.935,29.297,36.621,32.715,21.973,-19.043,0
150579.939,42.969,38.574,40.039,33.691,72.754,0
150579.943,47.363,30.273,49.316,36.621,53.711,0
150579.947,38.574,28.320,53.223,34.180,-13.672,0
150579.951,29.785,42.969,34.668,22.949,-3.418,0
150579.954,47.852,41.992,37.598,29.785,99.121,0
150579.967,62.988,46.387,47.363,37.598,83.984,0
150579.971,27.832,40.039,24.414,9.277,30.762,0
150579.975,6.836,27.344,-2.930,-1.953,24.414,0
150579.979,30.273,27.832,12.207,15.625,63.477,0
150579.982,41.016,35.645,40.527,25.879,94.727,0
150579.986,31.738,42.969,29.297,16.602,42.969,0
150579.990,27.832,35.645,24.414,12.695,41.504,0
150579.994,37.598,38.574,44.434,27.344,86.426,0
150579.998,45.410,52.246,46.387,31.738,85.938,0
150580.002,44.434,34.180,41.504,33.691,13.672,0
150580.006,30.762,12.695,38.086,22.949,-61.035,0
150580.010,20.996,25.391,27.344,17.090,-59.570,0
150580.002,38.086,40.527,26.855,28.809,12.207,0
150580.005,41.992,29.297,26.367,25.879,24.414,0
150580.009,23.438,20.996,29.297,21.973,-35.156,0
150580.013,32.715,39.551,40.039,35.645,-11.719,0
150580.017,48.340,41.992,44.922,43.457,66.895,0
150580.021,38.086,32.715,41.992,32.227,76.660,0
150580.025,30.762,38.574,41.992,28.809,37.598,0
150580.029,24.414,36.621,27.832,28.809,19.531,0
150580.033,30.273,30.762,27.832,33.203,38.086,0
150580.037,42.480,24.902,46.387,30.762,70.312,0
150580.041,34.180,26.367,32.227,28.320,77.148,0
150580.045,27.832,40.039,10.742,34.668,37.109,0
150580.047,23.438,34.668,18.066,24.414,37.598,0
150580.051,22.461,33.203,37.598,19.531,93.750,0
150580.055,35.645,36.621,48.828,27.832,103.027,0
150580.059,36.133,32.227,46.387,25.391,37.598,0
150580.063,33.203,32.227,40.527,28.320,35.645,0
150580.067,40.039,31.250,34.668,34.668,94.238,0
150580.070,23.438,23.438,28.320,14.160,78.125,0
150580.074,16.602,33.691,28.809,8.789,-16.602,0
150580.078,26.855,25.391,23.926,15.625,-39.551,0
150580.082,22.949,14.160,23.438,17.578,50.781,0
150580.086,20.996,37.109,26.855,20.996,100.098,0
150580.090,17.090,39.551,19.531,18.555,23.438,0
150580.092,17.578,39.551,28.809,18.555,-8.301,0
150580.096,26.855,35.156,38.574,18.555,61.523,0
150580.100,27.832,22.461,27.832,20.996,53.223,0
150580.104,23.438,29.785,23.926,23.438,-19.043,0
150580.107,30.762,39.551,41.016,26.855,-49.805,0
150580.111,33.203,36.133,38.086,25.879,2.441,0
150580.115,23.438,29.297,24.414,20.996,55.664,0
150580.119,24.902,25.391,28.320,14.648,-5.371,0
150580.123,30.273,27.344,36.133,18.066,-32.715,0
150580.127,29.297,32.227,30.273,31.250,14.160,0
150580.131,38.574,34.668,20.996,36.133,46.875,0
150580.135,40.527,37.598,29.785,33.203,49.805,0
150580.138,31.250,37.598,38.086,32.227,-1.953,0
150580.142,26.367,34.668,41.504,37.109,1.953,0
150580.146,24.414,29.785,35.645,35.645,69.336,0
150580.150,26.855,27.344,28.320,27.344,64.941,0
150580.154,19.531,21.973,23.438,16.602,27.344,0
150580.158,19.043,31.250,23.926,15.137,-18.066,0
150580.162,32.715,43.945,23.926,27.832,7.324,0
150580.165,39.551,20.996,22.461,36.621,47.852,0
150580.169,39.551,25.391,33.203,35.156,60.059,0
150580.173,27.832,41.504,34.668,20.508,60.059,0
150580.177,22.949,33.203,32.715,23.438,61.035,0
150580.181,36.133,38.086,28.809,38.574,114.746,0
150580.183,30.273,35.645,14.160,25.391,121.094,0
150580.187,17.578,30.273,15.625,12.207,23.438,0
150580.191,28.320,34.180,32.715,23.926,-18.555,0
150580.194,34.668,30.273,37.109,36.133,59.570,0
150580.198,19.531,12.695,27.832,25.391,59.570,0
150580.202,14.648,20.020,25.879,23.438,-16.113,0
150580.206,28.320,40.039,35.645,32.227,-37.109,0
150580.210,38.086,30.273,37.109,39.551,27.832,0
150580.214,27.344,26.367,26.855,34.180,60.059,0
150580.218,10.254,32.715,20.996,14.160,38.086,0
150580.222,8.789,31.738,18.555,8.789,-14.648,0
150580.226,19.043,38.574,28.320,23.438,25.879,0
150580.242,26.855,40.527,44.434,25.391,90.820,0
150580.246,26.855,37.109,38.086,16.602,34.180,0
150580.250,18.555,27.344,15.625,15.625,-18.555,0
150580.254,12.207,16.602,17.578,12.695,36.133,0
150580.258,25.391,31.738,35.156,23.438,101.562,0
150580.262,33.691,34.668,36.621,26.855,28.320,0
150580.266,26.367,22.949,30.762,12.207,-38.574,0
150580.270,20.996,21.484,30.762,13.672,8.301,0
150580.273,25.391,7.812,32.227,27.832,81.543,0
150580.277,34.668,20.020,39.062,36.133,84.473,0
150580.281,29.297,39.062,38.574,29.297,32.227,0
150580.285,21.484,34.668,33.203,21.484,1.953,0
150580.287,27.832,35.645,32.227,23.438,61.523,0
150580.290,31.738,37.598,35.156,24.902,105.469,0
150580.294,23.926,35.156,29.785,17.578,52.734,0
150580.298,18.555,27.344,20.996,14.648,9.277,0
150580.302,27.344,17.578,20.996,24.414,31.738,0
150580.306,42.480,24.902,23.926,35.645,66.406,0
150580.310,47.363,29.297,33.203,35.645,57.129,0
150580.314,39.062,14.648,39.062,26.855,32.227,0
150580.318,33.203,27.832,34.668,21.484,18.555,0
150580.322,32.715,43.457,31.250,20.020,25.391,0
150580.326,30.762,36.621,33.203,19.043,57.617,0
150580.330,23.926,34.180,23.926,14.160,38.574,0
150580.331,29.297,32.227,17.090,15.625,9.277,0
150580.335,40.039,23.438,23.438,21.973,20.996,0
150580.339,39.062,20.996,24.414,20.996,43.457,0
150580.343,40.039,31.738,29.785,22.949,31.250,0
150580.347,46.875,27.832,25.391,28.320,9.766,0
150580.351,43.945,15.625,22.949,34.668,69.824,0
150580.355,36.621,24.414,31.738,33.691,85.938,0
150580.359,41.992,37.598,30.762,27.344,48.340,0
150580.363,46.387,32.715,28.809,26.855,7.324,0
150580.367,48.828,23.438,33.691,28.809,-10.742,0
150580.371,42.480,12.207,33.203,30.273,80.078,0
150580.374,32.227,13.184,26.367,27.344,67.383,0
150580.376,29.297,37.109,20.508,22.461,0.488,0
150580.380,40.527,45.898,20.508,27.832,23.438,0
150580.384,47.852,37.109,22.949,25.391,66.895,0
150580.388,36.621,26.855,22.461,17.090,66.406,0
150580.392,29.297,26.367,28.809,27.832,28.320,0
150580.396,38.574,30.273,43.945,38.086,24.414,0
150580.400,42.969,18.555,47.852,36.133,54.688,0
150580.404,30.273,8.789,41.992,30.273,63.965,0
150580.408,29.785,26.855,37.598,29.785,7.324,0
150580.412,18.555,20.508,23.926,19.531,-34.668,0
150580.416,2.930,7.812,8.301,7.324,38.086,0
150580.419,11.719,10.254,11.230,8.301,59.082,0
150580.422,19.531,20.020,25.879,11.230,-0.977,0
150580.426,21.973,26.367,38.574,20.020,2.930,0
150580.430,34.668,23.926,37.598,25.391,70.801,0
150580.433,41.504,26.367,29.297,23.926,105.469,0
150580.437,36.621,31.250,23.438,16.113,79.590,0
150580.441,28.809,29.785,22.461,10.742,-7.324,0
150580.445,23.926,19.043,23.438,15.625,1.953,0
150580.449,29.297,-5.859,30.762,23.438,68.359,0
150580.453,31.250,5.859,42.480,20.020,44.922,0
150580.457,34.668,37.598,49.805,21.484,-4.395,0
150580.461,40.039,43.945,45.410,33.203,-25.879,0
150580.465,37.109,41.016,24.414,27.344,57.617,0
150580.467,34.668,29.785,23.438,18.555,98.633,1
150580.470,20.996,26.367,29.785,10.742,44.434,0
150580.474,14.160,19.043,22.461,5.859,18.066,0
150580.478,24.414,16.113,24.902,15.137,63.965,0
150580.482,27.344,22.949,27.832,20.508,104.980,0
150580.486,18.066,17.578,31.738,11.230,58.105,0
150580.490,4.395,15.137,29.785,0.488,-5.859,0
150580.494,7.812,33.203,20.508,6.348,4.883,0
150580.498,18.555,23.926,18.555,12.695,51.270,0
150580.502,20.020,13.184,25.879,10.254,72.754,0
150580.506,20.996,25.879,27.832,5.859,16.602,0
150580.510,16.113,31.250,27.344,14.648,-11.719,0
150580.511,23.438,26.855,28.320,22.949,55.176,0
150580.515,39.551,41.016,29.785,26.855,101.074,0
150580.519,31.250,39.551,32.715,22.461,29.297,0
150580.523,16.113,26.855,31.738,12.207,-0.977,0
150580.527,13.184,16.602,31.250,6.836,48.828,0
150580.531,20.020,7.812,31.738,9.766,45.898,0
150580.535,16.113,24.414,31.250,7.324,-31.738,0
150580.539,-1.953,27.832,21.484,-5.371,-62.988,0
150580.543,3.418,22.461,18.066,2.441,7.812,0
150580.547,27.344,39.551,26.855,17.090,41.504,0
150580.551,27.344,44.434,31.250,15.137,19.043,0
150580.554,6.836,35.645,20.508,8.301,4.395,0
150580.556,15.137,32.227,24.902,23.926,34.668,0
150580.560,24.902,27.832,27.832,29.785,77.148,0
150580.564,17.578,25.879,34.180,21.484,72.754,0
150580.568,20.020,22.949,43.457,23.926,30.762,0
150580.572,20.020,22.949,34.180,24.902,26.367,0
150580.576,17.578,24.902,31.738,31.250,59.082,0
150580.580,23.438,13.672,38.574,31.738,66.406,0
150580.584,22.461,22.949,32.715,17.090,60.059,0
150580.588,24.414,46.875,25.879,22.461,24.902,0
150580.592,36.133,50.781,29.785,32.227,43.457,0
150580.596,39.551,46.875,32.227,27.344,112.305,0
150580.599,26.367,40.039,30.762,23.926,74.707,0
150580.618,24.902,30.273,32.227,24.902,14.160,0
150580.622,41.992,26.367,32.715,29.297,47.363,0
150580.626,41.992,28.320,28.320,35.156,116.699,0
150580.630,31.250,27.832,36.133,32.227,90.332,0
150580.633,26.855,33.691,38.086,27.344,23.926,0
150580.637,29.785,39.062,34.180,30.273,9.766,0
150580.641,34.668,22.461,32.227,32.227,57.129,0
150580.645,34.668,20.508,20.996,29.297,82.031,0
150580.649,26.855,40.527,20.996,29.297,-2.930,0
150580.653,27.344,34.668,31.250,28.320,-67.871,0
150580.657,36.621,34.668,31.738,29.785,-22.949,0
150580.661,37.109,43.457,25.391,29.297,21.484,0
150580.663,41.992,46.387,26.855,22.949,-0.977,0
150580.667,40.039,37.109,23.438,21.484,-32.715,0
150580.671,36.133,32.715,29.297,26.855,3.418,0
150580.675,45.898,31.250,39.062,30.273,91.309,0
150580.678,44.922,8.789,40.039,28.809,60.547,0
150580.682,48.340,19.531,41.016,32.715,-19.531,0
150580.686,52.734,57.129,30.762,39.551,64.453,0
150580.690,41.504,56.152,29.297,40.039,152.832,0
150580.694,36.621,41.504,33.691,37.598,70.312,0
150580.698,34.668,30.273,32.715,25.879,-47.852,0
150580.702,36.621,22.949,33.203,23.926,-41.504,0
150580.706,38.086,15.625,22.949,31.250,47.852,0
150580.708,46.875,26.855,32.227,30.273,62.012,0
150580.712,47.852,37.109,45.898,29.785,-3.906,0
150580.716,37.598,38.574,35.645,32.227,-13.672,0
150580.720,35.645,38.574,28.809,35.645,58.594,0
150580.724,30.762,24.414,38.086,28.320,78.125,0
150580.728,14.648,24.902,41.016,15.625,58.105,0
150580.731,8.789,31.250,40.039,12.695,41.504,0
150580.735,27.344,35.156,36.621,22.461,79.590,0
150580.739,41.992,36.621,27.344,29.785,103.516,0
150580.743,43.945,37.598,34.668,28.320,53.711,0
150580.747,34.180,35.645,37.109,22.949,-4.395,0
150580.751,25.879,24.414,34.180,23.926,7.812,0
150580.752,30.273,22.949,39.551,30.273,85.938,0
150580.756,25.879,32.715,38.574,19.043,79.102,0
150580.760,14.160,31.738,35.156,14.648,-1.465,0
150580.764,14.648,20.020,37.598,16.602,-12.207,0
150580.768,20.020,16.602,31.738,15.625,27.344,0
150580.772,20.508,33.203,27.344,24.414,20.020,0
150580.776,22.949,38.086,33.691,30.273,-40.039,0
150580.780,24.902,23.438,40.527,35.156,-12.207,0
150580.784,40.039,36.133,48.828,42.480,50.781,0
150580.788,44.434,50.781,43.457,39.551,50.293,0
150580.792,32.715,49.805,36.621,32.227,-7.812,0
150580.795,29.297,45.898,39.062,21.973,-80.566,0
150580.797,36.133,40.039,38.574,23.438,-60.059,0
150580.800,43.945,38.086,36.133,30.762,6.836,0
150580.804,37.598,25.879,29.297,23.926,-11.230,0
150580.808,27.344,22.949,24.902,15.137,-75.684,0
150580.812,29.785,29.785,27.832,21.973,-30.273,0
150580.816,34.668,21.973,29.785,33.203,54.688,0
150580.820,41.992,24.902,34.668,39.062,28.809,0
150580.824,41.016,32.227,41.504,30.273,-41.504,0
150580.828,30.273,24.414,35.645,19.531,-53.223,0
150580.832,41.016,28.320,31.738,30.273,29.297,0
150580.836,44.434,41.992,30.762,36.133,59.082,0
150580.840,29.785,39.551,30.273,24.414,-3.906,0
150580.841,27.832,32.715,36.133,19.531,-33.203,0
150580.845,32.227,27.344,41.504,21.973,19.531,0
150580.849,41.504,33.203,35.645,25.879,68.848,0
150580.853,41.016,35.645,29.785,28.809,25.879,0
150580.857,29.297,26.855,33.203,18.555,-25.879,0
150580.861,32.715,24.902,33.203,19.531,5.371,0
150580.865,36.133,26.855,18.555,23.438,69.824,0
150580.869,31.250,39.062,16.602,16.602,89.844,0
150580.873,28.809,37.598,31.250,18.066,50.293,0
150580.877,39.062,27.832,43.945,33.691,55.664,0
150580.881,51.270,34.180,43.945,37.598,115.234,0
150580.884,50.781,50.781,38.574,30.273,111.328,0
150580.888,39.062,48.340,41.016,27.832,65.918,0
150580.892,22.949,29.297,29.297,8.789,33.691,0
150580.896,17.578,28.320,18.555,4.883,53.711,0
150580.899,14.160,24.902,20.508,8.789,34.180,0
150580.903,12.695,21.973,23.438,6.836,9.766,0
150580.907,18.555,31.738,28.320,14.648,8.301,0
150580.911,34.668,41.016,28.809,26.367,28.809,0
150580.915,51.758,45.410,31.250,35.156,47.852,0
150580.919,53.711,41.992,35.156,40.039,37.598,0
150580.923,41.992,32.227,26.855,33.691,0.977,0
150580.927,34.180,34.180,33.691,25.391,-3.418,0
150580.931,40.039,36.133,40.527,29.785,39.551,0
150580.931,38.086,23.438,29.785,23.438,39.551,0
150580.935,21.484,26.855,21.484,10.742,-19.043,0
150580.939,21.973,39.551,26.855,16.602,-28.809,0
150580.943,33.691,42.480,28.320,19.043,51.758,0
150580.947,29.785,46.387,24.414,14.160,75.684,0
150580.951,25.879,41.992,30.762,16.602,-7.812,0
150580.955,29.297,35.645,40.039,20.996,-59.082,0
150580.959,31.738,32.227,45.898,20.996,32.227,0
150580.963,37.109,35.156,38.086,21.973,97.168,0
150580.967,31.738,33.691,32.227,21.484,62.988,0
150580.971,26.855,22.461,32.715,24.414,26.367,0
150580.974,23.926,34.180,17.090,22.949,53.711,0
150580.992,24.902,39.062,10.742,16.602,116.699,0
150580.995,19.531,28.320,23.438,12.207,78.613,0
150580.999,11.230,24.902,30.273,10.742,11.230,1
150581.003,23.926,29.785,38.086,26.855,-8.789,0
150581.007,34.668,33.203,38.574,36.133,32.715,0
150581.011,32.227,31.738,33.203,24.902,44.434,0
150581.015,23.926,33.691,33.203,12.207,11.719,0
150581.019,22.949,36.133,31.250,18.066,35.645,0
150581.023,40.039,41.016,34.668,37.598,68.848,0
150581.027,42.969,29.297,33.691,30.762,29.297,0
150581.031,20.996,20.508,21.973,9.766,-10.742,0
150581.035,10.254,39.551,19.531,10.254,-15.625,0
150581.037,18.066,37.109,26.855,19.043,31.738,0
150581.041,22.949,24.414,31.250,20.020,59.082,0
150581.044,23.926,27.832,27.832,15.137,39.551,0
150581.048,33.691,34.668,34.668,22.949,-26.855,0
150581.052,42.969,40.527,35.645,38.086,-45.898,0
150581.056,38.574,30.762,26.367,31.738,25.879,0
150581.060,27.344,29.297,30.273,21.484,30.273,0
150581.064,28.320,43.945,40.527,29.785,13.184,0
150581.068,31.250,32.715,37.598,28.809,47.852,0
150581.072,28.320,19.531,25.391,17.578,42.969,0
150581.076,22.949,14.160,21.484,13.672,14.648,0
150581.080,21.973,29.785,30.762,18.066,18.066,0
150581.082,37.598,46.387,41.016,31.250,0.488,0
150581.085,42.480,45.410,32.227,34.668,59.082,0
150581.089,36.621,44.434,24.902,31.250,103.516,0
150581.093,30.762,27.344,25.391,20.996,36.621,0
150581.097,26.367,24.902,25.391,15.137,13.672,0
150581.101,30.762,30.762,32.227,33.203,62.012,0
150581.105,37.109,35.156,37.598,43.457,93.262,0
150581.109,27.344,40.527,35.645,31.250,45.410,0
150581.113,21.973,30.762,40.039,32.227,-2.441,0
150581.117,36.621,24.902,45.410,40.039,20.020,0
150581.121,39.062,36.621,33.691,36.133,54.688,0
150581.125,32.715,38.086,21.973,26.367,51.270,0
150581.127,37.598,38.574,28.809,29.297,-2.441,0
150581.131,40.527,41.016,34.668,38.574,2.441,0
150581.135,42.969,44.922,28.809,40.039,52.734,0
150581.139,43.945,37.109,31.738,34.180,44.922,0
150581.143,39.062,28.809,47.852,34.668,3.418,0
150581.147,39.062,34.668,52.246,40.527,-15.137,0
150581.151,37.598,28.809,41.016,36.621,58.105,0
150581.154,31.738,20.020,29.785,20.996,85.938,0
150581.158,20.508,32.715,28.809,10.742,18.066,0
150581.162,15.137,38.086,33.691,21.484,-18.066,0
150581.166,23.438,39.062,30.273,34.180,42.969,0
150581.170,33.691,29.297,27.832,23.438,95.215,0
150581.172,32.715,28.809,30.762,11.230,76.172,0
150581.176,31.738,41.504,34.180,13.672,21.973,0
150581.180,26.855,34.180,27.832,17.578,11.719,0
150581.184,33.691,30.273,17.578,23.926,52.246,0
150581.188,39.551,22.461,29.785,26.367,46.387,0
150581.192,31.250,25.879,44.922,26.855,-40.039,0
150581.196,36.621,41.504,46.875,34.668,-33.691,0
150581.199,45.410,40.039,42.969,40.527,91.309,0
150581.203,42.969,36.621,31.738,28.320,61.035,0
150581.207,37.598,39.062,28.809,24.902,4.395,0
150581.211,34.668,31.250,31.738,33.203,4.395,0
150581.215,40.039,20.996,35.645,37.598,24.902,0
150581.232,48.828,31.250,38.086,40.039,63.965,0
150581.236,41.992,36.133,28.809,35.645,65.430,0
150581.240,30.762,31.738,22.461,29.785,15.625,0
150581.244,36.133,35.645,30.762,32.227,13.672,0
150581.248,38.574,41.016,45.898,38.574,72.754,0
150581.252,32.227,35.645,44.434,37.109,27.832,0
150581.256,33.691,33.691,41.016,38.574,-51.270,0
150581.259,47.852,34.668,48.828,44.434,-46.387,0
150581.263,45.898,21.973,41.992,37.109,1.465,0
150581.267,37.109,27.344,23.438,29.785,13.184,0
150581.271,30.762,28.320,21.973,24.902,-39.062,0
150581.275,30.273,18.555,31.738,24.414,-52.734,0
150581.262,40.039,29.785,31.738,32.227,31.738,0
150581.266,33.691,37.598,32.715,27.832,53.223,0
150581.270,24.902,44.922,32.715,18.555,2.930,0
150581.274,32.715,41.016,26.367,21.484,-19.043,0
150581.278,33.203,28.320,25.879,28.320,14.648,0
150581.282,27.832,22.949,32.227,32.715,36.621,0
150581.286,30.762,23.438,41.504,28.809,-2.441,0
150581.290,32.227,29.297,35.156,25.391,-20.508,0
150581.294,31.738,26.855,28.809,30.273,13.672,0
150581.298,29.297,20.508,30.273,27.344,62.988,0
150581.302,30.762,31.738,40.039,26.367,9.766,0
150581.305,29.785,41.504,38.574,20.508,-34.180,0
150581.307,26.855,20.996,22.461,17.578,25.879,0
150581.311,40.039,15.625,27.832,27.832,61.523,0
150581.315,43.457,33.691,26.367,23.926,29.785,0
150581.319,22.949,32.715,23.926,8.301,-37.598,0
150581.323,27.832,34.180,41.992,11.719,-1.465,0
150581.327,46.387,42.969,44.922,30.762,95.703,0
150581.331,39.551,32.227,19.043,20.996,124.023,0
150581.335,24.902,27.344,14.648,1.465,46.387,0
150581.339,20.996,30.762,37.109,6.836,-25.879,0
150581.343,34.180,35.645,53.223,25.391,22.461,0
150581.346,39.551,43.457,37.598,27.832,67.383,0
150581.350,25.391,32.227,13.672,11.719,30.273,0
150581.354,17.578,18.066,22.949,1.465,-38.086,0
150581.358,23.926,14.648,32.227,12.695,-20.020,0
150581.362,30.762,21.484,23.438,13.672,31.250,0
150581.366,37.598,29.297,19.043,13.672,25.879,0
150581.370,36.133,40.039,22.461,31.250,-2.930,0
150581.374,31.738,47.363,35.645,30.273,-48.340,0
150581.378,50.293,54.199,48.828,24.902,1.465,0
150581.382,52.734,52.246,43.457,22.461,53.711,0
150581.386,34.180,33.203,26.855,14.160,-22.949,0
150581.390,24.414,22.461,21.484,9.277,-77.637,0
150581.393,28.320,29.297,23.926,22.949,-7.812,0
150581.397,33.203,29.785,28.320,30.273,83.984,0
150581.412,20.996,15.625,24.902,21.973,44.434,0
150581.415,21.484,3.906,24.902,18.555,-29.297,0
150581.419,26.855,20.020,27.832,14.160,15.137,0
150581.423,39.062,49.805,26.367,24.414,82.031,0
150581.427,60.547,57.617,38.574,41.016,23.438,0
150581.431,42.480,49.316,43.945,38.574,-51.758,0
150581.435,32.227,21.973,30.762,28.809,-28.320,0
150581.439,46.387,11.230,21.973,30.273,30.762,0
150581.443,43.457,31.250,26.367,28.809,37.598,0
150581.447,24.414,30.273,27.832,19.531,-29.297,0
150581.451,25.879,21.484,24.902,17.578,-44.922,0
150581.455,37.598,21.973,24.902,29.785,66.406,0
150581.457,30.762,25.879,29.297,26.367,79.102,0
150581.460,35.645,37.598,38.574,19.531,-0.488,0
150581.464,38.086,28.320,37.109,26.367,22.949,0
150581.468,41.504,31.250,36.133,43.457,65.430,0
150581.472,51.758,51.270,39.062,51.758,70.312,0
150581.476,44.434,41.504,35.645,36.621,44.434,0
150581.480,39.062,33.203,24.414,25.391,0.000,0
150581.484,49.316,37.598,31.738,44.434,27.344,0
150581.488,60.059,34.668,41.992,55.664,64.941,0
150581.492,51.758,21.484,39.551,39.062,39.551,0
150581.496,31.738,26.855,44.922,29.785,-5.371,0
150581.499,24.902,41.504,46.875,35.645,1.953,0
150581.502,34.668,34.668,35.156,39.062,65.430,0
150581.505,34.668,32.227,24.902,29.297,59.570,0
150581.509,28.809,42.480,32.227,27.344,7.324,0
150581.513,29.785,25.879,37.109,30.273,1.465,0
150581.517,36.621,22.949,32.715,30.273,51.270,0
150581.521,38.574,34.668,29.785,27.344,84.473,0
150581.525,39.062,29.297,31.250,26.855,78.125,0
150581.529,42.480,34.668,34.668,33.203,36.133,0
150581.533,36.133,30.273,33.203,26.367,4.395,0
150581.537,27.344,20.996,27.832,10.742,40.527,0
150581.541,19.531,27.832,26.855,6.348,28.809,0
150581.544,19.531,32.715,31.738,11.230,-5.371,0
150581.546,30.273,28.320,29.297,20.508,25.879,0
150581.550,37.109,28.809,23.438,23.926,82.031,0
150581.554,37.109,34.180,27.832,22.949,58.105,0
150581.558,40.039,35.645,41.016,27.344,-19.043,0
150581.562,33.691,27.344,41.504,25.879,-8.301,0
150581.566,36.621,24.414,32.227,30.762,18.066,0
150581.570,43.457,33.691,25.879,35.645,15.137,0
150581.574,46.387,40.527,30.273,34.180,-17.090,0
150581.578,38.574,33.691,33.691,24.414,-71.289,0
150581.582,35.645,17.090,34.668,23.438,12.207,0
150581.586,50.781,17.090,43.457,37.109,74.219,0
150581.589,54.688,39.551,48.340,39.062,24.902,0
150581.593,44.434,49.316,39.062,27.344,-10.254,0
150581.597,44.922,43.457,21.973,24.414,48.340,0
150581.601,45.410,34.668,13.184,27.344,101.074,0
150581.605,28.809,29.785,15.625,24.902,59.570,0
150581.608,33.203,31.250,29.785,25.391,5.859,2
150581.612,38.086,34.668,41.016,32.715,45.898,0
150581.616,49.316,20.996,40.039,34.668,90.820,0
150581.620,50.293,23.438,32.227,32.227,25.391,0
150581.624,26.855,40.527,29.785,33.203,6.836,0
150581.628,24.902,33.691,30.273,23.438,25.879,0
150581.632,35.156,10.742,29.297,21.973,47.363,0
150581.636,50.781,20.996,38.086,31.738,74.219,0
150581.637,50.293,48.828,45.898,30.762,42.480,0
150581.640,30.762,44.922,43.945,34.180,45.410,0
150581.644,36.621,31.738,27.344,32.227,91.797,0
150581.648,48.828,40.039,21.484,29.297,111.328,0
150581.652,38.574,38.574,22.461,23.926,62.012,0
150581.656,26.367,2.441,14.648,23.926,-34.668,0
150581.660,24.902,9.277,13.184,27.832,-21.484,0
150581.664,48.828,41.992,33.691,41.016,29.297,0
150581.668,50.781,48.828,43.457,47.363,31.738,0
150581.672,29.785,42.969,33.203,31.738,-22.949,0
150581.676,37.598,26.855,34.180,31.738,-12.207,0
150581.679,59.570,34.180,34.668,35.645,62.500,0
150581.682,44.434,39.062,21.484,23.926,68.359,0
150581.685,27.832,28.320,18.555,25.391,20.020,0
150581.689,30.762,27.832,34.668,33.203,3.418,0
150581.693,27.832,17.090,39.551,33.691,68.359,0
150581.697,36.133,24.902,35.156,35.645,119.629,0
150581.701,37.109,38.086,26.367,29.297,57.617,0
150581.705,43.457,43.457,34.668,39.062,-31.738,0
150581.709,44.922,40.039,42.969,43.457,15.137,0
150581.713,29.297,30.762,23.926,29.785,103.027,0
150581.717,27.832,27.344,22.461,29.785,66.895,0
150581.721,27.344,26.367,32.715,30.762,15.137,0
150581.724,33.203,31.738,36.133,37.598,38.086,0
150581.742,51.758,32.227,39.062,42.480,98.633,0
150581.745,45.410,19.531,31.738,36.133,91.797,0
150581.749,35.645,23.438,20.508,37.598,34.180,0
150581.753,45.898,39.551,27.344,43.457,36.621,0
150581.757,54.199,41.992,40.527,42.969,95.703,0
150581.761,47.363,38.086,49.805,36.621,83.008,0
150581.765,27.832,27.832,38.574,20.996,32.715,0
150581.769,23.926,27.832,28.320,21.484,14.160,0
150581.773,29.297,20.020,24.902,35.645,65.918,0
150581.777,35.645,18.555,23.438,37.109,116.211,0
150581.781,40.527,34.180,30.762,32.227,104.492,0
150581.784,31.250,38.574,37.109,32.715,68.848,0
150581.787,33.691,46.387,43.457,44.922,72.266,0
150581.791,42.969,36.621,32.227,54.688,119.629,0
150581.795,44.922,24.902,28.809,43.945,84.961,0
150581.798,42.480,34.668,41.992,37.109,26.367,0
150581.802,46.875,29.297,39.551,42.480,50.293,0
150581.806,54.688,22.461,29.297,49.805,113.770,0
150581.810,42.480,35.645,31.250,41.016,71.777,0
150581.814,38.574,43.457,42.969,32.227,-6.348,0
150581.818,48.828,46.387,45.898,45.410,2.930,0
150581.822,45.898,41.504,38.574,42.969,45.410,0
150581.826,31.250,30.762,31.250,19.531,64.453,0
150581.830,23.926,29.785,23.926,17.578,27.344,0
150581.832,24.414,26.855,18.066,22.461,-13.184,0
150581.836,31.738,22.949,22.461,20.020,71.777,0
150581.840,32.715,31.250,33.691,27.832,99.609,0
150581.844,34.180,44.922,42.480,36.621,13.672,0
150581.848,35.645,43.945,39.551,32.227,-16.113,0
150581.852,26.367,39.551,24.414,25.391,27.832,0
150581.856,24.902,33.691,27.832,20.996,97.656,0
150581.859,32.715,34.180,41.016,21.973,93.750,0
150581.863,34.668,41.504,41.016,28.320,24.902,0
150581.867,33.691,38.574,29.785,30.762,24.902,0
150581.871,27.832,23.438,20.996,26.367,71.289,0
150581.875,29.297,25.879,20.508,31.250,87.402,0
150581.879,36.133,41.992,27.832,34.668,74.219,0
150581.883,36.621,36.621,36.621,35.645,38.086,0
150581.887,57.129,33.203,41.504,51.758,78.613,0
150581.891,64.453,38.086,45.898,54.688,71.289,0
150581.895,41.992,35.156,40.527,32.715,7.324,0
150581.899,27.344,41.016,21.484,23.438,-7.812,0
150581.902,27.344,41.016,7.324,26.855,28.320,0
150581.906,33.691,25.391,23.438,31.738,56.641,0
150581.910,30.273,23.438,36.133,25.391,17.090,0
150581.914,26.367,44.434,24.902,18.555,-10.742,0
150581.918,44.434,52.734,25.879,33.203,38.086,0
150581.922,56.641,41.992,36.621,42.480,93.750,0
150581.922,46.387,38.086,37.598,41.016,92.773,0
150581.926,38.086,44.434,35.156,34.180,57.617,0
150581.930,33.691,38.574,26.855,25.879,63.477,0
150581.934,37.109,35.156,22.949,27.344,107.910,0
150581.937,48.828,32.715,28.320,21.484,81.055,0
150581.941,29.785,24.414,27.832,14.160,2.441,0
150581.945,8.789,26.367,33.691,21.973,-10.742,0
150581.949,29.785,34.668,31.250,26.367,34.668,0
150581.953,44.922,37.598,23.926,27.832,37.109,0
150581.957,43.945,39.551,25.879,29.785,41.992,0
150581.961,34.180,41.016,28.320,18.555,41.504,0
150581.965,34.180,27.344,36.133,17.578,69.824,0
150581.967,41.992,16.113,41.504,19.531,91.309,0
150581.971,34.668,31.738,36.133,17.090,22.949,0
150581.974,26.855,37.598,30.273,14.160,-41.016,0
150581.978,40.527,37.598,35.645,16.113,-4.883,0
150581.982,42.969,47.363,31.738,22.461,66.895,0
150581.986,28.809,49.316,22.949,7.812,80.078,0
150581.990,29.297,29.297,29.785,-2.930,-1.953,0
150581.994,34.180,20.020,39.551,6.836,-54.199,0
150581.998,32.715,28.320,30.762,9.766,8.789,0
150582.002,26.855,34.668,15.625,2.930,76.660,0
150582.006,20.996,46.875,23.926,5.859,41.016,0
150582.010,31.250,40.527,42.480,12.695,-11.719,0
150582.012,48.340,29.297,39.062,17.090,55.664,0
150582.015,48.340,41.504,35.156,14.648,122.070,0
150582.019,37.598,36.621,28.320,16.602,60.547,0
150582.023,44.922,32.715,26.367,19.043,0.000,0
150582.027,44.922,35.645,31.250,11.719,47.852,0
150582.031,41.504,33.203,27.832,12.695,82.031,0
150582.035,45.410,33.691,32.227,6.836,8.789,0
150582.039,32.715,34.668,38.574,-0.488,-41.504,0
150582.043,23.438,27.344,34.668,5.371,27.344,0
150582.047,34.180,27.832,35.645,16.602,72.266,0
150582.051,33.203,34.668,28.809,10.742,38.574,0
150582.055,20.020,29.297,27.832,4.395,-7.812,0
150582.057,35.156,34.180,36.621,17.578,-11.230,0
150582.061,48.340,36.133,40.039,20.996,34.180,0
150582.065,34.668,18.555,44.434,7.812,42.480,0
150582.069,27.832,17.090,45.898,-0.977,8.301,0
150582.073,27.832,31.738,41.016,-5.371,-28.320,0
150582.077,37.109,40.039,36.621,5.859,36.621,0
150582.081,35.645,37.598,30.273,5.371,76.172,0
150582.085,24.414,37.109,20.508,-11.230,-17.578,0
150582.088,25.879,39.062,26.367,-7.812,-19.531,0
150582.092,31.738,37.598,26.855,4.395,13.672,0
150582.096,39.062,29.297,27.832,6.348,-4.395,0
150582.100,44.922,20.020,40.527,7.324,-20.020,0
150582.103,29.297,30.762,24.902,-0.977,-29.297,0
150582.107,26.367,42.480,29.297,-0.488,-11.230,0
150582.111,41.504,36.621,42.480,3.906,28.320,0
150582.115,29.297,35.156,33.691,-3.418,56.641,0
150582.118,29.785,36.133,29.297,-7.812,25.391,0
150582.122,41.016,36.133,31.738,-0.977,-31.738,0
150582.126,25.391,37.109,29.785,9.766,-10.254,0
150582.130,27.344,36.133,22.949,12.207,33.203,0
150582.134,29.785,30.273,22.461,-0.488,-1.953,2
150582.138,28.320,24.902,29.785,-0.977,-33.691,0
150582.142,41.504,31.250,34.180,16.113,22.949,0
150582.146,44.434,37.109,35.645,11.719,71.777,0
150582.162,37.109,40.039,37.109,12.695,37.109,0
150582.166,35.645,40.039,43.457,19.531,-36.621,0
150582.169,39.062,17.578,41.504,17.578,-14.160,0
150582.173,34.668,13.184,29.785,10.254,51.270,0
150582.177,28.320,43.457,28.320,6.836,6.348,0
150582.181,34.668,58.105,34.180,11.719,-75.684,0
150582.185,44.434,39.062,21.484,18.066,-40.527,0
150582.189,51.758,34.668,26.855,31.738,58.105,0
150582.193,58.105,42.480,48.828,33.203,54.688,0
150582.197,52.246,42.480,48.828,29.785,-20.508,0
150582.201,36.133,37.109,34.180,25.879,-23.438,0
150582.205,30.762,28.320,13.672,13.672,59.082,0
150582.207,37.109,23.438,15.625,17.578,74.219,0
150582.210,40.039,19.531,36.133,22.461,39.551,0
150582.214,39.551,37.598,43.457,20.996,-8.301,0
150582.218,55.176,44.434,39.551,29.297,9.277,0
150582.222,61.035,40.527,39.062,32.227,42.480,0
150582.226,33.203,30.273,43.457,17.578,23.926,0
150582.230,26.367,29.785,42.969,11.230,-17.090,0
150582.234,26.367,40.527,37.598,24.902,-13.184,0
150582.238,27.344,34.668,25.391,27.344,27.344,0
150582.242,31.738,30.273,21.484,14.160,54.199,0
150582.246,30.273,34.668,34.180,13.672,57.617,0
150582.250,35.156,37.598,41.504,26.855,68.359,0
150582.252,36.133,16.113,38.086,32.715,129.395,0
150582.255,38.574,23.438,27.832,26.367,112.305,0
150582.259,46.387,55.664,32.715,21.484,27.344,0
150582.263,37.109,48.340,35.156,11.719,-13.672,0
150582.267,40.039,36.133,33.691,16.113,81.543,0
150582.271,46.387,28.809,38.574,17.090,124.023,0
150582.275,41.016,34.668,44.922,4.883,47.852,0
150582.279,29.785,48.340,50.781,4.395,11.230,0
150582.283,14.160,33.203,32.227,-0.977,7.812,0
150582.287,27.344,34.180,30.762,7.324,59.570,0
150582.291,44.434,41.504,28.809,16.602,44.434,0
150582.295,42.480,42.969,17.090,12.695,-34.180,0
150582.297,31.250,29.297,25.391,8.301,6.348,0
150582.301,29.297,13.672,30.762,5.859,71.289,0
150582.305,34.668,32.227,33.691,7.812,34.668,0
150582.309,27.832,41.504,34.180,0.977,4.883,0
150582.312,21.484,40.527,35.156,-2.930,45.410,0
150582.316,34.180,38.086,34.180,10.742,111.328,0
150582.320,44.922,41.016,43.945,16.602,95.703,0
150582.324,39.062,50.293,48.828,5.859,11.230,0
150582.328,34.668,44.434,36.621,-6.836,-21.973,0
150582.332,29.297,34.180,31.250,-5.371,56.641,0
150582.336,29.297,29.297,34.668,4.883,116.211,0
150582.340,37.598,26.855,41.016,8.301,61.035,0
150582.344,40.039,35.156,35.156,11.230,-34.668,0
150582.348,46.387,38.574,38.086,24.414,20.020,0
150582.352,44.434,41.504,48.340,31.738,108.398,0
150582.355,42.480,48.828,44.922,32.227,84.961,0
150582.359,32.715,29.297,31.250,21.973,18.066,0
150582.363,24.414,15.625,17.090,12.695,-7.812,0
150582.367,27.832,27.344,20.996,15.137,68.848,0
150582.371,28.320,34.180,30.273,5.371,69.336,0
150582.375,30.273,33.203,39.062,9.277,3.418,0
150582.379,27.832,28.809,41.992,16.602,-8.789,0
150582.383,41.016,30.762,41.504,26.367,62.500,0
150582.387,55.664,37.109,39.551,39.551,96.191,0
150582.387,49.805,35.156,36.133,40.039,41.016,0
150582.391,47.363,28.809,31.738,38.574,-10.742,0
150582.395,44.922,38.574,34.668,39.062,0.488,0
150582.399,38.086,46.875,37.598,34.668,81.543,0
150582.403,36.621,36.621,31.738,22.949,102.051,0
150582.407,23.926,29.785,32.227,9.766,31.738,0
150582.411,28.320,32.227,41.992,21.484,23.926,0
150582.415,47.852,38.086,50.293,34.180,50.781,0
150582.419,42.969,29.297,41.504,23.438,43.945,0
150582.423,28.809,26.855,34.180,18.555,0.000,0
150582.427,24.414,37.598,33.203,17.578,28.809,0
150582.430,37.598,40.039,32.227,18.066,97.656,0
150582.432,51.270,27.344,32.715,20.996,123.535,0
150582.436,41.504,28.809,27.344,24.902,79.590,0
150582.440,30.762,50.293,25.879,25.391,43.945,0
150582.444,37.598,52.734,41.016,24.902,93.750,0
150582.448,38.086,39.062,51.270,23.926,104.492,0
150582.452,30.762,33.691,41.016,16.113,25.391,0
150582.456,30.273,35.645,30.273,8.789,-21.973,0
150582.460,37.109,38.574,35.156,18.555,2.930,0
150582.464,41.504,31.250,42.969,25.391,68.848,0
150582.468,36.621,28.320,43.457,18.555,57.617,0
150582.471,33.203,25.879,33.691,18.555,14.648,0
150582.475,37.598,28.320,31.250,21.484,35.156,0
150582.477,46.387,56.152,36.133,29.297,74.219,0
150582.481,41.504,54.688,32.715,23.926,69.824,0
150582.485,20.996,38.086,31.738,15.625,24.414,0
150582.489,15.137,32.715,36.133,23.926,30.273,0
150582.493,33.691,30.273,37.109,35.645,53.711,0
150582.497,36.621,35.645,29.297,30.762,50.293,0
150582.501,40.039,25.879,31.738,17.090,-15.137,0
150582.505,38.086,19.043,32.715,17.578,-23.926,0
150582.509,35.645,35.645,29.297,36.621,70.801,0
150582.513,41.016,44.434,24.414,43.457,101.074,0
150582.516,30.273,41.992,26.367,26.367,36.621,0
150582.520,24.414,30.273,39.551,19.043,-15.137,0
150582.537,43.945,41.016,44.434,33.203,43.945,0
150582.541,49.316,54.688,38.574,36.133,89.844,0
150582.545,28.320,37.598,34.180,15.137,25.391,0
150582.549,34.180,27.832,39.551,13.672,4.395,0
150582.553,40.527,22.949,36.133,27.344,24.902,0
150582.557,35.645,32.715,31.250,25.879,47.852,0
150582.561,41.992,46.387,26.855,15.625,78.613,0
150582.565,38.086,38.574,19.531,12.207,33.203,0
150582.569,35.156,31.250,23.926,18.066,13.184,0
150582.573,55.176,41.016,31.250,30.273,78.125,0
150582.577,43.945,27.832,18.555,14.648,83.984,0
150582.580,25.879,30.273,18.555,2.441,13.672,0
150582.582,25.879,50.781,42.969,17.090,1.465,0
150582.586,23.926,40.527,43.945,21.973,65.430,0
150582.590,25.879,36.133,34.668,16.113,85.938,0
150582.594,33.691,33.203,40.039,16.113,59.082,0
150582.598,22.949,20.996,33.203,8.301,-10.742,0
150582.602,20.020,19.043,26.855,2.930,-3.418,0
150582.606,30.762,27.832,30.273,9.277,64.941,0
150582.610,22.949,40.039,27.344,11.719,69.824,0
150582.613,25.879,48.340,34.668,14.160,13.672,0
150582.617,34.180,40.527,31.738,12.207,-9.766,0
150582.621,44.922,34.180,28.809,20.996,31.250,0
150582.625,47.852,23.438,34.668,29.297,32.227,0
150582.627,45.898,25.879,38.086,35.156,14.648,0
150582.630,43.945,34.180,34.668,33.203,24.414,0
150582.634,45.410,34.668,35.645,34.180,37.109,0
150582.638,43.945,38.086,31.250,35.156,18.555,0
150582.642,40.039,32.715,28.320,23.926,-12.207,0
150582.646,33.691,32.715,33.691,18.066,-41.504,0
150582.650,20.508,40.039,25.879,16.113,18.066,0
150582.654,34.668,45.898,31.738,22.949,68.848,0
150582.658,39.062,50.293,34.668,16.602,8.301,0
150582.662,20.020,34.180,28.809,12.207,-20.020,0
150582.666,24.902,26.367,32.715,22.949,9.277,0
150582.669,49.805,40.039,36.133,25.391,48.340,0
150582.671,52.246,40.039,37.109,16.602,37.109,0
150582.675,30.273,31.738,32.715,8.301,-19.043,0
150582.679,33.691,26.367,30.273,10.742,-6.836,0
150582.683,46.875,19.531,26.855,17.090,84.961,0
150582.687,45.898,20.508,34.180,25.391,84.473,0
150582.691,34.668,38.086,42.969,20.020,4.883,0
150582.695,26.855,53.223,39.062,19.531,-17.578,0
150582.699,38.086,51.270,37.109,27.344,53.223,0
150582.703,55.664,43.457,36.621,25.879,69.336,0
150582.707,33.203,26.855,26.367,10.254,48.828,0
150582.711,13.672,10.254,23.926,2.930,40.527,0
150582.714,34.668,20.508,27.344,13.184,17.578,0
150582.716,35.645,32.227,18.555,11.719,38.086,0
150582.720,32.227,29.297,29.785,8.789,21.484,0
150582.724,40.039,26.855,51.758,16.602,-20.508,0
150582.728,30.273,38.086,44.922,19.531,-3.906,0
150582.732,32.227,56.641,39.551,21.484,76.172,0
150582.736,34.180,44.922,30.273,15.625,72.754,0
150582.740,20.020,34.180,23.926,10.742,-40.039,0
150582.744,18.555,26.367,28.320,6.348,-73.730,0
150582.748,24.414,11.719,26.855,4.395,0.000,0
150582.752,36.621,29.297,31.738,17.090,39.062,0
150582.756,42.969,41.504,40.039,27.344,4.883,0
150582.759,28.320,33.691,38.086,25.391,-18.066,0
150582.762,23.926,26.855,31.250,19.043,30.762,0
150582.766,43.945,28.320,34.668,25.879,74.219,0
150582.770,37.109,37.109,29.785,28.809,11.719,0
150582.774,27.344,46.387,30.273,24.902,-14.648,0
150582.777,46.387,47.852,41.504,39.551,45.410,0
150582.781,60.547,41.016,37.598,43.945,73.242,0
150582.785,45.898,33.203,28.320,21.484,30.762,0
150582.789,30.762,27.832,30.762,11.230,-52.246,0
150582.793,38.086,17.578,41.504,26.367,-67.871,0
150582.797,39.062,22.949,32.715,30.273,25.391,0
150582.801,35.156,42.480,28.809,34.180,115.234,0
150582.805,40.039,49.316,33.691,37.109,48.340,0
150582.808,30.762,40.039,34.180,29.785,-14.648,1
150582.812,22.949,20.996,35.156,32.715,53.223,0
150582.816,35.156,28.320,36.133,35.645,56.641,0
150582.820,28.320,35.645,33.203,25.879,-0.977,0
150582.823,17.578,20.508,24.902,20.508,-17.090,0
150582.827,32.227,23.438,31.250,35.645,20.020,0
150582.831,45.410,32.227,44.922,50.781,45.410,0
150582.835,37.109,23.926,43.457,45.898,4.883,0
150582.839,37.598,38.086,39.551,40.039,-20.020,0
150582.843,54.199,52.246,43.457,50.781,10.254,0
150582.847,51.270,36.133,33.203,42.969,68.848,0
150582.851,43.457,35.645,32.715,34.668,71.777,0
150582.867,35.156,42.480,41.016,35.156,18.066,0
150582.871,31.250,31.738,33.203,39.551,-4.395,0
150582.875,28.320,32.715,23.438,47.363,48.340,0
150582.879,26.855,39.062,33.691,37.109,73.242,0
150582.883,26.855,37.109,49.316,38.086,10.742,0
150582.887,30.762,32.715,50.293,53.711,-5.859,0
150582.890,22.949,29.297,37.109,47.852,34.180,0
150582.894,9.277,15.137,21.973,35.156,73.730,0
150582.898,14.160,14.648,32.715,40.527,12.207,0
150582.902,21.484,41.016,33.691,50.781,-35.645,0
150582.906,31.738,45.410,17.090,54.688,25.391,0
150582.910,45.898,38.086,27.344,57.129,56.641,0
150582.911,49.805,39.551,44.434,58.594,30.762,0
150582.915,36.621,28.809,46.387,48.340,39.551,0
150582.919,30.273,21.484,43.945,54.199,63.477,0
150582.923,47.852,28.809,44.922,64.453,79.590,0
150582.927,47.852,37.109,37.109,56.152,90.820,0
150582.931,36.133,37.109,32.227,51.758,36.133,0
150582.935,43.945,40.527,42.969,62.500,8.789,0
150582.939,50.781,43.945,43.457,66.895,81.055,0
150582.943,53.223,39.551,38.574,60.059,113.281,0
150582.947,42.969,31.738,36.621,46.387,39.551,0
150582.951,41.504,41.992,24.414,49.805,0.977,0
150582.954,53.223,49.316,19.531,64.453,62.988,0
150582.957,60.547,40.039,40.039,62.988,117.676,0
150582.960,55.664,42.480,50.293,62.012,58.594,0
150582.964,43.457,40.527,36.621,54.688,14.160,0
150582.968,48.340,34.180,30.273,53.711,116.211,0
150582.972,44.922,31.738,33.203,51.270,169.922,0
150582.976,35.156,29.297,40.527,49.805,88.379,0
150582.980,24.414,28.809,35.156,44.434,29.785,0
150582.984,24.902,34.668,41.016,44.434,61.523,0
150582.988,38.086,29.785,42.969,52.246,96.191,0
150582.992,38.574,21.973,33.691,54.199,69.824,0
150582.996,31.738,20.020,41.016,51.270,-2.930,0
150583.000,35.156,39.551,35.645,56.152,-21.973,0
150583.002,39.062,45.898,25.391,55.176,37.109,0
150583.006,42.480,34.180,32.715,43.457,83.496,0
150583.010,37.109,37.109,37.598,48.340,43.457,0
150583.014,23.926,37.598,35.156,47.852,-29.785,0
150583.018,30.762,35.156,36.133,38.574,23.438,0
150583.022,40.527,36.621,40.527,36.621,89.355,0
150583.025,41.016,39.551,42.969,31.250,25.391,0
150583.029,32.715,32.227,39.551,30.762,-34.180,0
150583.033,31.738,21.973,37.109,31.250,-12.695,0
150583.037,45.410,20.996,43.945,32.227,40.527,0
150583.041,38.574,17.090,32.715,20.996,60.059,0
150583.045,29.785,32.227,29.297,7.324,8.789,0
150583.047,48.828,53.711,44.922,19.531,-19.043,0
150583.051,45.410,47.363,37.598,23.926,20.020,0
150583.055,25.391,33.203,25.879,9.277,28.320,0
150583.059,24.414,31.738,35.156,3.906,-14.648,0
150583.062,33.203,32.227,39.551,9.277,-14.160,0
150583.066,49.316,33.691,38.086,20.508,58.105,0
150583.070,54.688,37.598,37.598,20.996,82.031,0
150583.074,37.598,40.039,35.645,7.324,28.809,0
150583.078,28.320,31.738,30.273,-4.395,-18.555,0
150583.082,39.551,22.949,29.785,3.906,56.152,0
150583.086,47.852,35.156,33.203,10.254,117.676,0
150583.090,38.574,41.504,33.203,-1.465,62.012,0
150583.094,30.762,38.574,29.297,-7.324,9.277,0
150583.098,38.086,26.855,26.367,-2.930,50.293,0
150583.102,46.387,26.367,42.969,0.488,82.520,0
150583.106,39.062,42.480,46.387,-0.977,54.199,0
150583.110,29.785,39.551,36.621,-10.254,7.324,0
150583.114,28.320,27.344,37.598,-19.043,0.000,0
150583.118,34.180,27.832,41.992,-10.254,60.547,0
150583.122,31.738,32.227,41.992,-13.184,48.828,0
150583.126,27.344,40.039,34.668,-20.020,0.977,0
150583.129,36.621,44.434,33.691,-14.160,-6.836,0
150583.133,41.016,34.180,27.832,-13.184,25.879,0
150583.137,39.551,23.438,19.531,-18.066,75.684,0
150583.137,32.715,15.625,19.043,-22.949,74.219,0
150583.141,23.438,35.645,25.391,-21.973,36.133,0
150583.145,33.203,47.852,37.109,-12.207,45.898,0
150583.148,41.016,38.574,39.551,-9.766,61.523,0
150583.152,39.551,42.480,37.598,-12.695,14.160,0
150583.156,40.527,52.246,41.016,-11.230,-64.941,0
150583.160,35.156,44.922,39.551,-2.930,-62.500,0
150583.164,46.387,38.086,33.203,7.812,1.953,0
150583.168,39.551,34.668,25.391,-1.465,6.836,0
150583.172,11.230,24.414,14.648,-22.461,-29.785,0
150583.176,17.090,28.809,27.832,-22.949,-21.484,0
150583.180,37.598,34.668,41.504,-8.301,41.016,0
150583.181,31.738,23.926,33.203,-7.324,70.801,0
150583.185,31.250,14.160,33.691,0.488,22.461,0
150583.189,39.551,26.855,37.598,9.277,-13.672,0
150583.193,40.527,49.316,31.250,11.719,43.945,0
150583.197,40.527,51.270,31.738,10.742,61.035,0
150583.201,32.715,46.387,47.363,9.766,32.227,0
150583.205,19.531,42.480,49.316,8.789,-23.438,0
150583.209,10.254,27.344,29.297,4.883,-11.230,0
150583.213,22.949,21.973,21.973,16.113,66.406,0
150583.217,34.668,22.461,27.344,17.090,63.965,0
150583.221,30.762,30.762,40.527,17.090,18.066,0
150583.224,36.133,39.062,44.922,31.250,36.133,0
150583.226,45.898,27.832,39.551,31.738,104.492,0
150583.230,36.133,21.973,35.645,19.531,72.754,0
150583.234,26.855,25.391,26.367,14.160,-12.695,0
150583.238,29.297,26.855,33.691,16.602,-23.438,0
150583.242,33.691,41.016,45.410,18.555,46.875,0
150583.246,39.062,36.133,40.527,19.043,46.387,0
150583.250,38.086,23.438,32.715,17.578,1.465,0
150583.254,34.668,38.574,21.973,19.043,-21.484,0
150583.258,35.645,48.340,31.250,25.391,25.879,0
150583.262,39.551,40.039,43.457,32.715,67.383,0
150583.266,42.480,31.738,45.898,32.715,9.766,0
150583.269,42.969,29.785,49.805,30.273,-16.113,0
150583.286,37.598,31.738,43.945,34.180,24.902,0
150583.290,27.832,28.320,33.691,24.414,67.383,0
150583.294,24.414,21.973,34.180,18.066,75.195,0
150583.298,24.902,20.508,32.227,21.973,53.711,0
150583.302,18.555,27.344,26.367,20.020,18.066,0
150583.306,24.414,36.621,33.203,29.297,53.223,0
150583.310,36.621,41.016,42.969,41.016,73.730,0
150583.314,33.691,38.086,46.387,37.598,-15.625,0
150583.318,29.297,34.180,41.992,36.621,-53.711,0
150583.322,32.227,31.250,31.738,40.527,22.949,0
150583.326,39.062,26.367,29.785,44.922,73.730,0
150583.329,35.645,16.602,24.902,41.016,5.859,0
150583.333,27.832,22.461,26.367,33.691,-32.227,0
150583.337,36.621,34.668,44.434,42.480,26.367,0
150583.341,44.922,36.621,49.805,52.734,101.562,0
150583.345,39.062,39.062,44.922,42.969,82.031,0
150583.348,30.762,36.621,34.668,38.574,24.902,0
150583.352,19.043,19.043,20.508,38.574,55.176,0
150583.356,24.902,6.348,18.066,39.062,119.629,0
150583.360,27.832,27.344,28.809,36.621,108.887,0
150583.364,19.043,39.062,34.180,28.320,18.066,2
150583.368,25.391,34.668,34.668,32.227,2.930,0
150583.372,35.645,40.527,40.527,47.363,68.359,0
150583.376,34.180,32.715,43.457,51.270,72.754,0
150583.377,25.879,17.090,22.461,43.457,30.273,0
150583.380,28.809,26.855,13.672,45.898,2.930,0
150583.384,33.691,36.133,31.250,52.246,54.199,0
150583.388,34.180,29.297,36.133,56.641,98.633,0
150583.392,35.645,29.297,40.039,54.199,48.340,0
150583.396,28.809,36.621,44.434,45.410,-25.391,0
150583.400,37.598,43.457,47.363,57.129,-1.953,0
150583.404,51.758,49.316,41.992,67.871,60.059,0
150583.408,42.480,31.738,31.738,50.293,23.438,0
150583.412,25.879,28.809,31.738,38.086,-43.945,0
150583.416,11.719,26.367,27.344,37.109,-13.672,0
150583.419,20.508,17.090,22.949,45.898,42.969,0
150583.422,26.367,33.691,26.855,48.828,22.949,0
150583.425,13.672,45.898,26.855,34.668,-5.371,0
150583.429,20.508,46.875,28.320,33.691,-10.254,0
150583.433,36.133,48.340,39.062,49.805,44.922,0
150583.437,30.762,40.527,44.434,50.781,58.105,0
150583.441,8.301,20.996,38.086,34.668,-4.395,0
150583.445,-2.930,19.043,29.297,29.785,-14.160,0
150583.449,14.648,33.203,22.949,41.992,42.480,0
150583.453,24.414,23.438,17.090,45.410,83.008,0
150583.457,22.461,10.254,26.367,47.363,51.270,0
150583.461,24.902,41.992,36.621,59.082,0.977,0
150583.464,36.133,58.105,34.180,56.152,-8.301,0
150583.467,38.574,39.551,30.762,45.898,49.805,0
150583.470,28.320,34.180,24.902,40.039,11.719,0
150583.474,22.949,45.410,27.344,44.922,-24.414,0
150583.478,20.996,37.109,34.668,52.734,31.250,0
150583.482,32.715,19.043,37.109,54.688,72.266,0
150583.486,42.969,30.762,33.203,56.641,38.574,0
150583.490,29.785,43.457,21.973,56.152,-9.766,0
150583.494,23.926,43.945,23.438,54.199,8.789,0
150583.498,20.508,35.156,27.832,46.875,60.059,0
150583.502,18.555,20.508,30.762,41.992,85.938,0
150583.506,18.555,36.621,35.645,34.668,36.621,0
150583.509,8.301,47.363,28.809,30.762,13.184,0
150583.512,19.531,36.621,23.438,43.457,76.172,0
150583.515,32.715,39.551,20.508,45.410,98.145,0
150583.519,24.902,45.898,24.414,34.668,48.340,0
150583.523,19.531,39.551,31.738,37.598,-17.090,0
150583.527,28.809,31.738,30.762,48.828,2.441,0
150583.531,37.598,38.574,33.203,51.270,83.496,0
150583.535,32.227,40.527,35.156,42.480,44.922,0
150583.539,31.250,41.504,40.527,39.062,-45.410,0
150583.543,35.156,41.992,43.457,43.457,-31.250,0
150583.547,35.645,37.598,34.668,45.410,91.309,0
150583.551,38.574,40.527,32.715,44.922,104.492,0
150583.554,32.227,32.715,37.598,42.480,31.738,0
150583.558,14.160,26.855,32.715,32.715,21.484,0
150583.562,19.531,39.062,31.250,36.621,54.199,0
150583.566,29.297,42.969,33.691,42.969,100.586,0
150583.570,18.555,40.527,37.109,38.574,74.219,0
150583.574,11.719,35.156,27.344,34.180,8.789,0
150583.578,12.695,20.020,23.926,25.879,31.738,0
150583.581,30.273,35.156,46.875,31.250,78.613,0
150583.585,39.551,50.781,52.246,38.574,71.289,0
150583.589,24.902,40.527,33.203,33.691,47.363,0
150583.593,22.949,34.180,33.203,34.668,38.086,0
150583.597,33.203,26.855,40.039,39.062,72.266,0
150583.601,27.344,36.621,34.668,32.227,77.148,0
150583.618,17.090,44.922,41.504,18.066,3.906,0
150583.622,25.879,38.086,47.363,19.531,-34.180,0
150583.625,43.457,37.598,44.434,36.133,20.508,0
150583.629,47.852,36.621,40.039,34.668,25.391,0
150583.633,28.809,34.180,35.156,23.926,-6.348,0
150583.637,20.996,40.527,29.785,22.949,-11.719,0
150583.641,34.180,39.062,24.902,20.996,-4.883,0
150583.645,37.109,24.902,26.367,15.625,27.344,0
150583.649,28.320,20.996,27.832,12.695,51.758,0
150583.653,26.367,43.457,36.621,21.973,-11.719,0
150583.657,28.320,47.363,38.574,23.438,6.836,0
150583.661,38.574,28.320,35.645,34.180,93.750,0
150583.662,41.992,14.160,33.203,39.062,55.664,0
150583.666,19.531,31.250,25.391,11.719,0.488,0
150583.670,21.484,56.641,29.785,10.742,22.461,0
150583.674,43.945,57.617,44.434,26.367,61.035,0
150583.678,30.273,49.805,43.457,22.949,85.449,0
150583.682,12.695,47.363,35.645,20.508,53.711,0
150583.686,22.461,53.223,37.109,27.344,-11.719,0
150583.690,37.109,46.875,34.668,26.855,32.715,0
150583.694,29.297,33.203,30.273,15.137,64.941,0
150583.698,21.484,26.367,34.180,7.812,-32.227,0
150583.702,25.391,31.738,35.156,10.742,-57.129,0
150583.705,36.621,38.574,29.785,18.066,49.316,0
150583.708,44.922,38.086,30.762,26.367,58.594,0
150583.712,35.156,33.691,32.715,25.391,34.180,0
150583.716,33.203,35.645,38.574,23.438,27.344,0
150583.719,42.969,43.945,40.039,31.250,24.414,0
150583.723,43.945,31.250,28.809,35.156,54.688,0
150583.727,30.273,21.484,30.762,26.367,56.152,0
150583.731,24.414,43.945,45.898,25.879,-6.836,0
150583.735,32.227,54.199,43.945,31.250,9.766,0
150583.739,38.086,42.969,30.762,28.809,64.941,0
150583.743,33.691,28.809,33.691,18.066,60.547,0
150583.747,32.715,26.367,44.434,16.113,22.461,0
150583.751,45.410,45.410,46.387,31.250,20.996,0
150583.752,49.316,52.734,39.551,35.156,84.473,0
150583.755,34.668,39.551,30.762,20.508,92.773,0
150583.759,25.391,33.203,27.344,12.695,81.543,0
150583.763,27.832,33.203,30.273,17.578,37.109,0
150583.767,35.156,39.062,30.273,24.414,46.875,0
150583.771,39.062,33.691,31.250,27.832,94.727,0
150583.775,35.156,35.645,38.574,21.484,59.082,0
150583.779,33.691,56.152,41.504,16.602,12.207,0
150583.783,27.344,48.340,37.109,21.973,-20.508,0
150583.787,20.020,33.203,21.484,20.020,63.965,0
150583.791,26.855,35.156,21.973,20.020,102.539,0
150583.795,33.691,40.039,37.598,28.809,45.410,0
150583.798,27.344,35.645,32.227,25.879,20.996,0
150583.802,34.180,32.715,24.414,24.414,73.242,0
150583.806,46.387,39.062,31.250,29.297,118.652,0
150583.810,33.691,39.551,26.367,28.320,50.293,0
150583.814,15.625,40.039,25.391,24.414,-12.695,0
150583.817,13.184,39.062,36.133,24.902,54.199,0
150583.821,13.184,24.902,35.645,22.461,106.934,0
150583.825,20.020,18.066,35.156,25.879,60.059,0
150583.829,22.949,32.715,28.809,23.438,-11.230,0
150583.833,20.996,25.879,30.273,18.066,39.551,0
150583.837,26.367,19.043,37.109,31.250,102.051,0
