timestamps,TP9,AF7,AF8,TP10,Right AUX,Marker0
150865.108,38.086,41.016,61.523,26.855,70.801,0
150865.112,26.855,33.203,66.406,17.090,-6.836,0
150865.116,26.367,34.668,51.270,18.555,-25.879,0
150865.120,37.109,39.551,51.270,27.344,54.199,0
150865.124,34.668,24.902,50.293,27.344,75.195,0
150865.128,27.832,25.391,40.039,30.273,23.926,0
150865.131,28.320,39.551,44.922,38.086,-13.672,0
150865.135,30.273,50.293,44.922,36.133,21.973,0
150865.139,26.855,50.781,40.039,27.344,40.039,0
150865.143,24.902,40.527,59.082,25.879,6.836,0
150865.147,15.625,30.762,57.617,18.066,-30.762,0
150865.151,20.020,28.320,32.715,14.648,9.277,0
150865.168,39.551,49.805,44.434,30.762,75.684,0
150865.172,27.344,45.410,54.199,20.020,63.965,0
150865.176,14.648,36.621,43.457,7.812,10.742,0
150865.180,24.902,43.457,36.621,17.578,7.812,0
150865.184,28.809,36.621,37.598,19.531,74.707,0
150865.188,24.414,30.762,44.922,13.184,68.848,0
150865.192,20.508,15.625,35.645,10.254,-10.254,0
150865.195,24.902,28.809,51.758,18.066,-5.859,0
150865.199,36.133,59.570,57.129,26.855,29.297,0
150865.203,36.133,58.594,37.598,20.508,13.184,0
150865.207,24.902,41.992,42.969,12.207,-41.992,0
150865.211,20.996,37.109,43.457,16.113,-71.777,0
150865.213,32.227,44.434,39.062,26.855,-0.977,0
150865.217,41.016,37.109,60.059,35.645,53.223,0
150865.221,34.180,30.273,52.246,34.180,19.531,0
150865.225,25.879,26.367,25.391,27.832,3.906,0
150865.229,34.668,31.738,48.828,40.527,24.902,0
150865.232,41.504,45.898,60.059,45.410,36.621,0
150865.236,36.133,45.410,40.039,38.574,12.695,0
150865.240,40.527,52.246,47.363,45.410,-14.160,2
150865.244,42.480,57.129,47.852,50.781,-11.230,0
150865.248,34.180,46.387,36.621,36.133,29.785,0
150865.252,40.527,27.832,40.039,34.180,70.801,0
150865.256,40.039,25.879,35.645,44.922,71.289,0
150865.258,31.738,24.902,32.227,44.434,34.180,0
150865.262,40.039,47.363,52.734,55.664,58.594,0
150865.266,36.133,59.082,64.941,50.293,119.629,0
150865.270,13.184,34.668,50.781,17.090,40.039,0
150865.274,10.742,29.785,50.293,10.742,-68.359,0
150865.278,27.832,38.086,55.176,28.320,-26.855,0
150865.282,41.016,33.203,55.176,35.156,68.848,0
150865.286,49.316,34.180,61.035,38.574,59.082,0
150865.290,46.875,46.387,49.316,40.039,-8.789,0
150865.293,43.945,49.316,14.160,35.645,6.348,0
150865.297,43.457,55.664,25.879,33.203,42.480,0
150865.301,35.156,47.852,64.941,32.227,26.367,0
150865.303,26.855,38.086,49.316,30.762,2.930,0
150865.307,28.320,36.621,32.227,30.273,13.672,0
150865.311,35.645,30.762,39.551,31.250,93.750,0
150865.315,42.480,38.086,40.039,37.109,91.309,0
150865.319,40.039,39.062,44.922,37.598,-6.348,0
150865.323,32.227,46.875,52.734,30.762,-29.785,0
150865.326,41.992,58.105,52.734,39.062,33.203,0
150865.330,53.711,58.105,40.527,49.316,63.965,0
150865.334,38.574,39.551,37.109,40.527,-3.906,0
150865.338,22.949,19.531,42.969,25.879,-53.711,0
150865.342,24.414,25.879,52.246,26.855,7.812,0
150865.346,24.902,48.828,61.035,24.902,81.543,0
150865.348,23.926,57.617,57.617,22.461,73.242,0
150865.352,17.090,42.969,38.574,26.855,35.645,0
150865.356,18.066,28.809,30.273,34.668,19.531,0
150865.360,28.809,44.434,26.855,39.062,58.105,0
150865.364,37.598,53.711,32.715,40.527,66.406,0
150865.368,36.133,45.898,59.082,43.457,18.555,0
150865.372,28.809,24.414,72.266,37.109,3.906,0
150865.375,33.203,15.137,69.824,39.062,42.969,0
150865.379,28.809,34.668,55.664,31.250,63.477,0
150865.383,16.113,23.926,45.410,17.578,22.949,0
150865.387,20.508,27.344,43.945,22.949,-8.301,0
150865.391,36.133,50.293,40.527,36.621,22.949,0
150865.393,41.992,49.805,17.578,39.551,71.289,0
150865.397,34.668,42.480,27.344,30.762,39.062,0
150865.401,28.320,34.668,51.758,30.273,-33.691,0
150865.405,38.086,41.992,42.969,37.598,9.277,0
150865.409,52.734,49.316,54.199,47.852,53.223,0
150865.413,48.828,46.387,60.059,49.805,42.969,0
150865.417,44.434,31.738,47.852,50.293,17.578,0
150865.420,42.480,21.484,56.641,53.223,-1.465,0
150865.424,39.062,48.828,57.129,51.758,59.570,0
150865.428,19.531,45.410,46.387,31.738,88.379,0
150865.432,3.418,28.320,49.805,17.090,10.742,0
150865.436,15.625,27.832,42.969,30.273,-17.090,0
150865.455,33.203,33.203,38.574,43.945,32.227,0
150865.459,37.598,36.133,45.898,50.781,56.152,0
150865.462,31.738,35.156,41.992,44.922,-13.672,0
150865.466,25.391,33.691,51.270,32.227,-70.801,0
150865.470,35.156,30.273,59.570,43.945,26.367,0
150865.474,41.992,15.625,61.035,53.711,87.891,0
150865.478,29.785,31.738,60.547,40.527,15.625,0
150865.482,27.832,66.406,41.504,31.250,-58.105,0
150865.486,38.086,59.082,22.461,38.086,-0.977,0
150865.490,38.574,43.457,51.270,40.527,88.867,0
150865.494,20.020,38.086,70.801,23.438,60.547,0
150865.498,18.555,39.551,59.082,25.879,-19.531,0
150865.484,39.551,36.621,30.762,51.270,-4.883,0
150865.488,36.621,40.527,37.598,48.340,67.871,0
150865.492,25.879,42.480,62.988,26.367,67.383,0
150865.496,21.973,26.855,57.617,20.996,14.160,0
150865.500,22.461,26.855,49.316,28.320,29.297,0
150865.503,41.992,44.434,46.875,40.527,86.914,0
150865.507,49.316,47.852,46.875,35.156,77.637,0
150865.511,39.551,46.875,38.086,26.855,50.293,0
150865.515,41.504,41.504,48.340,33.203,53.223,0
150865.519,51.270,37.598,52.246,38.574,92.285,0
150865.523,56.152,39.551,41.504,48.340,77.148,0
150865.527,48.340,45.410,40.527,45.410,33.203,0
150865.529,31.738,51.270,35.156,30.273,-9.277,0
150865.533,30.273,55.176,26.855,27.344,-2.441,0
150865.536,54.688,45.898,18.555,39.551,47.363,0
150865.540,50.781,30.762,36.621,40.039,48.340,0
150865.544,15.137,36.621,49.805,16.113,32.227,0
150865.548,11.230,46.387,38.574,8.301,10.254,0
150865.552,28.809,49.316,52.734,23.926,26.855,0
150865.556,28.809,42.480,59.082,24.414,40.527,0
150865.560,20.508,36.133,43.457,17.090,9.766,0
150865.564,21.973,35.156,21.973,20.508,-17.578,0
150865.568,37.598,40.527,27.344,36.621,19.043,0
150865.572,41.992,33.203,46.387,41.016,93.750,0
150865.589,29.785,24.902,46.387,31.738,75.684,0
150865.593,33.203,28.320,46.875,36.133,8.789,0
150865.596,37.598,40.039,45.410,37.598,37.109,0
150865.600,30.762,55.176,42.480,28.809,120.117,0
150865.604,23.926,55.664,45.410,26.855,83.008,0
150865.608,28.320,49.316,48.828,31.250,-16.113,0
150865.612,31.738,42.969,36.133,30.273,-6.836,0
150865.616,34.668,41.504,22.461,32.715,86.914,0
150865.620,40.039,31.250,33.691,39.551,96.680,0
150865.624,34.180,28.809,38.086,37.109,17.578,0
150865.628,28.809,41.504,42.969,34.180,35.645,0
150865.632,35.645,41.016,57.129,36.133,117.188,0
150865.633,43.457,32.227,55.664,40.039,104.980,0
150865.637,37.109,30.273,49.805,40.039,12.695,0
150865.641,22.461,45.410,33.691,26.367,-37.598,0
150865.645,18.555,49.316,32.715,21.973,36.621,0
150865.649,21.484,46.875,41.016,26.367,78.125,0
150865.653,20.508,34.668,29.297,24.902,34.180,0
150865.656,17.578,27.344,42.480,19.043,-23.438,0
150865.660,30.273,43.457,66.895,27.832,29.785,0
150865.664,35.156,30.762,62.500,27.832,94.238,0
150865.668,23.926,22.949,35.156,18.066,10.254,0
150865.672,16.602,43.457,18.555,13.672,-28.809,0
150865.676,14.648,32.715,45.410,11.230,-14.160,0
150865.678,27.832,25.879,57.129,20.020,3.418,0
150865.682,38.086,43.457,45.898,21.484,35.645,0
150865.686,38.086,33.691,43.945,24.414,1.953,0
150865.690,37.109,35.156,33.691,29.785,6.348,0
150865.694,43.457,55.176,48.340,37.598,57.617,0
150865.698,40.527,41.016,62.012,35.645,63.477,0
150865.701,28.320,20.996,30.273,24.414,12.695,0
150865.705,27.832,39.062,23.926,25.391,-22.461,0
150865.709,28.809,48.828,44.434,24.414,13.184,0
150865.713,23.926,34.668,39.551,21.484,53.711,0
150865.717,20.508,37.109,42.480,19.531,11.719,0
150865.721,19.043,33.691,35.156,17.090,-28.809,0
150865.723,32.715,25.391,25.879,31.738,37.598,0
150865.727,46.875,32.227,50.781,44.922,108.887,0
150865.731,45.410,44.922,64.941,44.922,110.352,0
150865.735,33.691,38.574,51.758,37.109,59.570,0
150865.739,27.344,35.645,47.363,29.785,46.387,0
150865.743,32.715,25.391,38.574,32.227,94.727,0
150865.746,48.340,33.691,38.086,42.480,96.680,0
150865.750,47.852,42.480,46.387,42.480,11.719,0
150865.754,38.574,28.809,44.922,34.180,-18.066,0
150865.758,41.016,38.086,50.781,38.574,59.570,0
150865.762,36.133,40.039,30.762,39.551,53.711,0
150865.766,26.367,32.227,16.602,32.227,13.184,0
150865.768,26.367,34.180,46.875,32.227,13.184,0
150865.772,41.992,42.969,67.871,45.898,57.129,0
150865.776,48.828,34.180,60.059,48.340,70.312,0
150865.780,41.504,32.227,41.016,37.109,19.531,0
150865.784,36.133,30.762,30.762,29.785,-0.977,0
150865.788,39.551,21.973,38.086,35.156,27.832,0
150865.792,42.480,29.297,40.039,40.527,50.781,0
150865.795,36.621,42.480,35.156,33.203,31.738,0
150865.799,30.762,44.434,28.809,26.367,-22.949,0
150865.803,41.504,44.922,24.902,43.457,2.441,0
150865.807,48.828,42.969,28.809,54.199,88.379,0
150865.811,41.016,37.598,32.715,42.480,72.266,0
150865.813,28.320,40.527,47.852,25.879,-2.441,1
150865.817,20.020,38.574,51.758,11.719,0.488,0
150865.821,23.926,37.598,44.434,13.184,57.617,0
150865.825,27.832,27.832,42.969,15.625,64.453,0
150865.829,25.879,22.949,36.621,14.648,45.410,0
150865.833,31.738,49.316,40.527,20.996,39.062,0
150865.836,44.434,50.293,38.086,34.180,52.246,0
150865.840,47.363,45.410,33.203,42.480,61.523,0
150865.844,53.223,55.176,31.250,47.363,18.066,0
150865.848,47.852,49.316,26.855,44.434,-25.879,0
150865.852,31.738,39.551,28.320,28.320,-2.930,0
150865.856,22.461,31.250,35.645,20.020,63.965,0
150865.858,20.020,37.109,47.363,18.555,80.566,0
150865.862,21.484,38.574,45.898,16.602,27.832,0
150865.866,22.461,20.508,39.551,17.090,16.113,0
150865.870,41.504,38.574,29.785,35.645,83.008,0
150865.874,45.898,45.898,2.930,44.434,75.195,0
150865.877,25.391,33.203,8.789,28.320,17.578,0
150865.881,18.066,33.203,51.270,18.066,4.395,0
150865.885,32.227,43.945,78.613,27.344,38.086,0
150865.889,32.715,41.504,61.035,24.414,69.824,0
150865.893,21.973,34.180,42.969,16.113,45.898,0
150865.897,26.367,44.922,43.457,23.438,-6.348,0
150865.901,39.062,32.715,41.016,38.574,31.250,0
150865.904,41.992,36.621,37.598,39.062,93.750,0
150865.908,31.738,50.293,37.598,23.438,41.016,0
150865.912,19.043,41.992,26.367,18.066,-46.875,0
150865.916,21.484,38.086,10.742,19.043,-17.090,0
150865.920,39.062,42.480,28.809,32.715,45.410,0
150865.924,49.316,33.203,53.223,42.969,-18.555,0
150865.928,42.969,30.762,60.547,39.551,-48.340,0
150865.932,35.645,36.621,50.293,37.598,-21.973,0
150865.936,40.527,33.691,54.688,44.922,27.344,0
150865.940,40.039,44.922,50.293,44.434,34.180,0
150865.943,29.785,46.387,46.387,38.086,-17.090,0
150865.947,23.926,35.156,48.828,38.574,-10.742,0
150865.967,29.785,30.273,45.898,41.016,81.055,0
150865.971,38.574,37.598,44.922,40.527,110.840,0
150865.975,41.992,50.293,26.855,37.598,35.156,0
150865.979,39.551,54.199,23.438,31.250,-20.020,0
150865.983,45.410,50.293,54.199,34.180,-7.324,0
150865.987,47.852,42.969,58.594,33.203,12.695,0
150865.991,35.645,44.922,48.340,22.949,4.883,0
150865.994,38.574,47.852,56.152,31.250,-1.953,0
150865.998,52.246,36.133,52.246,46.387,-10.742,0
150866.002,39.551,36.133,36.133,34.180,62.012,0
150866.006,19.531,37.109,29.785,11.719,86.426,0
150866.010,22.461,26.855,38.086,17.578,27.344,0
150866.008,38.086,34.668,36.133,41.016,-21.484,0
150866.012,46.387,55.664,31.250,53.711,33.203,0
150866.016,38.086,53.223,25.879,38.574,78.125,0
150866.020,13.184,38.086,34.180,18.066,25.391,0
150866.024,9.277,29.297,65.918,16.602,3.906,0
150866.028,28.809,28.320,62.012,32.227,34.180,0
150866.032,38.574,28.809,43.945,41.992,83.496,0
150866.036,28.320,20.020,49.316,37.109,78.613,0
150866.040,21.484,37.109,39.551,35.645,-11.719,0
150866.044,31.250,58.594,22.949,41.992,-35.156,0
150866.048,37.109,49.805,31.250,42.480,38.086,0
150866.051,33.203,45.410,46.875,40.039,51.270,0
150866.053,30.273,43.457,55.664,41.504,4.883,0
150866.057,46.387,41.504,50.781,51.758,9.277,0
150866.061,59.082,45.898,32.715,63.477,84.961,0
150866.065,39.551,34.668,22.949,43.945,95.703,0
150866.069,24.902,41.504,34.180,26.367,26.367,0
150866.073,26.367,34.668,41.504,29.297,11.719,0
150866.077,36.621,28.320,48.828,35.156,65.918,0
150866.081,44.434,47.852,51.270,36.621,97.168,0
150866.085,48.828,50.293,24.414,42.969,32.227,0
150866.089,50.781,43.945,22.949,50.781,-12.207,0
150866.093,49.805,36.133,50.293,47.852,30.273,0
150866.096,39.062,42.480,52.734,37.109,97.656,0
150866.099,25.879,43.945,51.758,29.785,71.777,0
150866.103,35.156,47.363,58.105,45.410,-5.859,0
150866.107,38.574,44.434,38.086,47.852,16.602,0
150866.111,38.086,15.137,24.414,36.133,62.988,0
150866.115,43.457,26.367,20.996,39.062,66.406,0
150866.118,35.645,52.734,12.207,37.109,17.090,0
150866.122,33.203,38.574,31.250,35.645,12.695,0
150866.126,46.875,35.645,51.270,39.551,56.152,0
150866.130,45.898,45.410,55.664,31.738,48.828,0
150866.134,32.715,50.293,43.457,21.484,23.438,0
150866.138,28.320,41.504,24.902,22.461,1.465,0
150866.142,38.574,40.527,29.297,32.715,34.668,0
150866.144,42.969,46.387,31.250,25.879,63.477,0
150866.148,31.738,36.621,28.809,10.742,12.695,0
150866.152,25.391,33.691,40.039,17.090,0.977,0
150866.155,38.086,34.668,48.340,33.203,50.293,0
150866.159,42.969,25.391,39.551,35.645,63.477,0
150866.163,25.391,37.598,24.414,21.973,20.996,0
150866.167,22.461,51.758,29.297,19.531,-19.531,0
150866.171,38.574,43.457,43.457,24.414,-18.066,0
150866.175,39.062,34.668,36.133,26.855,61.035,0
150866.179,29.785,40.527,19.043,27.832,102.539,0
150866.183,27.344,45.898,24.902,17.578,23.926,0
150866.187,21.973,36.621,37.598,15.137,-23.438,0
150866.189,21.973,33.691,39.551,18.066,79.590,0
150866.193,23.926,41.992,44.922,20.508,147.461,0
150866.197,23.926,28.320,61.523,28.320,38.086,0
150866.201,25.879,17.090,50.781,28.320,-22.949,0
150866.205,29.785,37.109,32.227,26.855,32.227,0
150866.209,45.898,45.898,48.828,39.062,81.543,0
150866.213,40.527,41.992,51.270,40.039,55.664,0
150866.217,12.207,32.715,26.367,18.066,10.254,0
150866.221,10.742,37.109,17.578,16.602,65.430,0
150866.225,29.297,39.062,23.926,28.809,113.281,0
150866.228,28.809,31.250,34.180,23.438,83.496,0
150866.232,19.531,31.738,41.016,21.973,28.809,0
150866.233,29.297,36.621,41.016,35.645,41.504,0
150866.237,37.109,29.297,36.133,40.527,123.047,0
150866.241,29.785,23.438,29.785,36.133,109.375,0
150866.245,23.438,20.020,41.992,37.109,0.488,0
150866.249,29.297,37.109,39.062,42.969,0.488,0
150866.253,31.738,43.945,18.555,39.551,86.914,0
150866.257,35.645,34.668,31.250,34.180,69.336,0
150866.260,32.227,36.621,42.480,30.762,4.395,0
150866.264,24.414,39.551,41.016,27.344,22.461,0
150866.268,32.227,36.621,38.086,35.156,74.707,0
150866.272,41.016,37.598,35.645,38.574,109.375,0
150866.276,35.645,38.574,34.180,31.738,88.867,0
150866.278,31.250,37.109,35.156,27.832,39.062,0
150866.282,38.574,37.109,34.668,30.762,-7.812,0
150866.286,43.457,26.367,24.414,34.180,-4.883,0
150866.290,40.527,32.715,24.902,33.691,-1.465,0
150866.294,33.203,40.527,32.715,29.297,-43.457,0
150866.298,32.715,26.367,30.762,30.273,-49.805,0
150866.301,39.551,22.949,22.461,39.551,-12.207,0
150866.305,39.551,31.250,29.297,41.992,26.855,0
150866.309,35.156,36.621,39.551,35.645,5.371,0
150866.313,33.203,47.852,21.973,29.785,-28.809,0
150866.317,50.293,60.547,23.926,44.922,73.730,0
150866.321,60.547,42.480,29.297,54.199,160.156,0
150866.338,35.645,29.297,27.344,32.227,94.238,0
150866.342,20.020,41.992,54.199,21.484,22.949,0
150866.346,22.461,42.480,59.570,26.367,65.430,0
150866.350,30.762,33.691,51.270,34.668,103.027,0
150866.354,37.598,39.551,53.223,37.598,34.668,0
150866.358,40.039,43.945,45.410,36.133,-1.465,0
150866.362,36.133,35.156,26.855,31.738,16.113,0
150866.365,43.457,36.133,34.668,37.598,63.965,0
150866.369,53.223,35.156,49.316,50.781,67.383,0
150866.373,47.852,22.461,39.551,51.758,-7.812,0
150866.377,39.551,23.438,39.551,42.480,-11.230,0
150866.381,41.016,26.855,41.504,44.434,65.918,0
150866.383,36.621,41.504,41.504,42.480,86.914,0
150866.387,23.926,53.223,45.898,23.438,59.570,1
150866.391,23.438,48.828,47.363,16.113,47.363,0
150866.395,33.691,36.621,45.898,26.367,89.355,0
150866.399,37.109,24.414,33.203,30.273,122.070,0
150866.403,38.086,36.133,30.273,31.738,44.922,0
150866.406,41.016,38.086,29.297,36.621,-10.254,0
150866.410,41.992,30.762,17.578,41.504,51.270,0
150866.414,43.457,38.086,27.832,41.504,87.402,0
150866.418,36.621,21.484,56.641,33.203,30.762,0
150866.422,16.602,13.672,56.152,16.113,11.719,0
150866.426,19.043,41.504,46.387,18.555,37.109,0
150866.429,37.598,52.246,45.410,30.762,73.730,0
150866.433,35.645,44.922,29.785,26.855,104.004,0
150866.437,28.809,42.480,21.973,26.367,90.332,0
150866.440,37.109,24.902,37.598,34.668,22.949,0
150866.444,46.875,15.137,36.133,43.457,44.922,0
150866.448,45.410,22.461,20.508,41.992,78.613,0
150866.452,35.156,33.691,25.391,33.203,41.504,0
150866.456,41.992,47.363,29.785,43.945,-1.953,0
150866.460,53.223,55.664,27.832,49.316,4.883,0
150866.464,39.062,52.246,37.109,25.391,45.410,0
150866.468,19.043,33.203,41.992,10.254,5.859,0
150866.472,13.672,29.297,40.527,11.230,-54.199,0
150866.473,20.020,28.809,37.109,16.602,-3.906,0
150866.477,24.902,29.785,36.133,21.973,74.219,0
150866.481,28.320,37.109,26.855,24.414,55.176,0
150866.485,24.902,26.855,21.973,28.320,6.836,0
150866.489,35.645,27.832,37.109,44.922,19.043,0
150866.493,47.852,52.246,42.969,52.246,75.684,0
150866.497,26.855,52.734,38.574,31.250,95.703,0
150866.500,8.301,36.133,33.691,14.160,39.062,0
150866.504,15.137,30.273,33.691,19.043,-12.207,0
150866.508,34.668,35.645,38.086,38.574,55.176,0
150866.512,36.133,31.738,32.715,42.969,79.590,0
150866.516,25.391,31.250,35.645,29.785,20.996,0
150866.518,36.133,45.898,31.738,34.668,9.277,0
150866.522,53.223,46.875,30.273,50.781,15.137,0
150866.526,51.758,39.551,41.504,44.922,48.340,0
150866.530,42.480,30.273,40.527,30.762,54.199,0
150866.534,29.785,15.137,42.969,21.484,4.883,0
150866.538,33.203,32.715,47.363,25.879,32.227,0
150866.541,41.016,48.828,31.738,35.156,112.305,0
150866.545,37.109,44.434,25.391,27.832,67.383,0
150866.549,27.832,38.574,28.809,17.090,-0.488,0
150866.553,30.273,33.203,3.906,26.855,11.719,0
150866.557,49.316,41.992,22.461,41.016,42.480,0
150866.561,51.270,42.480,68.848,35.156,56.152,0
150866.564,33.203,36.133,64.453,22.949,36.621,0
150866.567,26.855,39.551,41.504,26.855,24.414,0
150866.571,45.898,43.945,34.180,45.898,36.621,0
150866.575,50.781,23.438,43.457,48.828,60.547,0
150866.579,37.598,26.855,28.320,33.691,31.250,0
150866.583,42.969,62.012,15.137,41.016,-31.250,0
150866.587,52.734,53.711,25.879,45.410,-20.020,0
150866.591,42.480,30.273,34.180,22.461,16.602,0
150866.595,40.039,40.039,32.227,26.855,27.832,0
150866.599,32.227,40.527,32.227,33.691,-9.277,0
150866.603,33.203,40.527,49.805,28.809,-13.184,0
150866.607,50.781,39.551,49.805,37.598,30.273,0
150866.610,46.875,33.203,40.527,39.062,50.293,0
150866.613,28.320,41.016,38.086,30.762,-1.465,0
150866.617,20.996,41.504,32.715,29.785,-29.785,0
150866.621,30.273,35.645,33.203,36.133,43.457,0
150866.625,33.203,29.785,33.691,36.621,66.895,0
150866.629,28.809,27.344,33.203,38.086,28.809,0
150866.633,33.691,43.457,27.344,39.551,-16.602,0
150866.637,44.922,51.270,24.902,45.410,17.090,0
150866.641,41.016,42.969,21.484,41.992,95.703,0
150866.645,35.645,46.387,17.578,35.645,80.566,0
150866.649,40.527,46.387,53.711,41.504,25.879,0
150866.653,40.527,24.414,77.637,40.039,20.020,0
150866.656,38.574,15.625,56.641,32.227,57.617,0
150866.660,31.250,30.273,28.320,26.855,41.992,0
150866.664,24.902,35.645,23.926,25.879,-18.066,0
150866.667,32.227,38.086,27.832,31.250,2.441,0
150866.671,41.992,41.504,30.273,38.086,72.754,0
150866.675,41.504,38.086,36.133,31.738,95.215,0
150866.679,41.504,35.156,41.992,31.250,28.320,0
150866.683,40.039,42.969,58.594,39.062,10.742,0
150866.687,28.809,40.039,43.457,27.832,52.246,0
150866.691,31.250,3.418,9.766,16.113,51.270,0
150866.695,30.762,6.836,3.906,19.531,4.395,0
150866.699,23.926,55.176,6.836,29.297,-35.645,0
150866.714,17.090,48.340,27.832,23.438,20.996,0
150866.718,12.695,31.738,48.828,15.137,80.078,0
150866.722,18.555,38.086,53.223,20.508,28.809,0
150866.726,27.832,35.645,43.457,25.879,-32.227,0
150866.730,34.180,29.785,28.809,28.809,43.457,0
150866.734,36.621,35.645,40.039,25.879,80.566,0
150866.738,33.691,26.855,39.062,20.020,19.043,0
150866.741,29.785,23.926,35.645,25.879,-6.836,0
150866.745,28.320,21.973,27.344,31.738,-27.832,0
150866.749,28.320,23.926,12.695,29.297,13.672,0
150866.753,28.320,41.016,31.250,23.926,51.758,0
150866.757,31.250,48.340,49.805,29.785,-15.625,0
150866.759,37.109,47.852,50.293,39.062,-40.527,0
150866.763,39.062,32.715,32.227,40.527,25.879,0
150866.766,41.992,34.180,36.133,43.945,80.566,0
150866.770,46.875,39.062,38.574,47.363,32.715,0
150866.774,42.480,28.809,17.578,45.898,-26.855,0
150866.778,35.156,28.320,19.531,38.086,-4.883,0
150866.782,31.250,22.949,33.203,25.391,51.758,0
150866.786,31.738,25.391,47.363,20.996,12.207,0
150866.790,32.715,30.762,42.969,27.344,-69.336,0
150866.794,41.016,48.340,34.180,37.598,-34.180,0
150866.798,49.316,60.547,32.227,41.504,63.965,0
150866.802,51.758,61.523,44.922,44.434,69.824,0
150866.803,50.781,61.035,39.062,48.340,5.859,0
150866.807,41.992,43.945,21.973,43.945,3.906,0
150866.811,37.109,33.691,18.555,35.645,56.641,0
150866.815,31.738,26.855,15.137,25.391,51.270,0
150866.819,25.391,17.090,27.832,24.414,5.859,0
150866.823,28.320,21.973,42.480,33.203,-38.086,0
150866.827,38.574,26.367,47.363,41.992,16.602,0
150866.831,39.062,18.066,51.758,41.504,60.059,0
150866.835,36.621,33.203,49.316,39.551,12.207,0
150866.838,35.645,57.129,46.875,44.434,-26.367,0
150866.842,37.109,45.410,49.316,41.992,41.504,0
150866.846,38.574,36.133,32.227,35.645,85.938,0
150866.848,30.273,37.598,27.344,38.574,12.695,0
150866.852,29.297,36.133,34.180,39.062,-26.855,0
150866.856,42.969,26.855,32.715,41.016,-0.977,0
150866.860,51.758,40.039,34.180,46.875,41.992,0
150866.864,39.062,40.039,42.480,34.668,58.594,0
150866.868,28.320,25.879,52.734,26.367,30.273,0
150866.871,21.973,36.133,45.410,26.367,-1.465,0
150866.875,16.113,35.156,21.973,22.461,48.828,0
150866.879,14.648,35.156,18.555,11.719,75.684,0
150866.883,15.625,35.645,27.832,10.254,28.809,0
150866.887,20.020,33.203,24.414,20.996,-18.066,0
150866.891,34.180,35.156,40.039,32.227,-19.043,0
150866.893,42.969,41.992,42.969,39.551,8.789,0
150866.897,35.645,33.203,33.691,32.715,4.395,0
150866.901,33.203,29.297,32.715,32.715,-38.086,0
150866.905,40.039,29.297,38.574,39.551,1.465,0
150866.909,39.062,26.367,41.504,36.133,67.871,0
150866.913,32.715,45.898,25.879,26.855,43.457,0
150866.916,29.297,46.875,29.785,23.926,5.859,0
150866.920,51.270,53.711,61.035,48.340,-5.859,0
150866.924,54.199,55.664,64.941,54.688,48.828,0
150866.928,34.668,28.320,42.969,33.203,51.270,0
150866.932,28.809,11.230,36.133,23.926,-39.062,0
150866.936,25.879,28.809,34.180,24.414,-41.992,0
150866.938,37.109,47.852,35.645,30.273,45.410,0
150866.942,50.293,50.781,20.996,37.109,82.520,0
150866.946,47.852,47.852,12.695,35.645,-3.418,0
150866.950,38.574,29.297,21.484,26.367,-51.758,0
150866.954,48.828,41.016,15.137,34.668,23.438,0
150866.958,53.223,50.293,21.973,39.062,81.055,0
150866.962,44.434,48.340,48.828,23.926,48.340,0
150866.965,43.945,46.875,52.734,25.879,-31.738,0
150866.969,45.898,37.598,41.016,35.156,-12.207,0
150866.973,53.223,50.293,43.457,42.969,72.266,0
150866.977,57.617,59.082,56.152,55.664,45.898,0
150866.981,33.203,34.668,41.504,39.551,-3.906,0
150866.983,18.555,27.344,28.320,28.809,9.766,0
150866.987,26.367,20.508,33.691,34.180,64.453,0
150866.991,27.832,25.879,26.367,35.645,89.844,0
150866.995,25.879,44.434,29.785,41.992,45.410,0
150866.999,30.273,42.969,36.133,47.852,17.090,0
150867.003,38.086,39.551,20.996,50.293,62.500,0
150867.007,40.527,41.992,41.992,45.410,72.266,0
150867.010,27.344,44.922,58.594,22.949,7.324,0
150867.014,15.625,39.551,41.992,4.883,19.043,0
150867.018,21.973,33.691,37.109,10.254,96.191,2
150867.022,28.809,30.762,29.785,21.484,104.980,0
150867.026,25.391,20.508,24.414,25.391,45.410,0
150867.043,20.996,29.297,30.273,23.926,-2.930,0
150867.047,35.156,51.270,26.367,33.691,11.230,0
150867.051,57.617,50.293,33.691,48.828,84.473,0
150867.055,60.547,43.457,43.945,48.828,90.332,0
150867.059,52.734,45.898,40.527,41.504,31.738,0
150867.063,33.203,39.062,37.598,21.973,34.180,0
150867.066,27.344,30.762,31.250,11.719,93.750,0
150867.070,30.273,34.180,25.391,14.648,130.859,0
150867.074,22.949,41.016,32.715,10.742,63.965,0
150867.078,20.996,41.504,28.320,11.719,-6.348,0
150867.082,27.832,25.879,24.414,20.996,63.477,0
150867.086,35.645,26.367,44.922,26.367,120.117,0
150867.088,36.133,50.781,50.781,26.855,45.898,0
150867.092,35.645,50.781,41.016,36.133,-24.414,0
150867.096,36.621,40.039,26.855,39.062,13.672,0
150867.100,33.691,28.320,25.879,29.297,78.613,0
150867.104,35.156,36.621,42.969,30.273,73.730,0
150867.108,37.109,56.152,41.504,35.156,21.973,0
150867.111,31.738,42.969,26.367,28.320,23.926,0
150867.115,34.668,32.227,33.691,28.809,64.453,0
150867.119,32.715,29.297,35.156,26.367,44.434,0
150867.123,22.949,29.297,30.273,20.020,-26.367,0
150867.127,23.926,30.762,41.504,28.809,-21.484,0
150867.131,28.809,19.043,31.738,30.273,74.219,0
150867.133,31.250,18.066,23.438,21.484,89.844,0
150867.137,22.949,30.273,35.645,15.625,20.020,0
150867.141,20.020,34.180,35.156,14.160,18.555,0
150867.145,34.668,31.738,27.832,25.391,70.312,0
150867.149,40.039,39.062,30.273,34.180,74.219,0
150867.153,37.109,43.945,29.785,37.598,30.762,0
150867.156,32.715,38.086,27.832,35.156,-39.062,0
150867.160,37.109,30.273,41.992,38.086,-30.762,0
150867.164,48.340,30.762,51.270,48.340,44.922,0
150867.168,41.016,19.043,37.598,37.109,40.527,0
150867.172,20.996,16.113,29.785,26.855,12.207,0
150867.176,33.691,38.086,17.578,41.504,13.672,0
150867.180,42.480,41.992,-3.906,43.945,77.637,0
150867.184,32.715,37.109,14.160,31.738,60.547,0
150867.187,32.715,50.293,42.969,36.133,-17.090,0
150867.191,28.320,51.758,44.922,34.668,4.395,0
150867.195,39.551,41.504,36.133,35.645,62.012,0
150867.199,51.270,39.551,33.203,41.992,81.055,0
150867.203,43.457,43.457,37.598,39.551,42.480,0
150867.207,41.016,27.832,31.738,41.504,18.555,0
150867.211,39.062,19.043,31.738,35.156,39.062,0
150867.215,30.762,36.621,28.320,26.367,98.633,0
150867.219,30.762,37.598,24.414,36.133,77.637,0
150867.223,37.109,40.527,48.340,40.039,-21.973,0
150867.223,35.645,41.992,55.176,29.297,9.766,0
150867.227,32.227,33.691,36.133,25.391,76.660,0
150867.231,23.926,36.621,18.555,23.438,45.410,0
150867.235,22.949,45.410,22.949,26.367,-6.836,0
150867.239,32.715,38.574,33.203,36.133,-0.977,0
150867.243,32.715,24.414,26.855,41.992,39.551,0
150867.247,44.434,18.066,34.668,52.734,54.688,0
150867.251,42.969,25.391,50.293,49.805,2.441,0
150867.255,22.949,33.203,45.410,29.297,-47.852,0
150867.259,26.367,47.852,36.133,28.809,22.461,0
150867.262,36.621,49.805,39.551,43.457,98.633,0
150867.266,37.598,41.504,33.203,44.922,41.016,0
150867.269,32.715,39.551,30.273,36.133,-21.973,0
150867.273,36.133,43.457,41.992,37.598,73.730,0
150867.277,50.781,42.480,42.969,44.922,136.230,0
150867.281,53.223,22.461,45.898,50.293,68.848,0
150867.285,40.039,13.672,41.504,47.363,-11.230,0
150867.289,39.551,42.969,36.133,49.316,-6.348,0
150867.293,44.922,40.527,41.016,54.688,75.195,0
150867.297,41.504,32.227,41.016,46.875,73.242,0
150867.300,34.668,44.434,33.203,35.156,-0.977,0
150867.304,28.320,39.551,21.484,30.273,8.301,0
150867.308,35.645,30.762,34.180,40.527,66.406,0
150867.312,41.016,28.809,40.527,46.875,71.289,0
150867.314,29.785,40.527,34.180,38.086,42.480,0
150867.318,21.484,35.645,35.156,33.691,0.000,0
150867.322,36.133,21.973,43.457,43.945,11.719,0
150867.325,42.480,32.715,39.062,43.945,83.984,0
150867.329,35.645,48.828,33.203,39.062,53.223,0
150867.333,33.691,49.316,41.504,37.598,-14.160,0
150867.337,42.480,44.922,27.832,38.574,6.348,0
150867.341,50.293,45.410,20.996,35.645,45.898,0
150867.345,31.738,44.922,26.367,20.020,53.711,0
150867.349,27.832,38.086,32.227,22.949,31.250,0
150867.353,41.504,40.039,42.969,35.156,13.184,0
150867.357,38.086,38.086,42.480,29.785,59.570,0
150867.359,28.320,31.738,36.133,18.555,104.980,0
150867.363,24.414,19.531,40.527,18.066,37.109,0
150867.367,31.250,13.672,24.902,26.367,-21.484,0
150867.371,47.852,44.922,22.461,40.039,40.527,0
150867.375,48.828,59.570,36.133,42.969,72.754,0
150867.379,30.762,50.293,24.902,28.320,2.930,0
150867.382,21.484,49.316,36.133,19.043,-49.805,0
150867.386,24.414,44.922,29.785,16.602,26.367,0
150867.390,26.855,37.598,22.949,21.973,95.703,0
150867.394,20.996,32.227,38.574,21.484,34.668,0
150867.398,19.043,38.086,43.457,25.391,-16.113,0
150867.402,26.855,40.527,41.992,37.109,12.207,0
150867.406,42.969,41.504,34.180,45.410,17.578,0
150867.410,56.152,49.805,41.992,50.781,-26.367,0
150867.414,42.969,36.133,50.781,41.016,-44.922,0
150867.418,29.785,39.062,45.410,30.762,-30.273,0
150867.422,30.273,49.805,36.133,29.785,38.086,0
150867.425,30.273,53.711,30.273,29.785,65.430,0
150867.429,27.344,55.176,30.762,29.297,-36.621,0
150867.433,22.949,43.945,31.738,26.855,-52.734,0
150867.437,32.227,41.504,28.809,34.668,62.500,0
150867.441,41.504,44.922,30.762,42.969,128.906,0
150867.445,31.250,36.621,31.250,35.645,69.336,0
150867.449,24.902,38.086,23.926,33.691,4.395,0
150867.463,35.645,43.457,32.715,43.457,27.344,0
150867.467,42.969,34.668,39.062,44.922,64.941,0
150867.471,35.156,35.645,41.992,38.086,27.832,0
150867.475,30.273,43.945,44.922,31.738,-6.348,0
150867.479,33.691,39.551,38.086,37.109,43.457,0
150867.483,41.016,37.598,38.086,42.480,113.281,0
150867.487,39.551,44.922,35.156,34.668,77.637,0
150867.490,35.645,52.246,29.297,38.574,44.922,0
150867.494,46.387,39.551,28.320,54.688,53.223,0
150867.498,43.945,22.461,25.391,51.270,63.965,0
150867.502,27.832,32.715,32.227,34.668,71.289,0
150867.506,14.160,42.969,27.344,16.602,-15.625,0
150867.508,14.648,38.086,30.762,16.113,-46.875,0
150867.512,27.344,33.203,53.223,33.691,42.480,0
150867.516,32.227,39.551,52.246,34.668,73.730,0
150867.520,29.785,30.273,49.805,34.180,54.199,0
150867.524,32.715,22.949,46.387,40.039,4.883,0
150867.527,48.828,48.340,41.016,53.223,22.461,0
150867.531,60.059,55.176,39.062,59.570,95.215,0
150867.535,53.711,45.410,38.086,49.316,74.707,0
150867.539,32.715,40.527,37.598,33.203,-28.320,0
150867.543,29.785,26.855,38.086,31.250,-53.711,0
150867.547,49.316,22.461,30.762,45.898,39.062,0
150867.551,55.176,42.969,21.484,46.875,86.426,0
150867.553,35.645,49.316,18.066,29.785,38.574,0
150867.557,19.043,45.898,28.320,19.043,-7.324,0
150867.561,26.855,49.316,50.293,28.320,29.297,0
150867.565,33.691,46.387,38.574,30.762,60.547,0
150867.569,32.227,36.621,24.902,22.949,-6.348,0
150867.573,43.945,40.039,48.828,27.832,-55.664,0
150867.576,48.340,43.457,52.246,34.180,26.855,0
150867.580,37.109,25.391,21.484,21.484,100.098,0
150867.584,28.809,20.996,-4.883,17.090,43.945,0
150867.588,24.902,33.203,2.441,24.902,-10.254,0
150867.592,29.297,43.945,28.320,30.273,40.039,0
150867.596,30.762,49.805,44.434,34.668,98.145,0
150867.598,25.391,43.945,48.828,32.227,77.148,0
150867.602,20.020,38.574,48.828,26.367,27.344,0
150867.606,27.832,19.531,45.898,29.785,70.801,0
150867.610,43.457,25.391,42.480,37.109,126.465,0
150867.614,41.992,52.246,19.531,31.738,92.773,0
150867.618,33.203,51.270,17.578,26.367,37.109,0
150867.621,35.156,44.434,49.805,37.109,-4.883,0
150867.625,36.621,32.227,41.016,37.109,28.809,0
150867.629,28.320,32.227,11.719,28.320,32.227,0
150867.633,18.066,34.180,26.855,23.926,-4.395,0
150867.637,13.184,32.227,43.457,20.996,-38.574,0
150867.641,26.855,40.527,38.086,30.762,-12.695,0
150867.644,41.504,30.273,37.598,39.551,63.477,0
150867.648,33.691,24.414,41.016,36.621,25.391,0
150867.652,23.438,38.086,25.879,30.762,-41.016,0
150867.656,25.391,31.738,14.648,30.273,-41.504,0
150867.660,32.715,29.297,31.250,32.715,-3.418,1
150867.664,37.109,36.621,45.410,30.273,28.320,0
150867.668,31.250,39.551,40.527,25.879,-18.555,0
150867.672,28.809,33.203,29.785,22.461,-33.691,0
150867.676,41.016,35.645,36.621,25.391,33.203,0
150867.679,38.574,47.363,44.922,24.902,72.754,0
150867.683,30.273,36.621,46.387,20.508,29.785,0
150867.687,33.691,20.508,44.434,31.738,15.625,0
150867.688,33.691,34.180,38.574,35.645,72.266,0
150867.692,37.598,45.410,31.250,38.574,97.168,0
150867.696,46.387,43.457,29.297,44.922,57.617,0
150867.700,43.457,41.016,36.621,40.527,23.438,0
150867.704,31.738,31.738,29.785,30.762,67.871,0
150867.708,29.785,30.762,33.691,25.879,134.277,0
150867.711,34.668,40.527,47.363,28.809,40.039,0
150867.715,35.645,30.273,31.738,25.391,-64.453,0
150867.719,33.691,34.180,6.836,23.438,3.418,0
150867.723,37.109,45.410,16.602,32.227,60.547,0
150867.727,36.621,40.039,45.410,32.227,30.273,0
150867.731,28.809,45.898,55.664,26.367,-6.348,0
150867.733,30.273,42.969,51.758,24.902,27.344,0
150867.737,36.621,43.945,46.875,34.180,69.824,0
150867.741,37.598,45.898,37.598,34.180,56.641,0
150867.745,30.762,38.086,25.391,22.461,-8.301,0
150867.749,29.297,35.645,15.625,26.367,-15.137,0
150867.753,34.668,35.645,20.020,32.227,62.988,0
150867.756,36.133,35.156,33.691,29.785,76.172,0
150867.760,32.715,36.621,29.297,24.902,36.133,0
150867.764,32.715,26.855,26.855,31.738,36.621,0
150867.768,48.340,41.016,36.621,43.457,34.668,0
150867.772,52.246,52.246,37.109,40.039,85.449,0
150867.776,36.621,41.504,38.574,30.762,88.379,0
150867.793,34.180,48.340,37.598,28.809,25.879,0
150867.797,34.668,41.016,31.250,32.227,33.203,0
150867.801,26.367,24.414,19.531,30.762,47.363,0
150867.805,24.414,23.926,22.949,23.926,41.504,0
150867.809,22.461,35.645,35.645,17.578,-5.859,0
150867.813,27.832,36.133,39.062,25.879,-38.086,0
150867.816,38.086,34.180,36.621,34.180,-26.855,0
150867.820,33.691,41.504,37.598,31.738,8.301,0
150867.824,23.926,36.621,35.156,28.320,16.602,0
150867.828,30.762,19.043,37.598,34.668,11.230,0
150867.832,40.039,29.297,27.832,41.016,67.871,0
150867.836,43.945,55.176,30.762,45.898,94.238,0
150867.838,38.574,40.039,41.016,38.574,52.734,0
150867.842,16.113,20.996,30.762,21.484,1.465,0
150867.846,19.531,31.738,43.457,20.020,0.977,0
150867.850,35.156,42.480,56.152,22.461,60.059,0
150867.854,26.367,38.086,41.992,22.461,69.336,0
150867.858,19.531,32.715,25.879,25.391,11.719,0
150867.862,27.832,14.160,30.273,34.180,10.742,0
150867.865,36.133,16.602,41.016,44.434,94.238,0
150867.869,38.574,42.480,46.387,51.270,80.078,0
150867.873,39.551,54.688,43.457,46.875,-38.574,0
150867.877,33.691,42.969,27.832,34.180,-29.785,0
150867.881,37.598,26.367,22.949,30.273,63.477,0
150867.883,54.688,37.109,41.992,41.016,55.176,0
150867.887,41.016,36.133,53.711,36.621,-18.066,0
150867.891,27.344,32.227,48.340,30.762,-30.762,0
150867.895,39.062,41.016,39.551,44.922,26.855,0
150867.899,42.480,24.414,37.109,44.922,70.801,0
150867.903,41.992,23.438,38.574,45.898,21.973,0
150867.907,34.180,41.016,36.621,44.922,-22.461,0
150867.911,27.832,25.879,30.762,44.434,-4.395,0
150867.915,40.039,25.391,35.156,50.781,6.348,0
150867.918,42.969,43.945,32.227,40.527,6.836,0
150867.922,39.062,36.621,40.039,37.109,0.977,0
150867.926,43.457,35.645,49.316,45.898,-6.348,0
150867.929,47.363,42.969,39.062,47.852,42.969,0
150867.933,49.316,47.852,32.227,46.387,65.430,0
150867.937,43.945,43.945,30.273,41.016,1.953,0
150867.941,42.969,43.945,26.855,41.016,-36.621,0
150867.945,43.945,43.457,33.203,39.551,19.043,0
150867.949,42.480,39.551,31.250,37.598,22.949,0
150867.953,36.133,27.344,30.273,37.598,-7.812,0
150867.957,33.691,21.973,44.922,32.227,-11.719,0
150867.960,41.504,40.527,49.805,29.785,10.254,0
150867.964,47.852,41.504,44.434,34.668,43.945,0
150867.968,44.434,39.062,39.062,36.133,37.598,0
150867.972,36.133,42.480,39.062,33.203,16.602,0
150867.974,41.992,54.688,43.945,38.086,33.691,0
150867.978,37.598,44.434,24.902,34.668,116.699,0
150867.982,31.738,33.203,10.742,31.250,77.637,0
150867.985,34.668,43.457,20.020,25.391,-17.090,0
150867.989,36.621,35.156,31.738,23.926,14.648,0
150867.993,43.945,15.625,47.852,33.203,75.195,0
150867.997,48.340,31.250,45.898,41.504,93.262,0
150868.001,44.434,53.711,42.969,43.945,25.879,0
150868.005,41.016,55.176,48.340,37.598,-33.203,0
150868.009,41.992,46.875,39.062,37.109,62.012,0
150868.013,33.203,34.668,28.809,34.180,117.188,0
150868.017,25.391,25.391,30.273,31.250,55.176,0
150868.018,29.297,34.180,33.691,39.062,1.953,0
150868.022,35.645,32.715,33.203,42.969,24.414,0
150868.026,39.551,27.344,38.574,46.387,61.523,0
150868.030,38.574,32.227,42.480,49.316,10.742,0
150868.034,31.250,29.297,35.156,46.387,-37.109,0
150868.038,34.668,33.203,34.668,47.852,1.465,0
150868.042,48.340,29.785,32.715,48.828,98.145,0
150868.046,44.434,33.203,29.297,42.480,104.004,0
150868.050,29.785,41.992,35.645,33.203,21.973,0
150868.054,30.762,39.551,35.645,33.203,11.230,0
150868.058,44.922,37.598,35.645,38.574,62.988,0
150868.061,45.898,37.109,34.668,40.039,71.777,0
150868.064,37.598,36.621,28.320,35.645,32.227,0
150868.067,39.551,34.668,32.227,30.273,-6.348,0
150868.071,44.922,34.668,42.969,35.645,13.672,0
150868.075,42.480,35.645,38.574,36.133,47.363,0
150868.079,38.574,44.922,28.809,34.180,37.109,0
150868.083,34.668,40.527,20.020,32.227,-6.836,0
150868.087,37.109,28.809,23.926,35.156,-19.043,0
150868.091,40.039,38.574,35.156,36.133,14.648,0
150868.095,33.691,37.109,39.062,31.738,35.645,0
150868.099,32.227,27.832,44.434,29.297,-1.465,0
150868.103,29.785,38.574,35.156,29.297,-5.371,0
150868.107,36.133,42.969,27.832,35.156,51.758,0
150868.109,40.039,41.016,29.297,33.203,39.062,0
150868.113,28.320,45.410,34.180,29.785,1.465,0
150868.117,21.973,36.133,29.785,26.855,-44.922,0
150868.121,24.414,26.367,21.484,27.832,4.883,0
150868.125,27.832,31.738,27.832,29.785,75.684,0
150868.129,26.367,37.598,37.109,26.367,20.996,0
150868.133,28.809,25.879,40.527,32.715,-3.418,0
150868.137,32.227,27.832,39.062,39.062,29.785,0
150868.141,35.645,37.109,37.109,37.109,101.074,0
150868.145,40.527,39.551,29.297,36.133,83.008,0
150868.148,31.250,40.527,24.414,32.715,1.953,0
150868.152,40.039,45.898,20.996,41.992,43.457,0
150868.168,49.805,47.852,6.348,45.410,113.770,0
150868.172,37.109,39.062,34.668,29.785,104.492,0
150868.176,32.227,33.203,65.430,24.902,48.828,0
150868.180,38.574,33.691,52.734,31.738,40.527,0
150868.184,42.969,27.344,33.203,36.621,110.840,0
150868.188,37.598,20.508,28.320,38.574,104.004,0
150868.192,33.203,36.133,31.250,37.109,7.324,0
150868.195,41.016,45.898,21.484,32.715,-19.531,0
150868.199,49.805,46.875,19.043,31.738,60.547,0
150868.203,43.457,46.875,42.969,26.855,87.891,0
150868.207,24.414,40.039,47.363,17.578,43.945,0
150868.211,12.207,35.156,33.691,8.789,-9.766,0
150868.213,24.902,32.715,35.156,22.461,-11.230,0
150868.217,32.715,30.762,25.879,26.855,56.152,0
150868.221,29.297,29.785,21.973,21.484,34.180,0
150868.225,32.227,23.926,36.621,32.715,-13.672,0
150868.229,44.434,17.090,34.180,44.922,14.648,0
150868.233,45.410,33.203,26.367,42.480,78.125,0
150868.236,41.016,62.012,25.879,41.504,74.707,0
150868.240,39.062,62.012,32.715,38.086,39.551,0
150868.244,25.879,46.387,40.039,25.879,44.434,0
150868.248,25.879,38.574,47.363,24.414,79.102,0
150868.252,33.691,34.668,44.434,27.832,68.359,0
150868.256,30.273,31.250,31.738,30.762,42.480,0
150868.259,35.156,38.086,35.156,41.504,19.531,0
150868.263,47.852,42.969,39.062,48.828,63.965,0
150868.266,47.852,37.109,33.203,42.480,92.773,0
150868.270,38.086,23.438,27.832,36.621,41.992,0
150868.274,30.762,24.902,37.598,34.180,-0.977,0
150868.278,32.715,53.711,45.410,33.203,28.809,0
150868.282,36.133,53.711,42.480,28.320,82.031,0
150868.286,29.297,40.039,36.133,20.508,56.152,0
150868.290,26.367,33.203,33.691,24.414,4.883,0
150868.294,42.969,39.551,44.922,43.945,-2.441,0
150868.298,48.828,42.480,24.414,48.828,66.895,0
150868.302,42.480,41.504,17.578,42.480,68.848,0
150868.303,23.926,34.668,36.133,27.344,-13.184,2
150868.307,10.254,25.879,27.832,11.230,-0.977,0
150868.311,19.043,30.273,33.203,18.066,81.543,0
150868.315,27.344,41.016,42.480,25.879,76.172,0
150868.319,24.414,35.156,41.992,25.879,36.133,0
150868.323,27.344,16.113,42.969,29.785,39.062,0
150868.326,40.527,36.133,40.039,38.574,77.148,0
150868.330,42.969,48.340,15.137,38.574,110.840,0
150868.334,27.344,38.086,11.230,20.996,42.480,0
150868.338,24.414,44.434,31.738,21.484,-11.719,0
150868.342,35.645,41.504,43.457,35.645,42.480,0
150868.346,32.715,33.691,41.504,35.156,64.453,0
150868.348,22.949,30.273,36.621,27.832,0.977,0
150868.352,22.949,32.227,40.039,24.902,-49.316,0
150868.356,27.832,38.574,38.086,28.320,-3.906,0
150868.360,30.273,23.438,34.180,30.273,41.016,0
150868.364,27.832,21.484,26.855,29.297,28.320,0
150868.368,20.996,44.434,14.648,23.926,-7.324,0
150868.371,19.043,46.387,28.809,27.832,-20.508,0
150868.375,27.832,35.156,41.992,32.227,-2.441,0
150868.379,41.016,45.410,35.645,38.086,7.324,0
150868.383,38.574,46.387,30.762,42.480,-21.484,0
150868.387,31.738,37.598,30.762,34.668,-45.410,0
150868.391,31.250,39.062,29.297,35.645,15.137,0
150868.394,25.879,32.715,22.461,30.762,55.176,0
150868.398,15.625,28.320,29.297,21.973,9.766,0
150868.402,12.207,28.809,40.527,22.949,-25.391,0
150868.406,15.625,33.691,35.156,23.438,28.809,0
150868.410,20.996,24.414,28.809,24.902,83.008,0
150868.414,18.555,27.832,31.250,22.949,45.410,0
150868.418,18.066,43.457,37.109,21.484,-6.348,0
150868.422,23.438,39.551,34.180,24.902,-9.277,0
150868.426,31.250,40.039,40.527,28.320,31.250,0
150868.430,34.668,38.086,43.945,30.273,58.594,0
150868.433,31.738,35.156,37.598,26.367,32.715,0
150868.437,32.715,39.551,43.945,30.762,5.371,0
150868.438,33.203,42.480,30.762,39.551,35.156,0
150868.442,32.227,31.738,19.043,35.156,78.613,0
150868.446,28.809,28.320,22.949,26.367,39.551,0
150868.450,29.297,35.156,35.645,28.809,-8.789,0
150868.454,36.133,24.902,46.875,35.156,29.785,0
150868.458,36.133,28.809,35.645,40.527,63.965,0
150868.461,33.691,46.875,29.297,38.086,39.062,0
150868.465,28.809,43.945,38.574,33.691,-20.020,0
150868.469,26.367,38.574,43.457,30.273,14.648,0
150868.473,35.156,37.109,28.809,32.715,90.820,0
150868.477,45.410,41.992,26.367,39.551,84.961,0
150868.481,37.598,47.852,31.738,34.180,12.695,0
150868.483,25.879,37.109,38.574,26.367,2.930,0
150868.487,28.809,18.555,40.039,26.855,55.176,0
150868.491,33.203,25.879,33.203,32.227,75.195,0
150868.495,29.297,50.293,39.062,28.809,18.066,0
150868.499,22.949,49.805,41.504,22.461,-3.418,0
150868.503,31.738,35.156,33.203,31.250,9.277,0
150868.506,42.969,43.945,21.484,40.527,15.625,0
150868.510,47.852,47.363,32.227,44.434,2.930,0
150868.514,41.016,38.086,48.340,39.551,-29.297,0
150868.518,25.879,43.457,49.805,25.879,15.137,0
150868.522,21.973,36.133,34.668,20.508,33.203,0
150868.526,17.578,33.691,24.902,15.625,-3.418,0
150868.544,20.996,41.992,40.527,22.949,-16.113,0
150868.548,34.180,39.062,42.969,33.203,-13.184,0
150868.552,42.969,23.438,34.180,35.156,48.340,0
150868.556,41.504,33.203,27.832,36.621,73.730,0
150868.559,34.668,53.711,33.203,36.133,41.504,0
150868.563,37.109,50.781,44.434,34.180,-5.859,0
150868.567,41.016,28.320,42.969,32.715,52.734,0
150868.571,42.480,30.273,33.203,32.715,104.980,0
150868.575,34.668,46.875,35.156,26.367,46.387,0
150868.579,29.297,51.758,39.062,27.832,13.672,0
150868.583,36.133,43.457,29.785,35.156,53.711,0
150868.587,41.504,35.156,31.738,35.156,91.797,0
150868.589,35.156,41.992,45.898,31.738,61.523,0
150868.593,26.855,33.203,36.621,24.902,32.227,0
150868.597,31.738,20.020,28.809,32.715,74.219,0
150868.601,39.551,36.133,42.969,45.898,83.008,0
150868.605,30.762,39.062,43.457,38.574,46.875,0
150868.608,28.809,38.574,35.645,34.180,16.113,0
150868.612,33.203,46.875,36.621,40.039,0.000,0
150868.616,28.320,42.480,40.527,32.715,26.367,0
150868.620,26.367,41.016,41.016,20.020,21.484,0
150868.624,23.438,43.457,39.062,20.020,-34.180,0
150868.628,24.414,38.086,30.762,30.762,-19.043,0
150868.632,40.039,32.227,33.203,43.945,57.129,0
150868.635,48.340,20.020,36.133,47.852,58.594,0
150868.639,41.016,28.320,34.180,44.434,-24.414,0
150868.642,28.809,36.133,29.785,35.156,-30.762,0
150868.646,27.832,41.016,31.250,31.738,47.363,0
150868.650,32.227,47.852,31.250,25.391,83.008,0
150868.654,29.297,36.621,23.926,17.578,30.762,0
150868.658,29.785,36.133,32.227,27.344,-7.812,0
150868.662,30.762,33.203,35.645,34.668,43.945,0
150868.666,38.086,30.762,23.438,38.574,95.215,0
150868.670,41.016,37.109,21.973,37.109,64.941,0
150868.674,30.762,21.973,38.086,33.203,4.883,0
150868.678,29.785,21.484,46.387,35.156,-16.602,0
150868.679,40.527,45.410,44.434,38.086,28.320,0
150868.683,38.086,55.664,40.527,33.203,66.895,0
150868.687,24.902,53.223,30.273,25.879,37.109,0
150868.691,16.602,34.668,16.113,16.602,5.371,0
150868.695,17.578,19.531,23.438,14.160,7.812,0
150868.698,28.809,23.438,38.574,22.461,16.602,0
150868.702,29.785,34.668,37.598,24.902,-16.113,0
150868.706,20.020,42.969,34.180,20.020,-42.969,0
150868.710,23.438,35.645,31.250,25.879,-9.277,0
150868.714,35.645,36.133,28.320,36.621,34.668,0
150868.718,39.062,38.086,36.621,37.598,53.711,0
150868.722,29.785,34.180,44.434,34.180,2.930,0
150868.723,30.273,50.781,40.527,38.086,-17.578,0
150868.727,47.363,51.758,38.086,46.387,46.875,0
150868.731,55.176,45.410,30.273,51.758,53.711,0
150868.735,36.621,37.109,15.625,40.527,0.488,0
150868.739,21.973,35.645,26.367,29.785,-16.602,0
150868.743,28.809,32.227,47.363,25.391,23.438,0
150868.747,27.832,22.461,53.711,15.137,45.898,0
150868.750,20.508,26.855,48.828,14.648,7.324,0
150868.754,20.508,42.969,41.504,18.555,-29.785,0
150868.758,27.344,25.879,33.691,24.414,17.578,0
150868.762,34.668,11.230,36.133,37.598,77.637,0
150868.766,25.391,46.387,34.180,35.156,34.180,0
150868.768,20.996,56.641,22.949,32.227,1.465,0
150868.772,33.691,45.898,20.996,41.992,64.453,0
150868.776,47.363,40.039,36.133,52.246,118.164,0
150868.780,43.457,33.203,43.457,52.246,105.469,0
150868.784,27.344,33.203,41.504,39.551,47.363,0
150868.788,27.344,38.574,47.363,32.715,36.621,0
150868.791,38.574,29.297,47.363,38.086,91.309,0
150868.795,41.504,30.762,45.410,40.527,46.387,0
150868.799,29.297,31.738,37.109,32.227,-23.438,0
150868.803,25.879,32.715,20.508,33.203,1.465,0
150868.807,29.297,49.805,15.137,36.133,62.012,0
150868.811,29.785,47.363,28.320,28.809,82.520,0
150868.813,24.902,37.598,43.457,29.297,44.922,0
150868.817,26.855,37.109,46.387,37.598,35.645,0
150868.821,40.039,41.504,42.480,44.922,51.270,0
150868.825,46.875,41.016,39.062,42.969,39.551,0
150868.829,43.457,38.086,38.574,42.969,10.254,0
150868.833,37.598,38.574,41.504,46.387,-43.945,0
150868.836,36.621,41.992,39.062,41.016,-10.254,0
150868.840,35.156,26.367,29.785,35.645,73.730,0
150868.844,28.320,17.578,20.020,29.785,71.777,0
150868.848,20.508,37.598,20.996,24.414,27.832,0
150868.852,20.996,41.504,39.062,27.344,9.277,0
150868.856,28.320,31.250,44.434,29.297,41.504,0
150868.859,27.832,27.344,41.992,29.297,49.805,0
150868.863,26.367,42.969,39.062,29.785,-2.930,0
150868.867,39.062,55.664,37.598,32.227,-13.184,0
150868.871,37.109,43.945,27.832,30.273,33.203,0
150868.875,30.762,36.621,20.508,25.879,72.266,0
150868.879,28.809,43.457,20.508,30.273,34.668,0
150868.883,20.020,42.969,16.602,25.391,-56.641,0
150868.887,23.438,23.438,39.551,27.344,-25.879,0
150868.891,26.367,10.254,57.129,32.227,82.031,0
150868.894,23.926,35.645,51.758,22.949,78.613,0
150868.898,22.949,50.781,36.621,19.043,1.953,0
150868.902,34.180,44.434,27.832,31.738,-9.277,0
150868.918,47.363,41.992,36.133,40.527,42.969,0
150868.922,47.852,32.715,42.480,41.016,54.688,0
150868.926,45.898,37.598,31.738,47.852,6.348,0
150868.930,46.387,39.062,27.832,44.434,13.184,2
150868.934,54.199,35.156,38.086,50.781,85.938,0
150868.938,49.805,42.480,47.852,49.316,107.422,0
150868.942,43.945,27.832,44.434,36.133,43.945,0
150868.945,45.410,28.809,33.691,35.156,38.086,0
150868.949,41.992,34.180,30.762,34.668,99.121,0
150868.953,44.922,31.250,27.344,33.691,84.473,0
150868.957,37.109,47.852,13.672,28.809,37.109,0
150868.961,24.414,41.992,19.531,25.879,27.344,0
150868.963,25.879,27.832,35.156,24.414,68.848,0
150868.967,27.344,32.227,41.016,22.461,62.500,0
150868.971,20.508,37.109,45.898,20.020,15.137,0
150868.975,18.555,38.086,44.434,25.391,-9.766,0
150868.979,32.715,35.156,36.621,39.062,-13.184,0
150868.983,48.340,35.645,35.156,44.434,41.992,0
150868.987,45.898,23.926,40.039,38.574,43.457,0
150868.990,41.504,31.738,43.457,34.668,-27.832,0
150868.994,40.527,47.363,27.344,41.992,-13.184,0
150868.998,48.340,35.645,19.531,48.828,9.277,0
150869.002,51.270,42.480,30.273,48.828,15.625,0
150869.006,34.668,46.387,31.250,33.691,-4.395,0
150869.008,24.902,41.992,27.344,18.555,-19.043,0
150869.012,29.297,42.480,23.926,21.973,68.359,0
150869.016,30.762,39.062,32.715,27.344,105.469,0
150869.020,26.367,34.668,42.969,22.949,49.805,0
150869.024,27.344,37.109,38.574,26.855,-0.977,0
150869.028,41.016,37.598,30.273,41.016,4.395,0
150869.032,48.340,23.438,33.203,38.574,81.543,0
150869.035,38.574,35.156,34.180,34.668,96.680,0
150869.039,33.203,53.711,36.133,38.574,22.949,0
150869.043,36.133,52.246,43.945,41.992,-1.953,0
150869.047,30.273,42.480,32.715,39.062,33.203,0
150869.051,28.320,32.715,26.855,35.156,47.363,0
150869.053,20.996,34.180,37.598,31.738,9.766,0
150869.057,23.926,36.133,45.898,38.086,-5.371,0
150869.061,39.551,37.598,37.598,42.969,39.551,0
150869.065,39.551,35.156,30.762,45.410,95.215,0
150869.069,31.250,33.203,43.457,45.410,76.660,0
150869.073,31.250,36.133,34.668,44.922,-0.488,0
150869.076,39.551,30.762,17.578,47.363,40.039,0
150869.080,39.062,24.902,36.133,37.598,103.516,0
150869.084,20.020,31.738,44.434,19.043,52.246,0
150869.088,13.184,29.297,42.480,11.719,-10.742,0
150869.092,25.391,22.949,43.945,20.996,32.227,0
150869.096,36.133,30.762,43.945,30.273,97.656,0
150869.100,34.668,41.992,32.227,31.250,77.148,0
150869.103,24.414,41.504,17.090,22.461,23.926,0
150869.107,36.133,46.875,32.227,32.715,42.969,0
150869.111,45.410,51.270,46.387,42.969,82.031,0
150869.115,38.086,34.668,29.297,38.574,66.895,0
150869.119,40.039,36.621,42.480,42.480,21.973,0
150869.123,32.227,48.340,62.988,33.203,-19.043,0
150869.127,24.414,32.227,33.691,15.137,6.836,0
150869.131,23.926,24.902,27.832,11.719,26.367,0
150869.135,24.902,31.250,49.805,21.484,2.441,0
150869.139,29.297,39.551,44.922,31.250,-15.137,0
150869.143,30.762,42.480,25.879,37.109,27.344,0
150869.143,32.715,21.973,27.344,38.086,46.875,0
150869.147,26.367,12.695,34.668,25.879,24.902,0
150869.151,20.508,40.039,34.180,23.438,3.418,0
150869.155,30.273,46.875,37.109,33.691,23.438,0
150869.159,41.992,33.203,29.785,39.062,59.570,0
150869.163,46.387,36.133,33.691,47.363,36.133,0
150869.167,41.504,49.805,48.828,50.293,-34.180,0
150869.171,36.621,49.316,41.992,40.039,-46.875,0
150869.175,38.086,40.527,33.203,32.715,20.996,0
150869.179,39.551,25.391,32.227,31.738,56.641,0
150869.183,36.133,24.414,43.945,32.227,-4.883,0
150869.186,34.668,43.457,49.316,34.180,-52.246,0
150869.189,37.598,35.156,42.480,41.992,-11.230,0
150869.193,43.457,26.367,32.715,45.410,68.359,0
150869.197,43.945,42.480,41.504,47.363,29.297,0
150869.201,37.109,39.062,53.711,45.410,-35.156,0
150869.204,38.574,40.527,37.598,41.504,-13.672,0
150869.208,43.457,45.410,32.715,41.016,54.688,0
150869.212,36.621,33.203,40.039,36.133,14.648,0
150869.216,33.691,33.203,37.598,35.156,-74.219,0
150869.220,37.109,39.062,39.062,34.180,-26.855,0
150869.224,38.086,29.785,21.973,31.738,57.129,0
150869.228,40.527,26.855,15.137,36.133,59.082,0
150869.232,36.621,34.180,35.645,34.668,-9.277,0
150869.234,37.598,41.016,34.668,36.621,-0.977,0
150869.238,47.852,32.227,32.227,43.945,70.312,0
150869.242,39.551,29.297,40.527,33.691,67.871,0
150869.246,22.949,37.109,42.969,22.461,12.207,0
150869.249,26.367,32.715,45.898,23.926,-30.273,0
150869.253,36.621,39.551,43.457,32.227,43.945,0
150869.257,37.598,38.574,42.480,36.621,86.914,0
150869.261,33.691,25.879,40.527,33.691,41.016,0
150869.265,30.762,36.133,28.809,32.227,-10.254,0
150869.269,26.367,43.945,17.090,26.367,7.324,0
150869.273,32.715,41.504,23.438,32.715,115.234,0
150869.277,37.598,20.508,35.645,31.250,121.094,0
150869.293,30.762,19.531,40.039,23.926,59.082,0
150869.297,32.227,49.805,42.480,34.180,52.734,0
150869.301,43.945,52.734,25.879,45.898,115.723,0
150869.305,53.711,48.828,25.879,55.664,126.953,0
150869.309,40.527,43.457,49.316,43.945,46.875,0
150869.313,27.832,34.668,43.457,25.879,-4.883,0
150869.317,34.180,19.531,30.762,28.320,18.555,0
150869.321,39.551,28.320,40.527,35.156,87.402,0
150869.325,30.273,41.016,48.340,25.391,70.801,0
150869.329,22.949,39.062,35.645,19.531,-3.906,0
150869.332,31.738,36.133,30.273,25.391,63.965,0
150869.336,37.109,40.527,35.156,26.367,123.535,0
150869.338,31.738,33.691,35.156,24.902,57.129,0
150869.342,31.738,25.879,31.738,29.297,-0.977,0
150869.346,36.133,46.875,36.133,37.109,42.969,0
150869.350,35.645,45.898,28.320,32.715,99.121,0
150869.354,30.273,36.621,13.184,18.066,50.781,0
150869.358,23.438,36.133,28.320,14.648,-9.277,0
150869.362,22.461,33.203,42.969,24.902,-5.371,0
150869.365,27.832,27.832,34.180,32.227,56.152,0
150869.369,34.668,28.809,18.066,34.668,92.773,0
150869.373,34.668,37.109,21.484,31.250,23.926,0
150869.377,36.133,42.969,40.527,30.762,-13.184,0
150869.381,47.363,47.363,41.016,45.410,64.453,0
150869.384,45.410,45.410,30.762,45.898,89.844,0
150869.387,29.297,22.461,22.949,31.738,31.250,0
150869.391,29.297,21.973,30.762,33.691,1.953,0
150869.395,37.109,28.809,44.434,40.527,37.109,0
150869.399,38.086,28.320,40.527,36.621,69.824,0
150869.403,31.250,43.457,29.785,28.320,27.832,0
150869.407,24.902,47.852,26.855,29.297,-26.367,0
150869.411,25.879,44.434,22.949,33.203,10.254,0
150869.415,26.855,35.156,15.625,27.344,51.270,0
150869.419,38.574,18.066,32.227,31.250,19.043,0
150869.423,43.945,23.926,46.875,37.109,-3.418,0
150869.426,34.668,39.062,47.363,33.691,-0.488,0
150869.428,37.109,32.227,44.922,33.691,23.438,0
150869.432,38.574,31.250,28.809,32.227,39.551,0
150869.436,29.297,41.016,27.832,31.738,0.488,0
150869.440,26.367,45.898,26.855,33.691,-37.598,0
150869.444,35.645,43.945,22.461,39.062,20.996,0
150869.448,32.715,34.180,39.062,37.109,48.828,0
150869.451,19.043,25.391,41.504,21.484,-4.395,0
150869.455,12.695,24.414,32.227,17.578,-34.180,0
150869.459,20.996,24.414,39.062,26.855,-23.926,0
150869.463,25.391,27.832,40.527,26.855,32.227,0
150869.467,25.879,24.902,36.133,27.832,68.848,0
150869.471,32.227,30.762,36.133,34.180,4.395,0
150869.473,37.109,49.805,39.551,43.457,-6.348,0
150869.477,41.016,53.223,34.180,47.363,79.590,0
150869.481,41.992,53.223,17.090,42.969,62.012,0
150869.485,40.039,42.969,16.113,41.504,-11.719,0
150869.489,38.574,35.156,33.203,38.574,21.484,0
150869.492,43.457,35.156,45.898,38.086,39.062,0
150869.496,40.527,41.504,46.875,33.691,46.875,0
150869.500,29.297,46.875,46.875,27.344,-3.418,0
150869.504,25.879,44.922,45.898,24.414,-46.387,0
150869.508,25.879,33.203,43.945,24.414,41.504,0
150869.512,27.832,30.273,41.016,24.414,94.727,0
150869.516,30.273,38.574,29.785,25.879,53.223,0
150869.518,18.066,38.574,15.137,19.043,0.977,0
150869.522,18.066,38.574,18.066,21.484,32.715,0
150869.526,33.691,39.551,38.574,38.086,73.242,0
150869.530,37.109,41.504,43.945,35.645,51.758,0
150869.534,25.879,41.992,25.879,28.320,22.949,0
150869.538,25.391,40.527,29.297,33.691,51.758,0
150869.541,38.574,37.598,41.016,41.992,107.422,0
150869.545,31.250,36.621,40.039,36.133,80.078,0
150869.549,19.531,35.645,44.434,25.391,-7.812,0
150869.553,24.414,23.926,43.457,32.227,-48.828,0
150869.557,33.691,16.602,31.738,38.574,20.020,0
150869.561,37.109,35.156,23.438,36.133,106.934,0
150869.564,33.203,44.922,34.668,33.203,65.430,0
150869.568,33.691,41.504,47.363,30.762,33.691,0
150869.572,37.598,42.480,43.945,34.180,51.270,0
150869.576,40.527,40.039,32.715,38.086,57.129,0
150869.580,33.691,37.109,25.879,29.785,24.902,0
150869.584,27.344,41.504,24.902,25.879,-51.270,0
150869.588,30.273,37.598,26.367,34.180,-63.965,0
150869.592,34.668,29.785,27.344,34.180,13.672,0
150869.596,30.762,36.133,37.598,25.391,56.152,0
150869.600,25.879,42.480,45.410,25.879,0.488,0
150869.603,28.320,35.645,42.969,31.250,13.672,0
150869.607,41.016,23.438,40.039,38.086,90.332,0
150869.609,45.410,32.715,35.156,34.180,105.957,0
150869.613,30.762,46.875,33.203,23.926,43.945,1
150869.617,33.203,43.945,28.809,31.250,-2.930,0
150869.621,47.852,42.969,30.762,47.852,82.520,0
150869.625,50.781,46.387,35.645,47.363,110.840,0
150869.629,46.875,44.434,33.691,39.062,46.875,0
150869.633,34.668,38.574,42.969,32.715,-3.418,0
150869.637,31.738,38.574,46.387,30.273,6.836,0
150869.641,33.203,28.809,32.715,34.180,85.938,0
150869.645,25.879,23.926,24.902,32.715,79.102,0
150869.648,19.043,23.926,33.203,27.832,-7.324,0
150869.652,22.949,25.879,34.668,27.344,-8.301,0
150869.653,34.668,43.945,35.645,33.203,81.055,0
150869.657,38.574,51.270,43.457,33.691,95.703,0
150869.661,39.062,49.805,42.969,30.273,21.973,0
150869.665,41.016,43.945,34.668,41.016,21.484,0
150869.669,54.199,37.109,39.062,56.641,74.707,0
150869.673,51.758,32.715,26.367,51.270,74.219,0
150869.677,32.227,34.180,14.160,38.086,29.785,0
150869.680,28.809,39.551,35.156,32.227,-16.113,0
150869.684,23.438,31.250,47.363,21.973,0.977,0
150869.688,24.902,33.203,42.480,20.020,33.203,0
150869.692,27.832,29.785,38.574,20.996,8.301,0
150869.696,24.902,28.809,38.086,27.832,-5.859,0
150869.713,35.156,46.875,33.203,38.574,50.293,0
150869.717,46.387,47.852,38.574,42.969,105.469,0
150869.721,47.363,43.945,44.922,38.574,79.590,0
150869.725,42.969,39.062,34.180,35.156,25.391,0
150869.729,35.645,26.367,24.902,32.715,36.133,0
150869.733,42.480,33.203,34.180,38.574,95.703,0
150869.736,49.805,55.176,33.203,41.016,74.219,0
150869.740,38.086,43.457,36.621,31.738,26.855,0
150869.744,27.344,32.227,42.969,30.762,25.391,0
150869.748,36.133,29.297,37.598,37.598,53.711,0
150869.752,40.039,32.227,42.969,37.109,54.688,0
150869.756,31.250,51.270,43.457,28.320,51.758,0
150869.758,24.414,48.340,31.738,26.855,-10.742,0
150869.762,37.598,36.621,29.297,34.180,-13.672,0
150869.766,48.828,33.203,33.691,38.086,55.176,0
150869.770,39.062,35.156,23.926,35.645,31.738,0
150869.774,39.551,48.828,36.621,40.039,-28.809,0
150869.778,45.898,46.875,46.387,42.969,1.465,0
150869.782,44.434,34.180,27.832,33.203,89.355,0
150869.785,41.016,33.203,29.785,34.180,81.055,0
150869.789,34.668,39.062,41.992,30.762,-7.812,0
150869.793,31.738,41.504,38.086,24.414,-40.039,0
150869.797,40.527,42.480,36.133,31.250,35.645,0
150869.801,33.691,32.227,37.598,28.809,85.938,0
150869.804,25.879,36.133,21.973,22.949,31.738,0
150869.807,29.785,48.340,15.625,31.738,-30.273,0
150869.811,30.273,34.180,25.391,41.016,1.953,0
150869.815,30.762,19.531,33.203,38.574,76.660,0
150869.819,33.203,20.508,44.922,34.668,6.836,0
150869.823,25.879,35.645,44.922,31.738,-76.660,0
150869.827,34.180,28.320,47.363,38.574,-14.648,0
150869.831,44.922,29.785,44.922,43.457,83.008,0
150869.835,42.480,50.293,41.016,39.551,63.965,0
150869.839,45.898,55.176,45.410,43.457,29.297,0
150869.843,51.270,50.781,42.969,48.828,87.402,0
150869.846,46.875,39.062,31.738,45.410,111.816,0
150869.850,35.645,27.344,20.508,34.180,71.777,0
150869.854,34.180,30.762,28.320,36.133,8.789,0
150869.858,39.551,40.527,32.715,43.457,13.184,0
150869.862,42.969,39.551,31.250,41.992,74.219,0
150869.865,37.109,34.180,39.062,34.668,64.941,0
150869.869,34.180,36.621,39.062,30.762,32.715,0
150869.873,35.645,33.691,27.832,36.621,42.480,0
150869.877,37.109,25.879,25.879,37.109,74.707,0
150869.881,44.922,36.621,41.504,32.227,82.520,0
150869.885,40.527,38.574,50.781,31.250,52.246,0
150869.889,31.738,40.527,43.945,28.809,31.250,0
150869.893,32.715,40.039,30.762,29.297,44.922,0
150869.894,35.645,37.109,26.855,31.250,59.570,0
150869.898,36.621,43.457,35.156,31.738,22.461,0
150869.902,36.133,47.363,34.668,36.621,-15.137,0
150869.906,34.180,41.504,30.273,34.668,38.086,0
150869.910,38.086,40.039,36.133,35.156,76.172,0
150869.914,33.691,40.527,32.227,29.785,49.316,0
150869.918,26.855,40.039,24.902,25.391,1.465,0
150869.921,32.715,34.180,38.086,28.809,-21.973,0
150869.925,34.668,21.973,44.922,25.879,52.246,0
150869.929,39.062,20.996,38.574,33.691,107.910,0
150869.933,36.133,30.273,40.527,35.156,80.078,0
150869.937,24.414,41.504,45.410,25.879,11.230,0
150869.939,31.250,42.969,40.527,29.297,14.648,0
150869.943,40.039,46.387,26.855,34.668,72.754,0
150869.947,28.320,47.363,18.555,27.344,31.250,0
150869.951,21.484,40.039,27.344,26.367,-31.738,0
150869.955,33.203,33.203,28.320,31.250,22.461,0
150869.959,42.480,35.645,21.973,33.691,70.801,0
150869.963,42.969,34.668,40.039,36.133,28.809,0
150869.966,28.320,23.438,54.199,28.320,-11.230,0
150869.970,25.879,19.531,47.852,26.367,-19.531,0
150869.974,32.227,25.391,36.621,28.809,44.434,0
150869.978,27.344,39.551,27.344,17.090,74.707,0
150869.982,26.367,46.387,28.809,17.090,-3.906,0
150869.984,32.227,49.805,30.273,30.273,-29.297,0
150869.988,38.574,42.480,25.391,36.133,18.555,0
150869.992,39.551,40.527,36.621,39.062,74.219,0
150869.996,37.598,43.945,46.387,44.922,74.707,0
150870.000,38.086,36.621,33.691,44.434,52.246,0
150870.004,38.574,29.785,30.273,45.898,48.828,0
150870.008,34.668,30.762,41.992,48.340,39.551,0
150870.011,29.297,38.574,47.363,41.016,-2.441,0
150870.015,29.297,51.758,46.387,37.109,-24.414,0
150870.019,40.527,44.434,45.898,41.016,19.043,0
150870.023,44.922,36.621,33.691,38.086,72.754,0
150870.027,41.504,44.434,35.156,31.738,38.086,0
150870.029,29.297,41.992,37.109,26.855,-14.160,0
150870.033,38.574,45.898,34.668,33.691,-21.973,0
150870.036,55.176,41.992,40.527,42.969,7.812,0
150870.040,43.945,29.785,40.527,35.645,41.992,0
150870.044,27.344,31.250,41.504,30.273,1.465,0
150870.048,21.973,31.250,38.574,40.039,-36.133,0
150870.052,30.273,36.133,31.250,43.457,10.254,0
150870.056,30.762,43.457,33.691,37.598,74.219,0
150870.060,22.461,40.527,41.992,35.645,41.016,0
150870.064,20.996,37.109,30.273,31.738,-20.508,0
150870.068,28.809,26.855,32.227,39.062,36.133,0
150870.072,33.203,31.250,45.898,47.363,89.844,0
150870.088,29.297,39.062,38.086,37.598,77.637,0
150870.092,19.043,32.227,35.156,25.391,42.480,0
150870.096,24.414,31.250,39.062,25.391,42.480,0
150870.100,36.621,38.574,29.785,27.832,77.148,0
150870.104,39.551,54.199,30.273,27.832,69.336,0
150870.108,32.227,49.316,44.922,23.926,11.719,0
150870.111,24.902,30.273,37.109,17.090,-6.836,0
150870.115,36.621,32.227,16.602,23.926,62.012,0
150870.119,41.504,41.504,19.043,27.344,60.547,0
150870.123,38.574,38.086,35.645,23.926,18.555,0
150870.127,42.969,27.832,34.668,26.855,10.254,0
150870.131,45.898,36.621,29.785,31.738,9.277,0
150870.133,45.898,44.434,38.574,33.203,12.207,0
150870.137,41.992,50.293,44.434,34.668,-4.395,0
150870.141,35.645,50.293,42.969,35.645,0.488,0
150870.145,38.086,39.062,34.180,39.551,41.992,0
150870.149,44.922,32.715,38.086,41.992,51.758,0
150870.153,33.691,30.762,32.227,34.180,37.598,0
150870.157,31.250,31.250,23.438,36.621,2.441,0
150870.160,39.062,40.527,30.762,41.016,26.367,0
150870.164,38.086,43.457,33.203,30.762,92.773,0
150870.168,29.297,19.043,39.551,22.949,72.266,0
150870.172,18.555,6.348,44.922,24.902,-1.465,0
150870.176,24.902,41.504,46.387,31.738,7.324,0
150870.178,46.387,66.895,50.293,45.898,75.684,0
150870.182,50.781,56.641,45.410,49.805,97.168,0
150870.186,36.133,31.738,34.180,39.062,49.316,0
150870.190,30.273,21.973,32.227,31.738,4.883,0
150870.194,37.598,27.344,34.668,38.574,45.898,0
150870.198,41.992,34.180,31.738,45.898,74.219,0
150870.201,36.133,43.945,32.227,41.016,51.758,0
150870.205,26.367,40.527,37.109,31.738,4.395,0
150870.209,36.621,32.227,42.480,38.086,-14.160,0
150870.213,49.805,36.133,41.504,46.387,11.230,0
150870.217,40.039,41.016,37.109,43.457,21.484,0
150870.221,29.785,44.434,29.785,34.180,1.465,0
150870.223,38.086,43.945,33.691,38.086,12.695,0
150870.227,45.898,44.922,41.992,44.922,85.449,0
150870.231,41.504,42.480,21.484,38.574,93.750,0
150870.235,35.156,33.691,10.742,31.738,9.277,0
150870.239,29.785,27.344,38.574,23.926,-3.906,0
150870.243,35.156,27.832,54.688,31.738,42.969,0
150870.246,33.203,34.180,54.688,40.527,72.266,0
150870.250,20.996,28.320,47.852,28.809,-7.324,0
150870.254,20.508,34.668,40.039,21.973,-78.613,0
150870.258,24.414,37.598,26.367,23.926,2.930,0
150870.262,28.320,23.926,15.625,28.809,67.871,0
150870.266,28.320,36.133,23.438,28.320,41.504,0
150870.268,35.156,56.641,27.832,39.551,-9.766,0
150870.272,50.293,52.734,36.133,53.711,-4.883,0
150870.276,50.293,36.133,45.898,48.340,58.105,0
150870.280,34.668,29.297,38.086,36.621,49.805,0
150870.284,25.879,35.645,31.250,28.320,-40.039,0
150870.288,28.320,28.809,29.785,30.762,-40.527,0
150870.291,37.598,27.344,30.762,38.086,45.898,2
150870.295,40.527,28.320,29.297,29.785,26.855,0
150870.299,24.902,39.551,23.438,15.137,-0.977,0
150870.303,19.531,59.082,33.203,15.625,0.488,0
150870.307,23.926,43.945,44.434,16.602,11.230,0
150870.311,21.484,35.156,39.062,10.742,28.320,0
150870.314,24.414,39.551,29.297,11.230,-13.672,0
150870.318,23.926,37.598,33.691,12.695,-31.738,0
150870.322,28.809,28.320,34.668,17.578,-8.301,0
150870.326,38.086,22.461,35.645,24.902,41.504,0
150870.330,37.109,29.297,32.227,26.367,56.641,0
150870.334,34.668,44.922,31.250,29.297,11.719,0
150870.338,38.574,42.480,30.762,43.457,32.715,0
150870.342,38.574,33.691,25.879,38.086,95.703,0
150870.346,25.879,24.902,38.086,21.484,62.988,0
150870.350,18.066,31.738,41.504,10.742,-11.719,0
150870.353,23.926,43.945,34.668,17.090,-0.977,0
150870.357,26.367,36.133,20.508,24.414,89.355,0
150870.358,19.531,36.133,26.367,20.996,93.750,0
150870.362,15.625,38.086,41.992,21.484,2.441,0
150870.366,23.438,30.762,40.527,24.414,-15.625,0
150870.370,36.133,29.785,34.180,35.156,54.688,0
150870.374,33.691,36.621,30.762,35.156,116.699,0
150870.378,28.809,41.016,35.156,32.227,48.340,0
150870.381,35.156,49.316,45.898,38.574,-24.414,0
150870.385,36.621,28.809,39.551,36.133,33.691,0
150870.389,37.598,25.391,25.391,34.180,115.723,0
150870.393,37.109,39.551,26.367,38.574,83.984,0
150870.397,37.109,41.992,30.762,42.969,-18.066,0
150870.401,40.039,44.922,16.602,30.273,4.883,0
150870.403,41.016,45.898,13.672,17.578,94.727,0
150870.407,41.504,53.223,24.902,23.438,52.246,0
150870.411,31.738,44.434,32.227,21.973,-36.133,0
150870.415,27.344,36.621,36.621,20.020,-26.367,0
150870.419,48.340,54.688,31.738,38.574,52.734,0
150870.423,52.246,53.711,25.391,44.434,60.059,0
150870.426,34.180,41.504,26.855,32.715,-25.391,0
150870.430,34.180,41.016,39.551,36.133,-65.918,0
150870.434,46.875,31.738,37.109,45.898,32.227,0
150870.438,48.340,25.879,20.020,44.434,63.965,0
150870.442,38.574,39.062,22.461,36.621,12.695,0
150870.446,39.062,46.875,27.832,37.598,-25.879,0
150870.463,48.340,54.199,34.180,46.875,5.371,0
150870.467,53.223,61.035,37.598,48.828,73.242,0
150870.471,51.758,55.664,34.180,46.387,45.410,0
150870.475,43.945,42.480,38.086,44.434,2.441,0
150870.479,36.133,38.574,36.133,39.551,16.602,0
150870.483,38.574,32.227,25.391,35.645,38.086,0
150870.487,43.457,28.320,21.973,31.250,37.598,0
150870.491,40.039,44.434,29.785,27.344,-10.742,0
150870.495,42.969,42.969,38.086,32.715,-46.387,0
150870.498,59.570,35.156,40.039,47.363,-12.207,0
150870.502,50.293,43.457,33.203,41.504,21.484,0
150870.506,32.715,45.898,38.574,29.297,39.062,0
150870.509,31.738,42.480,42.480,31.250,13.672,0
150870.512,33.691,33.203,29.297,32.227,32.715,0
150870.516,36.621,35.645,24.902,32.227,86.426,0
150870.520,41.504,40.527,30.273,30.273,51.270,0
150870.524,43.945,41.504,31.738,37.598,-25.879,0
150870.528,38.086,41.504,29.297,44.434,-0.488,0
150870.532,37.598,45.410,36.621,41.992,63.965,0
150870.536,35.645,42.480,43.457,32.715,37.109,0
150870.540,22.461,35.156,43.457,24.414,7.324,0
150870.544,26.367,25.391,44.922,30.273,-7.812,0
150870.548,37.598,23.438,41.504,39.551,47.363,0
150870.551,37.109,34.180,30.273,42.969,81.055,0
150870.554,32.715,35.645,26.855,40.039,33.691,0
150870.558,34.668,34.668,32.227,37.109,41.016,0
150870.562,42.480,43.945,36.621,39.551,109.375,0
150870.566,41.992,46.875,37.598,34.180,112.305,0
150870.569,31.250,37.109,41.992,32.715,68.848,0
150870.573,29.297,37.109,35.645,39.551,20.996,0
150870.577,37.109,39.062,24.902,45.410,47.852,0
150870.581,40.527,25.879,39.551,46.387,123.535,0
150870.585,29.785,16.602,44.922,34.180,61.523,0
150870.589,22.461,21.484,34.668,25.879,-6.348,0
150870.593,30.273,34.668,34.668,37.109,40.527,0
150870.597,42.969,50.781,42.480,51.758,108.398,0
150870.599,40.039,48.340,41.504,39.551,108.398,0
150870.603,24.902,39.062,28.809,23.438,41.992,0
150870.607,37.598,45.410,31.250,36.133,20.508,0
150870.611,49.316,43.457,36.621,43.945,67.383,0
150870.615,35.156,35.156,22.949,29.297,106.934,0
150870.619,25.391,27.832,22.461,23.438,43.945,0
150870.623,27.832,22.461,32.227,24.902,-4.883,0
150870.627,40.039,30.762,35.156,36.133,36.133,0
150870.630,46.875,27.344,37.109,42.969,57.617,0
150870.634,37.109,36.133,38.574,34.180,36.133,0
150870.638,29.785,50.781,36.133,30.273,-14.648,0
150870.642,36.621,43.457,28.320,37.598,-2.930,0
150870.644,43.945,34.180,26.855,47.363,39.062,0
150870.648,45.898,30.273,39.551,46.387,49.805,0
150870.652,39.062,30.762,44.434,41.992,5.371,0
150870.656,35.645,39.551,33.691,34.668,-6.836,0
150870.660,42.480,50.293,32.715,34.180,62.012,0
150870.664,43.945,41.504,38.086,40.039,30.273,0
150870.668,30.762,37.598,41.016,33.203,-32.227,0
150870.672,25.391,46.875,42.969,28.809,-26.367,0
150870.675,33.203,44.434,46.875,34.180,48.340,0
150870.679,35.156,31.738,49.316,37.598,76.660,0
150870.683,34.668,28.809,44.922,40.527,16.113,0
150870.687,29.785,43.945,33.203,35.645,-36.621,0
150870.689,34.180,50.293,26.367,35.645,19.043,0
150870.693,37.109,40.527,32.715,37.598,99.609,0
150870.697,28.320,35.645,44.922,31.250,35.645,0
150870.701,22.949,38.574,42.480,30.273,-13.672,0
150870.705,25.879,33.691,30.762,31.738,32.227,0
150870.708,26.855,32.227,33.691,29.297,86.426,0
150870.712,27.832,38.086,38.086,26.367,71.777,0
150870.716,29.297,40.527,38.574,23.926,7.324,0
150870.720,26.855,41.504,31.738,22.461,20.508,0
150870.724,26.855,34.668,23.438,23.926,79.590,0
150870.728,28.320,30.273,25.879,15.137,75.195,0
150870.732,24.902,41.016,38.086,14.648,-0.977,0
150870.734,19.043,44.434,42.480,20.020,-10.254,0
150870.738,26.855,40.039,43.945,23.438,50.781,0
150870.742,31.738,35.156,43.457,23.926,72.754,0
150870.746,26.367,33.691,32.715,16.602,38.086,0
150870.750,25.879,33.691,25.391,22.461,0.000,0
150870.754,36.133,33.203,21.973,35.156,46.875,0
150870.758,41.992,22.949,20.996,32.715,78.613,0
150870.761,27.344,28.320,22.949,18.066,44.434,0
150870.765,19.043,41.992,29.785,20.508,31.738,0
150870.769,22.461,41.016,33.203,31.250,50.293,0
150870.773,39.062,36.621,42.969,35.645,88.379,0
150870.777,43.457,41.016,38.574,32.715,84.961,0
150870.779,26.855,41.992,24.414,22.949,0.977,0
150870.783,34.668,40.039,32.715,27.344,-5.859,0
150870.787,52.734,46.875,44.434,40.527,59.082,0
150870.791,46.875,45.410,39.062,37.598,76.172,0
150870.795,34.668,35.156,36.133,32.715,29.785,0
150870.799,31.250,33.691,35.645,33.203,-22.461,0
150870.803,36.621,32.227,36.133,34.180,24.902,0
150870.807,41.992,15.137,35.645,39.062,99.121,0
150870.811,32.715,24.902,30.762,37.109,45.410,0
150870.815,23.438,50.293,26.855,28.809,-19.043,0
150870.818,32.715,53.223,27.344,33.691,31.250,0
150870.822,43.945,47.852,33.203,36.133,97.168,0
150870.839,41.016,44.434,38.574,28.809,96.680,0
150870.843,36.621,39.551,39.551,26.855,32.227,0
150870.847,41.992,33.691,25.391,36.133,22.461,0
150870.851,50.781,36.133,17.090,46.875,114.258,0
150870.855,50.293,34.180,27.344,48.340,104.980,0
150870.859,39.062,33.203,45.898,35.156,-2.441,0
150870.863,39.062,37.598,52.734,32.227,-48.828,0
150870.867,51.758,46.875,50.781,46.387,38.086,0
150870.871,45.410,47.363,50.781,38.574,66.406,0
150870.874,25.879,26.367,46.387,21.484,-9.766,0
150870.878,24.414,24.414,41.992,26.367,-22.461,0
150870.882,38.086,46.387,34.180,42.969,49.805,0
150870.883,44.434,41.504,27.832,49.316,110.840,0
150870.887,35.156,27.832,30.273,41.992,73.242,0
150870.891,30.273,34.668,33.203,33.691,20.020,0
150870.895,40.039,40.527,26.855,36.621,23.926,0
150870.899,51.270,42.969,36.133,43.945,45.898,0
150870.903,48.340,43.457,50.293,42.969,23.438,0
150870.906,32.715,34.668,39.062,30.762,-19.531,0
150870.910,31.738,33.203,29.785,30.762,-3.906,0
150870.914,46.875,36.621,24.902,41.992,39.062,0
150870.918,51.758,26.367,28.320,43.945,3.418,0
150870.922,41.504,26.855,35.156,39.551,-15.137,0
150870.926,40.039,36.621,32.715,40.039,16.602,0
150870.928,38.574,45.410,34.668,39.062,61.035,0
150870.932,38.574,47.363,45.410,38.574,94.238,0
150870.936,37.109,40.039,56.641,36.133,39.062,0
150870.940,22.949,37.598,46.387,29.785,22.461,0
150870.944,29.785,40.039,40.527,40.039,72.266,0
150870.948,38.574,35.645,40.527,41.992,98.145,0
150870.952,31.250,31.250,39.062,31.250,69.336,0
150870.955,29.297,36.133,35.156,31.250,0.977,0
150870.959,41.504,37.109,35.645,41.992,2.930,0
150870.963,47.363,18.555,37.598,44.922,61.035,0
150870.967,40.039,23.438,34.180,43.457,88.379,0
150870.971,32.715,44.434,32.715,41.504,30.273,2
150870.973,33.203,41.992,30.762,40.039,19.043,0
150870.977,43.457,39.062,33.203,46.387,71.777,0
150870.981,42.969,40.527,38.574,47.363,67.383,0
150870.985,41.016,41.016,45.410,41.016,23.438,0
150870.989,46.387,44.434,46.387,49.805,20.020,0
150870.993,43.945,37.598,38.086,51.270,71.289,0
150870.997,38.086,24.414,37.598,42.480,86.914,0
150871.001,29.785,21.973,37.598,35.156,31.738,0
150871.004,21.973,26.855,33.691,20.996,-51.270,0
150871.008,30.762,13.672,34.668,26.367,0.488,0
150871.012,40.039,21.973,38.574,29.785,72.266,0
150871.016,34.180,54.199,39.062,19.043,-0.977,0
150871.018,33.691,52.734,44.922,22.949,-44.434,0
150871.022,42.969,42.969,49.805,35.156,-5.371,0
150871.026,56.641,45.410,36.133,45.898,27.344,0
150871.030,55.664,35.645,26.855,40.039,37.598,0
150871.034,36.133,23.438,33.691,30.273,22.949,0
150871.038,35.156,25.879,29.785,35.156,10.254,0
150871.041,41.992,32.715,18.555,39.551,28.320,0
150871.045,41.504,39.551,21.973,35.156,8.789,0
150871.049,40.527,42.969,35.156,34.668,-33.203,0
150871.053,35.645,31.738,39.551,39.062,-41.504,0
150871.057,44.922,13.672,43.457,47.852,10.742,0
150871.061,55.664,27.344,47.852,52.246,23.926,0
150871.064,41.504,49.316,39.062,40.039,-16.602,0
150871.068,30.273,41.016,24.902,31.250,-23.926,0
150871.072,36.621,41.992,16.113,37.598,36.133,0
150871.076,39.062,45.898,24.414,38.086,83.984,0
150871.080,36.621,41.016,40.527,38.086,60.547,0
150871.084,38.574,39.551,43.457,43.945,-27.832,0
150871.088,41.504,41.504,34.180,41.016,-49.805,0
150871.092,43.457,35.156,32.715,39.062,36.621,0
150871.096,38.574,22.461,37.598,36.133,47.363,0
150871.099,34.668,30.762,33.203,33.691,-10.742,0
150871.103,37.109,27.832,28.809,40.039,-8.301,0
150871.107,53.223,19.531,41.504,49.316,65.918,0
150871.108,58.105,37.109,46.875,51.758,82.520,0
150871.112,45.410,45.898,42.480,47.363,13.672,0
150871.116,42.480,41.992,35.156,45.898,-30.762,0
150871.120,48.828,29.785,18.555,48.340,30.762,0
150871.124,43.457,32.715,17.090,41.016,84.961,0
150871.128,32.227,33.203,36.133,35.156,41.016,0
150871.132,31.250,22.461,40.527,37.598,-28.320,0
150871.135,37.598,24.902,33.203,38.086,-1.465,0
150871.139,45.898,31.738,34.180,44.922,89.355,0
150871.143,48.828,30.273,40.039,50.781,63.965,0
150871.147,44.922,34.668,38.574,45.898,-19.043,0
150871.151,44.434,25.879,35.156,45.898,17.578,0
150871.169,53.711,10.742,28.320,53.711,64.453,0
150871.172,55.176,36.621,9.766,50.781,26.855,0
150871.176,50.781,51.270,8.789,47.363,2.930,0
150871.180,41.504,28.320,26.855,39.551,19.531,0
150871.184,41.992,24.902,42.480,36.133,66.895,0
150871.188,47.852,40.527,47.363,40.527,78.125,0
150871.192,32.715,35.156,44.434,33.691,18.066,0
150871.196,21.973,22.949,39.551,34.180,-31.250,0
150871.200,32.715,23.926,35.645,44.922,35.156,0
150871.204,38.086,27.832,36.621,45.898,57.617,0
150871.208,33.203,30.273,39.062,33.203,-1.953,0
150871.212,33.203,37.598,26.367,32.227,-5.859,0
150871.214,42.969,32.227,20.508,46.387,30.273,0
150871.218,53.223,16.602,35.156,52.734,48.340,0
150871.222,45.410,24.902,33.691,41.992,57.617,0
150871.226,38.086,42.969,26.855,44.922,13.184,0
150871.230,43.457,38.086,20.996,54.199,13.184,0
150871.234,48.340,18.066,27.344,50.293,92.773,0
150871.238,37.598,20.508,33.203,37.598,74.707,0
150871.242,24.414,31.738,27.832,31.250,-13.184,0
150871.246,26.855,33.691,22.949,31.250,-36.133,0
150871.249,37.598,31.250,17.578,37.598,20.020,0
150871.253,46.387,18.555,22.949,43.945,44.922,0
150871.257,38.574,19.531,32.227,37.598,38.574,0
150871.259,31.738,24.902,40.527,29.785,-4.395,0
150871.263,45.898,33.691,33.203,38.086,20.996,0
150871.267,48.828,33.691,26.367,37.109,52.734,0
150871.270,35.156,29.785,32.227,26.367,37.109,0
150871.274,30.762,30.273,27.832,25.879,-10.254,0
150871.278,34.180,21.484,22.461,34.668,-8.301,0
150871.282,38.086,20.996,18.066,31.250,70.801,0
150871.286,44.434,20.020,21.973,28.809,94.727,0
150871.290,48.340,31.738,40.527,39.062,24.902,0
150871.294,44.922,39.062,40.527,41.992,-50.781,0
150871.298,39.551,35.156,25.879,37.109,35.645,0
150871.302,31.738,28.320,13.184,26.855,125.488,0
150871.304,34.180,34.180,19.043,27.832,48.828,0
150871.308,34.668,33.691,26.855,27.832,-7.812,0
150871.311,41.992,24.414,24.414,34.668,86.426,0
150871.315,56.641,27.344,40.039,51.270,128.418,0
150871.319,46.875,23.926,35.156,37.598,49.805,0
150871.323,35.645,16.113,18.555,27.832,-23.438,0
150871.327,44.434,17.578,24.414,41.992,3.906,0
150871.331,51.270,24.902,31.250,51.270,62.988,0
150871.335,41.504,26.855,25.391,46.875,18.555,0
150871.339,33.203,11.719,19.043,45.898,-20.020,0
150871.343,32.715,9.766,14.160,42.969,46.387,0
150871.347,36.133,31.250,20.508,39.062,78.125,0
150871.348,32.715,34.668,30.762,32.715,43.457,0
150871.352,30.273,29.785,29.297,26.855,36.133,0
150871.356,28.320,25.879,16.113,32.715,51.758,0
150871.360,28.320,15.137,14.648,32.715,77.148,0
150871.364,29.785,10.742,23.926,21.973,66.406,0
150871.368,20.996,12.207,27.832,17.578,19.531,0
150871.372,12.207,9.766,24.414,21.973,38.574,0
150871.375,23.438,8.301,24.414,30.762,72.754,0
150871.379,30.762,0.977,26.855,34.668,62.988,0
150871.383,20.508,-5.371,26.367,31.738,42.480,0
150871.387,19.043,1.465,25.879,27.344,-3.906,0
150871.391,28.320,15.625,27.344,32.715,-4.883,0
150871.393,41.016,28.809,35.645,43.457,61.035,0
150871.397,43.945,26.855,37.598,39.551,80.566,0
150871.401,35.156,24.414,24.414,32.227,19.531,0
150871.405,29.785,19.531,14.648,29.785,-7.324,0
150871.409,36.133,11.719,14.648,34.668,44.434,0
150871.413,43.457,15.137,15.625,37.598,47.852,0
150871.417,35.156,9.277,18.066,31.738,-4.883,0
150871.420,29.785,2.441,25.391,36.621,-37.598,0
150871.424,37.598,17.578,27.344,41.504,13.184,0
150871.428,34.668,21.973,18.066,27.832,48.340,0
150871.432,29.297,4.395,12.695,24.414,-3.418,0
150871.436,29.785,4.395,20.508,33.691,-23.926,0
150871.438,36.133,22.949,30.273,41.016,19.531,0
150871.442,44.922,26.367,21.484,46.875,68.359,0
150871.446,40.527,19.043,19.043,46.875,45.898,0
150871.450,36.621,18.066,20.020,40.039,13.184,0
150871.454,42.969,18.066,16.602,37.598,1.465,0
150871.458,42.480,6.348,24.414,36.133,36.133,0
150871.461,32.227,6.348,24.414,25.879,19.531,0
150871.465,20.508,17.090,20.996,18.066,-45.898,0
150871.469,24.414,19.043,23.926,23.926,14.648,0
150871.473,35.645,9.277,26.367,32.227,103.027,0
150871.477,38.574,-3.418,31.738,34.668,86.914,0
150871.481,40.527,12.695,27.832,36.621,16.113,0
150871.483,36.133,26.855,16.113,38.574,-12.695,0
150871.487,39.062,20.996,20.996,42.480,57.617,0
150871.491,46.875,21.484,27.832,42.969,86.426,0
150871.495,43.457,3.906,25.391,40.039,10.742,1
150871.499,33.691,0.977,17.090,38.574,-46.387,0
150871.503,32.715,12.695,12.207,37.598,-18.555,0
150871.506,42.480,13.184,12.695,40.039,46.875,0
150871.510,47.852,20.508,24.414,44.922,32.715,0
150871.514,43.457,22.461,36.621,47.363,-3.418,0
150871.518,36.133,3.418,33.691,38.086,39.062,0
150871.522,37.109,4.883,23.438,34.180,102.051,0
150871.526,39.551,17.578,13.184,33.691,72.754,0
150871.529,37.598,11.719,24.414,32.227,-1.465,0
150871.533,37.109,10.742,26.367,30.273,-3.906,0
150871.537,38.574,11.719,16.602,28.320,40.527,0
150871.541,30.273,13.184,15.137,26.855,66.406,0
150871.545,20.020,12.207,18.066,22.461,20.996,0
150871.549,24.902,19.531,21.973,27.832,-27.344,0
150871.553,37.598,19.531,30.762,36.133,-2.441,0
150871.557,39.551,3.906,32.715,37.109,53.711,0
150871.561,30.273,4.395,29.297,35.645,32.715,0
150871.565,27.832,3.418,22.461,36.133,26.367,0
150871.568,36.133,6.836,8.789,41.016,92.773,0
150871.572,30.762,19.531,6.836,35.156,109.863,0
150871.588,27.832,21.973,25.879,28.809,66.895,0
150871.592,30.273,26.367,30.762,30.273,45.410,0
150871.596,28.320,22.461,19.531,26.855,82.031,0
150871.600,34.180,19.531,16.602,33.203,117.188,0
150871.604,26.855,17.090,22.949,29.297,123.535,0
150871.608,15.137,12.207,28.809,14.648,76.660,0
150871.612,17.578,4.883,23.926,18.555,24.902,0
150871.615,29.785,3.906,17.578,26.855,90.820,0
150871.619,42.969,4.395,13.184,32.715,99.121,0
150871.623,33.691,13.672,10.254,26.367,28.809,0
150871.627,26.367,27.344,19.531,23.926,22.461,0
150871.631,40.039,29.785,21.484,40.039,70.801,0
150871.633,41.016,30.273,7.324,36.621,104.980,0
150871.637,34.668,18.555,17.578,27.344,49.805,0
150871.641,29.785,12.695,37.598,33.691,-5.859,0
150871.645,31.250,10.742,41.992,43.457,26.855,0
150871.649,41.992,9.766,29.297,47.852,67.871,0
150871.653,38.086,9.277,25.391,41.016,51.270,0
150871.656,28.320,0.488,29.785,31.738,-23.926,0
150871.660,34.668,11.719,21.484,34.668,-24.414,0
150871.664,43.457,20.996,8.301,38.086,48.828,0
150871.668,38.086,2.441,3.418,26.367,21.973,0
150871.672,32.715,7.324,12.207,18.066,3.906,0
150871.676,37.598,27.832,20.020,29.297,12.695,0
150871.679,46.387,25.879,29.785,40.039,31.738,0
150871.682,36.133,17.578,28.320,29.297,78.613,0
150871.686,18.555,18.066,17.578,15.625,73.730,0
150871.690,20.508,20.508,18.066,20.020,27.344,0
150871.694,29.785,20.020,12.207,29.785,30.273,0
150871.698,33.691,22.461,8.789,33.691,45.898,0
150871.702,25.879,20.020,13.672,30.273,15.137,0
150871.706,22.949,14.160,14.160,32.227,3.906,0
150871.710,32.227,3.418,20.996,34.668,21.484,0
150871.714,34.668,-3.418,24.902,33.691,35.645,0
150871.718,23.926,10.742,23.438,28.809,22.461,0
150871.722,16.602,25.391,29.785,22.949,-9.766,0
150871.724,28.320,29.297,27.832,30.762,-13.672,0
150871.727,27.832,22.949,7.812,33.691,43.945,0
150871.731,15.625,11.230,1.953,18.066,58.105,0
150871.735,18.555,12.695,10.254,14.160,-1.465,0
150871.739,23.438,14.648,26.367,24.414,-28.320,0
150871.743,29.297,8.301,23.926,30.273,36.621,0
150871.747,37.109,21.973,-2.441,32.227,69.824,0
150871.751,29.297,15.137,10.742,21.973,5.371,0
150871.755,24.414,1.465,39.551,17.578,-41.504,0
150871.759,35.156,29.297,39.062,32.715,31.250,0
150871.763,43.945,40.527,34.668,42.480,85.938,0
150871.766,46.387,32.227,37.598,42.480,53.711,0
150871.769,39.062,25.879,33.203,41.992,-8.301,0
150871.773,30.762,17.090,16.113,39.551,-13.672,0
150871.777,36.621,14.648,11.719,38.574,69.824,0
150871.781,34.668,22.949,15.137,33.691,51.270,0
150871.784,22.461,27.344,13.672,18.555,-13.184,0
150871.788,24.414,27.832,16.602,17.578,-3.906,0
150871.792,38.574,26.367,24.414,35.156,35.645,0
150871.796,39.062,20.508,22.949,38.574,34.180,0
150871.800,30.273,13.672,19.043,30.762,0.977,0
150871.804,32.715,17.578,20.508,34.180,-20.996,0
150871.808,38.574,30.273,22.949,38.574,19.531,0
150871.812,37.109,27.832,21.484,27.344,64.453,0
150871.813,34.180,20.996,14.160,21.484,25.391,0
150871.817,32.715,30.762,16.113,28.320,-12.207,0
150871.821,34.180,39.062,24.414,34.180,55.176,0
150871.825,36.621,34.668,23.438,41.016,102.539,0
150871.829,36.621,33.691,23.438,37.598,41.504,0
150871.833,28.809,23.926,29.297,25.879,-31.250,0
150871.837,24.902,17.578,34.668,32.227,8.301,0
150871.841,35.645,26.367,34.668,41.016,87.891,0
150871.845,31.250,24.414,29.785,33.691,111.328,0
150871.848,13.672,12.695,20.996,22.461,53.711,0
150871.852,13.672,19.043,18.555,23.438,21.973,0
150871.856,29.785,41.016,18.555,33.203,79.102,0
150871.858,38.086,48.340,15.625,40.527,95.703,0
150871.862,28.320,40.039,20.996,29.297,45.898,0
150871.866,20.996,31.738,35.645,21.973,-11.230,0
150871.870,33.203,29.785,40.039,37.109,46.387,0
150871.874,39.062,23.926,27.832,44.922,114.746,0
150871.878,24.414,27.344,10.742,37.109,68.359,0
150871.882,14.160,32.715,15.625,25.879,-19.043,0
150871.886,18.066,25.391,30.273,20.020,3.418,0
150871.889,25.879,23.926,30.762,30.762,100.586,0
150871.893,36.621,39.062,23.926,43.457,78.613,0
150871.897,30.762,46.387,20.508,36.621,-20.508,0
150871.901,33.203,45.410,30.273,35.156,-2.441,0
150871.903,48.828,39.551,33.203,45.410,90.332,0
150871.907,55.664,35.156,36.621,48.340,62.500,0
150871.911,46.875,34.180,41.016,43.945,-13.672,0
150871.915,37.109,26.855,33.691,41.016,8.301,0
150871.919,40.039,35.645,26.367,46.387,85.938,0
150871.923,40.039,46.387,25.391,42.969,103.027,0
150871.926,30.762,39.062,26.367,30.273,14.648,0
150871.930,29.297,36.133,27.832,32.227,-27.832,0
150871.934,39.062,36.133,27.344,41.504,14.160,0
150871.938,41.016,33.691,25.879,39.551,27.832,0
150871.942,38.086,34.668,24.902,36.133,10.254,0
150871.946,31.738,30.273,20.996,36.621,0.977,0
150871.963,31.250,17.578,21.973,28.809,23.926,0
150871.967,37.598,25.391,26.855,25.391,91.797,0
150871.971,31.738,38.086,25.879,25.391,77.637,0
150871.975,22.461,40.039,16.602,22.461,10.254,0
150871.979,26.855,38.086,14.160,26.367,18.555,0
150871.983,40.039,40.527,26.855,37.598,59.570,0
150871.987,37.598,30.273,33.203,42.969,59.082,0
150871.991,19.043,10.254,24.902,26.855,-4.883,0
150871.994,14.160,29.785,24.414,15.137,-1.953,0
150871.998,29.297,47.852,25.391,21.973,59.082,0
150872.002,35.645,41.016,27.344,23.438,132.324,0
150872.006,29.785,41.504,24.414,25.391,107.422,0
150872.008,33.203,43.457,20.020,41.992,20.020,0
150872.012,43.457,33.203,35.645,53.711,53.223,0
150872.016,39.062,26.855,38.086,43.457,82.520,0
150872.020,26.367,28.320,23.438,24.902,40.527,0
150872.024,21.973,30.273,22.949,23.926,2.441,0
150872.028,27.832,32.715,26.367,41.016,-16.602,0
150872.032,35.645,25.391,32.715,48.340,26.855,0
150872.035,25.879,27.344,37.109,36.621,45.898,0
150872.039,14.648,44.434,28.320,24.414,-38.086,0
150872.043,23.438,45.410,18.066,31.250,-82.520,0
150872.047,36.621,47.852,28.320,44.922,-25.879,2
150872.051,30.762,45.410,39.062,40.039,30.762,0
150872.054,23.438,34.180,32.715,31.738,-20.996,0
150872.058,20.020,31.738,26.367,26.855,-49.805,0
150872.062,27.344,37.598,22.461,30.762,-5.859,0
150872.066,32.715,42.969,21.484,32.227,62.012,0
150872.070,24.414,42.480,32.715,20.508,51.270,0
150872.074,23.438,48.340,44.922,18.555,-15.625,0
150872.078,29.297,40.527,37.109,27.832,30.273,0
150872.082,27.832,30.762,20.020,26.855,85.449,0
150872.086,23.926,43.457,31.250,21.973,10.254,0
150872.090,20.508,51.758,32.227,15.137,-46.875,0
150872.093,18.066,46.875,19.531,14.160,0.488,0
150872.097,23.438,37.109,21.484,20.508,64.941,0
150872.098,24.414,42.480,28.809,19.531,64.941,0
150872.102,19.531,55.664,36.621,22.461,3.906,0
150872.106,25.879,54.688,25.879,29.785,-11.230,0
150872.110,30.762,36.621,20.996,32.715,37.109,0
150872.114,23.926,34.180,25.879,27.344,82.520,0
150872.118,20.508,35.645,29.297,22.461,53.223,0
150872.122,23.926,38.086,30.762,22.461,23.926,0
150872.125,29.785,42.969,23.926,22.461,65.430,0
150872.129,34.668,46.875,19.531,21.484,80.078,0
150872.133,37.598,58.105,22.949,21.484,53.711,0
150872.137,33.691,47.852,19.043,19.531,-5.371,0
150872.141,37.598,44.434,13.672,22.949,-17.578,0
150872.143,44.434,45.898,25.391,31.250,58.105,0
150872.147,43.457,48.340,28.320,33.203,72.754,0
150872.151,35.645,45.410,25.879,35.645,-0.488,0
150872.155,33.203,35.645,32.227,42.480,-15.625,0
150872.159,44.434,36.621,30.762,44.922,79.590,0
150872.163,38.086,44.434,24.902,37.109,80.566,0
150872.166,32.227,46.387,30.762,36.133,-20.996,0
150872.170,33.691,27.832,42.969,40.039,-43.945,0
150872.174,34.668,36.133,44.434,38.086,39.062,0
150872.178,37.598,60.059,32.715,28.809,85.938,0
150872.182,27.832,53.223,21.973,17.578,43.457,0
150872.186,22.949,46.875,13.672,10.254,-11.230,0
150872.188,30.273,44.434,13.184,16.602,11.719,0
150872.192,37.598,41.992,21.484,27.832,52.246,0
150872.196,38.086,34.668,24.414,30.273,54.199,0
150872.200,31.738,33.203,32.227,27.344,26.855,0
150872.204,31.738,37.598,32.715,29.297,16.602,0
150872.208,42.480,43.945,27.832,41.016,69.824,0
150872.211,44.434,51.758,31.250,47.363,54.688,0
150872.215,34.668,34.180,31.738,35.645,-14.160,0
150872.219,33.691,26.855,24.902,31.738,-14.648,0
150872.223,41.992,30.762,23.926,45.898,69.336,0
150872.227,42.480,29.785,28.809,45.410,64.453,0
150872.231,35.645,48.340,33.691,38.086,1.465,0
150872.234,31.250,50.781,35.156,38.574,-3.418,0
150872.238,34.180,37.109,26.855,37.109,54.688,0
150872.242,40.039,42.480,31.738,34.668,82.520,0
150872.246,32.227,48.828,34.180,32.715,39.062,0
150872.249,18.066,47.852,20.996,29.785,13.184,0
150872.253,20.020,45.898,24.414,27.832,48.828,0
150872.257,29.785,38.574,33.203,25.391,89.355,0
150872.261,34.668,36.133,32.227,28.320,50.293,0
150872.265,33.691,38.574,38.574,33.203,3.906,0
150872.269,34.180,26.367,44.434,35.156,20.508,0
150872.273,37.109,31.250,37.109,36.133,62.988,0
150872.277,38.574,48.340,28.809,38.086,81.055,0
150872.280,31.250,37.109,26.367,38.086,34.180,0
150872.284,23.438,31.738,31.250,35.156,-2.441,0
150872.287,33.691,44.434,39.062,37.598,57.129,0
150872.291,39.062,50.293,32.227,38.574,84.961,0
150872.295,36.133,42.969,22.461,37.598,18.066,0
150872.299,33.691,37.598,33.203,34.668,-18.066,0
150872.303,29.785,25.879,38.086,25.391,22.949,0
150872.307,26.855,33.203,31.250,19.531,86.426,0
150872.311,28.320,51.758,34.668,27.344,53.223,0
150872.315,28.809,52.734,43.457,38.574,4.395,0
150872.319,28.320,44.434,31.738,37.598,41.016,0
150872.323,37.598,46.875,31.738,40.039,48.828,0
150872.339,35.645,44.434,46.387,43.945,-1.953,0
150872.343,31.738,37.109,42.480,43.945,-35.156,0
150872.347,37.598,38.086,36.621,45.898,-4.395,0
150872.350,40.527,30.273,33.203,45.898,47.363,0
150872.354,31.738,38.574,31.250,35.156,54.199,0
150872.358,20.020,39.551,32.715,25.391,2.930,0
150872.362,22.949,26.367,31.250,32.715,2.930,0
150872.366,34.668,38.086,34.180,44.434,88.379,0
150872.370,38.574,50.293,37.109,42.969,98.145,0
150872.374,27.832,46.875,31.738,31.738,33.203,0
150872.378,18.555,39.062,27.832,22.461,8.789,0
150872.382,30.762,43.945,41.016,32.227,93.750,0
150872.384,41.016,47.363,47.363,35.156,121.094,0
150872.388,31.250,46.387,40.039,19.531,17.090,0
150872.392,23.438,39.062,31.250,18.066,-33.203,0
150872.396,32.715,30.762,24.902,28.320,-5.371,0
150872.400,40.039,40.527,26.855,30.762,38.086,0
150872.404,30.762,55.664,31.738,26.855,28.809,0
150872.408,22.461,43.457,32.227,19.531,-8.789,0
150872.411,26.367,24.902,29.785,17.578,15.137,0
150872.415,31.250,39.062,33.203,23.926,66.406,0
150872.419,30.273,49.316,36.621,25.879,39.551,0
150872.423,21.484,47.363,32.227,24.902,8.301,0
150872.427,20.996,38.574,29.785,28.320,16.602,0
150872.429,28.809,39.062,38.086,32.715,48.340,0
150872.433,29.785,53.711,36.133,31.250,68.359,0
150872.437,32.715,55.176,32.715,35.645,0.488,0
150872.441,29.785,41.992,29.785,34.180,-34.180,0
150872.445,25.879,41.504,24.902,24.414,25.879,0
150872.449,36.133,40.527,34.668,27.832,73.730,0
150872.453,29.785,25.879,41.992,25.391,43.457,0
150872.457,15.625,40.527,38.086,17.578,-2.930,0
150872.461,23.926,49.805,36.621,20.508,-13.184,0
150872.464,33.691,41.992,36.133,29.785,36.621,0
150872.468,32.227,36.621,33.203,31.250,43.945,0
150872.472,31.250,36.621,37.598,23.926,-11.230,0
150872.473,32.715,47.852,37.598,24.902,-24.414,0
150872.477,40.039,53.223,39.062,33.203,58.105,0
150872.481,44.434,46.387,42.969,36.621,76.660,0
150872.485,36.621,44.434,36.133,32.227,0.000,0
150872.489,39.551,38.574,36.621,34.180,-10.742,0
150872.493,44.922,36.621,42.969,38.574,25.391,0
150872.497,40.039,49.316,41.992,32.227,57.617,0
150872.501,31.250,52.734,33.691,31.738,21.973,0
150872.504,26.855,50.293,25.391,30.273,-28.320,0
150872.508,34.668,45.410,36.133,33.203,24.902,0
150872.512,41.016,43.457,53.223,35.156,71.289,0
150872.516,33.691,45.898,45.410,26.367,20.020,0
150872.519,17.578,44.922,25.879,16.602,-19.531,0
150872.523,22.461,41.504,27.832,21.973,17.090,0
150872.527,34.180,45.410,40.527,35.645,53.711,0
150872.531,32.227,47.852,39.062,32.715,17.578,0
150872.535,24.902,42.480,26.367,23.926,-8.301,0
150872.539,21.484,39.551,24.902,26.855,11.230,0
150872.543,21.973,31.738,36.133,28.809,53.711,0
150872.547,19.043,35.156,41.016,16.602,46.875,0
150872.551,18.066,41.504,44.434,12.695,-11.719,0
150872.555,16.113,50.293,45.410,20.508,6.836,0
150872.558,16.602,53.711,38.086,21.973,80.078,0
150872.562,21.973,53.223,33.691,26.855,117.676,0
150872.563,23.926,46.875,32.715,31.250,79.590,0
150872.567,13.672,41.992,22.461,21.484,40.527,0
150872.571,16.113,44.434,23.438,18.555,69.824,0
150872.575,34.180,46.387,36.133,29.297,109.375,0
150872.579,33.691,47.363,35.645,25.879,100.098,0
150872.583,25.879,38.086,30.273,16.113,23.926,0
150872.587,29.297,39.062,34.180,21.484,-3.418,0
150872.590,35.156,54.688,33.203,26.367,44.434,0
150872.594,29.297,47.363,22.461,16.602,32.227,0
150872.598,23.438,45.410,28.809,15.625,-2.441,0
150872.602,24.414,50.293,32.715,19.531,4.883,0
150872.606,31.738,41.992,36.621,22.461,64.453,0
150872.608,32.227,46.387,44.434,27.344,90.820,0
150872.612,24.414,44.434,37.598,24.902,35.156,0
150872.616,20.996,35.645,37.109,19.531,10.254,0
150872.620,21.484,40.527,37.109,20.508,55.664,0
150872.624,32.715,49.805,32.715,35.156,65.918,0
150872.628,30.762,49.805,32.227,34.180,25.879,0
150872.632,15.625,40.527,38.086,24.414,-39.551,0
150872.635,22.461,23.926,42.480,31.250,-23.438,0
150872.639,32.715,20.508,38.086,33.691,62.500,0
150872.643,30.762,43.457,33.691,29.297,44.434,0
150872.647,27.344,44.434,38.086,27.832,-49.316,0
150872.651,27.344,35.645,42.969,30.762,-21.484,0
150872.653,30.273,42.480,41.016,34.668,69.824,0
150872.657,30.273,51.758,34.668,32.715,66.895,0
150872.661,23.926,47.363,33.203,30.762,11.230,0
150872.665,23.438,46.387,38.086,34.180,-24.414,0
150872.669,30.273,54.688,45.410,37.598,36.621,0
150872.673,31.738,49.805,40.039,35.156,68.359,0
150872.677,26.367,39.062,32.715,29.785,-27.344,0
150872.681,22.461,45.410,39.062,28.320,-64.941,0
150872.684,25.879,50.781,39.551,29.785,2.930,0
150872.688,33.203,41.504,35.156,29.785,55.176,2
150872.692,36.621,39.062,44.922,31.250,52.246,0
150872.696,32.227,49.805,44.434,34.180,-5.859,0
150872.713,40.527,57.617,36.133,40.527,11.230,0
150872.717,43.945,46.875,32.227,39.062,87.402,0
150872.721,33.691,43.457,38.086,28.320,57.129,0
150872.725,27.832,34.668,48.828,26.855,-0.488,0
150872.729,29.297,24.902,49.316,34.668,20.508,0
150872.733,41.504,44.434,48.340,46.875,92.285,0
150872.736,47.363,59.570,46.387,49.316,68.359,0
150872.740,41.504,60.547,34.668,43.945,-6.836,0
150872.744,34.668,49.805,28.320,38.086,-4.395,0
150872.748,39.062,34.668,37.109,44.922,82.520,0
150872.752,44.434,40.527,40.039,53.223,109.375,0
150872.756,36.133,45.898,42.480,41.016,47.852,0
150872.758,21.484,42.969,42.480,28.809,15.137,0
150872.762,22.461,38.086,36.133,27.832,20.508,0
150872.766,32.715,37.109,32.715,28.320,79.590,0
150872.770,36.621,34.668,38.086,31.250,80.078,0
150872.774,33.691,36.133,46.387,29.297,15.625,0
150872.778,37.109,53.711,41.016,35.645,2.930,0
150872.782,46.875,57.617,41.504,41.016,63.965,0
150872.785,54.688,57.617,40.527,43.945,84.473,0
150872.789,46.875,60.547,27.344,44.434,-8.301,0
150872.793,39.551,45.410,26.367,38.086,-40.039,0
150872.797,41.016,28.809,37.109,40.039,54.688,0
150872.801,32.227,33.203,40.527,31.250,79.590,0
150872.803,35.156,51.270,40.527,28.809,47.852,0
150872.807,36.621,46.875,42.480,28.320,-1.465,0
150872.811,38.086,30.762,34.180,27.344,11.719,0
150872.815,44.434,44.434,13.184,34.668,90.332,0
150872.819,35.156,56.152,15.137,31.250,67.871,0
150872.823,27.832,61.035,36.133,28.320,11.719,0
150872.827,33.691,53.711,41.504,37.109,35.645,0
150872.831,45.410,47.852,57.617,47.852,81.543,0
150872.834,45.410,48.340,61.523,41.016,14.648,0
150872.838,29.297,37.598,42.480,23.438,-43.945,0
150872.842,26.367,37.598,40.039,26.855,-2.930,0
150872.846,39.551,38.086,42.480,37.598,34.180,0
150872.849,41.992,41.016,35.156,39.551,41.016,0
150872.852,39.551,44.922,35.156,41.016,6.836,0
150872.856,45.410,27.344,34.180,44.922,2.930,0
150872.860,44.922,34.668,30.273,40.527,37.109,0
150872.864,39.062,58.105,34.180,36.133,45.898,0
150872.868,34.180,60.059,35.156,25.879,12.695,0
150872.872,28.809,55.176,33.691,17.578,0.000,0
150872.876,33.691,50.293,40.039,31.738,41.992,0
150872.880,41.504,41.992,40.039,36.133,49.805,0
150872.884,31.738,42.480,39.551,21.973,26.367,0
150872.888,22.949,52.246,48.828,21.973,-11.230,0
150872.891,27.344,52.734,45.898,31.250,-3.418,0
150872.894,39.551,46.387,40.039,37.598,69.824,0
150872.897,42.969,47.852,39.551,40.527,67.383,0
150872.901,35.156,40.039,43.945,37.598,-13.672,0
150872.905,32.715,39.551,39.551,36.621,2.441,0
150872.909,31.738,49.805,29.785,35.156,71.777,0
150872.913,32.715,51.758,35.156,26.855,49.805,0
150872.917,28.320,47.852,41.992,20.020,25.391,0
150872.921,19.043,40.527,39.551,19.531,5.859,0
150872.925,28.320,46.875,35.156,25.879,37.598,0
150872.929,39.551,53.711,36.133,33.691,118.652,0
150872.933,34.180,50.293,30.762,33.203,43.945,0
150872.936,32.715,40.039,29.785,33.691,-50.293,0
150872.939,47.363,28.320,40.039,41.992,2.930,0
150872.943,46.387,27.832,50.293,38.574,77.637,0
150872.947,34.180,51.758,41.992,33.691,34.180,0
150872.951,29.785,62.988,35.645,29.297,-50.781,0
150872.955,31.738,57.129,38.574,27.832,-21.973,0
150872.959,34.668,54.199,42.480,32.715,42.480,0
150872.962,31.738,41.992,34.180,29.297,24.414,0
150872.966,26.367,37.598,23.926,25.391,-36.133,0
150872.970,26.855,35.645,26.367,30.762,-25.391,0
150872.974,36.621,42.480,35.645,40.527,39.062,0
150872.978,39.551,53.223,41.504,39.551,62.012,0
150872.982,28.809,46.387,45.410,32.227,30.762,0
150872.986,18.555,33.203,47.363,28.320,39.062,0
150872.990,20.508,42.969,45.410,34.180,78.613,0
150872.994,30.762,62.988,48.340,41.992,36.621,0
150872.998,22.949,51.270,44.434,32.715,-0.977,0
150873.002,15.137,33.203,40.527,24.414,17.578,0
150873.006,27.344,39.551,36.133,30.762,48.828,0
150873.010,33.203,44.922,32.227,31.738,82.031,0
150873.014,24.902,35.645,28.809,25.391,56.641,0
150873.018,22.461,41.992,33.203,21.484,6.836,0
150873.022,30.762,57.129,53.711,26.367,8.301,0
150873.025,31.250,44.434,45.898,28.320,34.180,0
150873.029,26.367,40.527,26.367,24.902,47.363,0
150873.029,19.531,35.645,29.297,26.855,38.086,0
150873.032,14.160,13.672,32.227,19.531,33.691,0
150873.036,21.973,31.250,36.621,20.020,81.543,0
150873.040,29.297,48.828,34.180,28.320,101.562,0
150873.044,28.809,49.316,42.480,29.785,45.410,0
150873.048,31.250,55.664,49.805,31.250,0.000,0
150873.052,39.062,56.641,42.480,27.344,9.766,0
150873.056,46.875,51.758,50.781,25.879,46.875,0
150873.060,41.992,43.457,47.363,27.832,25.879,0
150873.064,31.738,45.410,40.039,27.832,-36.133,0
150873.068,35.645,50.781,46.387,31.738,-3.906,0
150873.072,39.062,44.922,39.551,32.227,59.082,0
150873.089,32.715,41.992,26.367,27.832,45.898,0
150873.093,28.320,44.922,26.367,26.367,18.555,0
150873.097,32.227,31.738,33.203,27.344,41.504,0
150873.101,37.109,29.785,40.527,31.250,88.867,0
150873.104,37.109,54.688,52.246,34.180,82.520,0
150873.108,28.320,61.035,53.223,25.879,37.598,0
150873.112,27.344,51.270,50.781,24.902,17.578,0
150873.116,37.598,40.527,49.805,32.715,57.617,0
150873.120,42.969,42.969,46.387,34.668,59.570,0
150873.124,33.691,39.062,37.598,21.973,-14.160,0
150873.128,28.809,42.480,25.391,19.531,-44.434,0
150873.132,36.621,44.922,20.996,32.227,43.945,0
150873.134,36.133,30.273,30.762,35.645,102.539,0
150873.138,22.949,46.875,31.250,26.855,31.738,0
150873.142,17.578,52.246,35.645,19.531,-23.926,0
150873.146,28.320,41.016,47.852,31.738,31.250,0
150873.150,39.062,44.434,46.387,37.109,116.211,0
150873.153,43.945,41.992,42.480,34.180,93.750,0
150873.157,41.504,35.645,34.668,36.133,62.012,0
150873.161,29.297,40.039,30.273,30.273,53.223,0
150873.165,25.391,41.504,32.715,22.461,54.199,0
150873.169,25.391,39.062,42.969,13.184,41.016,0
150873.173,19.043,32.227,47.852,10.742,-8.301,0
150873.177,21.484,39.551,44.434,21.484,-3.906,0
150873.178,32.227,33.691,38.574,28.809,20.996,0
150873.182,36.133,27.832,35.156,28.809,29.297,0
150873.186,32.715,48.340,46.387,27.344,35.645,0
150873.190,31.738,47.852,45.898,32.715,26.367,0
150873.194,36.133,45.898,29.297,44.922,55.664,0
150873.198,35.156,53.711,20.508,40.039,62.500,0
150873.202,27.832,46.875,21.484,28.809,17.090,0
150873.205,23.926,43.457,33.203,27.832,-16.602,0
150873.209,29.785,47.363,43.945,34.180,-15.625,0
150873.213,40.527,50.781,49.316,41.016,38.574,0
150873.217,39.551,35.156,50.781,36.621,74.707,0
150873.221,30.273,28.809,50.293,26.855,6.836,0
150873.223,24.902,47.852,36.133,27.832,-30.762,0
150873.227,35.645,44.922,25.879,32.715,67.871,0
150873.231,38.574,40.039,38.086,34.180,112.793,0
150873.235,33.203,41.992,47.852,35.156,49.805,0
150873.239,27.832,45.410,35.645,33.203,-20.996,0
150873.243,36.133,56.152,28.320,37.598,-6.348,0
150873.246,41.016,56.152,40.527,35.156,65.918,0
150873.250,34.668,50.781,49.316,30.762,54.688,0
150873.254,26.367,46.387,36.621,22.949,-15.625,0
150873.258,23.926,38.086,27.344,20.996,42.969,0
150873.262,37.109,33.203,34.180,33.691,69.824,0
150873.266,36.621,50.293,40.039,37.109,46.875,0
150873.268,28.809,50.781,42.969,35.156,34.668,0
150873.272,36.621,29.785,38.574,38.574,22.949,0
150873.276,43.457,39.062,29.785,43.945,82.031,0
150873.280,33.203,54.688,30.762,29.297,54.199,0
150873.284,23.926,47.363,31.738,13.184,-8.301,0
150873.288,29.785,45.898,37.598,19.531,-22.461,0
150873.292,29.785,45.898,36.133,21.973,26.855,0
150873.295,31.738,38.574,41.992,19.531,29.785,0
150873.299,32.227,40.527,47.852,23.438,7.324,0
150873.303,29.297,37.598,46.387,29.297,-5.371,0
150873.307,33.203,31.738,47.363,37.598,3.906,0
150873.311,41.016,42.480,38.574,35.645,93.262,0
150873.313,38.086,44.434,33.203,28.320,62.988,0
150873.317,24.414,44.434,34.180,27.344,-26.855,0
150873.321,27.832,42.969,38.574,30.762,-5.859,0
150873.325,41.016,51.270,36.621,38.086,20.508,0
150873.329,42.969,55.664,34.180,38.574,31.738,0
150873.333,34.180,42.969,34.668,36.133,20.996,0
150873.337,29.785,30.762,40.527,39.551,-17.578,0
150873.341,36.133,30.273,47.852,41.016,30.762,0
150873.344,33.691,36.621,44.922,33.691,81.543,0
150873.348,28.809,30.273,39.551,26.855,54.688,0
150873.352,33.203,26.855,45.898,34.668,29.297,0
150873.356,41.016,41.504,46.387,44.434,48.828,0
150873.358,46.875,58.105,35.645,46.387,76.660,0
150873.362,35.156,56.641,23.438,40.039,9.766,0
150873.366,21.484,40.527,35.156,32.715,-47.363,0
150873.370,28.809,39.551,57.617,36.133,42.969,1
150873.374,29.785,44.434,59.082,34.180,107.422,0
150873.378,23.926,40.527,44.434,26.367,24.902,0
150873.382,20.020,41.992,28.320,20.996,-37.109,0
150873.385,28.320,38.574,33.203,27.832,0.488,0
150873.389,34.668,35.156,42.969,37.598,73.730,0
150873.393,28.809,25.391,33.691,35.645,56.152,0
150873.397,27.832,17.090,33.691,31.250,-11.230,0
150873.401,30.273,32.227,34.180,32.227,7.324,0
150873.403,42.969,52.734,41.504,46.387,57.129,0
150873.407,41.016,63.477,51.270,39.551,65.430,0
150873.411,25.879,54.688,43.457,25.879,25.879,0
150873.415,20.508,43.457,41.504,27.832,30.762,0
150873.419,22.949,36.133,37.598,24.414,101.074,0
150873.423,27.344,32.715,31.738,22.461,103.516,0
150873.426,25.391,29.785,25.391,20.996,0.977,0
150873.430,21.484,26.855,27.832,25.391,-34.180,0
150873.434,28.320,39.062,34.180,36.133,50.781,0
150873.438,40.527,44.434,36.621,34.668,96.680,0
150873.442,40.527,25.879,41.016,28.809,66.895,0
150873.446,33.691,34.668,45.898,35.645,30.273,0
150873.449,36.621,56.152,41.504,42.969,64.453,0
150873.453,40.039,58.105,30.762,38.086,89.844,0
150873.457,33.203,45.898,29.785,28.809,78.125,0
150873.461,20.996,27.832,36.133,18.555,30.273,0
150873.465,17.090,24.414,43.945,12.695,-1.953,0
150873.469,24.902,30.273,51.270,18.066,39.551,0
150873.473,28.809,42.480,49.316,23.926,36.133,0
150873.477,19.043,44.922,41.016,15.137,-8.301,0
150873.481,22.461,31.250,43.457,20.508,6.348,0
150873.484,40.039,33.203,44.922,33.691,8.301,0
150873.488,39.551,57.129,40.527,26.855,17.578,0
150873.492,29.297,55.664,33.691,16.113,69.336,0
150873.509,24.902,45.410,21.973,18.555,11.230,0
150873.513,29.785,41.504,22.461,24.902,-5.371,0
150873.517,40.527,38.574,40.527,31.250,78.613,0
150873.521,34.180,39.062,47.852,31.250,74.707,0
150873.525,23.926,36.133,46.875,24.414,-17.090,0
150873.529,32.227,34.668,40.527,29.785,-24.902,0
150873.533,40.039,44.434,40.527,37.598,25.391,0
150873.537,30.762,57.617,33.691,30.762,83.008,0
150873.541,18.066,46.387,25.391,20.020,38.086,0
150873.544,26.367,29.785,38.086,24.414,-31.738,0
150873.548,29.297,36.133,44.922,31.738,17.090,0
150873.552,24.414,48.340,43.457,34.180,67.871,0
150873.554,25.879,48.828,34.180,28.809,29.785,0
150873.557,21.484,41.016,36.133,30.273,-18.066,0
150873.561,29.297,40.039,38.086,39.062,44.434,0
150873.565,36.621,45.410,36.621,37.598,82.031,0
150873.569,41.504,48.828,49.316,36.621,33.691,0
150873.573,38.574,53.223,48.828,42.480,-26.367,0
150873.577,33.691,53.711,24.902,42.969,-6.348,0
150873.581,36.133,35.645,28.320,41.992,72.754,0
150873.585,31.738,22.949,41.992,36.621,47.363,0
150873.589,20.508,36.133,22.949,22.461,-48.828,0
150873.593,20.508,41.992,27.344,22.461,-27.344,0
150873.596,39.062,41.504,49.805,36.621,56.152,0
150873.599,44.434,45.898,50.781,38.574,34.668,0
150873.603,30.273,48.340,47.363,25.879,-24.414,0
150873.606,27.832,36.621,48.340,27.832,-38.086,0
150873.610,43.945,30.273,40.039,43.457,18.555,0
150873.614,49.316,43.457,31.250,46.875,64.453,0
150873.618,34.668,43.457,35.645,36.133,12.207,0
150873.622,28.809,38.574,37.598,33.203,-32.227,0
150873.626,41.992,33.203,34.668,48.828,22.949,0
150873.630,51.270,28.809,40.527,53.223,42.480,0
150873.634,36.621,42.480,46.875,41.992,6.348,0
150873.638,19.043,50.781,47.363,32.227,-20.508,0
150873.642,26.367,51.270,44.434,35.645,-22.949,0
150873.644,34.668,42.969,37.598,40.527,34.180,0
150873.648,28.320,36.621,38.086,29.785,36.133,0
150873.652,28.809,35.645,41.992,29.785,-14.160,0
150873.656,35.156,38.574,40.039,37.598,-10.254,0
150873.659,45.898,46.875,44.922,39.551,41.992,0
150873.663,48.340,49.805,51.270,41.504,44.434,0
150873.667,30.273,37.109,34.180,25.879,-5.859,0
150873.671,23.926,30.762,24.414,15.625,-54.199,0
150873.675,35.645,40.527,39.551,25.879,0.000,0
150873.679,37.109,40.039,47.363,32.715,54.688,0
150873.683,31.738,29.785,43.457,25.879,20.508,0
150873.687,25.879,35.156,45.898,23.438,28.809,0
150873.689,33.691,44.434,44.434,31.250,68.848,0
150873.693,48.828,51.270,32.227,40.527,96.680,0
150873.696,41.992,43.945,30.273,33.203,96.680,0
150873.700,34.180,29.785,35.645,27.832,65.430,0
150873.704,44.434,38.086,37.109,43.945,62.500,0
150873.708,48.828,50.293,34.180,43.945,91.797,0
150873.712,38.574,41.016,34.180,29.785,74.219,0
150873.716,32.227,33.203,44.434,25.391,-2.930,0
150873.720,37.109,39.551,44.434,28.320,-34.668,0
150873.724,42.480,42.480,41.992,33.691,19.043,0
150873.728,46.875,33.691,47.363,37.598,69.824,0
150873.732,41.016,36.621,43.945,34.668,73.242,0
150873.734,24.414,46.387,35.645,24.414,31.738,0
150873.738,31.738,46.387,40.039,31.738,50.781,0
150873.742,44.922,44.922,44.922,41.992,68.848,0
150873.746,34.180,38.574,42.969,28.809,14.160,0
150873.750,28.320,46.387,39.551,26.855,-25.391,0
150873.754,34.180,55.176,39.062,33.203,10.254,0
150873.758,39.551,40.527,37.109,35.156,24.902,0
150873.762,36.133,33.203,38.574,31.738,-32.715,0
150873.766,34.180,40.039,38.574,32.227,-12.695,0
150873.770,40.527,46.875,28.320,41.992,3.418,0
150873.773,37.109,53.223,24.902,46.875,9.766,0
150873.777,33.203,38.574,20.020,41.504,1.465,0
150873.778,34.180,32.227,28.320,38.086,-51.758,0
150873.782,35.156,43.945,51.270,39.062,-59.082,0
150873.786,46.875,41.992,50.781,44.434,16.113,0
150873.790,45.898,40.039,44.922,42.480,39.551,0
150873.794,35.156,42.480,45.410,37.109,-21.484,0
150873.798,31.250,40.527,41.504,34.668,-53.223,0
150873.802,39.062,43.457,41.992,38.086,-27.344,0
150873.805,43.457,40.527,39.551,37.109,52.734,0
150873.809,30.273,39.551,35.156,26.855,57.129,0
150873.813,27.832,34.668,40.039,29.785,-42.480,0
150873.817,34.180,25.391,44.434,40.527,2.441,0
150873.821,40.527,34.180,51.758,46.875,132.324,0
150873.838,39.551,46.875,50.781,44.434,78.613,0
150873.842,32.715,46.875,32.227,38.086,-15.137,0
150873.846,31.250,40.039,29.785,41.016,-17.578,0
150873.850,41.016,24.414,33.691,45.898,48.340,0
150873.854,43.945,26.855,25.391,41.504,64.941,0
150873.858,35.156,42.969,28.320,37.109,9.766,0
150873.862,35.645,46.875,38.086,38.086,-25.879,0
150873.865,44.922,53.223,44.922,48.340,4.883,0
150873.869,50.781,53.223,48.828,50.781,66.895,0
150873.873,37.109,45.410,44.434,32.227,15.137,0
150873.877,27.344,36.621,40.039,28.320,-72.754,0
150873.881,31.250,30.762,42.969,41.504,27.344,0
150873.883,32.227,29.297,34.180,41.992,83.984,0
150873.887,31.250,21.973,30.762,44.434,55.664,0
150873.891,22.949,14.648,41.016,41.992,25.879,0
150873.895,24.414,37.598,36.133,35.645,25.879,0
150873.899,38.574,50.781,34.668,39.062,99.609,0
150873.903,36.133,42.969,41.016,38.574,108.887,0
150873.906,25.391,44.922,46.875,36.621,61.523,0
150873.910,25.391,46.387,45.410,39.551,56.152,0
150873.914,31.738,41.992,31.250,36.621,90.820,0
150873.918,34.180,41.016,32.715,30.762,54.688,1
150873.922,28.809,42.969,40.527,32.715,4.883,0
150873.926,28.809,31.250,35.156,27.344,25.879,0
150873.928,36.621,12.207,32.715,26.367,66.895,0
150873.932,37.598,31.738,41.504,30.762,75.195,0
150873.936,35.156,53.711,46.875,27.344,12.207,0
150873.940,27.344,44.922,42.480,17.090,-36.621,0
150873.944,23.926,43.457,44.434,17.090,-1.465,0
150873.948,31.738,45.898,40.039,22.949,54.688,0
150873.951,32.227,42.969,31.738,22.949,61.523,0
150873.955,30.762,41.016,41.016,22.949,8.301,0
150873.959,36.133,39.062,44.922,24.902,-1.953,0
150873.963,42.969,33.203,41.504,35.156,57.617,0
150873.967,44.922,34.180,42.480,40.039,66.895,0
150873.971,33.203,32.227,35.156,37.109,-1.465,0
150873.975,23.926,26.855,33.203,35.156,-17.090,0
150873.979,24.902,28.320,46.875,34.180,43.945,0
150873.983,25.391,21.484,50.293,37.109,52.246,0
150873.987,24.902,33.691,45.898,36.621,11.719,0
150873.991,22.949,60.059,41.016,29.297,-22.461,0
150873.995,35.645,58.594,38.086,38.086,-1.953,0
150873.999,49.805,51.758,38.086,44.922,31.250,0
150874.003,39.062,41.504,41.504,30.273,25.391,0
150874.007,34.668,31.738,37.598,24.902,-24.414,0
150874.010,48.340,37.109,31.738,32.715,9.277,0
150874.014,54.199,45.410,34.668,34.668,106.934,0
150874.018,46.387,41.504,34.180,28.320,79.102,0
150874.018,34.668,35.645,35.645,22.949,-2.441,0
150874.022,27.344,40.527,38.086,20.996,22.949,0
150874.026,34.180,36.621,36.621,29.785,95.703,0
150874.030,40.039,41.016,27.832,31.738,83.984,0
150874.034,35.156,48.828,32.715,30.273,4.395,0
150874.038,30.762,42.969,45.898,35.156,-30.762,0
150874.042,39.062,35.156,47.852,37.109,47.363,0
150874.045,43.945,37.109,46.875,38.086,67.871,0
150874.049,34.180,44.922,44.922,29.297,-13.672,0
150874.053,28.809,44.434,36.621,29.785,-12.695,0
150874.057,41.992,40.039,27.832,41.504,42.480,0
150874.061,48.828,38.574,38.574,44.922,79.102,0
150874.063,42.480,34.668,48.340,41.016,46.875,0
150874.067,41.016,32.227,55.176,40.039,1.465,0
150874.071,40.527,33.203,48.340,38.574,62.988,0
150874.075,44.434,33.691,38.574,39.062,117.188,0
150874.079,46.387,44.434,38.574,40.527,65.918,0
150874.082,39.551,55.176,36.133,39.551,25.879,0
150874.086,41.992,55.176,46.387,43.457,25.391,0
150874.090,45.898,47.363,42.480,39.551,35.645,0
150874.094,35.645,40.527,28.809,33.203,42.480,0
150874.098,28.809,31.738,33.691,34.668,4.395,0
150874.102,30.273,26.367,41.992,37.598,16.602,0
150874.106,40.527,37.598,42.480,45.898,102.539,0
150874.109,43.945,37.109,38.574,46.875,120.605,0
150874.112,31.250,31.738,38.574,36.621,53.223,0
150874.116,24.902,42.480,38.086,32.227,16.602,0
150874.120,36.133,54.688,46.387,40.039,58.594,0
150874.124,44.434,51.758,45.898,42.480,114.258,0
150874.128,35.156,38.574,34.668,33.691,84.961,0
150874.132,23.926,29.297,27.344,23.926,1.953,0
150874.136,32.227,33.203,36.133,27.344,7.812,0
150874.140,42.480,47.363,40.039,35.156,89.355,0
150874.144,35.645,47.363,31.738,30.762,86.914,0
150874.148,30.273,49.316,28.809,25.879,-14.160,0
150874.151,26.855,35.645,19.043,23.926,22.461,0
150874.154,33.691,16.602,32.227,34.668,145.020,0
150874.158,35.645,34.180,50.781,39.551,115.234,0
150874.162,24.414,41.504,40.039,25.879,52.734,0
150874.166,22.949,37.598,28.809,21.973,22.461,0
150874.170,33.203,41.504,29.297,33.203,50.293,0
150874.174,34.668,42.969,32.227,30.273,66.895,0
150874.178,30.273,41.016,35.156,20.508,41.016,0
150874.181,32.227,33.691,42.969,21.973,19.043,0
150874.185,34.180,30.762,41.992,29.297,31.738,0
150874.189,39.551,41.992,34.180,33.203,50.781,0
150874.193,32.227,47.852,34.180,31.250,14.160,0
150874.197,27.344,33.203,36.133,29.785,-10.742,0
150874.200,39.062,29.785,38.574,34.180,-4.395,0
150874.204,40.039,40.527,38.086,34.180,44.922,0
150874.208,33.203,39.062,33.691,29.297,51.758,0
150874.212,28.809,42.969,28.809,28.809,-4.883,0
150874.216,23.438,38.086,29.297,26.855,-31.250,0
150874.220,23.926,33.691,35.156,25.879,38.574,0
150874.224,23.926,44.922,38.574,24.414,108.398,0
150874.228,18.066,45.410,36.621,20.508,49.316,0
150874.232,17.090,39.551,38.086,23.438,-25.879,0
150874.235,30.273,39.551,36.133,33.203,-5.859,0
150874.239,35.156,31.250,34.668,35.156,26.855,0
150874.243,31.250,20.996,32.227,35.645,26.855,0
150874.258,29.297,32.227,29.785,35.645,-4.395,0
150874.262,28.809,40.527,43.457,32.227,29.785,0
150874.266,37.109,40.039,51.758,39.551,67.871,0
150874.270,41.504,35.645,47.363,45.410,25.391,0
150874.274,28.320,35.645,40.039,36.621,-7.324,0
150874.278,25.391,51.270,35.645,38.086,-11.230,0
150874.282,31.738,50.781,37.109,41.504,48.828,0
150874.286,31.738,40.039,39.062,40.527,65.430,0
150874.290,30.273,30.273,40.039,36.133,-5.859,0
150874.293,26.367,30.273,43.457,28.320,-15.625,0
150874.297,27.344,25.391,44.434,35.156,46.387,0
150874.301,27.832,26.855,24.414,34.180,68.848,0
150874.303,23.438,40.039,21.484,28.320,20.996,0
150874.307,16.113,38.574,39.062,26.367,4.395,0
150874.311,22.949,38.086,52.246,31.738,68.848,0
150874.315,32.715,32.715,49.316,37.109,97.656,0
150874.319,24.902,29.297,44.434,29.785,22.461,0
150874.323,20.508,39.062,43.457,27.344,-33.203,0
150874.326,33.203,50.293,45.410,38.574,10.254,0
150874.330,42.969,46.387,53.223,49.316,56.152,0
150874.334,41.504,34.180,39.551,42.969,40.039,0
150874.338,34.180,33.203,24.414,30.762,3.906,0
150874.342,28.809,41.992,33.691,31.250,37.598,0
150874.346,40.527,24.902,40.527,37.109,101.562,0
150874.348,48.340,26.367,39.062,42.969,111.816,0
150874.352,36.621,45.898,42.480,39.062,48.340,0
150874.356,33.203,40.527,41.504,31.738,20.020,0
150874.360,47.363,47.363,41.016,40.039,65.430,0
150874.364,45.898,44.922,38.086,41.016,49.805,0
150874.368,31.250,37.598,36.621,30.762,-15.137,0
150874.372,27.344,41.504,40.039,23.926,-16.113,0
150874.375,34.180,41.016,35.156,27.344,43.945,0
150874.379,39.062,37.598,34.180,34.180,69.336,0
150874.383,41.016,31.738,41.504,40.039,51.758,0
150874.387,40.527,32.715,40.039,35.645,10.254,0
150874.391,39.062,42.969,36.133,32.227,20.996,0
150874.393,42.969,39.551,34.180,39.551,62.500,0
150874.397,34.668,37.598,31.250,32.715,72.266,0
150874.401,20.020,39.062,31.738,23.438,24.414,0
150874.405,22.461,39.551,32.227,25.879,-10.254,0
150874.409,30.273,35.645,35.645,27.832,67.871,0
150874.413,28.809,30.762,50.293,25.879,112.793,0
150874.416,33.203,40.039,53.711,34.668,49.805,0
150874.420,36.133,40.039,51.758,41.992,-19.531,0
150874.424,31.738,27.344,47.363,39.062,32.227,0
150874.428,33.203,44.434,35.156,34.668,104.980,0
150874.432,31.738,52.246,36.133,24.414,34.180,0
150874.436,25.391,40.039,27.344,20.508,-44.922,0
150874.438,31.250,36.621,17.578,27.832,32.715,0
150874.442,41.504,44.922,39.062,36.621,102.539,0
150874.446,41.016,48.828,53.223,37.598,61.035,0
150874.450,30.762,40.039,40.527,30.273,10.742,0
150874.454,25.391,30.762,26.367,25.391,37.109,0
150874.458,33.691,33.691,33.691,37.109,73.730,0
150874.462,34.668,28.320,40.527,40.527,61.035,0
150874.465,26.367,31.250,41.016,27.832,4.883,0
150874.469,26.367,51.758,41.992,27.344,15.625,0
150874.473,35.645,57.129,40.039,32.715,103.027,1
150874.477,35.645,52.246,39.062,35.156,135.742,0
150874.481,26.855,41.016,33.203,24.414,81.543,0
150874.483,25.879,31.738,29.297,20.996,48.340,0
150874.487,37.109,33.203,33.203,33.203,126.953,0
150874.491,41.504,41.016,27.344,32.715,149.414,0
150874.495,33.691,38.086,20.020,22.461,93.750,0
150874.499,31.250,28.809,36.621,26.367,45.410,0
150874.503,36.621,33.691,52.734,41.016,42.969,0
150874.506,45.898,46.875,52.734,47.363,79.590,0
150874.510,46.875,36.133,40.527,42.480,46.387,0
150874.514,35.645,39.062,32.227,31.250,-5.859,0
150874.518,28.320,48.828,33.203,22.461,17.578,0
150874.522,36.133,46.875,31.738,34.668,82.031,0
150874.526,35.156,44.434,24.902,34.668,109.863,0
150874.528,24.902,34.668,31.738,24.902,63.965,0
150874.532,32.715,39.062,47.852,30.273,26.367,0
150874.536,41.992,49.316,46.875,34.668,47.363,0
150874.540,40.527,41.504,38.574,26.855,63.477,0
150874.544,36.133,25.879,35.645,24.902,30.273,0
150874.548,36.621,30.273,24.902,30.762,14.160,0
150874.551,42.480,39.062,26.855,37.598,46.387,0
150874.555,36.133,38.574,39.551,30.273,74.219,0
150874.559,33.203,39.551,33.203,22.461,41.992,0
150874.563,29.297,44.922,24.902,27.344,-13.672,0
150874.567,29.785,47.363,32.715,33.203,-22.949,0
150874.571,34.668,38.574,41.016,30.762,38.086,0
150874.588,24.902,36.133,47.363,21.484,82.031,0
150874.592,20.996,37.109,48.828,24.902,-10.254,0
150874.596,31.250,28.320,46.387,37.598,-34.180,0
150874.600,36.133,35.156,42.480,39.062,77.637,0
150874.604,31.738,46.875,32.227,34.668,83.984,0
150874.608,26.855,39.551,30.273,29.297,15.137,0
150874.611,26.367,20.020,22.949,21.973,3.906,0
150874.615,28.809,25.391,12.695,27.344,55.664,0
150874.619,30.762,45.898,35.645,31.250,68.848,0
150874.623,31.250,54.688,55.664,28.320,20.508,0
150874.627,28.320,49.805,48.340,25.391,-32.227,0
150874.631,32.715,39.062,41.992,30.762,42.480,0
150874.633,47.852,44.434,42.969,43.945,96.680,0
150874.637,43.945,41.992,33.203,41.992,36.621,0
150874.641,40.039,36.133,42.480,32.227,-2.930,0
150874.645,43.945,32.715,43.945,37.598,0.488,0
150874.649,45.410,20.508,28.809,43.945,54.688,0
150874.653,45.898,47.363,38.086,38.574,48.828,0
150874.657,27.344,61.523,39.551,24.414,-18.066,0
150874.660,18.555,47.852,36.133,18.066,-10.254,0
150874.664,34.668,43.457,41.016,27.832,13.672,0
150874.668,37.109,42.480,39.551,29.297,3.906,0
150874.672,29.297,41.504,34.180,25.879,-8.789,0
150874.676,34.180,40.039,41.992,32.715,17.090,0
150874.678,41.504,31.738,45.898,36.621,29.297,0
150874.682,44.434,35.156,37.109,37.109,24.902,0
150874.686,38.574,42.969,39.551,35.645,30.273,0
150874.690,29.785,31.250,45.410,34.668,-15.625,0
150874.694,29.785,25.391,41.992,35.156,-1.953,0
150874.698,39.551,38.086,38.574,37.598,68.359,0
150874.702,39.551,34.668,37.109,41.016,57.129,0
150874.705,35.156,39.062,41.016,42.480,26.855,0
150874.709,39.551,49.316,40.527,42.480,8.301,0
150874.713,43.457,48.340,34.180,39.062,41.992,0
150874.717,41.016,45.410,34.180,34.180,60.547,0
150874.721,35.156,42.969,33.203,25.391,-2.930,0
150874.726,29.297,31.738,33.203,27.344,-8.789,0
150874.730,34.180,25.879,45.410,34.668,32.715,0
150874.734,34.180,35.645,50.781,32.227,0.488,0
150874.738,26.367,47.852,45.898,24.902,-44.922,0
150874.742,28.809,56.641,49.316,27.832,-33.691,0
150874.745,30.762,43.457,47.852,42.480,1.953,0
150874.749,33.691,33.691,29.785,44.922,48.828,0
150874.753,40.039,38.574,27.832,43.457,-18.555,0
150874.757,32.227,41.504,41.016,40.527,-98.633,0
150874.761,34.180,40.527,40.527,39.551,-34.180,0
150874.765,42.969,34.668,41.992,44.434,53.711,0
150874.769,33.203,30.762,39.551,38.574,37.109,0
150874.770,24.902,31.250,38.086,34.180,-8.789,0
150874.774,28.320,32.227,41.992,31.250,-2.930,0
150874.777,41.504,31.738,46.387,37.598,59.570,0
150874.781,43.945,48.340,44.922,43.457,94.238,0
150874.785,31.250,54.688,35.156,28.320,41.504,0
150874.789,30.273,47.363,42.969,30.762,7.324,0
150874.793,41.016,41.992,45.898,42.969,10.254,0
150874.797,41.992,35.645,42.969,36.133,12.695,0
150874.801,34.180,38.086,47.363,33.691,-0.977,0
150874.805,32.227,38.574,50.781,42.480,-9.766,0
150874.809,35.156,41.992,48.828,49.316,17.578,0
150874.813,43.457,49.805,44.434,48.828,44.434,0
150874.813,39.551,47.363,41.016,35.645,38.574,0
150874.817,30.273,50.293,38.574,29.297,18.066,0
150874.821,42.480,55.176,35.156,41.016,36.133,0
150874.825,54.199,30.762,24.414,51.758,89.844,0
150874.829,50.781,28.320,36.621,51.270,82.031,0
150874.833,32.227,47.852,51.758,41.992,15.137,0
150874.837,24.414,44.922,55.664,43.945,-5.371,0
150874.841,34.180,34.668,54.199,44.434,22.461,0
150874.844,35.645,25.879,43.945,39.551,80.078,0
