timestamps,TP9,AF7,AF8,TP10,Right AUX,Marker0
149958.124,34.668,32.715,29.297,14.160,12.695,0
149958.128,30.762,29.297,37.598,24.414,61.035,0
149958.132,26.367,36.621,46.387,29.297,69.336,0
149958.136,20.508,39.551,43.457,22.461,23.438,0
149958.140,20.508,43.945,41.992,23.926,-32.227,0
149958.144,38.086,39.551,39.062,34.668,45.410,0
149958.148,43.945,31.250,31.738,37.109,77.148,0
149958.152,34.668,24.414,29.785,28.320,53.223,0
149958.156,31.738,31.738,35.156,21.484,70.312,0
149958.159,35.645,47.363,40.527,26.855,70.801,0
149958.163,38.086,45.410,44.922,34.180,109.863,0
149958.167,37.109,55.176,59.082,36.133,110.352,0
149958.168,32.227,52.734,60.059,37.109,39.062,0
149958.172,24.414,31.250,38.086,30.273,-4.883,0
149958.176,24.414,29.297,31.738,23.926,68.848,0
149958.179,41.992,41.016,36.133,29.297,103.516,0
149958.183,46.875,45.898,32.227,37.598,37.598,0
149958.187,33.691,34.668,30.762,41.016,13.184,0
149958.191,43.457,31.250,34.668,37.109,54.688,0
149958.195,54.688,35.156,39.551,33.203,64.453,0
149958.199,40.039,31.250,41.504,29.785,13.672,0
149958.203,33.203,31.738,42.480,25.879,-39.062,0
149958.207,37.109,38.086,42.969,33.691,14.648,0
149958.211,35.645,44.922,45.898,47.852,80.078,0
149958.212,41.016,47.852,47.852,47.363,42.480,0
149958.216,37.109,41.504,37.598,33.691,-5.859,0
149958.220,21.973,39.062,32.715,33.203,31.250,0
149958.224,29.785,48.828,45.410,50.293,98.633,0
149958.228,32.227,48.828,52.734,41.992,84.961,0
149958.232,23.926,45.898,46.875,20.996,15.625,0
149958.236,29.297,46.387,43.945,23.438,17.090,0
149958.240,47.363,43.457,40.527,35.645,99.121,0
149958.244,47.363,38.086,34.668,37.598,90.820,0
149958.248,37.598,22.461,39.062,26.367,18.555,0
149958.251,27.344,22.949,39.062,22.461,-33.203,0
149958.255,57.617,47.363,38.086,41.016,5.371,0
149958.257,67.383,46.387,46.875,45.898,65.430,0
149958.261,20.508,26.367,41.016,27.344,16.602,0
149958.265,2.441,32.715,36.133,23.926,-23.926,0
149958.269,11.230,39.551,45.898,30.273,41.016,0
149958.273,27.344,38.574,48.828,32.715,79.102,0
149958.277,28.809,39.062,36.621,30.762,0.977,0
149958.281,18.066,30.273,27.344,25.391,-71.289,0
149958.285,23.438,33.691,43.945,29.785,-41.016,0
149958.289,37.109,34.180,52.734,26.855,40.039,0
149958.293,31.250,25.879,46.875,22.461,61.523,0
149958.297,21.484,29.297,52.734,32.227,19.531,0
149958.300,18.555,29.297,44.922,28.320,-21.973,0
149958.302,17.090,30.273,31.738,19.531,29.297,0
149958.306,16.602,32.715,32.715,19.043,64.453,0
149958.310,15.625,40.039,32.227,21.484,16.113,0
149958.314,12.695,46.875,29.785,23.438,-17.090,0
149958.318,27.832,45.410,27.832,29.297,23.926,0
149958.322,33.691,41.992,26.855,30.762,77.637,0
149958.326,23.438,35.156,30.762,21.484,25.879,0
149958.330,23.926,31.738,40.527,20.508,-47.363,0
149958.334,39.551,23.926,44.434,32.715,-10.742,0
149958.338,48.828,37.598,49.805,45.898,74.219,0
149958.341,43.457,50.781,47.363,40.039,10.742,0
149958.345,24.902,45.898,34.180,21.973,-22.949,0
149958.349,15.137,44.434,33.691,19.531,23.438,0
149958.353,25.391,43.457,36.621,24.414,73.730,0
149958.357,33.691,44.922,41.992,22.461,65.918,0
149958.360,25.391,36.133,39.062,12.207,8.301,0
149958.364,19.043,35.156,37.109,13.672,-16.113,0
149958.368,25.879,43.457,43.457,29.785,43.457,0
149958.372,30.762,39.062,38.086,34.668,77.637,0
149958.376,33.203,44.922,37.109,36.133,-22.461,0
149958.380,35.645,45.898,43.945,41.016,-51.758,0
149958.384,31.738,32.227,41.016,40.527,38.574,0
149958.388,27.344,33.691,44.434,34.180,103.516,2
149958.392,20.508,40.039,44.434,19.531,90.332,0
149958.392,22.461,42.969,38.574,16.602,10.742,0
149958.396,37.598,42.969,40.527,32.227,0.000,0
149958.400,37.109,41.504,39.551,40.039,52.734,0
149958.404,33.691,38.086,40.039,29.297,13.184,0
149958.408,20.508,44.434,35.156,18.555,-48.340,0
149958.412,6.348,44.434,37.598,16.602,-4.395,0
149958.416,29.297,35.645,44.922,23.926,41.016,0
149958.420,50.293,47.363,38.574,28.809,19.043,0
149958.424,33.691,51.270,37.109,19.531,14.648,0
149958.428,9.766,38.574,42.969,10.742,0.977,0
149958.432,23.438,30.273,49.316,24.902,48.340,0
149958.435,33.691,27.832,50.781,31.250,106.445,0
149958.437,26.367,30.273,50.781,20.996,118.652,0
149958.441,29.785,36.133,48.828,22.461,60.059,0
149958.445,39.062,39.551,39.551,28.809,46.387,0
149958.449,46.875,43.945,37.598,29.785,85.449,0
149958.453,37.109,50.781,41.504,23.438,66.895,0
149958.457,28.809,29.785,42.480,23.438,28.809,0
149958.461,30.762,30.762,44.922,35.645,14.160,0
149958.465,32.715,50.781,50.293,36.133,78.613,0
149958.469,17.090,45.898,45.898,17.578,87.402,0
149958.473,10.254,39.062,35.645,12.207,26.367,0
149958.476,21.484,38.574,39.062,25.879,3.418,0
149958.480,35.156,46.387,47.852,40.527,39.062,0
149958.497,48.340,47.363,43.457,38.574,95.703,0
149958.501,38.574,43.457,41.016,31.250,65.918,0
149958.505,18.555,37.598,37.109,30.273,-6.348,0
149958.509,15.625,34.668,37.109,34.180,20.996,0
149958.513,30.762,37.598,46.387,35.645,62.500,0
149958.517,40.527,38.574,49.316,30.762,-9.277,0
149958.521,27.344,39.551,45.410,30.273,-57.617,0
149958.525,27.832,40.527,40.039,39.062,22.949,0
149958.529,31.250,42.480,40.527,41.504,73.730,0
149958.533,26.367,43.945,35.156,34.668,16.113,0
149958.537,18.066,42.480,25.879,30.273,-24.902,0
149958.540,14.648,42.480,30.273,35.156,28.320,0
149958.542,27.832,44.922,44.434,45.410,64.453,0
149958.546,31.250,35.156,49.316,35.156,48.828,0
149958.550,28.320,25.879,46.875,21.484,-2.441,0
149958.554,17.578,34.180,48.340,31.738,-16.113,0
149958.558,15.137,39.551,45.898,38.574,85.449,0
149958.562,21.973,37.109,36.621,28.320,104.004,0
149958.566,14.648,40.039,35.645,19.043,19.043,0
149958.570,10.742,41.016,45.898,20.508,-14.160,0
149958.574,30.273,33.691,48.340,35.156,6.348,0
149958.578,41.504,34.668,39.062,36.133,50.293,0
149958.581,36.621,43.457,37.109,19.043,45.410,0
149958.585,19.531,45.410,41.016,11.230,25.879,0
149958.588,2.930,38.574,38.574,18.066,44.922,0
149958.592,14.160,29.297,29.297,19.043,69.336,0
149958.596,24.414,29.297,34.180,20.996,73.730,0
149958.600,16.113,40.039,40.039,23.438,50.293,0
149958.604,20.020,47.363,37.109,30.273,11.719,0
149958.608,34.180,53.223,44.434,40.527,51.758,0
149958.612,38.086,50.293,51.758,32.715,93.750,0
149958.615,29.297,42.480,46.875,31.738,13.184,0
149958.619,22.949,44.922,34.180,29.785,2.441,0
149958.623,35.645,47.363,36.133,29.297,96.191,0
149958.627,35.645,41.016,40.039,31.738,112.305,0
149958.631,21.973,39.062,30.762,29.785,51.270,0
149958.633,25.391,41.504,28.809,28.320,-0.488,0
149958.637,36.621,41.016,35.645,30.762,-1.953,0
149958.641,37.598,42.480,35.645,33.691,57.129,0
149958.645,31.738,41.992,38.086,25.879,30.762,0
149958.649,25.879,34.668,52.246,20.996,-18.066,0
149958.653,28.809,34.668,60.059,37.598,30.273,0
149958.657,52.246,36.133,55.176,57.617,59.082,0
149958.661,23.926,27.832,41.504,34.180,32.715,0
149958.664,-12.207,34.180,29.297,0.488,-31.738,0
149958.668,-3.906,39.062,33.203,0.488,-36.621,0
149958.672,18.066,35.645,37.109,11.230,11.719,0
149958.676,25.879,34.668,39.062,14.160,-10.254,0
149958.678,13.672,32.715,41.504,16.602,-37.598,0
149958.682,23.438,37.109,40.039,26.367,-10.254,0
149958.685,32.715,37.109,43.945,37.598,54.199,0
149958.689,37.109,36.133,45.898,37.598,98.633,0
149958.693,36.621,29.785,41.504,30.762,82.031,0
149958.697,28.809,28.809,43.457,35.156,23.926,0
149958.701,45.410,38.086,50.781,57.617,31.250,0
149958.705,42.969,35.156,49.805,47.852,48.340,0
149958.709,28.809,37.109,44.922,22.949,4.883,0
149958.713,25.391,38.086,42.480,21.484,-27.344,0
149958.717,17.578,38.574,43.945,20.996,27.344,0
149958.721,26.855,42.480,45.410,25.879,98.145,0
149958.722,30.273,43.457,37.598,25.879,75.195,0
149958.726,26.855,35.156,31.250,24.414,55.664,0
149958.730,26.367,27.344,30.273,20.508,48.828,0
149958.734,19.531,34.668,35.645,19.531,80.078,0
149958.738,27.344,43.457,40.527,32.227,94.238,0
149958.742,19.531,39.551,41.992,24.902,-12.695,0
149958.746,16.602,35.645,41.504,20.508,-62.988,0
149958.750,42.480,32.227,35.156,34.180,-6.836,0
149958.754,49.805,34.668,35.156,40.527,67.383,0
149958.758,31.738,41.016,39.062,31.250,55.664,0
149958.761,23.438,43.457,40.527,28.809,-16.113,0
149958.765,29.297,39.551,34.668,36.621,-12.695,0
149958.767,35.156,38.574,32.715,38.574,73.730,0
149958.771,35.156,37.598,43.457,28.320,63.477,0
149958.775,24.414,21.973,46.875,21.973,-18.066,0
149958.779,26.367,37.109,47.852,26.855,-21.484,0
149958.783,42.969,54.688,44.434,34.180,50.293,0
149958.787,38.574,47.363,38.086,28.809,33.203,0
149958.791,24.414,47.363,39.551,15.625,-78.613,0
149958.795,21.973,46.875,39.551,16.602,-75.684,0
149958.799,26.367,35.645,40.039,31.738,58.105,0
149958.803,29.785,31.250,42.969,41.992,91.797,0
149958.806,20.996,36.621,45.898,28.809,13.672,0
149958.810,18.555,32.715,50.293,16.113,-51.270,0
149958.827,27.832,33.203,48.828,27.344,7.812,0
149958.831,34.180,37.109,41.504,34.180,92.285,0
149958.835,25.879,35.645,31.250,29.297,42.480,0
149958.839,23.438,36.133,39.551,31.738,-21.484,0
149958.843,40.039,32.227,50.781,39.551,15.625,0
149958.847,42.969,36.133,41.504,38.574,67.871,0
149958.851,32.715,37.109,41.992,29.785,17.090,0
149958.855,34.180,39.551,46.387,22.949,-61.523,0
149958.859,38.574,43.945,43.945,24.414,-30.273,0
149958.863,35.645,41.016,41.504,29.297,51.758,0
149958.866,33.691,38.574,39.551,35.645,99.609,0
149958.870,26.855,37.109,37.109,34.180,26.855,0
149958.873,25.391,37.598,33.203,27.344,-22.461,0
149958.876,30.762,37.598,34.180,33.203,72.266,0
149958.880,35.156,42.969,44.922,41.504,107.910,0
149958.884,34.180,45.410,52.734,30.273,49.805,0
149958.888,24.902,42.480,48.340,25.879,21.484,0
149958.892,28.809,39.551,34.668,31.250,28.809,0
149958.896,35.645,35.645,32.227,32.715,108.887,1
149958.900,40.527,35.645,44.434,28.320,126.953,0
149958.904,33.691,33.203,53.223,24.902,32.715,0
149958.908,20.508,38.086,49.805,32.715,17.090,0
149958.912,28.809,47.852,42.480,43.945,93.262,0
149958.916,37.109,51.270,44.922,40.527,73.242,0
149958.917,30.273,49.316,47.363,42.480,-13.184,0
149958.921,31.250,49.316,51.270,45.898,-9.766,0
149958.925,33.691,40.527,46.387,37.109,61.523,0
149958.929,27.832,31.738,36.133,29.785,94.238,0
149958.933,24.414,36.133,38.574,24.414,40.039,0
149958.937,17.578,44.922,41.016,20.508,-17.090,0
149958.941,29.297,42.480,41.016,25.391,15.625,0
149958.945,42.480,40.527,41.992,36.621,80.566,0
149958.949,23.438,39.551,40.527,22.949,29.785,0
149958.953,4.883,35.645,35.156,1.953,-40.527,0
149958.957,18.066,40.527,35.156,16.113,7.324,0
149958.960,32.227,40.527,40.039,33.203,73.730,0
149958.962,27.832,41.016,42.969,29.785,68.359,0
149958.966,11.230,42.480,45.410,23.438,2.441,0
149958.970,19.531,38.574,45.898,29.297,31.250,0
149958.974,35.645,37.598,41.016,36.621,100.586,0
149958.978,28.809,39.062,37.109,24.414,61.035,0
149958.982,24.902,36.621,33.691,13.184,-30.273,0
149958.986,31.250,31.250,30.762,16.602,-62.012,0
149958.990,50.293,37.109,39.551,31.250,24.902,0
149958.994,47.852,41.016,44.922,27.344,75.684,0
149958.998,31.738,36.133,34.180,16.602,24.902,0
149959.001,36.621,38.086,22.949,21.484,8.301,0
149959.005,32.227,40.039,23.438,22.461,75.195,0
149959.007,25.391,42.480,28.320,18.066,87.402,0
149959.011,27.344,39.551,29.297,23.438,51.270,0
149959.015,25.879,39.062,33.203,24.414,49.805,0
149959.019,35.156,44.922,40.527,20.020,53.711,0
149959.023,38.574,41.016,37.109,30.762,81.543,0
149959.027,24.414,45.898,32.715,31.738,69.824,0
149959.031,17.090,44.922,38.574,17.578,37.598,0
149959.035,24.414,36.133,43.945,21.973,52.246,0
149959.039,36.133,32.227,41.504,34.668,68.359,0
149959.043,44.434,27.344,43.945,30.273,96.191,0
149959.047,38.574,41.992,46.875,25.391,73.242,0
149959.050,26.855,50.781,37.598,27.344,-3.906,0
149959.053,27.832,51.270,32.227,27.832,49.805,0
149959.057,29.785,47.852,30.762,23.926,125.000,0
149959.061,22.461,35.645,27.832,17.090,34.180,0
149959.064,8.789,28.320,20.508,10.254,-53.223,0
149959.068,7.324,36.133,25.879,22.461,10.254,0
149959.072,14.160,44.434,38.574,25.879,67.871,0
149959.076,11.230,37.109,41.992,17.090,19.531,0
149959.080,11.230,31.250,44.434,13.184,-45.410,0
149959.084,23.438,32.715,42.480,22.949,-31.738,0
149959.088,39.062,36.621,32.227,29.785,45.898,0
149959.092,36.621,38.574,29.785,28.809,35.156,0
149959.096,20.020,39.062,31.738,35.156,-74.707,0
149959.098,19.043,36.133,34.668,33.203,-53.223,0
149959.102,39.551,33.203,44.434,37.598,83.984,0
149959.106,40.039,26.855,43.457,31.738,88.379,0
149959.109,26.367,30.273,34.180,13.672,20.020,0
149959.113,30.273,36.133,32.227,21.484,-10.254,0
149959.117,49.316,41.016,39.062,40.527,42.969,0
149959.121,64.941,49.805,46.387,40.527,106.445,0
149959.125,48.828,48.340,45.898,27.832,57.129,0
149959.129,14.160,39.551,43.945,20.020,-4.395,0
149959.133,14.648,36.133,41.992,26.367,29.297,0
149959.137,30.273,41.992,36.133,30.762,55.664,0
149959.141,20.996,46.387,36.133,27.344,-8.789,0
149959.143,17.578,46.875,43.945,34.180,-36.621,0
149959.147,32.227,45.410,47.363,49.316,-2.930,0
149959.151,34.180,39.551,36.621,39.551,52.246,0
149959.155,28.809,38.086,36.133,20.020,58.105,0
149959.159,23.926,40.039,39.551,17.578,0.000,0
149959.163,17.090,42.969,40.039,29.297,14.648,0
149959.167,27.344,39.551,45.410,33.203,60.547,0
149959.171,38.086,35.645,40.527,25.391,37.598,0
149959.175,24.414,39.551,41.016,29.297,5.371,0
149959.178,14.648,41.992,56.152,36.133,13.184,0
149959.182,29.785,41.992,62.988,41.992,62.012,0
149959.186,36.621,41.016,60.059,40.039,76.172,0
149959.188,29.297,28.809,54.688,27.832,25.391,0
149959.192,25.391,41.016,45.898,25.391,-6.836,0
149959.196,33.691,60.547,47.852,40.527,54.688,0
149959.200,49.805,56.641,54.688,46.875,131.836,0
149959.204,53.223,42.969,55.176,39.062,61.523,0
149959.208,51.270,40.527,54.199,39.062,-19.043,0
149959.212,47.363,39.551,57.129,44.922,-13.184,0
149959.216,33.203,35.645,58.594,46.875,83.496,0
149959.220,20.020,37.598,55.176,37.109,133.301,0
149959.223,21.484,44.922,53.223,26.367,47.852,0
149959.227,23.438,42.480,40.039,26.367,13.672,0
149959.231,35.156,38.086,37.598,40.039,88.379,0
149959.248,53.711,52.246,60.547,52.246,103.516,0
149959.252,43.945,48.828,62.012,45.898,-3.418,0
149959.256,30.762,40.527,52.734,37.109,-4.883,0
149959.260,36.621,41.016,55.176,36.621,73.730,0
149959.264,35.156,37.598,52.734,36.133,98.633,0
149959.268,23.926,38.086,52.734,29.785,64.453,0
149959.272,21.484,43.457,54.688,30.273,-17.578,0
149959.276,34.180,48.340,56.641,38.086,-11.719,0
149959.280,40.039,46.387,59.082,35.156,70.801,0
149959.283,28.809,43.945,54.199,30.273,85.449,0
149959.287,21.484,46.387,46.387,28.809,8.301,0
149959.291,20.996,40.527,41.504,28.809,2.441,0
149959.294,30.273,34.668,45.898,32.715,70.801,0
149959.297,33.203,40.039,53.711,30.273,40.527,0
149959.301,32.715,42.480,48.340,25.391,-22.461,0
149959.305,30.762,37.109,39.551,31.738,-18.066,0
149959.309,39.551,38.574,42.480,40.527,43.945,0
149959.313,45.898,39.551,51.758,39.062,74.707,0
149959.317,25.879,37.109,58.105,34.180,26.855,0
149959.321,9.277,38.574,61.035,35.156,19.043,0
149959.325,26.855,37.109,53.711,31.250,77.637,0
149959.329,37.109,40.527,34.180,21.973,76.660,0
149959.333,20.996,44.922,20.996,16.113,38.086,0
149959.337,7.324,39.551,29.297,20.020,14.648,0
149959.341,13.672,34.668,37.598,26.367,54.199,0
149959.345,37.598,34.668,39.062,32.715,91.309,0
149959.349,38.574,37.109,38.574,30.273,80.566,0
149959.352,27.344,43.457,36.621,24.414,45.898,0
149959.356,36.621,26.855,44.434,38.574,12.207,0
149959.360,41.504,19.043,54.688,45.898,69.824,0
149959.364,39.062,44.434,49.316,29.785,115.723,0
149959.368,32.715,53.223,31.738,20.508,82.031,0
149959.372,21.484,45.898,21.973,16.602,0.977,0
149959.376,31.250,41.992,34.180,22.949,14.160,0
149959.380,37.598,43.945,47.363,27.344,70.801,0
149959.384,20.996,45.410,43.945,19.043,33.203,0
149959.383,23.438,46.875,41.992,17.578,-9.277,0
149959.387,42.480,45.898,38.574,21.484,26.367,0
149959.390,39.062,41.504,33.203,29.297,90.332,0
149959.394,30.762,41.992,44.434,36.133,79.590,0
149959.398,19.531,37.598,42.969,24.902,7.324,0
149959.402,19.043,26.855,31.738,23.926,-7.812,0
149959.406,33.691,33.691,36.133,29.785,65.918,0
149959.410,36.621,42.969,37.109,25.879,67.383,0
149959.414,33.203,39.551,41.504,26.855,-22.949,0
149959.418,39.062,34.668,46.387,35.156,-20.996,0
149959.422,43.457,33.691,44.922,34.180,90.332,0
149959.426,29.785,39.062,43.457,24.902,121.094,0
149959.427,15.625,44.922,41.504,20.020,0.000,0
149959.431,17.090,41.992,44.922,31.250,-34.180,0
149959.435,27.832,35.645,39.062,47.363,69.336,0
149959.439,36.621,38.086,37.109,44.922,108.398,0
149959.443,32.715,45.410,47.363,33.691,62.988,0
149959.447,33.691,45.410,54.199,41.016,19.531,0
149959.451,36.133,32.715,46.387,40.527,30.273,0
149959.455,37.109,24.414,33.691,31.250,46.387,0
149959.459,37.598,25.391,34.180,25.879,27.832,0
149959.463,26.855,33.691,44.434,21.973,-2.441,0
149959.466,15.625,40.527,42.969,26.855,-2.441,0
149959.470,20.508,41.504,30.273,34.180,69.336,0
149959.472,18.066,47.363,32.227,36.133,74.219,0
149959.476,13.672,47.852,40.527,29.297,35.156,0
149959.480,18.066,39.551,35.645,19.531,33.691,0
149959.484,23.438,39.062,27.344,22.949,64.453,0
149959.488,27.344,37.598,31.738,30.273,80.078,0
149959.492,33.691,24.902,42.969,33.691,1.465,0
149959.496,30.762,20.508,42.480,30.762,-48.340,0
149959.500,21.484,32.227,43.945,22.461,1.953,0
149959.504,24.414,46.875,41.992,14.648,62.500,0
149959.508,22.949,47.852,36.621,17.578,29.297,0
149959.511,26.855,40.527,42.480,20.020,-50.293,0
149959.515,41.016,47.363,47.852,38.574,4.883,0
149959.517,39.062,51.758,43.457,43.945,68.359,0
149959.521,27.344,41.016,40.527,21.484,61.035,0
149959.525,15.137,31.250,39.551,13.672,1.953,0
149959.529,18.555,38.086,31.250,30.762,-15.625,0
149959.533,36.133,40.527,26.855,39.551,4.883,0
149959.537,42.969,38.086,29.297,29.785,10.254,0
149959.541,34.668,37.598,33.203,26.855,-31.250,0
149959.545,40.527,40.527,33.691,28.809,-57.129,0
149959.549,49.316,45.898,38.574,34.180,52.734,0
149959.553,31.738,40.039,45.898,28.320,85.449,0
149959.556,16.602,34.668,49.316,23.438,20.996,0
149959.560,20.508,39.551,50.781,30.762,-17.090,0
149959.564,30.273,37.598,45.410,35.156,28.809,0
149959.568,41.016,40.039,44.434,43.457,66.895,0
149959.572,37.109,50.293,35.156,35.645,14.648,0
149959.575,22.461,43.945,25.391,18.066,-13.184,0
149959.579,29.785,37.598,30.273,20.020,32.227,0
149959.583,43.457,39.062,33.203,29.297,91.309,0
149959.587,43.457,33.691,32.227,31.250,84.473,0
149959.591,44.434,38.574,36.133,29.297,25.391,0
149959.595,44.922,49.316,46.387,39.551,5.859,0
149959.599,36.621,43.457,43.945,36.133,41.016,1
149959.603,26.855,34.180,41.504,24.902,37.109,0
149959.607,22.461,27.344,47.852,27.344,-22.461,0
149959.623,24.902,29.297,48.340,30.273,-38.086,0
149959.626,34.668,37.598,44.434,41.016,17.090,0
149959.630,52.246,29.785,39.062,47.363,71.289,0
149959.634,50.293,37.598,38.574,40.039,59.570,0
149959.638,33.203,52.734,36.621,33.691,-5.371,0
149959.642,32.715,48.340,29.297,33.203,3.906,0
149959.646,30.273,43.457,36.621,30.762,27.832,0
149959.650,30.273,38.086,46.387,32.227,-22.461,0
149959.654,23.438,36.133,46.387,34.180,-68.359,0
149959.658,27.832,41.992,42.969,35.645,-34.668,0
149959.662,40.039,38.574,35.645,34.668,56.152,0
149959.666,41.992,41.016,36.621,30.273,60.547,0
149959.667,48.340,53.711,36.621,35.156,-35.156,0
149959.671,36.621,50.293,36.621,35.645,-62.500,0
149959.675,23.438,39.551,39.551,33.691,24.902,0
149959.679,31.250,34.668,45.410,28.320,37.598,0
149959.683,24.414,34.668,48.828,20.020,-30.762,0
149959.687,21.484,37.109,45.410,28.809,-14.648,0
149959.691,31.738,38.574,41.016,43.457,55.176,0
149959.695,40.039,41.016,39.551,31.738,89.355,0
149959.699,34.668,43.457,39.551,26.367,16.602,0
149959.703,36.621,46.387,40.039,30.762,-81.543,0
149959.707,53.223,42.480,38.086,31.250,0.000,0
149959.710,46.875,40.039,39.062,40.039,69.824,0
149959.712,38.574,34.668,42.969,41.992,24.414,0
149959.716,19.531,22.949,40.039,28.809,-9.766,0
149959.720,1.953,23.438,34.668,23.926,13.672,0
149959.724,18.555,34.668,33.691,32.715,133.301,0
149959.728,25.879,43.457,39.551,34.668,119.141,0
149959.732,17.090,37.598,32.227,29.785,22.461,0
149959.736,17.090,29.785,22.461,26.855,2.930,0
149959.740,25.879,32.715,36.133,35.645,55.664,0
149959.744,34.180,37.598,50.781,36.621,89.355,0
149959.748,29.297,41.016,53.223,24.902,35.645,0
149959.751,24.902,37.109,52.246,32.715,0.000,0
149959.755,32.227,34.180,52.734,42.480,37.109,0
149959.759,22.949,42.480,50.781,21.484,97.656,0
149959.763,11.230,36.621,49.805,7.324,99.121,0
149959.767,8.789,23.926,50.293,13.672,65.430,0
149959.771,17.578,38.574,44.434,27.344,70.312,0
149959.775,39.551,58.105,46.875,40.527,120.117,0
149959.779,38.086,56.641,51.758,35.156,118.164,0
149959.782,15.625,43.457,46.875,20.508,33.691,0
149959.786,23.438,45.898,50.781,31.738,-6.348,0
149959.790,45.898,45.898,51.270,45.410,33.203,0
149959.794,33.691,39.062,45.410,32.715,57.617,0
149959.798,11.230,37.598,45.410,21.973,8.301,0
149959.802,18.066,41.992,33.691,26.367,-50.781,0
149959.804,35.156,36.133,34.180,33.691,4.883,0
149959.808,33.691,29.297,40.527,32.227,42.969,0
149959.812,24.414,38.574,36.621,29.297,3.418,0
149959.816,20.996,48.828,43.945,29.785,-64.941,0
149959.820,20.508,41.016,46.387,30.762,-29.785,0
149959.824,24.902,32.715,49.805,35.156,71.289,0
149959.827,31.250,38.086,56.641,39.551,46.875,0
149959.831,30.762,44.922,55.664,34.180,-35.156,0
149959.835,29.297,37.109,53.711,27.832,-35.156,0
149959.839,36.621,31.250,44.922,31.250,29.785,0
149959.843,31.738,46.875,44.434,36.621,63.965,0
149959.847,26.367,53.223,54.199,34.668,-3.418,0
149959.848,27.344,45.410,45.898,30.273,-22.949,0
149959.852,32.227,40.039,40.527,32.715,41.992,0
149959.856,41.504,41.016,49.805,27.832,48.828,0
149959.860,28.809,46.387,54.199,19.531,-7.324,0
149959.864,15.137,41.992,47.852,19.043,2.441,0
149959.868,23.438,38.574,38.086,25.391,68.359,0
149959.872,35.645,39.551,44.434,30.762,75.195,0
149959.876,42.480,41.992,50.293,31.250,6.348,0
149959.880,43.945,40.039,44.922,30.273,-21.973,0
149959.884,41.504,40.527,45.410,31.738,54.199,0
149959.887,29.785,39.062,43.457,31.738,85.449,0
149959.891,18.555,36.133,38.086,23.926,19.043,0
149959.893,16.113,44.922,42.969,23.926,-39.551,0
149959.897,20.996,45.410,45.410,29.785,49.316,0
149959.901,36.621,40.527,39.551,38.574,120.605,0
149959.905,43.457,40.527,43.945,40.527,100.586,0
149959.909,27.832,41.504,49.316,27.832,59.570,0
149959.913,30.273,47.852,42.480,23.926,35.156,0
149959.917,42.969,44.434,38.574,38.574,34.668,0
149959.921,46.387,29.297,43.457,41.016,36.621,0
149959.925,43.945,24.902,32.227,28.809,-1.953,0
149959.929,32.227,41.504,23.926,26.367,3.906,0
149959.933,31.738,56.152,40.039,38.574,78.125,0
149959.936,39.062,50.293,47.852,38.574,88.867,0
149959.938,46.875,44.434,46.387,26.855,48.340,0
149959.941,30.762,44.922,48.340,25.879,-16.113,0
149959.945,26.367,42.480,51.270,35.156,6.348,0
149959.949,48.340,40.039,51.758,48.340,63.477,0
149959.953,46.875,53.711,46.875,48.828,26.367,0
149959.957,41.504,59.570,41.504,39.551,-40.039,0
149959.961,48.828,45.898,45.898,45.898,-58.105,0
149959.965,44.922,40.039,47.852,39.551,52.246,0
149959.969,29.297,39.062,47.363,24.902,65.918,0
149959.973,23.438,38.574,48.828,28.320,-2.441,0
149959.977,30.273,43.457,48.828,34.668,37.598,0
149959.981,47.852,48.340,45.410,37.598,96.191,0
149959.998,58.105,50.293,41.992,42.480,112.793,0
149960.001,52.246,43.945,39.062,37.598,59.570,0
149960.005,37.109,41.016,35.645,37.598,40.527,0
149960.009,36.621,40.527,38.086,43.457,75.195,0
149960.013,51.270,36.133,43.457,52.246,84.961,0
149960.017,38.574,38.086,48.828,51.758,34.668,0
149960.021,21.973,37.598,45.898,32.227,-40.039,0
149960.025,31.250,40.527,35.156,30.273,9.766,0
149960.029,45.898,44.922,27.832,33.203,88.867,0
149960.033,46.387,51.270,30.762,30.762,30.762,0
149960.037,41.016,55.664,35.645,33.203,-19.531,0
149960.041,33.203,49.316,38.574,42.480,-1.465,0
149960.042,36.133,43.457,43.457,37.109,71.289,0
149960.046,42.480,44.434,41.504,20.508,76.660,0
149960.050,34.668,40.039,44.922,23.926,13.672,0
149960.054,41.504,37.109,41.016,33.691,-24.414,0
149960.058,32.715,38.574,38.574,41.016,-2.930,0
149960.062,17.578,38.574,39.551,41.016,61.035,0
149960.066,19.531,39.551,34.180,32.715,1.953,0
149960.070,19.043,26.367,37.109,30.273,-43.945,0
149960.074,22.461,28.320,41.016,32.715,7.812,0
149960.078,31.250,49.805,40.039,32.715,22.461,0
149960.081,25.879,45.898,34.668,23.926,18.555,0
149960.085,23.926,43.457,39.062,20.508,6.836,0
149960.088,41.504,52.246,41.016,35.645,13.672,0
149960.091,45.898,46.387,32.227,43.945,62.988,0
149960.095,41.504,39.062,30.273,29.297,54.199,0
149960.099,41.504,39.551,34.668,26.855,-9.277,0
149960.103,45.410,40.527,42.480,32.715,-37.598,0
149960.107,53.711,44.922,54.199,41.992,11.719,0
149960.111,38.574,43.945,51.758,44.922,63.965,0
149960.115,11.230,34.668,41.504,24.902,19.531,0
149960.119,7.812,37.598,40.039,11.230,-49.805,0
149960.123,30.273,42.480,38.086,19.531,8.789,0
149960.127,44.922,36.621,37.598,23.926,108.887,0
149960.130,35.645,40.039,35.645,24.414,61.035,0
149960.133,18.066,38.086,32.227,27.344,-12.207,0
149960.136,15.625,33.691,37.598,33.203,16.113,0
149960.140,29.785,39.062,45.898,25.879,94.727,0
149960.144,26.855,40.527,37.598,13.672,74.219,0
149960.148,19.531,40.039,34.668,12.207,7.812,1
149960.152,27.344,41.504,48.340,22.949,-15.625,0
149960.156,39.062,39.551,48.828,35.156,32.715,0
149960.160,32.715,29.297,39.062,25.879,62.012,0
149960.164,17.578,23.926,38.086,8.789,-24.414,0
149960.168,20.020,35.645,43.945,14.648,-29.297,0
149960.172,35.156,40.527,36.133,27.344,49.316,0
149960.176,42.969,41.504,32.227,33.691,58.594,0
149960.177,34.180,43.457,29.297,27.832,-3.906,0
149960.181,21.484,35.156,28.809,22.949,-31.738,0
149960.185,18.066,28.320,39.062,22.461,49.316,0
149960.189,24.414,31.250,49.805,22.949,91.309,0
149960.193,21.484,31.250,50.781,28.320,61.035,0
149960.197,9.766,32.715,42.480,26.367,16.113,0
149960.201,18.555,43.457,40.527,20.020,42.969,0
149960.205,42.480,43.945,42.969,28.320,104.492,0
149960.209,48.340,43.945,46.875,31.738,78.125,0
149960.213,29.297,44.434,45.410,20.020,52.734,0
149960.217,12.695,33.203,38.574,20.020,52.246,0
149960.220,23.926,27.832,38.574,27.832,55.176,0
149960.222,36.621,31.738,44.434,23.926,39.062,0
149960.226,33.203,35.156,47.852,22.461,-1.465,0
149960.230,29.785,40.527,41.504,28.320,0.977,0
149960.234,37.109,42.480,40.527,33.691,50.293,0
149960.238,45.898,37.598,51.758,41.016,68.359,0
149960.242,37.598,41.016,53.223,39.551,17.090,0
149960.246,20.996,45.410,43.945,40.527,-53.711,0
149960.250,29.297,37.598,42.480,37.109,-11.719,0
149960.254,35.156,31.250,41.016,26.367,71.777,0
149960.258,27.344,35.645,38.574,25.879,41.504,0
149960.261,16.602,34.668,39.551,21.484,-4.883,0
149960.265,23.438,27.832,43.457,25.879,19.043,0
149960.269,43.945,34.668,42.969,40.039,72.754,0
149960.273,39.551,45.410,32.227,33.691,80.566,0
149960.277,25.879,44.434,34.180,28.320,19.531,0
149960.280,31.250,37.598,41.016,30.273,4.395,0
149960.284,37.109,41.504,37.109,25.879,62.988,0
149960.288,32.715,45.410,26.367,21.484,80.078,0
149960.292,29.297,37.109,21.484,16.602,4.395,0
149960.296,21.973,35.645,30.762,10.742,-48.828,0
149960.300,23.926,26.855,39.062,19.531,40.527,0
149960.304,41.016,18.555,45.410,36.621,115.723,0
149960.308,34.668,31.250,46.875,34.668,71.289,0
149960.312,28.809,40.039,44.434,29.297,-4.883,0
149960.313,37.109,43.945,44.922,43.945,18.555,0
149960.317,41.504,51.270,39.551,55.664,97.168,0
149960.321,28.809,44.434,32.715,29.785,62.012,0
149960.325,19.043,34.180,35.156,20.020,-12.695,0
149960.328,39.062,40.527,43.945,39.551,-6.836,0
149960.332,47.363,41.992,41.016,44.434,79.590,0
149960.336,35.645,43.457,32.715,34.180,41.992,0
149960.340,21.973,41.504,30.762,26.367,-53.711,0
149960.344,21.973,32.227,35.156,26.367,-7.324,0
149960.348,38.574,35.645,48.340,39.551,60.547,0
149960.352,42.969,43.945,47.852,40.039,78.125,0
149960.356,29.785,40.039,35.645,23.438,32.715,0
149960.373,17.090,34.668,39.551,23.438,9.277,0
149960.377,33.203,37.598,47.852,33.691,58.594,0
149960.381,39.551,34.668,47.363,38.574,89.355,0
149960.385,17.578,32.227,48.828,42.969,32.715,0
149960.389,18.555,38.574,54.199,44.434,-29.297,0
149960.392,27.832,41.016,48.828,37.109,31.738,0
149960.396,18.555,30.273,29.785,27.344,83.008,0
149960.400,11.230,22.949,24.902,16.602,63.477,0
149960.404,7.812,27.832,32.227,12.207,20.020,0
149960.408,14.648,36.133,33.691,20.020,16.113,0
149960.412,30.273,43.945,35.156,35.156,54.688,0
149960.416,30.762,46.387,36.133,39.062,49.316,0
149960.418,24.902,35.156,35.645,21.484,-8.301,0
149960.422,23.926,32.227,36.621,20.020,-6.836,0
149960.426,19.531,38.086,44.434,35.156,76.660,0
149960.430,25.391,37.598,49.316,40.039,61.035,0
149960.434,38.086,36.621,46.875,34.668,-10.742,0
149960.438,21.484,33.691,39.551,25.391,-51.270,0
149960.442,9.277,30.762,31.250,25.391,18.066,0
149960.446,25.391,28.809,34.180,22.461,88.379,0
149960.450,19.043,26.367,36.621,10.742,26.367,0
149960.453,16.602,27.344,36.133,1.465,-54.688,0
149960.457,28.809,31.738,36.621,15.137,-27.344,0
149960.461,27.832,37.598,40.527,27.832,100.098,0
149960.463,25.391,37.598,43.945,22.461,85.449,0
149960.467,29.785,40.527,33.203,21.973,2.930,0
149960.471,24.902,40.039,22.461,23.438,14.648,0
149960.475,24.902,35.645,25.391,32.715,61.523,0
149960.479,30.762,36.133,33.691,45.410,74.707,0
149960.483,22.949,34.180,34.180,31.738,56.641,0
149960.487,19.043,33.691,32.715,21.973,36.133,0
149960.491,34.668,40.039,39.551,34.668,59.082,0
149960.494,48.340,37.109,39.062,36.621,71.777,0
149960.498,33.203,35.156,34.180,27.832,-0.488,0
149960.502,19.531,38.574,36.133,30.762,-26.367,0
149960.506,30.273,39.062,40.527,40.039,10.742,0
149960.508,36.621,36.621,43.945,43.457,48.340,0
149960.512,26.855,32.227,43.457,32.715,41.504,0
149960.516,24.414,34.668,42.969,27.832,3.906,0
149960.520,31.250,36.133,38.086,34.180,18.066,0
149960.524,34.668,37.598,33.691,41.992,76.172,0
149960.528,29.785,27.344,35.156,36.621,71.289,0
149960.532,27.832,39.062,36.621,31.738,-1.953,0
149960.536,30.762,51.270,38.086,34.180,-14.160,0
149960.540,37.109,43.457,45.898,41.504,45.898,0
149960.544,33.203,42.480,46.387,37.598,85.938,0
149960.547,31.250,45.898,46.875,31.738,20.020,0
149960.551,25.391,44.922,50.293,35.645,-36.621,0
149960.556,25.391,34.180,41.992,35.645,7.812,0
149960.559,42.480,30.762,39.062,24.902,32.227,0
149960.563,22.949,33.203,27.832,14.648,16.602,0
149960.567,17.090,36.133,18.066,18.555,-30.273,0
149960.571,37.109,32.227,26.855,20.996,6.836,0
149960.575,35.156,30.762,39.062,25.879,87.891,0
149960.579,26.367,34.180,47.852,32.715,81.055,0
149960.583,23.926,38.574,49.805,28.809,16.602,0
149960.587,30.762,42.480,49.805,30.273,-17.090,0
149960.591,41.016,41.504,47.363,40.039,76.660,0
149960.595,36.621,39.062,40.527,36.133,120.117,0
149960.599,20.996,32.715,37.109,35.645,64.453,0
149960.598,26.367,27.832,35.645,33.691,56.152,0
149960.601,42.969,28.809,31.250,24.414,132.812,0
149960.605,35.156,30.762,32.227,18.555,141.113,0
149960.609,16.602,33.691,27.832,10.742,56.152,0
149960.613,12.207,41.016,32.227,10.742,24.414,0
149960.617,14.648,36.621,41.016,20.996,71.289,0
149960.621,26.367,25.879,46.875,20.996,90.820,0
149960.625,29.297,26.855,45.898,17.578,10.254,0
149960.629,27.344,35.156,41.504,25.391,-41.016,0
149960.633,33.691,39.062,43.945,25.391,35.645,0
149960.637,29.297,39.062,42.969,27.832,105.469,0
149960.641,20.508,38.086,37.109,34.180,47.363,0
149960.642,21.484,38.086,33.203,18.066,-9.766,0
149960.646,29.297,41.016,40.039,20.020,4.395,0
149960.650,36.133,46.875,37.598,33.203,29.297,0
149960.654,30.273,26.855,26.855,30.273,28.320,0
149960.658,17.578,13.184,30.273,18.555,-11.230,0
149960.662,22.461,29.297,42.480,14.648,-34.180,0
149960.666,35.645,32.715,47.852,23.926,21.973,0
149960.670,32.227,43.457,52.734,25.391,34.180,0
149960.674,14.648,48.828,49.316,13.672,-6.348,0
149960.678,9.277,43.945,41.504,7.324,-3.906,0
149960.681,29.785,47.852,39.062,25.391,32.715,0
149960.685,40.527,47.852,30.762,33.691,45.410,0
149960.687,31.250,41.016,28.320,22.949,1.953,0
149960.691,22.949,41.016,37.598,19.531,-47.363,0
149960.695,36.621,36.621,38.086,33.691,-0.488,0
149960.699,53.711,35.156,33.203,39.551,74.219,0
149960.703,39.062,41.016,39.551,29.297,56.152,0
149960.707,29.297,41.016,45.410,29.785,-7.812,0
149960.711,27.344,35.156,37.109,31.250,-9.277,0
149960.715,26.367,32.715,30.273,36.621,61.035,0
149960.719,35.645,37.109,42.969,36.621,62.500,0
149960.723,26.367,37.598,46.875,19.043,-5.371,0
149960.726,17.090,37.109,39.551,4.883,-8.789,0
149960.730,24.414,38.574,38.574,11.719,51.758,0
149960.734,41.016,43.945,39.062,26.855,76.172,0
149960.738,45.898,40.527,33.203,27.344,-12.695,0
149960.742,29.297,38.574,29.297,22.461,-70.312,0
149960.745,24.414,27.344,28.809,29.297,-1.465,0
149960.749,29.297,29.297,30.273,31.250,41.504,0
149960.753,30.762,51.270,42.969,28.320,-10.742,0
149960.757,29.785,56.152,48.828,29.785,-19.043,0
149960.761,42.969,49.316,45.898,41.992,21.973,0
149960.765,57.129,47.852,46.875,51.758,48.828,0
149960.769,36.621,45.898,39.551,32.715,36.621,0
149960.773,21.484,41.504,33.691,13.672,-16.113,0
149960.777,18.066,39.062,24.414,16.602,23.438,1
149960.792,20.020,32.715,18.555,24.414,87.402,0
149960.796,19.043,32.227,28.809,24.414,55.664,0
149960.800,17.578,36.621,36.621,25.879,29.297,0
149960.804,24.414,30.762,40.039,31.250,20.996,0
149960.808,41.992,31.738,41.992,37.598,32.227,0
149960.812,46.387,40.039,44.922,36.133,56.152,0
149960.816,39.551,39.551,41.992,27.344,1.953,0
149960.820,33.691,41.016,34.668,23.926,-12.695,0
149960.824,24.902,45.898,35.645,28.809,26.855,0
149960.828,28.809,48.828,40.527,30.762,77.148,0
149960.831,21.484,44.922,31.250,20.508,114.746,0
149960.835,18.066,47.363,33.691,14.648,49.805,0
149960.837,23.438,48.828,43.457,21.484,17.090,0
149960.841,21.484,33.691,35.156,19.043,69.824,0
149960.845,21.484,30.762,32.227,13.672,55.176,0
149960.849,17.090,40.039,39.062,19.531,1.465,0
149960.853,22.461,37.598,39.062,19.043,-38.574,0
149960.857,38.086,38.574,40.039,27.832,-17.090,0
149960.861,36.621,38.086,41.504,34.668,36.621,0
149960.865,26.855,24.414,41.016,30.762,-4.883,0
149960.869,15.137,26.855,38.086,16.602,-40.039,0
149960.873,22.949,38.574,30.273,14.648,11.719,0
149960.877,41.016,32.715,31.250,20.020,83.496,0
149960.880,22.949,33.203,37.598,17.578,65.430,0
149960.882,17.578,39.062,32.715,27.832,4.395,0
149960.886,24.902,31.738,27.344,34.668,28.809,0
149960.890,19.043,20.508,29.785,27.344,113.281,0
149960.894,17.578,24.414,39.551,14.160,73.242,0
149960.898,14.648,40.039,46.387,16.602,-41.016,0
149960.902,15.625,38.086,46.387,23.926,-21.973,0
149960.906,23.926,30.762,41.992,34.668,78.613,0
149960.910,30.273,34.668,43.457,45.898,66.406,0
149960.914,24.902,35.156,48.340,43.945,-23.926,0
149960.918,24.414,33.203,36.133,35.156,-9.277,0
149960.921,39.062,26.367,31.738,33.691,68.848,0
149960.925,48.828,28.809,36.133,26.367,93.262,0
149960.927,38.574,42.480,37.109,16.113,39.062,0
149960.931,36.621,47.363,37.598,21.973,15.625,0
149960.935,36.621,43.457,38.086,33.691,63.965,0
149960.939,29.297,40.527,46.387,35.156,65.430,0
149960.943,28.809,40.527,45.410,27.344,33.691,0
149960.947,26.367,38.574,37.598,23.926,13.184,0
149960.951,44.922,40.039,37.109,43.457,39.062,0
149960.955,58.594,42.480,39.062,57.129,62.500,0
149960.959,44.922,38.574,37.598,33.691,45.898,0
149960.963,35.156,29.785,39.062,17.578,39.062,0
149960.966,36.621,30.273,41.992,32.715,19.531,0
149960.970,44.922,35.645,41.992,40.527,56.641,0
149960.973,50.293,37.598,39.062,38.574,98.145,0
149960.977,39.551,41.504,43.945,36.621,63.965,0
149960.980,30.273,41.504,45.410,37.109,10.254,0
149960.984,48.828,42.480,44.434,45.898,24.902,0
149960.988,40.039,44.922,50.781,50.293,74.707,0
149960.992,20.508,40.039,47.363,40.039,29.785,0
149960.996,23.438,33.691,43.945,36.133,-39.551,0
149961.000,27.832,35.645,49.316,40.527,-18.555,0
149961.004,23.438,42.480,53.711,41.504,55.176,0
149961.008,15.625,43.457,51.270,37.109,62.500,0
149961.012,22.461,32.227,47.852,36.133,-11.719,0
149961.016,26.367,23.926,40.527,43.457,10.254,0
149961.020,43.945,41.504,43.945,37.598,90.820,0
149961.024,62.500,65.430,53.223,37.109,91.797,0
149961.028,54.688,62.988,50.293,36.133,17.578,0
149961.032,37.109,42.969,47.852,32.715,12.695,0
149961.036,41.992,41.992,45.410,36.621,106.934,0
149961.040,40.527,44.434,44.434,34.668,113.770,0
149961.044,31.738,49.316,51.270,36.133,30.762,0
149961.048,39.062,52.246,48.828,40.527,-32.227,0
149961.052,43.457,47.363,45.898,51.270,43.945,0
149961.055,50.293,42.969,47.852,51.758,96.680,0
149961.059,45.898,43.945,47.363,37.109,36.133,0
149961.063,31.250,52.734,46.875,32.715,-17.090,0
149961.063,37.109,45.898,42.480,40.039,36.133,0
149961.067,53.223,39.062,42.969,52.734,87.891,0
149961.071,43.945,41.504,41.992,41.504,26.855,0
149961.075,30.273,39.062,39.062,28.320,-30.273,0
149961.079,40.039,41.992,44.434,36.621,-3.418,0
149961.083,41.504,45.410,43.457,40.527,59.082,0
149961.087,23.438,41.504,39.062,20.996,23.438,0
149961.090,20.020,38.574,41.504,10.254,-36.621,0
149961.094,33.203,39.062,41.504,26.367,6.348,0
149961.098,41.504,38.574,41.016,41.992,8.789,0
149961.102,38.574,36.621,45.898,37.598,-7.812,0
149961.106,25.391,34.668,46.387,25.879,-12.695,0
149961.123,18.066,29.297,38.086,31.250,-55.176,0
149961.126,33.691,34.180,40.527,39.062,19.531,0
149961.130,41.504,34.668,42.480,34.668,101.562,0
149961.134,41.504,38.086,43.457,28.320,64.941,0
149961.138,40.527,36.621,47.363,29.785,38.086,0
149961.142,35.156,30.273,48.340,31.738,46.387,0
149961.146,40.039,44.922,49.805,33.203,43.457,0
149961.150,45.898,49.805,48.828,41.504,25.879,0
149961.154,32.715,47.363,41.992,28.320,6.348,0
149961.158,28.320,45.898,39.551,21.973,-0.488,0
149961.162,39.551,40.527,43.945,40.039,25.879,0
149961.165,37.109,41.504,42.480,42.480,70.312,0
149961.167,32.715,45.898,42.969,31.738,29.785,0
149961.171,26.855,39.062,41.992,20.508,-25.391,0
149961.175,27.344,38.086,35.645,30.273,20.508,0
149961.179,31.738,42.969,34.668,26.855,51.270,0
149961.183,31.250,40.527,35.645,15.137,-14.648,0
149961.187,31.250,47.852,45.410,21.484,-62.500,0
149961.191,35.645,52.734,52.734,30.273,-14.160,0
149961.195,48.340,54.199,47.852,34.668,101.562,0
149961.199,40.039,53.223,45.898,35.645,88.867,0
149961.203,20.508,40.527,43.457,27.344,-30.762,0
149961.207,27.344,31.738,38.086,20.020,-30.762,0
149961.210,38.086,32.227,30.762,26.855,105.957,0
149961.212,27.344,38.574,33.691,26.367,104.492,0
149961.216,21.484,45.410,42.969,22.949,1.465,0
149961.220,26.367,49.316,45.410,27.344,36.621,0
149961.224,39.551,49.805,50.781,38.574,95.703,0
149961.228,37.109,46.875,52.246,35.156,72.754,0
149961.232,20.508,40.039,43.945,14.648,-11.230,0
149961.236,25.391,38.574,43.457,15.137,-18.555,0
149961.240,41.504,38.086,40.527,30.762,57.129,0
149961.244,47.363,26.855,30.762,32.715,44.922,0
149961.248,35.645,32.715,33.203,28.320,-14.160,0
149961.252,24.902,45.410,39.062,26.855,-19.531,0
149961.255,32.715,43.457,37.598,28.809,50.293,0
149961.258,26.367,41.504,39.551,27.832,84.473,0
149961.261,30.273,45.898,49.805,25.391,17.578,0
149961.265,38.086,50.781,49.316,35.645,-5.859,0
149961.269,29.785,47.363,34.668,41.504,17.578,0
149961.273,30.762,45.898,31.738,37.109,65.430,0
149961.277,29.297,44.922,41.504,32.227,58.594,0
149961.281,19.531,41.504,43.457,21.973,-12.695,0
149961.285,15.625,37.109,42.480,20.996,-3.418,0
149961.289,34.668,36.133,44.434,34.668,29.785,0
149961.293,41.504,32.227,41.016,38.086,49.805,0
149961.297,26.855,33.203,41.504,30.273,29.785,0
149961.300,24.902,38.086,41.992,30.273,-51.758,0
149961.303,38.574,41.504,38.086,37.109,-24.902,0
149961.307,55.664,46.875,40.527,42.480,39.062,2
149961.310,42.969,45.410,43.945,38.086,8.789,0
149961.314,20.996,45.898,42.969,34.180,-20.508,0
149961.318,32.227,40.527,42.480,43.945,-20.996,0
149961.322,41.016,31.250,35.645,38.574,36.621,0
149961.326,30.762,36.621,24.902,35.645,42.480,0
149961.330,23.926,41.504,27.832,30.762,-22.461,0
149961.334,30.762,49.316,33.203,26.367,-26.855,0
149961.338,42.969,47.852,33.203,33.203,56.641,0
149961.342,40.039,43.945,39.551,35.156,73.242,0
149961.346,22.949,46.387,39.062,28.809,-3.906,0
149961.347,28.809,47.852,39.551,33.691,18.555,0
149961.351,48.340,49.805,42.969,42.969,83.984,0
149961.355,62.012,51.758,43.945,41.992,97.168,0
149961.359,51.270,47.363,43.945,39.551,68.359,0
149961.363,42.969,48.340,39.551,40.527,18.555,0
149961.367,56.641,57.129,45.898,51.758,53.711,0
149961.371,50.781,54.199,57.129,53.223,104.980,0
149961.375,34.668,47.363,51.270,29.785,50.781,0
149961.379,38.086,44.434,46.875,22.461,-25.391,0
149961.383,34.668,35.156,43.945,41.504,17.578,0
149961.387,29.297,30.273,40.039,35.645,71.777,0
149961.390,45.410,41.504,41.992,25.391,23.926,0
149961.392,27.344,43.945,35.156,29.297,-13.672,0
149961.396,5.371,33.691,28.809,29.297,21.973,0
149961.400,24.902,35.645,28.320,34.180,86.914,0
149961.404,39.062,42.480,38.574,36.133,74.219,0
149961.408,32.227,37.598,52.734,28.809,11.719,0
149961.412,27.344,40.039,49.316,32.227,7.324,0
149961.416,29.785,46.387,43.945,40.527,41.504,0
149961.420,31.738,40.039,42.969,33.691,56.641,0
149961.424,28.320,35.156,38.086,24.902,21.484,0
149961.428,37.109,39.062,40.527,32.715,-24.414,0
149961.432,38.574,39.062,45.410,41.016,-17.090,0
149961.435,34.180,35.156,41.016,35.156,35.645,0
149961.437,25.391,36.133,35.156,31.250,34.668,0
149961.441,15.137,40.039,39.062,28.809,-25.391,0
149961.445,29.297,38.574,40.039,34.668,-10.254,0
149961.449,52.734,36.621,37.109,41.016,65.430,0
149961.453,45.898,40.527,35.645,24.902,69.336,0
149961.457,25.879,51.758,33.691,19.043,9.277,0
149961.461,28.320,48.828,35.156,28.320,-21.973,0
149961.465,39.551,41.504,33.203,32.227,44.922,0
149961.469,39.551,42.480,32.715,43.457,92.285,0
149961.473,37.109,40.039,41.504,44.434,9.277,0
149961.477,34.668,38.086,42.969,35.156,-24.414,0
149961.480,36.621,41.016,38.574,31.738,71.777,0
149961.484,39.551,41.992,45.898,34.668,102.539,0
149961.488,30.273,41.992,44.922,31.738,31.250,0
149961.492,35.156,39.551,41.504,25.879,-25.879,0
149961.496,47.363,36.133,41.016,47.852,33.691,0
149961.500,49.316,27.344,43.457,48.828,119.629,0
149961.503,46.875,37.598,45.898,26.367,84.961,0
149961.507,27.344,49.316,41.504,27.832,-0.488,0
149961.511,20.508,37.598,36.133,30.762,44.922,0
149961.515,32.715,37.109,29.297,29.297,112.305,0
149961.519,32.715,42.480,23.438,30.762,67.871,0
149961.523,26.855,45.898,27.832,29.297,7.812,0
149961.527,26.855,42.480,39.062,32.715,46.875,0
149961.543,37.598,32.715,51.270,40.527,64.941,0
149961.547,47.363,35.156,51.758,41.992,81.055,0
149961.551,32.227,37.598,41.016,40.527,52.734,0
149961.555,34.180,32.227,38.574,36.133,-32.227,0
149961.559,49.316,34.180,42.480,31.738,25.879,0
149961.563,35.645,35.645,45.410,28.809,74.219,0
149961.567,26.855,37.109,41.504,34.668,28.320,0
149961.570,28.320,41.992,40.527,39.062,-28.320,0
149961.574,25.391,37.109,37.109,43.457,5.371,0
149961.578,30.762,33.203,35.156,40.527,73.730,0
149961.582,30.762,42.480,48.340,25.391,69.824,0
149961.586,26.855,43.945,51.758,28.320,21.484,0
149961.588,27.344,31.250,41.992,38.086,29.785,0
149961.592,25.391,27.344,40.039,32.227,50.781,0
149961.596,20.020,27.344,41.992,23.926,72.754,0
149961.600,18.555,27.344,38.086,30.762,76.660,0
149961.604,32.715,24.902,38.574,36.621,32.227,0
149961.608,36.133,22.949,38.086,36.133,93.750,0
149961.612,31.738,33.691,29.297,31.738,144.043,0
149961.616,28.320,47.363,32.227,25.391,65.430,0
149961.619,18.555,42.480,41.016,25.391,-1.953,0
149961.623,18.066,36.133,38.574,26.855,16.113,0
149961.627,29.297,33.691,35.645,24.414,81.055,0
149961.631,24.414,30.762,39.551,26.855,31.250,0
149961.633,13.184,34.180,43.945,31.250,-37.598,0
149961.637,21.484,30.762,40.527,31.738,-8.789,0
149961.641,36.621,22.949,38.574,34.668,83.008,0
149961.645,40.527,22.949,41.992,33.691,72.754,0
149961.649,30.273,34.668,37.598,29.785,-27.344,0
149961.653,37.598,39.062,26.367,30.762,-26.855,0
149961.656,38.086,40.527,29.785,30.762,14.160,0
149961.660,22.461,38.574,47.363,32.227,17.090,0
149961.664,20.020,29.785,55.176,28.809,-19.531,0
149961.668,19.043,38.574,55.664,29.297,-0.977,0
149961.672,15.625,42.480,38.086,22.949,80.566,0
149961.676,17.090,31.738,27.344,7.324,79.102,0
149961.678,17.090,27.344,35.156,13.184,20.508,0
149961.682,16.113,26.367,38.574,18.066,-1.953,0
149961.686,34.668,24.902,39.062,20.996,34.180,0
149961.690,45.898,33.203,38.086,26.367,73.730,0
149961.694,22.461,45.898,38.574,20.996,36.133,0
149961.698,10.254,58.105,43.945,21.484,-4.883,0
149961.702,22.461,50.293,47.363,31.738,41.504,0
149961.706,26.855,30.273,41.016,32.715,87.891,0
149961.710,22.461,33.203,40.527,27.832,59.570,0
149961.714,20.996,40.527,43.457,24.902,-1.465,0
149961.717,33.203,41.504,41.992,20.996,18.066,0
149961.721,38.574,35.645,40.039,23.438,66.895,0
149961.723,35.156,33.691,41.992,28.809,73.242,0
149961.727,25.879,38.086,50.293,29.785,34.180,0
149961.730,17.578,40.527,49.316,35.156,-9.766,0
149961.734,28.320,41.016,42.480,34.668,48.828,0
149961.738,35.156,43.945,42.480,31.738,84.961,0
149961.742,29.297,40.527,41.504,28.320,22.949,0
149961.746,32.715,37.598,45.898,29.297,-34.668,0
149961.750,36.133,40.039,47.852,29.297,-31.738,0
149961.754,42.480,40.527,41.016,19.043,62.012,0
149961.758,38.086,39.551,43.457,25.391,74.707,0
149961.762,28.320,35.156,47.852,45.410,-2.441,0
149961.766,39.062,40.527,47.852,46.875,22.949,0
149961.769,32.715,48.828,44.434,21.973,106.934,0
149961.773,19.043,48.340,32.715,6.348,99.609,0
149961.777,18.555,50.781,35.156,13.184,10.254,0
149961.781,20.020,55.176,40.527,9.766,15.625,0
149961.784,32.227,51.270,37.598,8.789,85.449,0
149961.788,28.320,45.898,41.016,22.949,54.688,0
149961.792,12.207,42.969,41.016,19.043,-29.297,0
149961.796,8.789,35.156,39.062,14.648,-51.270,0
149961.800,16.602,38.086,39.062,20.508,20.508,0
149961.804,26.367,45.410,43.457,24.902,49.316,0
149961.808,24.414,44.434,49.316,23.438,20.996,0
149961.812,28.320,42.969,46.875,29.297,-29.297,0
149961.813,39.551,41.016,45.410,33.691,2.930,0
149961.816,37.109,39.062,41.992,30.762,100.098,0
149961.820,27.344,41.016,41.504,29.297,81.543,0
149961.824,25.391,47.363,44.922,20.020,25.391,0
149961.828,33.203,51.758,44.922,26.367,33.691,0
149961.832,37.109,39.551,41.504,27.344,84.473,0
149961.836,33.691,36.133,36.621,20.996,68.848,0
149961.840,34.668,47.852,38.574,19.043,14.648,0
149961.844,38.574,51.758,41.992,20.996,0.000,0
149961.848,26.367,50.293,41.504,26.855,71.777,0
149961.852,16.113,41.504,38.086,20.996,85.449,0
149961.856,19.531,36.621,33.203,15.625,-7.812,0
149961.872,20.508,33.203,36.621,25.391,-24.414,0
149961.876,25.391,33.691,40.039,29.297,38.086,0
149961.880,32.227,36.133,35.645,20.508,96.191,0
149961.884,20.996,34.180,38.086,20.020,57.617,0
149961.888,10.254,35.645,44.922,26.367,3.906,0
149961.892,20.996,36.621,41.504,29.785,-32.227,0
149961.896,30.762,37.598,37.109,30.762,18.066,0
149961.900,34.180,35.645,42.480,30.762,36.133,0
149961.904,26.855,34.180,38.086,30.273,-2.930,0
149961.908,22.461,33.691,34.668,32.227,-11.230,0
149961.912,30.273,32.227,50.781,32.715,64.941,0
149961.915,39.062,36.621,54.199,31.250,98.145,0
149961.918,37.598,32.227,44.434,31.738,51.270,0
149961.921,22.461,25.879,37.109,30.273,3.906,0
149961.925,27.832,34.180,39.551,37.598,72.754,0
149961.929,40.039,41.992,43.457,34.180,140.625,2
149961.933,16.113,38.574,38.086,20.996,70.801,0
149961.937,7.324,40.527,30.273,18.555,-6.348,0
149961.941,34.180,44.434,31.738,28.320,30.273,0
149961.945,43.945,41.992,39.062,33.691,121.094,0
149961.949,39.551,42.969,46.875,25.391,63.477,0
149961.953,40.039,41.016,50.293,21.973,-53.711,0
149961.957,47.363,36.621,42.480,32.227,-46.387,0
149961.960,41.504,38.574,41.016,40.039,15.625,0
149961.963,26.367,39.551,47.852,36.133,7.324,0
149961.966,18.066,40.527,50.293,33.691,-29.297,0
149961.970,14.160,39.551,47.363,36.133,-8.301,0
149961.974,21.484,39.062,40.527,33.691,53.711,0
149961.978,21.484,35.156,40.039,21.484,68.359,0
149961.982,19.531,32.227,47.363,21.973,25.391,0
149961.986,23.438,38.086,41.992,31.738,0.000,0
149961.990,32.715,39.062,33.691,35.645,61.035,0
149961.994,46.387,39.062,35.645,34.180,66.406,0
149961.998,34.668,38.574,38.086,21.973,-16.113,0
149962.002,21.484,39.062,41.504,28.320,-19.531,0
149962.006,32.715,41.504,39.551,40.527,31.250,0
149962.009,43.945,38.574,37.598,39.551,69.824,0
149962.013,31.738,27.832,41.016,34.180,63.477,0
149962.017,15.137,26.367,42.480,29.297,2.930,0
149962.021,25.391,32.715,39.551,43.945,24.902,0
149962.024,29.785,37.109,37.109,47.852,60.059,0
149962.028,19.531,47.852,41.016,22.949,40.527,0
149962.032,8.301,41.992,44.922,15.625,26.367,0
149962.036,11.719,28.809,47.852,27.344,25.391,0
149962.040,24.414,29.785,47.852,24.902,40.039,0
149962.044,27.344,32.227,38.574,22.461,61.035,0
149962.048,25.391,38.086,36.621,20.020,20.020,0
149962.052,24.902,44.434,37.598,15.625,-43.457,0
149962.052,33.691,41.504,36.621,27.344,0.977,0
149962.056,44.922,37.109,37.598,30.273,80.078,0
149962.060,43.945,41.992,40.527,24.414,42.969,0
149962.064,24.902,46.387,42.969,30.762,-9.766,0
149962.068,18.066,37.109,41.016,28.320,-0.977,0
149962.072,35.156,33.691,39.062,22.949,42.480,0
149962.076,28.809,35.156,37.598,24.902,47.852,0
149962.080,4.883,36.133,40.527,21.973,-60.547,0
149962.084,11.230,38.086,47.363,20.020,-46.875,0
149962.088,27.344,36.621,50.293,24.902,54.199,0
149962.092,26.367,38.574,43.457,24.414,68.848,0
149962.095,20.996,36.133,37.109,21.973,28.320,0
149962.098,24.414,32.227,40.527,23.438,-0.977,0
149962.102,38.574,39.551,42.969,26.367,64.453,0
149962.106,29.785,43.457,40.527,25.879,74.707,0
149962.110,10.742,35.645,31.738,20.508,1.465,0
149962.114,11.719,30.762,32.715,7.324,-0.977,0
149962.117,24.902,30.273,40.039,13.184,22.949,0
149962.121,25.391,33.691,43.945,16.113,61.523,0
149962.125,22.949,30.762,51.758,11.719,14.648,0
149962.129,36.133,31.250,51.758,16.602,-17.090,0
149962.133,29.297,38.574,46.875,16.113,41.504,0
149962.137,23.926,40.039,44.922,27.344,94.727,0
149962.141,24.414,39.062,37.109,29.297,81.543,0
149962.143,9.766,33.691,31.250,15.137,24.414,0
149962.147,12.207,31.250,32.227,17.578,11.719,0
149962.151,30.273,30.273,34.668,20.020,55.176,0
149962.155,27.832,27.832,35.156,7.324,99.121,0
149962.159,16.602,36.621,39.551,5.371,42.480,0
149962.162,20.996,45.410,46.387,17.090,34.668,0
149962.166,26.855,34.668,45.898,19.531,74.219,0
149962.170,26.367,32.227,41.016,20.508,65.430,0
149962.174,19.531,35.645,31.738,27.344,35.645,0
149962.178,21.973,33.203,30.273,29.297,12.207,0
149962.182,30.273,25.391,36.133,29.785,62.500,0
149962.186,28.809,22.461,36.621,31.250,95.215,0
149962.188,27.344,37.598,40.039,26.367,71.289,0
149962.192,26.855,41.016,47.852,26.855,36.621,0
149962.196,27.832,35.645,48.828,30.762,65.918,0
149962.200,29.297,36.133,47.852,32.715,120.605,0
149962.204,20.996,33.691,41.016,36.133,96.680,0
149962.208,13.184,29.785,31.250,28.320,26.855,0
149962.212,20.508,33.203,35.156,15.625,-10.254,0
149962.216,34.668,37.109,42.480,16.602,81.543,0
149962.219,46.875,38.086,44.434,20.508,165.527,0
149962.223,38.086,42.480,52.734,25.879,77.148,0
149962.227,26.855,36.621,48.828,30.762,-8.789,0
149962.231,37.109,32.227,36.621,36.621,74.707,0
149962.236,44.434,40.039,41.992,40.527,99.609,0
149962.239,37.109,43.945,37.598,27.832,1.465,0
149962.243,23.926,37.598,27.344,18.066,-47.852,0
149962.247,29.785,37.109,37.109,30.762,1.465,0
149962.251,43.945,42.480,46.387,37.109,100.098,0
149962.255,41.016,38.574,42.480,36.133,41.504,0
149962.259,30.762,39.551,35.645,33.203,-24.902,0
149962.263,41.016,42.480,35.645,39.551,30.273,0
149962.267,49.316,40.527,37.598,45.898,83.496,0
149962.271,40.039,47.852,41.504,40.527,24.902,0
149962.275,34.180,44.922,42.969,31.738,-42.969,0
149962.279,42.969,33.203,47.363,28.809,-51.758,0
149962.294,48.828,36.621,47.363,35.645,-10.742,0
149962.298,31.250,39.551,45.410,36.621,33.691,0
149962.301,24.414,41.016,50.781,30.762,-26.367,0
149962.305,21.973,41.504,49.805,25.391,-45.898,0
149962.309,34.180,42.480,45.410,34.668,3.418,0
149962.313,51.270,43.457,39.062,40.039,21.973,0
149962.317,34.180,32.715,25.879,28.320,-3.418,0
149962.321,23.926,37.598,32.715,26.855,-34.668,0
149962.325,41.016,48.828,46.387,37.598,20.996,0
149962.329,41.992,45.410,49.805,43.945,100.098,0
149962.333,29.297,39.551,44.434,36.133,41.016,0
149962.337,25.879,35.645,38.574,21.973,-25.879,0
149962.338,29.785,36.133,40.527,27.344,-10.254,0
149962.342,30.273,35.645,36.621,36.621,40.039,0
149962.346,27.832,36.133,36.133,29.785,40.039,0
149962.350,27.344,40.527,43.457,23.438,-12.207,0
149962.354,37.109,40.039,44.922,22.461,0.000,0
149962.358,51.270,47.363,42.969,27.832,34.668,0
149962.362,50.781,48.340,45.898,38.086,42.969,0
149962.365,34.180,40.039,48.340,36.621,4.395,0
149962.369,33.203,39.551,41.992,30.762,-40.039,0
149962.373,41.992,39.062,41.504,33.691,24.902,0
149962.377,31.250,39.062,34.180,34.668,110.352,0
149962.381,23.926,36.621,28.809,30.273,67.383,0
149962.383,16.602,37.598,40.039,15.625,-3.418,0
149962.386,20.508,38.086,44.434,19.531,36.133,0
149962.390,28.320,34.180,45.898,37.109,97.656,0
149962.394,17.090,34.180,45.410,28.320,99.121,0
149962.398,3.906,32.715,43.945,11.230,34.180,0
149962.402,21.484,37.598,38.574,10.742,-16.602,0
149962.406,33.691,41.992,28.320,15.137,48.828,0
149962.410,9.766,37.109,25.391,8.789,80.078,0
149962.414,13.184,32.715,33.691,0.977,0.977,0
149962.418,14.648,35.645,41.016,11.719,-27.344,0
149962.422,15.137,37.109,40.039,31.738,52.734,0
149962.425,25.391,33.691,39.062,33.691,92.773,0
149962.427,15.137,30.762,40.039,22.461,26.855,0
149962.431,17.090,38.574,38.574,18.555,7.324,0
149962.435,43.457,41.992,41.016,35.645,20.020,0
149962.439,41.504,38.574,44.922,43.945,52.246,0
149962.443,23.926,40.527,45.410,34.668,38.086,0
149962.447,20.020,42.969,42.969,23.438,-15.137,0
149962.451,22.461,37.598,37.598,21.484,31.738,0
149962.455,40.039,27.344,30.273,25.879,91.309,0
149962.459,38.574,26.367,27.344,24.414,71.777,0
149962.463,19.531,27.832,37.109,26.367,24.414,0
149962.467,10.254,27.344,44.434,38.574,26.855,0
149962.470,31.738,30.273,41.504,42.480,98.633,0
149962.474,39.551,34.668,42.480,35.645,112.793,0
149962.478,23.438,39.062,43.945,32.715,36.621,0
149962.482,25.391,34.180,39.551,33.203,8.789,0
149962.486,36.133,29.785,37.109,35.645,36.133,0
149962.489,40.527,34.668,38.574,31.738,59.570,0
149962.493,29.785,32.227,38.086,25.391,43.945,0
149962.497,28.320,31.250,38.574,22.949,5.371,0
149962.501,42.480,39.062,32.715,27.832,-5.859,0
149962.505,41.992,41.504,29.785,25.879,36.621,0
149962.509,30.273,36.621,42.480,29.297,52.734,0
149962.513,21.484,36.133,49.316,24.902,28.320,0
149962.517,29.785,37.598,41.016,18.066,9.277,0
149962.518,34.668,37.109,40.039,27.832,57.129,0
149962.522,21.973,40.527,41.016,24.902,106.934,0
149962.525,16.602,42.480,35.645,16.113,68.359,0
149962.529,29.297,40.527,35.645,19.043,41.992,0
149962.533,44.922,39.062,32.227,28.320,80.566,0
149962.537,47.852,36.621,30.273,26.855,103.027,0
149962.541,36.621,36.621,42.480,22.949,49.805,0
149962.545,28.809,41.992,52.734,29.785,-4.883,0
149962.549,34.668,43.457,44.922,31.738,45.410,0
149962.553,33.203,39.062,35.156,21.484,108.398,0
149962.557,33.203,36.133,35.156,12.207,55.176,0
149962.561,27.832,39.062,37.598,16.113,-14.160,0
149962.562,12.695,40.039,37.109,23.438,17.090,0
149962.566,19.531,38.086,36.133,23.926,59.570,0
149962.570,34.180,41.504,37.109,21.973,46.875,1
149962.574,29.297,36.621,40.039,18.555,36.621,0
149962.578,16.113,34.668,37.109,25.879,48.340,0
149962.582,19.531,37.109,38.574,35.645,79.590,0
149962.586,22.461,35.645,41.504,28.320,29.297,0
149962.590,16.113,34.180,34.668,20.996,-31.250,0
149962.594,9.766,33.691,29.785,21.973,-14.648,0
149962.598,21.484,34.180,31.738,28.320,11.719,0
149962.602,25.391,30.762,33.203,18.555,51.270,0
149962.605,15.625,37.598,39.062,9.766,37.109,0
149962.623,21.484,43.945,41.016,15.625,22.949,0
149962.626,25.391,43.945,44.434,32.715,60.059,0
149962.630,30.273,38.574,51.270,38.086,80.566,0
149962.634,27.344,33.691,44.434,20.996,26.367,0
149962.638,9.277,37.109,30.762,16.602,-18.555,0
149962.642,6.836,35.156,28.809,20.996,-21.973,0
149962.646,21.484,31.250,38.574,28.809,21.484,0
149962.650,25.391,33.691,43.457,20.996,48.340,0
149962.654,18.066,40.527,46.387,16.113,3.418,0
149962.658,19.531,40.039,44.922,20.996,-40.527,0
149962.662,33.203,45.410,44.434,30.762,22.949,0
149962.665,36.133,45.410,41.504,29.785,91.797,0
149962.667,22.949,34.668,35.156,9.277,32.227,0
149962.671,8.789,29.785,36.621,9.766,12.207,0
149962.675,17.578,33.203,42.969,22.461,53.223,0
149962.679,19.043,32.227,42.969,14.648,57.129,0
149962.683,-2.930,32.715,41.504,6.836,7.812,0
149962.687,8.301,40.527,42.969,14.648,-8.789,0
149962.691,28.320,39.062,37.598,23.438,14.160,0
149962.695,27.344,40.039,29.297,24.414,38.086,0
149962.699,26.367,40.527,30.273,23.926,32.227,0
149962.703,17.090,26.855,35.645,24.902,-25.879,0
149962.707,18.555,27.344,39.062,26.855,2.441,0
149962.710,26.367,27.344,42.480,24.902,90.820,0
149962.713,30.273,28.809,48.828,22.949,86.914,0
149962.716,32.227,38.574,54.199,19.531,11.719,0
149962.720,30.273,38.086,52.734,22.461,7.324,0
149962.724,25.879,34.668,45.410,34.668,76.660,0
149962.728,24.414,39.551,42.969,38.086,86.914,0
149962.732,16.602,43.457,41.504,28.320,6.836,0
149962.736,7.324,35.645,38.574,18.066,-14.648,0
149962.740,15.137,38.086,36.621,27.832,55.664,0
149962.744,20.508,38.086,31.250,27.832,68.848,0
149962.748,19.531,32.715,32.227,22.949,8.301,0
149962.752,21.484,34.180,34.668,27.344,-18.555,0
149962.755,30.273,38.574,41.016,33.691,19.043,0
149962.758,38.574,41.016,44.434,34.180,60.547,0
149962.762,29.785,42.969,36.621,24.414,1.953,0
149962.766,18.555,41.504,32.227,16.113,-60.059,0
149962.769,26.855,37.598,34.668,20.020,-26.367,0
149962.773,38.086,39.551,34.180,27.344,2.441,0
149962.777,36.621,39.062,32.715,22.461,13.672,0
149962.781,20.996,39.551,34.668,19.043,-2.930,0
149962.785,29.297,44.922,37.109,27.832,-41.504,0
149962.789,41.992,47.852,35.645,42.480,-0.488,0
149962.793,27.344,40.527,34.668,26.855,74.219,0
149962.797,18.066,40.039,49.316,6.348,55.176,0
149962.801,11.230,42.969,51.758,15.137,10.742,0
149962.803,16.602,41.016,42.969,28.320,34.180,0
149962.807,22.949,38.574,42.480,29.785,74.707,0
149962.811,15.137,32.715,40.039,26.855,55.664,0
149962.815,15.625,37.109,34.180,24.414,11.230,0
149962.819,27.832,39.551,35.645,26.855,31.250,0
149962.823,41.992,27.832,39.551,24.414,82.520,0
149962.826,27.832,29.297,34.668,20.508,50.781,0
149962.830,4.395,33.691,32.715,19.531,-36.621,0
149962.834,14.160,39.551,35.156,15.137,-21.973,0
149962.838,30.273,38.086,38.574,17.578,69.824,0
149962.842,27.344,25.391,42.969,17.090,111.328,0
149962.846,19.043,34.180,43.457,14.160,22.461,0
149962.849,24.414,47.852,36.133,19.531,-20.996,0
149962.852,41.992,48.340,26.855,31.250,25.879,0
149962.856,46.387,51.758,33.691,36.621,60.059,0
149962.860,28.809,28.809,42.480,30.762,48.828,0
149962.864,24.902,12.695,37.598,27.344,-11.719,0
149962.868,26.855,34.180,35.156,29.785,23.926,0
149962.872,19.043,40.039,36.621,27.832,76.660,0
149962.876,18.066,35.156,38.086,16.113,2.930,0
149962.880,19.531,42.480,41.504,15.625,-60.059,0
149962.884,20.020,43.457,41.992,22.461,1.465,0
149962.888,36.621,37.598,41.504,35.645,61.523,0
149962.891,40.039,45.898,41.504,39.551,61.035,0
149962.894,24.414,48.340,40.527,26.855,20.996,0
149962.898,28.809,40.039,45.410,34.668,-3.906,0
149962.901,48.340,41.504,52.734,52.246,37.109,0
149962.905,51.758,43.945,50.293,44.434,49.316,0
149962.909,40.527,32.715,47.852,33.691,1.953,0
149962.913,35.645,26.855,45.898,30.762,-26.367,0
149962.917,44.434,36.621,42.480,36.133,29.297,0
149962.921,56.641,47.852,37.598,42.969,67.871,0
149962.925,53.223,51.270,37.109,37.109,42.969,0
149962.929,40.527,46.875,46.387,44.434,-7.812,0
149962.933,39.551,42.969,43.945,49.805,54.688,0
149962.937,41.992,40.039,42.480,45.410,120.605,0
149962.954,27.832,39.062,48.340,38.086,43.457,0
149962.958,20.020,41.016,56.641,38.086,-17.090,0
149962.962,30.762,39.551,56.152,47.363,2.441,0
149962.966,51.758,44.434,45.410,47.363,107.422,0
149962.969,50.781,45.410,41.992,33.203,133.301,0
149962.973,32.715,33.691,44.434,33.203,32.715,0
149962.977,31.738,33.203,44.434,40.527,6.836,0
149962.981,43.457,40.527,48.828,41.504,77.148,0
149962.985,48.828,43.457,47.363,35.156,79.590,0
149962.989,40.527,36.133,44.434,19.043,-20.020,0
149962.993,32.227,36.133,48.340,17.090,-32.227,0
149962.997,35.156,44.922,48.828,27.344,50.293,0
149963.000,33.691,42.480,41.504,29.785,112.793,0
149963.004,20.508,44.434,38.086,28.809,73.242,0
149963.008,22.949,41.016,33.691,35.645,-16.602,0
149963.012,25.391,24.902,24.902,36.621,49.316,0
149963.016,20.996,26.855,31.250,35.645,120.117,0
149963.020,27.832,31.250,40.039,31.250,56.152,0
149963.024,29.297,36.621,41.016,20.996,15.625,0
149963.027,38.574,47.363,39.551,27.832,49.805,0
149963.031,46.875,39.551,37.598,34.180,91.309,0
149963.035,48.340,34.180,34.180,25.879,67.383,0
149963.039,47.852,44.922,33.203,23.438,2.930,0
149963.043,35.645,50.781,41.016,33.203,0.977,0
149963.043,35.645,36.133,37.598,38.574,58.105,0
149963.046,38.574,20.996,27.344,24.414,66.406,0
149963.050,27.832,25.391,27.832,16.602,56.152,0
149963.054,16.602,32.715,33.691,17.090,41.016,0
149963.058,32.227,31.738,31.250,28.809,65.430,0
149963.062,47.852,27.832,31.738,38.086,79.102,0
149963.066,37.598,33.203,37.109,31.738,18.555,0
149963.070,29.297,35.645,43.457,35.645,-18.555,0
149963.074,41.504,34.668,45.410,46.387,22.949,0
149963.078,46.875,36.133,36.133,38.086,64.941,0
149963.082,43.945,36.621,36.621,34.180,38.574,0
149963.085,35.645,42.969,42.480,36.621,2.930,0
149963.088,36.621,39.062,37.598,41.016,-9.766,0
149963.091,48.340,39.551,33.691,43.457,17.578,0
149963.095,50.781,41.016,35.645,33.691,29.785,0
149963.099,45.410,34.668,33.691,26.367,-3.418,0
149963.103,41.016,40.527,36.133,30.762,-26.855,0
149963.107,43.457,46.387,41.016,39.062,17.578,0
149963.111,42.969,41.016,38.086,28.809,71.777,0
149963.115,25.879,40.039,40.039,25.391,47.852,0
149963.119,18.066,43.457,41.992,31.250,-34.180,0
149963.123,21.973,36.133,33.203,28.320,-7.324,0
149963.127,33.691,24.902,34.180,31.738,75.684,0
149963.131,39.551,33.203,39.062,33.691,62.500,0
149963.132,31.738,43.945,44.922,36.133,3.906,0
149963.136,28.320,36.133,47.363,41.504,11.230,0
149963.140,41.016,35.645,43.457,47.852,95.215,0
149963.144,41.992,38.086,41.016,33.691,63.477,0
149963.148,35.645,41.504,40.527,21.973,-9.766,0
149963.152,39.062,44.434,36.133,28.320,17.578,0
149963.156,45.410,41.504,36.133,27.832,78.125,0
149963.160,37.598,41.504,39.551,23.438,66.406,0
149963.164,19.043,35.156,34.668,17.578,-22.461,0
149963.168,18.555,33.203,22.949,22.949,-15.137,0
149963.172,28.809,39.062,23.926,34.180,57.617,0
149963.175,33.203,35.645,29.297,36.133,52.246,0
149963.179,21.973,33.691,29.297,34.180,-21.973,0
149963.183,13.184,36.133,41.016,36.621,-47.363,0
149963.187,27.344,36.621,45.410,41.504,12.207,0
149963.191,38.574,37.109,39.551,38.086,57.617,0
149963.194,31.250,36.133,41.016,24.414,43.457,0
149963.198,20.508,32.227,34.668,19.531,16.602,0
149963.202,32.715,36.133,33.203,25.879,69.824,0
149963.206,50.781,47.363,39.551,31.738,109.863,0
149963.210,35.156,45.410,43.457,30.762,58.594,0
149963.214,25.391,38.086,37.109,27.344,-3.418,0
149963.218,26.855,31.738,31.738,27.832,36.133,0
149963.222,36.621,33.691,44.434,34.668,114.258,0
149963.224,40.039,36.133,46.875,30.273,84.473,0
149963.228,21.484,35.156,43.457,20.508,20.020,0
149963.232,15.137,39.062,45.410,22.949,-9.766,0
149963.236,32.715,40.039,46.875,31.250,29.785,2
149963.239,45.410,31.250,45.410,36.621,75.684,0
149963.243,35.156,27.344,45.898,30.762,35.645,0
149963.247,33.691,33.203,44.434,34.668,-14.160,0
149963.251,36.621,37.598,32.715,32.715,18.555,0
149963.255,31.250,44.434,29.785,24.414,79.102,0
149963.259,25.391,47.363,37.598,23.438,85.938,0
149963.263,25.391,46.387,48.828,20.508,29.297,0
149963.267,26.367,45.898,56.152,23.926,24.414,0
149963.268,27.832,38.086,51.270,28.320,94.727,0
149963.272,26.855,35.645,40.527,23.926,90.332,0
149963.275,27.832,39.551,43.457,23.438,5.859,0
149963.279,30.762,36.621,48.828,28.809,-21.973,0
149963.283,27.832,33.203,41.504,33.691,56.152,0
149963.287,33.203,31.738,34.180,30.762,44.434,0
149963.291,22.461,31.738,28.320,16.113,-22.461,0
149963.295,18.555,33.691,28.320,8.301,-55.176,0
149963.299,35.156,35.156,36.621,25.391,-11.719,0
149963.303,47.852,40.039,48.828,41.992,20.508,0
149963.307,42.480,42.480,50.293,28.320,-5.859,0
149963.311,26.367,41.992,51.758,26.367,-9.766,0
149963.312,25.391,41.992,53.711,39.062,27.832,0
149963.316,37.109,35.156,38.086,37.598,82.031,0
149963.320,36.621,26.367,31.250,27.832,59.082,0
149963.324,30.273,32.715,38.574,29.785,5.859,0
149963.328,25.879,38.574,33.691,33.691,-0.977,0
149963.332,33.691,33.691,31.250,35.645,57.617,0
149963.336,39.551,34.668,43.945,33.203,38.574,0
149963.340,23.438,35.156,54.688,26.855,-33.203,0
149963.344,14.160,34.668,50.781,23.438,-11.230,0
149963.348,21.484,25.391,46.387,21.973,82.520,0
149963.352,27.832,22.949,43.945,26.855,89.844,0
149963.355,22.949,35.645,37.109,28.320,37.109,0
149963.373,21.484,33.203,33.691,23.926,9.766,0
149963.376,30.273,30.762,34.180,26.855,44.922,0
149963.380,41.016,38.574,42.480,37.598,65.918,0
149963.384,42.480,39.062,44.434,33.203,10.742,0
149963.388,45.410,39.062,40.527,29.785,2.930,0
149963.392,39.062,46.387,40.039,39.551,38.086,0
149963.396,32.715,41.504,39.062,47.852,55.664,0
149963.400,37.109,32.227,37.109,48.828,41.504,0
149963.404,27.344,32.715,37.598,28.320,17.090,0
149963.408,28.320,37.109,45.410,35.156,3.418,0
149963.412,40.039,37.109,42.480,43.945,56.641,0
149963.415,18.066,23.926,35.645,20.508,86.914,0
149963.418,-7.324,13.184,35.156,3.418,9.766,0
149963.422,1.953,27.344,38.574,9.766,3.418,0
149963.426,19.531,39.062,39.062,25.879,99.121,0
149963.430,33.203,37.109,36.621,26.367,129.883,0
149963.434,43.457,41.016,37.109,24.414,43.945,0
149963.438,25.391,40.527,34.180,30.273,-10.254,0
149963.441,11.230,34.180,38.086,29.785,47.363,0
149963.445,27.344,34.668,46.387,26.855,109.375,0
149963.449,27.832,39.062,45.410,24.902,57.617,0
149963.453,19.531,46.387,36.133,24.414,-31.250,0
149963.457,27.832,45.410,32.227,34.668,-24.902,0
149963.461,34.668,41.504,37.109,37.598,44.922,0
149963.464,28.320,41.016,41.504,28.320,56.641,0
149963.468,31.738,40.039,42.480,29.785,31.738,0
149963.472,42.480,41.016,45.898,34.180,41.992,0
149963.476,41.992,39.062,47.852,31.738,94.727,0
149963.479,38.574,27.344,46.387,32.715,98.633,0
149963.483,26.855,28.320,50.293,34.180,12.207,0
149963.487,32.227,41.992,47.363,38.086,-25.879,0
149963.491,41.016,41.504,38.574,44.922,77.148,0
149963.495,48.828,36.621,37.109,40.039,104.004,0
149963.499,34.668,28.320,36.133,23.926,14.160,0
149963.503,14.648,29.297,42.969,21.973,-2.930,0
149963.507,31.738,39.551,48.340,31.250,56.152,0
149963.508,36.621,38.574,41.992,33.691,127.441,0
149963.512,30.762,44.922,39.551,29.297,108.887,0
149963.516,27.344,46.875,38.086,30.273,48.828,0
149963.520,32.227,38.574,31.250,39.062,38.086,0
149963.524,42.969,38.574,25.879,50.293,74.707,0
149963.528,44.922,43.945,27.832,43.945,58.594,0
149963.532,37.598,38.574,21.973,23.926,-36.133,0
149963.536,31.738,36.133,14.160,17.578,-24.414,0
149963.540,22.461,35.156,18.555,23.438,53.711,0
149963.544,34.180,33.203,30.762,28.320,54.199,0
149963.547,38.086,41.016,31.738,30.762,20.996,0
149963.551,25.879,51.270,18.555,31.250,-18.066,0
149963.554,33.691,52.734,16.113,35.156,14.648,0
149963.558,35.156,44.922,22.949,35.156,88.379,0
149963.561,29.297,37.598,25.391,29.785,14.160,0
149963.565,30.273,45.410,27.344,33.203,-53.711,0
149963.569,38.086,53.711,27.344,43.945,0.488,0
149963.573,42.480,48.828,24.414,42.480,58.105,0
149963.577,37.109,41.504,16.602,30.762,39.062,0
149963.581,26.855,38.086,6.348,22.949,-19.531,0
149963.585,30.273,44.922,17.578,39.062,28.809,0
149963.589,41.016,50.781,35.156,47.852,99.121,0
149963.593,40.527,51.270,41.504,34.180,63.965,0
149963.597,30.762,45.898,39.551,21.484,-47.852,0
149963.598,27.832,35.645,35.156,19.531,-62.012,0
149963.602,37.598,43.457,30.273,33.691,60.059,0
149963.606,39.062,53.223,19.531,39.062,141.113,0
149963.610,41.992,51.758,16.602,30.762,78.125,0
149963.613,37.598,48.340,22.461,23.926,-8.301,0
149963.617,27.344,43.945,30.273,34.668,22.949,0
149963.621,48.828,47.363,35.156,40.527,99.121,0
149963.625,52.246,53.223,40.527,36.621,46.875,0
149963.629,21.973,44.922,34.668,24.414,-2.930,0
149963.633,11.719,36.133,22.949,22.949,51.270,0
149963.637,25.879,42.969,23.438,36.133,79.590,0
149963.641,32.227,53.223,30.273,31.738,30.273,0
149963.642,23.438,55.664,34.668,21.484,-13.672,0
149963.646,25.879,49.805,34.668,25.391,15.137,0
149963.650,34.668,42.969,27.832,40.527,51.270,0
149963.654,27.832,38.574,23.926,35.645,40.527,0
149963.658,21.484,41.016,29.785,20.508,18.066,0
149963.662,32.715,36.133,30.762,24.902,-2.441,0
149963.666,48.828,33.203,28.809,42.480,-3.906,0
149963.670,56.641,36.621,31.738,43.945,41.504,0
149963.674,41.504,41.016,31.250,26.367,63.965,0
149963.678,25.879,53.223,34.180,30.762,19.531,0
149963.682,46.387,54.199,41.016,48.828,26.855,0
149963.685,60.547,41.016,35.645,48.340,84.961,0
149963.689,40.039,23.926,22.461,35.156,37.598,0
149963.693,29.785,33.691,30.762,32.715,-17.578,0
149963.697,30.273,51.270,40.527,37.598,-1.953,0
149963.701,34.668,42.969,37.598,37.598,64.941,0
149963.705,35.645,37.109,41.016,29.785,106.934,0
149963.708,22.949,35.156,45.898,30.273,-9.277,0
149963.712,21.484,40.039,47.363,32.227,-78.125,0
149963.716,30.762,41.016,39.062,34.668,28.809,0
149963.720,32.227,32.227,28.320,34.180,92.773,0
149963.724,29.297,29.785,29.297,30.273,61.523,0
149963.728,35.645,33.203,31.738,34.668,38.086,0
149963.732,37.109,31.250,25.879,38.086,60.547,0
149963.733,41.992,32.227,29.785,30.762,118.164,0
149963.736,45.898,41.992,41.992,24.414,75.195,0
149963.740,32.227,40.039,42.969,33.203,-8.301,0
149963.744,31.250,43.945,40.039,47.852,39.062,0
149963.748,38.086,43.945,32.227,32.715,115.723,0
149963.752,33.691,34.668,21.973,15.625,45.410,0
149963.756,26.367,34.180,29.297,23.438,-54.688,0
149963.760,25.391,37.109,43.457,29.297,-31.250,0
149963.764,38.086,33.691,41.504,32.227,74.707,0
149963.768,47.363,38.574,41.016,30.762,109.863,0
149963.772,29.785,40.527,48.340,24.414,28.320,0
149963.776,23.438,40.527,44.922,23.438,-10.742,0
149963.793,33.691,41.504,34.668,27.832,61.035,0
149963.797,36.621,39.551,35.156,26.367,83.008,0
149963.801,19.043,37.109,35.645,21.973,-3.418,0
149963.804,13.184,41.504,35.156,21.484,-27.832,0
149963.808,25.879,44.922,35.156,20.508,17.090,0
149963.812,41.504,40.039,34.180,27.344,51.758,1
149963.816,39.551,38.574,41.504,25.879,30.762,0
149963.820,29.297,40.039,41.992,21.973,0.000,0
149963.824,27.344,39.062,28.809,26.855,27.832,0
149963.828,28.320,38.086,29.297,21.973,45.898,0
149963.832,25.879,37.598,38.574,14.160,11.719,0
149963.836,17.090,36.621,44.922,19.043,-27.344,0
149963.838,31.738,38.574,54.688,33.203,-5.371,0
149963.842,44.434,36.133,45.898,39.062,48.340,0
149963.846,38.574,37.598,31.738,39.551,50.293,0
149963.850,33.203,51.270,34.180,38.574,-29.785,0
149963.854,42.969,56.641,34.668,36.621,-46.387,0
149963.858,51.758,48.828,36.621,41.992,43.457,0
149963.861,54.688,29.785,41.016,45.410,63.477,0
149963.865,44.922,26.367,46.875,33.691,6.836,0
149963.869,26.855,44.922,52.246,33.203,-24.414,0
149963.873,28.809,45.410,48.828,35.645,44.434,0
149963.877,29.785,40.527,42.969,25.879,85.938,0
149963.881,28.320,40.527,39.551,24.414,31.738,0
149963.883,40.039,44.434,36.621,34.180,-29.297,0
149963.886,41.016,41.016,36.133,38.574,-20.508,0
149963.890,41.016,38.086,39.062,38.086,64.941,0
149963.894,40.039,37.109,42.969,26.367,36.621,0
149963.898,33.203,39.551,46.875,18.066,-28.809,0
149963.902,34.668,43.945,51.758,20.020,-10.742,0
149963.906,32.227,44.922,52.734,19.531,55.176,0
149963.910,21.484,48.340,44.922,24.414,95.215,0
149963.914,20.996,41.504,41.016,25.879,31.250,0
149963.918,23.438,39.062,41.504,28.809,-10.742,0
149963.922,31.738,49.805,35.645,32.715,47.363,0
149963.926,36.621,44.922,32.715,29.297,96.680,0
149963.928,22.949,33.203,34.180,20.508,53.711,0
149963.932,17.090,32.715,34.668,26.855,3.906,0
149963.935,39.062,40.527,44.434,43.945,44.922,0
149963.939,53.223,41.992,51.270,45.410,101.562,0
149963.943,38.574,40.039,52.246,45.410,61.035,0
149963.947,23.438,40.527,48.828,35.156,-31.738,0
149963.951,29.785,37.598,43.945,25.879,-7.324,0
149963.955,29.785,35.156,44.434,29.297,50.781,0
149963.959,24.902,37.109,41.504,21.484,42.480,0
149963.963,25.391,41.016,41.016,20.996,10.254,0
149963.967,26.367,34.668,38.086,22.461,-10.254,0
149963.971,42.480,33.203,32.715,30.273,34.180,0
149963.973,53.711,39.062,35.645,39.062,69.336,0
149963.977,44.922,34.668,35.156,31.250,45.410,0
149963.981,39.551,38.574,38.574,34.180,26.855,0
149963.985,52.246,51.758,45.410,52.246,75.195,0
149963.989,57.617,52.246,40.039,53.223,66.895,0
149963.993,56.152,41.504,36.621,43.457,19.531,0
149963.997,30.273,38.086,38.086,31.250,-11.719,0
149964.001,26.367,40.527,25.391,26.367,-13.672,0
149964.004,46.875,39.062,21.973,31.250,51.758,0
149964.008,47.852,36.621,34.668,35.645,43.945,0
149964.012,32.715,37.109,34.668,34.180,-1.465,0
149964.016,35.645,42.480,28.320,34.668,3.418,0
149964.018,41.504,46.875,35.156,37.109,40.527,0
149964.022,30.273,51.758,43.945,36.133,55.176,0
149964.026,29.297,48.828,46.387,34.180,14.648,0
149964.030,39.551,42.480,45.898,33.691,-0.488,0
149964.033,42.480,45.410,39.062,41.504,52.734,0
149964.037,48.828,44.922,34.668,52.734,101.562,0
149964.041,42.480,43.945,42.480,48.828,38.086,0
149964.045,20.020,40.527,45.410,30.273,-14.160,0
149964.049,33.203,34.668,39.062,31.250,47.363,0
149964.053,59.570,40.527,33.691,36.621,95.703,0
149964.057,53.711,45.410,22.949,27.344,63.477,0
149964.061,25.391,41.016,21.484,23.926,32.715,0
149964.064,27.344,37.598,36.133,32.715,74.219,0
149964.067,44.434,42.480,44.922,43.457,112.793,0
149964.071,40.039,42.969,47.363,37.109,82.031,0
149964.075,24.414,25.879,42.969,28.320,36.133,0
149964.079,26.855,21.484,31.738,33.691,36.133,0
149964.083,54.688,45.410,27.832,39.062,80.566,0
149964.087,48.828,52.246,30.273,35.645,88.867,0
149964.091,20.508,43.945,29.785,17.090,21.484,0
149964.095,23.438,41.504,30.273,10.254,-9.766,0
149964.099,28.320,40.039,37.598,28.320,43.945,0
149964.103,38.574,46.875,44.434,33.691,49.805,0
149964.107,42.969,45.898,40.039,26.367,-6.836,0
149964.124,20.996,41.016,34.668,25.879,-17.090,0
149964.127,22.949,28.809,31.738,33.691,25.391,0
149964.131,35.645,19.531,22.949,26.367,48.828,0
149964.135,32.227,40.039,26.855,17.090,40.527,0
149964.139,31.250,49.805,39.551,19.531,10.742,0
149964.143,39.062,44.922,38.086,23.438,-13.184,0
149964.147,41.504,41.504,33.203,31.738,16.602,0
149964.151,31.250,39.551,32.715,27.344,57.617,0
149964.155,26.855,45.898,33.691,22.461,-0.488,0
149964.159,30.762,47.852,32.227,30.273,-4.883,0
149964.163,47.363,35.156,29.785,35.156,89.844,0
149964.167,43.945,35.156,31.738,29.297,92.285,0
149964.169,31.250,48.828,38.574,31.738,33.691,0
149964.172,32.715,43.945,35.645,32.227,9.766,0
149964.176,35.645,32.227,29.297,21.973,67.383,0
149964.180,46.875,38.574,33.203,20.996,76.172,0
149964.184,35.156,41.016,34.668,20.996,32.715,0
149964.188,18.066,44.922,32.715,22.949,5.859,0
149964.192,29.785,44.922,33.691,37.598,45.410,0
149964.196,41.504,34.180,42.969,38.574,115.723,0
149964.200,36.133,30.762,48.340,32.715,80.566,0
149964.204,23.438,37.598,41.992,28.320,-53.711,0
149964.208,27.344,49.316,35.156,33.691,-19.531,0
149964.211,43.457,49.805,31.738,42.480,103.516,0
149964.214,39.062,42.480,34.180,33.691,97.168,0
149964.218,31.738,34.180,34.180,28.809,23.926,0
149964.222,45.898,32.715,36.133,40.039,-31.738,0
149964.226,55.176,38.086,43.457,46.875,21.484,0
149964.230,44.922,32.715,46.387,37.598,36.133,0
149964.234,34.180,35.156,47.852,31.738,-18.555,0
149964.237,24.902,41.016,39.062,26.367,-26.367,0
149964.241,29.785,35.156,34.180,28.320,41.992,0
149964.245,41.992,39.551,42.480,38.574,72.754,0
149964.249,30.762,41.992,38.574,35.156,12.207,0
149964.253,19.043,36.133,26.367,33.691,-2.930,0
149964.257,25.879,36.133,28.809,44.434,25.391,0
149964.258,38.086,35.156,37.109,44.434,69.336,0
149964.261,38.086,32.715,44.434,32.715,58.105,0
149964.265,25.879,35.645,46.387,30.762,-3.418,0
149964.269,27.832,37.598,39.551,34.180,-20.508,0
149964.273,37.109,37.109,38.086,34.180,19.043,0
149964.277,39.062,41.992,42.480,36.621,56.152,0
149964.281,28.320,37.109,36.133,37.598,4.395,0
149964.285,26.367,35.156,30.762,35.156,-0.488,0
149964.289,37.109,38.086,39.062,36.133,76.172,0
149964.293,37.109,28.809,46.875,36.133,92.773,0
149964.297,25.879,25.391,45.410,41.504,54.199,0
149964.301,27.344,41.992,38.086,40.527,27.344,0
149964.303,39.551,48.828,33.203,37.598,90.332,0
149964.306,47.852,42.480,39.062,50.781,121.094,0
149964.310,44.434,44.922,42.480,51.758,35.156,0
149964.314,33.203,42.480,39.551,32.715,-14.648,0
149964.318,30.762,35.645,39.551,32.715,39.551,0
149964.322,36.621,42.480,40.527,41.016,97.656,0
149964.326,41.016,39.551,38.086,37.109,60.547,0
149964.330,32.715,31.250,37.109,25.879,-23.926,0
149964.334,26.367,40.527,41.016,28.320,-32.715,0
149964.338,41.504,47.363,46.387,36.621,67.871,0
149964.342,60.059,55.176,42.480,36.133,92.773,0
149964.345,45.898,53.223,35.156,33.691,16.602,0
149964.348,20.020,41.992,31.250,20.996,-21.484,0
149964.351,26.367,43.945,36.621,26.855,12.695,0
149964.355,28.320,42.969,45.898,37.109,69.336,0
149964.359,16.113,29.785,39.062,22.949,53.711,0
149964.363,17.578,34.668,33.203,21.484,40.527,0
149964.367,31.250,37.109,31.250,30.762,99.121,0
149964.371,38.574,25.391,27.832,25.879,105.469,0
149964.375,23.438,31.738,38.086,23.926,40.039,0
149964.379,24.902,37.598,41.992,19.043,13.672,0
149964.383,31.738,33.691,39.062,18.066,33.203,0
149964.387,32.715,36.621,44.434,30.273,48.340,0
149964.391,35.645,40.527,36.621,29.297,-5.371,0
149964.393,31.250,43.457,31.738,23.438,-33.691,0
149964.396,36.621,48.828,40.039,36.133,18.066,0
149964.400,39.551,27.832,37.109,43.457,50.781,0
149964.404,30.273,13.672,34.668,28.809,41.504,0
149964.408,22.461,33.203,41.016,23.438,-6.348,0
149964.412,28.320,45.410,42.480,28.809,-19.531,0
149964.416,34.180,39.551,37.109,32.227,16.113,0
149964.420,37.109,37.109,40.527,34.668,24.902,0
149964.424,38.574,44.922,38.086,35.156,9.766,0
149964.428,28.320,42.480,26.855,37.598,-26.855,0
149964.432,41.504,47.852,31.738,45.898,-11.719,1
149964.436,47.363,56.152,45.410,44.434,58.594,0
149964.439,24.414,38.574,49.805,25.391,46.387,0
149964.443,19.043,28.809,41.992,19.043,-18.555,0
149964.447,20.020,44.434,39.062,37.109,-2.441,0
149964.451,19.043,45.410,34.180,42.480,51.758,0
149964.454,20.996,34.180,35.156,22.461,65.918,0
149964.458,29.785,38.086,45.898,19.043,14.160,0
149964.462,25.391,44.434,41.992,19.043,-34.180,0
149964.466,28.320,42.969,36.621,20.996,24.902,0
149964.470,38.086,43.945,37.598,28.320,83.008,0
149964.474,37.598,43.457,32.227,33.691,18.066,0
149964.478,33.691,40.527,31.250,25.879,-34.668,0
149964.482,36.621,39.062,42.969,23.926,24.902,0
149964.498,45.898,38.574,50.781,36.621,79.590,0
149964.501,40.039,29.297,45.410,27.344,35.645,0
149964.505,27.832,20.996,42.969,33.203,20.020,0
149964.509,23.926,27.832,44.922,41.504,73.730,0
149964.513,20.996,35.645,40.527,29.785,89.355,0
149964.517,17.090,41.504,36.621,16.113,48.340,0
149964.521,4.395,44.922,35.156,9.277,-23.926,0
149964.525,12.207,48.828,36.621,31.738,8.789,0
149964.529,26.855,47.852,41.992,47.852,104.980,0
149964.533,26.367,43.945,48.340,36.621,98.633,0
149964.537,23.926,38.086,48.340,30.762,-1.953,0
149964.541,28.809,32.227,44.922,31.738,-29.785,0
149964.543,36.133,36.621,42.480,31.250,45.898,0
149964.546,44.922,46.875,41.992,37.598,76.172,0
149964.550,53.711,50.293,39.551,35.645,0.000,0
149964.554,34.668,38.574,27.832,25.879,-45.410,0
149964.558,21.484,34.668,25.879,27.344,8.301,0
149964.562,21.484,41.992,41.992,31.250,36.621,0
149964.566,20.996,42.969,51.270,26.855,2.930,0
149964.570,22.949,41.016,41.016,23.438,-52.246,0
149964.574,22.949,43.945,34.668,34.668,-14.160,0
149964.578,40.527,44.434,37.109,44.434,53.711,0
149964.582,54.688,35.156,33.203,34.668,45.898,0
149964.586,36.133,29.297,31.250,26.855,11.719,0
149964.588,27.832,40.039,40.039,31.738,16.113,0
149964.592,30.273,41.504,41.016,29.297,75.684,0
149964.596,29.785,37.598,39.551,25.879,85.938,0
149964.599,26.855,41.992,46.875,32.227,63.477,0
149964.603,15.625,35.645,41.504,30.762,25.879,0
149964.607,27.832,33.203,29.297,30.273,24.414,0
149964.611,37.109,42.480,31.250,28.320,71.289,0
149964.615,25.879,47.852,35.156,25.879,29.297,0
149964.619,25.391,42.969,31.738,21.484,-42.969,0
149964.623,38.086,38.574,33.691,24.902,-17.578,0
149964.627,39.551,42.969,34.668,35.156,45.898,0
149964.631,39.062,44.922,39.551,34.668,22.949,0
149964.633,38.086,41.992,48.828,38.086,-50.293,0
149964.637,34.668,38.574,51.270,58.594,-20.996,0
149964.641,42.480,40.527,47.852,67.383,43.945,0
149964.644,46.387,41.992,49.316,46.875,32.715,0
149964.648,25.391,37.598,54.688,32.227,10.742,0
149964.652,20.508,41.992,55.664,41.992,-10.742,0
149964.656,35.156,41.504,51.270,42.480,45.410,0
149964.660,31.738,37.109,48.340,24.414,96.680,0
149964.664,21.973,38.086,43.945,18.066,34.180,0
149964.668,9.277,33.203,38.086,23.438,0.977,0
149964.672,10.254,31.738,40.527,34.180,76.660,0
149964.676,24.414,34.180,47.363,32.715,76.172,0
149964.680,31.738,36.621,49.316,26.855,30.273,0
149964.684,26.855,39.062,39.062,21.973,-0.488,0
149964.688,36.133,46.875,36.133,30.762,35.156,0
149964.692,51.270,37.109,42.480,38.086,91.309,0
149964.696,26.855,26.855,42.969,26.855,53.223,0
149964.700,6.836,28.809,35.645,24.902,8.301,0
149964.704,26.367,28.809,40.039,33.203,37.109,0
149964.708,32.227,34.668,48.828,32.715,99.609,0
149964.712,21.973,40.039,44.922,23.438,97.168,0
149964.715,20.996,48.340,39.551,17.578,70.801,0
149964.719,22.949,47.852,34.668,27.344,37.109,0
149964.723,31.738,44.922,33.691,42.969,64.453,0
149964.724,29.785,41.504,39.062,41.992,107.910,0
149964.727,23.926,30.762,41.016,27.344,56.641,0
149964.731,15.625,33.203,39.551,18.555,5.371,0
149964.735,21.484,40.527,42.480,27.344,60.059,0
149964.739,25.879,41.504,43.457,25.391,101.562,0
149964.743,28.809,37.109,38.574,21.484,46.875,0
149964.747,34.668,40.527,40.527,27.832,-13.672,0
149964.751,29.785,45.410,42.969,29.785,-14.160,0
149964.755,32.715,42.480,43.457,29.297,39.062,0
149964.759,24.414,41.016,40.527,23.438,90.820,0
149964.763,19.531,44.434,26.855,18.555,33.691,0
149964.766,32.715,46.387,18.066,32.227,17.578,0
149964.768,43.457,45.898,34.668,43.945,97.656,0
149964.772,46.875,51.270,52.734,39.551,79.102,0
149964.776,51.270,49.316,51.270,39.551,-23.926,0
149964.780,48.340,43.945,49.316,42.480,19.531,0
149964.784,35.645,41.992,44.922,38.574,129.395,0
149964.788,31.250,43.945,38.574,34.668,117.676,0
149964.792,22.949,41.504,36.621,27.344,-0.977,0
149964.796,24.902,35.156,41.016,27.344,-46.875,0
149964.800,40.039,34.180,45.898,37.598,40.039,0
149964.804,46.387,35.645,48.340,45.898,93.262,0
149964.808,40.039,37.109,49.316,48.340,90.332,0
149964.811,27.832,37.598,46.875,37.598,47.852,0
149964.813,27.832,35.645,43.457,30.762,47.852,0
149964.817,34.180,41.504,40.527,35.156,78.125,0
149964.821,29.785,42.480,34.668,28.320,64.941,0
149964.825,26.367,40.039,37.598,20.996,14.160,0
149964.828,36.621,50.781,47.363,29.785,6.836,0
149964.832,44.434,55.176,46.387,36.133,53.711,0
149964.836,42.480,50.781,39.551,29.785,45.410,0
149964.840,33.203,48.828,41.016,23.926,5.859,0
149964.844,45.410,47.363,52.246,33.203,20.020,0
149964.848,60.547,44.922,47.363,43.457,42.480,0
149964.852,35.645,46.387,32.715,40.527,26.855,0
149964.856,18.555,46.875,37.109,32.227,9.766,0
149964.873,19.531,42.480,48.340,34.668,5.371,0
149964.877,27.832,37.109,48.828,37.598,72.266,0
149964.880,37.109,38.086,47.852,39.062,122.559,0
149964.884,24.414,38.574,48.340,30.762,80.566,0
149964.888,10.742,38.574,41.016,27.832,1.953,0
149964.892,23.438,47.852,34.668,41.992,-2.930,0
149964.896,41.504,54.199,39.551,47.363,68.359,0
149964.900,32.715,52.246,42.969,40.039,78.613,0
149964.904,25.879,47.363,41.016,32.227,28.809,0
149964.908,31.738,43.945,44.434,37.598,-1.953,0
149964.912,39.551,42.969,52.246,49.805,20.508,0
149964.916,46.875,40.039,43.457,41.992,72.266,0
149964.918,47.852,36.133,30.762,37.109,28.809,0
149964.921,45.898,39.551,37.109,36.621,-23.438,0
149964.925,42.480,42.480,41.992,33.691,39.062,0
149964.929,41.992,43.457,46.387,37.598,90.820,0
149964.933,36.133,50.293,48.828,27.832,46.875,0
149964.937,26.367,52.734,46.387,31.250,-13.672,0
149964.941,29.785,49.316,42.480,41.016,13.184,0
149964.945,40.039,37.109,35.156,39.551,93.750,0
149964.949,33.691,29.785,37.598,29.785,49.316,0
149964.953,23.926,36.621,40.527,31.738,-44.434,0
149964.957,34.668,40.039,34.180,36.133,-31.250,0
149964.960,49.805,44.434,32.227,35.645,36.133,0
149964.963,40.527,47.852,30.762,36.621,29.785,0
149964.967,27.832,52.734,36.621,39.062,-13.184,0
149964.970,36.133,58.105,45.898,43.457,27.832,0
149964.974,34.180,45.898,43.457,28.320,105.469,0
149964.978,14.648,39.062,36.621,13.184,85.449,0
149964.982,11.719,45.898,38.574,14.160,-3.418,0
149964.986,24.414,41.992,42.969,23.438,-17.578,0
149964.990,42.480,41.504,43.945,33.691,51.270,0
149964.994,47.363,41.016,43.945,35.645,46.387,0
149964.998,40.039,38.574,45.410,25.391,-9.766,0
149965.002,34.668,44.922,49.316,23.438,-5.371,0
149965.006,28.809,35.645,47.852,41.016,34.180,0
149965.008,37.598,37.109,44.434,54.199,61.523,0
149965.011,38.574,48.340,41.016,43.457,57.129,0
149965.015,22.949,46.875,36.133,23.926,-11.230,0
149965.019,25.391,42.480,37.598,23.438,-9.766,0
149965.023,32.227,37.109,37.109,26.367,31.738,0
149965.027,37.109,37.598,39.062,27.832,15.137,0
149965.031,21.973,38.086,45.410,29.297,13.672,0
149965.035,19.043,36.621,47.363,27.344,-25.391,0
149965.039,41.992,34.180,43.945,29.297,-15.137,0
149965.043,41.016,38.574,36.621,26.367,34.180,0
149965.047,40.039,38.086,36.133,20.020,-9.277,0
149965.051,34.180,42.480,35.645,23.438,-50.293,0
149965.053,35.156,44.922,28.320,27.344,-8.301,0
149965.056,40.527,41.992,32.227,28.809,45.898,0
149965.060,29.297,43.945,38.086,21.484,35.156,0
149965.064,21.973,36.621,33.203,11.719,34.180,0
149965.068,38.086,40.527,36.133,24.902,68.848,0
149965.072,44.922,46.387,41.992,36.133,79.590,0
149965.076,38.574,42.969,41.504,29.297,51.758,0
149965.080,30.762,46.387,49.805,24.414,-1.953,0
149965.084,36.133,44.434,47.363,36.133,-16.113,0
149965.088,53.711,35.156,35.645,53.711,87.891,0
149965.092,45.410,36.133,36.133,53.223,118.652,0
149965.096,38.574,43.945,41.504,44.922,21.484,0
149965.098,47.363,49.805,41.016,32.227,-1.465,0
149965.101,59.082,46.875,41.992,33.203,39.551,1
149965.105,68.848,40.527,47.363,42.969,83.984,0
149965.109,49.805,40.527,45.898,37.598,69.336,0
149965.113,18.066,37.109,42.480,31.250,42.969,0
149965.117,23.438,41.504,43.945,31.738,63.965,0
149965.121,40.039,43.945,40.039,43.945,77.148,0
149965.125,31.250,44.434,34.668,44.434,36.133,0
149965.129,15.137,38.086,27.344,31.738,-31.250,0
149965.133,20.996,34.668,25.391,32.715,5.859,0
149965.137,41.016,45.898,37.109,45.898,68.848,0
149965.141,45.410,46.387,42.969,45.898,41.016,0
149965.144,42.969,39.062,41.016,25.391,12.207,0
149965.148,46.875,37.109,38.086,22.949,29.297,0
149965.152,53.223,36.621,32.227,34.668,73.242,0
149965.156,50.293,43.945,35.156,37.598,60.547,0
149965.160,39.062,48.828,42.969,33.203,9.766,0
149965.163,39.062,36.621,37.598,34.180,-20.996,0
149965.167,37.109,28.320,35.156,37.598,4.395,0
149965.171,31.250,38.574,45.410,33.203,20.508,0
149965.175,29.785,42.969,39.551,23.926,-8.301,0
149965.179,21.484,38.574,29.785,18.066,-25.391,0
149965.183,20.020,42.969,30.762,24.902,-3.418,0
149965.187,29.785,46.875,31.738,35.645,46.387,0
149965.188,31.250,42.480,30.273,32.715,43.945,0
149965.192,37.598,45.898,42.969,27.832,-11.230,0
149965.195,52.734,54.199,52.734,37.109,-18.555,0
149965.199,62.500,49.316,42.969,44.434,81.543,0
149965.203,56.641,46.387,41.016,50.781,104.980,0
149965.207,42.969,41.016,43.945,55.176,32.715,0
149965.211,29.297,34.180,40.039,39.551,-28.320,0
149965.215,22.949,35.156,35.156,26.367,22.461,0
149965.219,26.367,41.016,41.504,33.203,72.754,0
149965.223,26.855,43.457,48.828,36.621,3.906,0
149965.227,23.438,40.527,48.340,25.391,-20.996,0
149965.231,32.715,42.480,43.945,22.461,56.152,0
149965.248,38.574,48.828,38.574,35.156,105.469,0
149965.252,27.344,45.410,34.180,34.180,61.035,0
149965.255,22.461,37.598,32.227,29.785,31.738,0
149965.259,29.297,36.133,40.527,35.645,51.758,0
149965.263,38.086,34.668,39.062,34.180,39.551,0
149965.267,33.691,37.109,35.156,29.297,-23.438,0
149965.271,13.672,43.457,46.875,28.809,-79.590,0
149965.275,12.695,43.457,50.781,29.785,-63.965,0
149965.279,31.738,37.109,47.363,38.574,31.250,0
149965.283,36.133,44.922,49.316,33.691,56.641,0
149965.287,29.785,50.781,46.387,11.719,-5.371,0
149965.291,19.043,40.527,31.250,2.930,8.301,0
149965.293,32.715,31.250,29.785,21.484,81.543,0
149965.297,48.340,34.668,36.621,32.227,119.141,0
149965.301,31.250,36.621,31.738,22.949,89.355,0
149965.304,21.973,32.227,28.809,21.973,0.977,0
149965.308,27.344,37.109,38.086,32.227,43.945,0
149965.312,26.855,41.992,44.434,41.016,85.938,0
149965.316,32.227,42.969,45.898,42.969,21.484,0
149965.320,19.531,41.992,46.387,30.273,10.254,0
149965.324,10.742,38.574,40.039,26.367,43.945,0
149965.328,20.996,36.133,36.621,32.227,80.078,0
149965.332,25.391,31.250,36.133,28.809,85.449,0
149965.336,22.949,34.180,34.180,25.879,15.625,0
149965.338,34.180,48.828,32.227,31.250,-27.344,0
149965.342,55.176,51.270,31.250,46.875,34.180,0
149965.346,49.805,36.621,30.762,44.922,57.617,0
149965.350,26.367,38.574,38.574,36.133,-4.883,0
149965.354,7.324,41.016,38.574,28.320,-15.625,0
149965.358,20.996,36.621,33.203,29.785,47.852,0
149965.362,44.922,38.086,39.062,36.621,78.613,0
149965.366,34.180,39.062,38.086,26.367,43.945,0
149965.370,17.578,33.203,28.320,22.949,4.883,0
149965.373,22.949,28.320,19.043,17.578,46.387,0
149965.377,44.434,27.344,24.902,22.949,105.469,0
149965.381,42.969,32.227,36.133,34.668,52.246,0
149965.384,9.277,34.668,34.180,15.625,-49.316,0
149965.387,10.742,38.574,38.574,18.555,-38.086,0
149965.391,31.738,33.203,42.969,31.250,66.895,0
149965.395,34.180,37.109,42.480,35.645,50.781,0
149965.399,36.133,44.922,48.340,34.668,-28.809,0
149965.403,33.691,38.086,41.504,25.391,-39.551,0
149965.407,35.645,34.668,33.691,28.809,45.898,0
149965.411,39.551,37.598,42.969,34.180,60.059,0
149965.415,28.320,41.016,40.527,30.762,-25.879,0
149965.419,19.043,44.434,30.273,22.949,-2.441,0
149965.423,29.297,50.293,37.598,29.785,93.750,0
149965.426,37.109,43.457,42.969,36.621,78.613,0
149965.430,27.344,37.598,36.621,26.367,22.461,0
149965.434,17.578,41.992,39.551,22.461,7.812,0
149965.438,25.879,42.969,46.387,29.785,31.738,0
149965.442,43.945,38.574,45.898,31.738,62.988,0
149965.446,45.898,41.992,41.504,34.180,26.855,0
149965.450,26.367,41.992,35.645,31.738,-22.461,0
149965.453,36.133,39.551,38.574,27.832,5.859,0
149965.457,51.270,41.504,45.410,31.738,66.406,0
149965.461,22.949,41.504,43.945,26.367,38.086,0
149965.465,0.977,42.480,40.527,19.531,26.855,0
149965.469,7.812,45.898,39.062,22.949,14.648,0
149965.473,22.949,47.852,36.621,29.785,55.176,0
149965.474,29.785,44.922,39.062,24.902,71.289,0
149965.477,40.527,43.945,51.270,24.902,-20.508,0
149965.481,39.062,45.410,51.758,29.785,-74.219,0
149965.485,25.391,32.715,33.203,29.785,4.395,0
149965.489,22.949,24.902,26.367,32.715,68.359,0
149965.493,18.066,26.855,35.645,26.855,16.113,0
149965.497,8.789,32.227,42.969,22.949,-20.020,0
149965.501,19.043,45.410,44.434,26.367,3.906,0
149965.505,34.180,51.270,40.527,34.668,62.012,0
149965.509,32.227,45.410,40.527,31.250,70.801,0
149965.513,30.762,40.039,41.504,30.273,3.418,0
149965.516,38.574,41.992,38.086,40.527,40.527,0
149965.519,49.316,48.828,39.062,44.434,126.953,0
149965.523,45.410,41.504,37.109,39.551,89.844,0
149965.526,24.902,28.320,31.250,31.738,-1.953,0
149965.530,20.996,34.668,37.109,34.668,-33.203,0
149965.534,40.527,42.969,45.410,36.133,43.945,0
149965.538,49.805,46.387,41.992,34.180,68.359,0
149965.542,34.668,50.293,40.039,33.203,-0.488,0
149965.546,25.879,44.434,41.504,29.785,-19.531,0
149965.550,31.738,38.574,42.480,34.668,16.602,0
149965.554,34.180,39.551,38.574,39.062,59.570,0
149965.558,31.250,42.969,32.227,29.297,34.668,0
149965.562,28.809,46.387,36.133,25.391,-31.250,0
149965.563,36.621,44.434,43.945,36.621,16.113,0
149965.567,44.922,39.062,39.062,41.504,99.609,0
149965.571,45.898,42.480,35.645,41.504,111.328,0
149965.575,49.805,38.574,38.086,37.598,45.898,0
149965.579,37.109,34.180,43.457,38.086,27.832,0
149965.583,31.738,40.039,43.945,42.969,65.430,0
149965.587,40.527,37.598,45.410,30.273,79.102,0
149965.591,38.086,34.180,51.270,19.531,6.836,0
149965.595,37.598,40.039,49.805,27.344,-33.203,0
149965.598,44.922,38.086,44.922,41.504,14.160,0
149965.602,50.293,35.156,38.574,43.945,41.504,0
149965.606,37.598,48.340,35.156,31.738,19.531,0
149965.609,25.391,52.734,41.016,30.273,6.348,0
149965.613,32.715,40.039,46.875,41.992,23.926,0
149965.617,46.875,39.551,45.898,40.039,68.848,0
149965.621,44.922,45.898,45.410,29.297,77.148,0
149965.625,20.996,27.344,42.480,20.996,14.160,0
149965.628,22.461,16.113,38.086,22.461,-4.883,0
149965.632,41.016,29.785,37.598,28.320,80.078,0
149965.636,37.109,38.574,40.527,26.367,80.566,0
149965.640,28.809,46.387,41.992,22.461,-11.719,0
149965.644,31.250,45.410,41.016,24.414,-5.371,0
149965.648,33.203,40.039,41.016,37.109,70.312,0
149965.652,46.875,45.898,40.527,41.504,84.961,0
149965.668,48.340,45.898,41.504,37.598,16.113,0
149965.672,31.250,40.039,43.457,28.809,15.625,0
149965.676,46.387,37.109,41.016,27.344,83.984,0
149965.680,57.129,31.250,37.109,31.738,69.336,0
149965.684,25.879,38.086,36.621,28.320,6.836,0
149965.688,13.184,51.758,36.621,27.344,-20.020,0
149965.692,23.438,47.363,37.109,30.762,-6.836,0
149965.696,37.598,47.363,46.387,36.133,35.645,0
149965.699,47.363,54.199,46.387,35.645,43.945,0
149965.703,29.297,43.457,39.551,30.273,-14.648,0
149965.707,25.391,33.691,41.016,35.645,-0.977,0
149965.711,41.016,36.621,43.457,43.945,72.754,0
149965.713,41.992,36.621,49.316,35.156,58.594,0
149965.716,23.926,35.645,45.410,18.555,3.418,0
149965.720,28.320,36.133,36.133,20.508,-13.672,0
149965.724,44.434,39.551,34.180,32.227,44.434,0
149965.728,38.086,44.434,33.691,27.344,58.105,0
149965.732,39.551,48.340,43.945,24.902,-16.602,0
149965.736,38.086,39.551,54.199,33.203,-43.945,0
149965.740,36.621,37.598,52.734,37.598,-45.410,0
149965.744,43.945,48.828,50.293,30.273,18.066,0
149965.748,41.992,43.945,51.758,26.367,7.324,0
149965.752,28.809,36.133,49.805,33.691,-19.531,0
149965.756,22.949,37.598,42.480,37.109,37.109,0
149965.758,36.621,40.039,43.945,35.156,80.566,0
149965.762,41.504,39.551,43.945,34.668,91.309,0
149965.765,31.738,36.621,40.527,36.133,39.551,0
149965.769,25.879,36.133,42.969,30.762,23.926,0
149965.773,45.410,41.992,44.434,41.504,115.723,0
149965.777,56.152,39.062,43.945,45.898,122.559,0
149965.781,50.781,43.457,44.922,38.086,26.855,0
149965.785,50.781,47.363,44.434,41.992,2.930,0
149965.789,55.176,41.016,42.969,42.969,55.664,0
149965.793,45.410,44.434,41.016,36.133,87.891,0
149965.797,31.738,43.457,43.945,31.738,75.195,0
149965.801,29.297,39.551,49.316,29.785,23.438,1
149965.803,40.039,43.457,44.922,34.668,18.066,0
149965.806,49.316,40.039,39.551,45.898,87.891,0
149965.810,36.621,32.227,42.480,37.109,104.980,0
149965.814,23.438,35.156,43.945,22.461,40.527,0
149965.818,36.133,40.039,47.363,38.086,32.227,0
149965.822,48.828,43.457,48.340,48.340,108.398,0
149965.826,32.715,36.621,40.039,36.133,108.398,0
149965.830,16.602,22.949,43.457,28.320,21.484,0
149965.834,15.625,30.762,45.410,38.574,12.695,0
149965.838,25.391,41.016,37.109,36.621,107.422,0
149965.842,31.250,36.133,46.875,26.367,77.637,0
149965.846,24.902,32.715,53.223,25.391,-9.766,0
149965.848,22.461,32.715,44.922,29.785,-12.695,0
149965.851,28.809,40.039,47.363,37.109,52.246,0
149965.855,34.180,38.574,43.945,32.227,70.801,0
149965.859,22.949,33.203,33.691,29.297,28.809,0
149965.863,14.648,39.551,33.691,31.738,32.227,0
149965.867,21.484,34.668,35.156,31.250,36.621,0
149965.871,27.832,24.414,36.133,25.879,57.129,0
149965.875,24.414,22.461,38.574,20.508,25.879,0
149965.879,30.273,29.785,45.410,34.668,-8.789,0
149965.883,33.691,36.621,49.805,42.480,24.414,0
149965.887,40.039,34.668,50.781,41.016,49.805,0
149965.891,42.969,36.133,52.734,43.457,52.246,0
149965.894,28.320,38.574,44.434,38.086,39.062,0
149965.898,35.156,45.898,31.250,38.086,31.738,0
149965.902,45.410,48.340,37.598,48.340,41.992,0
149965.906,44.922,47.363,41.016,41.992,26.855,0
149965.910,39.062,48.828,35.156,25.391,-39.551,0
149965.913,43.457,49.316,50.781,37.598,-23.926,0
149965.917,51.270,33.203,53.223,43.457,31.738,0
149965.921,42.969,25.391,36.621,30.762,46.387,0
149965.925,27.344,42.480,37.109,23.926,35.645,0
149965.929,23.926,47.363,41.016,27.344,-12.695,0
149965.933,28.809,43.457,38.086,33.691,15.625,0
149965.937,40.039,47.363,36.621,38.574,83.496,0
149965.938,41.016,47.852,39.551,33.203,63.477,0
149965.942,28.320,41.504,43.457,30.273,3.906,0
149965.945,31.738,40.039,45.410,34.180,-23.438,0
149965.949,33.691,41.016,37.598,33.203,62.012,0
149965.953,35.156,45.898,34.180,35.156,104.004,0
149965.957,24.414,40.039,31.250,29.297,-0.977,0
149965.961,16.113,29.297,29.785,22.461,-18.555,0
149965.965,25.391,27.832,36.621,23.438,41.992,0
149965.969,28.320,33.203,33.203,20.996,54.199,0
149965.973,24.902,39.551,24.902,13.672,13.672,0
149965.977,23.926,47.852,28.320,19.531,-15.625,0
149965.981,37.598,47.852,39.551,32.715,26.367,0
149965.998,42.969,44.434,38.574,39.062,54.199,0
149966.002,41.992,41.016,36.621,37.598,3.418,0
149966.006,51.758,44.434,37.109,29.785,-40.527,0
149966.010,44.922,47.363,37.109,45.410,-15.625,0
149966.013,39.551,39.062,42.480,48.340,39.551,0
149966.017,38.086,36.621,45.898,28.809,-0.488,0
149966.021,32.227,42.969,41.992,24.902,-62.500,0
149966.025,31.738,41.504,28.809,31.250,-17.090,0
149966.029,43.945,38.086,25.879,36.621,59.570,0
149966.033,41.992,39.551,38.086,35.156,62.012,0
149966.037,27.832,41.504,41.992,26.855,17.578,0
149966.041,33.203,40.039,35.156,24.414,9.766,0
149966.043,44.434,38.086,33.691,39.062,42.969,0
149966.047,33.203,35.156,37.598,34.180,51.758,0
149966.051,21.973,29.297,34.180,35.645,10.742,0
149966.055,27.344,32.227,34.180,39.551,-1.465,0
149966.059,41.992,42.969,44.434,35.645,28.809,0
149966.063,42.480,43.945,44.922,33.691,56.641,0
149966.067,26.855,35.645,37.109,19.043,48.340,0
149966.071,21.484,35.645,41.504,20.020,5.371,0
149966.074,27.344,35.645,40.527,28.320,14.648,0
149966.078,31.250,33.691,34.180,26.855,65.430,0
149966.082,28.809,36.133,34.668,25.391,35.156,0
149966.086,16.113,37.109,35.645,15.137,-32.715,0
149966.088,10.742,33.203,40.527,11.230,-30.762,0
149966.092,18.066,28.809,43.457,22.949,57.617,0
149966.096,21.484,28.809,40.527,18.555,116.211,0
149966.100,27.344,33.203,41.016,12.695,65.430,0
149966.104,20.996,33.203,42.480,26.367,26.855,0
149966.108,18.066,32.227,36.133,32.715,31.738,0
149966.112,25.391,30.762,36.133,25.879,54.688,0
149966.116,14.160,35.156,47.363,10.742,44.434,0
149966.119,5.371,40.039,48.340,1.953,7.324,0
149966.123,24.902,36.133,40.039,20.020,40.039,0
149966.127,31.250,31.738,37.109,34.180,125.000,0
149966.131,23.926,44.434,40.039,28.320,109.375,0
149966.133,27.344,46.875,37.598,18.555,23.438,0
149966.136,23.438,29.785,32.227,18.066,41.016,0
149966.140,34.180,25.391,35.156,25.879,99.121,0
149966.144,39.551,32.715,41.992,28.320,95.703,0
149966.148,13.184,34.180,47.363,31.250,32.227,0
149966.152,12.695,30.762,47.852,24.414,-1.953,0
149966.156,29.297,40.039,48.828,27.832,70.312,0
149966.160,25.391,51.270,48.340,35.156,117.676,0
149966.164,21.973,42.969,41.992,19.043,69.336,0
149966.168,19.043,25.879,33.203,12.207,29.785,0
149966.172,20.508,25.391,22.949,22.949,86.426,0
149966.176,23.926,31.250,31.250,21.484,123.047,0
149966.178,23.438,38.086,37.109,15.137,111.816,0
149966.182,14.160,44.922,35.645,19.043,41.016,0
149966.185,8.789,37.598,42.480,20.508,71.777,0
149966.189,35.645,35.156,49.316,31.738,145.996,0
149966.193,45.410,45.898,52.734,35.156,65.918,0
149966.197,18.066,44.922,48.340,30.273,-2.441,0
149966.201,12.207,39.062,41.992,32.715,27.832,0
149966.205,26.855,31.250,36.133,27.832,80.566,0
149966.209,24.902,24.414,33.203,25.391,54.688,0
149966.213,14.160,28.809,30.762,37.109,7.812,0
149966.217,22.461,31.250,34.180,38.086,-13.672,0
149966.221,38.086,33.691,36.133,28.809,27.832,0
149966.223,36.133,37.598,41.016,30.762,55.664,0
149966.227,38.574,42.480,51.758,35.645,23.438,0
149966.230,44.434,41.016,52.246,44.434,11.719,0
149966.234,41.992,35.156,47.363,38.574,48.828,0
149966.238,42.969,34.668,47.363,22.461,96.191,0
149966.242,35.156,31.738,49.805,21.484,71.777,0
149966.246,20.020,23.438,45.410,27.832,35.156,0
149966.250,20.508,22.461,40.039,26.367,34.180,0
149966.254,30.762,25.879,38.574,30.762,65.430,0
149966.258,35.156,32.227,36.621,32.715,95.215,0
149966.262,29.297,48.340,38.086,28.320,49.316,0
149966.266,24.414,49.805,36.133,24.902,5.859,0
149966.268,27.344,40.527,38.086,22.461,100.098,0
149966.272,28.320,28.320,44.922,20.508,105.957,0
149966.275,21.484,13.184,48.828,16.113,-8.789,0
149966.279,15.137,13.672,42.480,13.672,-23.438,0
149966.283,25.391,24.414,28.320,16.602,40.039,0
149966.287,38.574,35.645,27.832,20.996,37.598,0
149966.291,32.715,36.133,37.598,19.043,-15.625,0
149966.295,9.766,30.273,34.668,20.508,-25.391,0
149966.299,19.531,26.855,25.879,30.273,16.602,0
149966.303,34.668,31.250,26.855,21.973,-2.930,0
149966.307,21.484,32.227,29.297,4.395,-31.738,0
149966.311,14.160,27.832,27.344,4.883,-20.996,0
149966.313,27.344,17.578,27.344,18.066,-4.883,0
149966.316,32.227,20.996,30.273,24.414,67.871,0
149966.320,19.531,28.809,32.227,24.902,70.312,2
149966.324,15.137,31.250,32.715,26.855,-35.645,0
149966.328,25.391,40.039,35.156,30.273,-45.898,0
149966.332,46.387,34.668,39.551,29.785,41.504,0
149966.336,45.410,31.738,42.969,32.227,40.527,0
149966.340,19.043,31.250,38.086,24.902,-17.090,0
149966.344,4.395,21.973,28.809,18.066,-4.395,0
149966.348,26.367,27.832,36.133,33.691,34.668,0
149966.352,39.062,31.250,41.504,38.574,63.477,0
149966.356,30.762,29.297,39.551,27.832,8.789,0
149966.359,24.902,36.621,37.598,20.020,-43.945,0
149966.363,26.855,42.480,34.668,23.926,7.812,0
149966.367,38.086,41.016,34.668,32.715,75.195,0
149966.371,38.086,36.133,41.504,29.785,79.590,0
149966.375,37.598,37.598,42.480,25.879,8.301,0
149966.378,35.645,41.992,35.645,34.180,5.859,0
149966.382,33.203,43.457,40.039,36.133,74.707,0
149966.386,26.367,34.668,40.039,27.344,94.238,0
149966.390,11.230,31.250,40.039,19.043,52.734,0
149966.394,10.742,41.016,45.898,16.602,46.387,0
149966.398,25.879,41.504,45.410,21.973,101.074,0
149966.402,38.574,34.180,38.574,22.949,112.793,0
149966.418,30.762,35.645,32.227,20.996,62.012,0
149966.422,22.461,42.480,30.762,31.738,29.297,0
149966.425,40.527,43.945,28.809,35.156,63.477,0
149966.429,46.875,43.945,25.391,27.832,95.703,0
149966.433,25.879,40.527,33.691,21.484,28.809,0
149966.437,17.578,33.691,43.945,16.602,-62.012,0
149966.441,16.602,34.180,38.574,19.531,-38.086,0
149966.445,20.508,36.133,31.738,24.902,80.566,0
149966.449,23.438,33.691,36.621,28.320,68.359,0
149966.453,19.531,33.203,38.086,20.996,-39.551,0
149966.457,22.461,37.598,33.691,24.902,16.602,0
149966.461,31.250,35.156,35.645,36.621,83.008,0
149966.463,36.621,35.645,41.992,26.855,55.176,0
149966.466,34.668,44.434,44.434,27.832,26.367,0
149966.470,31.250,44.922,45.410,31.738,-13.672,0
149966.474,30.762,34.180,47.852,33.691,6.348,0
149966.478,29.297,28.809,45.410,34.668,56.152,0
149966.482,24.414,30.273,42.969,26.367,36.133,0
149966.486,25.391,34.668,40.039,23.926,3.906,0
149966.490,37.598,42.969,38.086,35.156,71.289,0
149966.494,41.016,44.922,44.434,40.527,108.398,0
149966.498,30.273,40.039,50.293,35.645,21.484,0
149966.502,17.578,33.691,46.387,37.109,-19.531,0
149966.506,21.484,31.738,38.086,37.109,20.996,0
149966.508,28.809,31.738,35.156,23.438,80.566,0
149966.512,21.973,32.227,41.992,10.254,57.129,0
149966.516,18.555,34.180,49.316,11.719,18.555,0
149966.520,13.184,44.922,48.340,19.531,13.184,0
149966.524,21.484,48.340,42.480,28.809,52.734,0
149966.528,37.109,39.062,41.016,34.668,74.219,0
149966.532,32.227,31.738,46.875,23.438,9.766,0
149966.536,23.438,39.062,44.922,18.066,-0.977,0
149966.539,28.809,48.828,48.828,29.297,27.832,0
149966.543,28.809,36.621,57.617,30.273,16.113,0
149966.547,17.090,32.715,49.316,20.508,23.438,0
149966.551,15.137,41.016,45.898,24.414,6.348,0
149966.553,24.902,40.527,48.340,36.621,38.574,0
149966.557,24.902,38.086,41.992,29.297,110.840,0
149966.561,21.973,38.574,38.086,19.531,53.223,0
149966.565,23.926,33.691,45.410,27.832,2.930,0
149966.569,28.320,27.344,46.875,36.133,35.645,0
149966.573,34.180,25.879,41.992,40.527,87.402,0
149966.577,46.387,34.668,46.387,47.852,82.031,0
149966.581,39.062,41.016,43.457,41.016,28.320,0
149966.585,13.184,34.180,33.203,22.949,22.949,0
149966.588,17.578,35.156,37.598,34.180,66.895,0
149966.592,26.367,40.039,39.062,38.574,67.383,0
149966.596,20.996,41.992,37.109,20.508,9.277,0
149966.598,25.879,42.969,41.504,24.414,4.395,0
149966.602,37.109,36.133,45.410,41.504,68.848,0
149966.606,43.457,34.180,43.945,43.945,102.539,0
149966.610,39.062,34.180,39.551,30.762,46.875,0
149966.614,35.645,30.762,39.551,33.203,-14.648,0
149966.618,49.316,40.039,50.293,50.781,8.301,0
149966.622,52.246,47.363,50.293,48.340,47.852,0
149966.626,38.086,43.945,36.621,34.668,-9.766,0
149966.630,24.902,37.598,35.156,34.180,-50.293,0
149966.634,17.578,38.086,37.598,36.621,-6.836,0
149966.637,24.902,34.180,38.086,35.645,72.754,0
149966.641,31.250,27.832,43.945,25.391,102.051,0
149966.646,22.949,31.250,44.434,23.438,44.434,0
149966.650,16.602,31.250,38.086,35.156,40.039,0
149966.654,31.250,25.879,41.504,39.062,76.660,0
149966.658,29.785,30.273,45.898,30.762,40.527,0
149966.662,13.184,35.645,46.875,22.949,30.762,0
149966.666,11.230,32.715,43.945,19.531,39.551,0
149966.670,31.738,26.367,42.480,25.391,62.500,0
149966.673,36.621,24.902,42.969,32.227,107.422,0
149966.677,17.090,25.879,35.645,29.785,62.988,0
149966.681,13.184,34.668,35.645,27.344,1.465,0
149966.685,32.227,44.922,44.434,32.715,47.852,0
149966.689,41.504,36.133,42.969,32.227,91.309,0
149966.689,27.344,27.344,34.668,22.949,33.203,0
149966.693,14.160,32.227,32.715,16.602,-55.176,0
149966.697,20.996,41.016,37.598,25.391,-32.227,0
149966.700,38.574,40.527,38.086,35.645,78.125,0
149966.704,39.062,31.250,31.738,24.414,116.211,0
149966.708,23.438,32.715,36.621,19.043,53.711,0
149966.712,16.113,38.086,37.109,21.973,30.273,0
149966.716,24.902,36.133,36.621,28.809,45.410,0
149966.720,35.156,33.691,41.016,29.785,83.496,0
149966.724,32.715,36.133,41.016,22.461,75.684,0
149966.728,30.762,40.527,43.457,25.391,-5.859,0
149966.732,40.039,38.086,43.945,29.297,0.977,0
149966.748,36.133,30.762,37.109,22.949,64.941,0
149966.752,32.227,34.668,37.598,19.043,26.367,0
149966.756,23.926,39.551,42.480,17.578,-42.969,0
149966.760,23.438,40.039,49.316,18.555,-2.441,0
149966.764,42.480,45.410,53.711,30.762,58.594,0
149966.768,46.875,45.410,44.434,29.297,3.418,0
149966.772,20.996,37.598,29.297,15.625,-75.195,0
149966.776,7.812,35.156,27.832,20.996,-74.707,0
149966.780,19.043,36.621,33.691,34.180,31.250,0
149966.784,29.297,36.133,43.457,36.133,53.711,0
149966.787,22.949,29.785,46.387,22.461,28.320,0
149966.791,6.348,29.297,38.086,17.090,40.039,0
149966.793,13.184,29.297,34.668,25.879,59.570,0
149966.797,33.691,31.738,34.180,35.156,70.801,0
149966.800,29.785,40.039,38.086,30.273,4.395,0
149966.804,19.043,40.527,42.480,23.438,-17.578,0
149966.808,30.762,38.086,41.016,30.762,47.363,0
149966.812,43.457,37.109,40.527,33.203,63.477,0
149966.816,38.574,34.668,47.852,32.715,37.598,0
149966.820,18.066,44.434,50.293,27.832,12.207,0
149966.824,11.719,44.434,42.480,15.625,24.414,0
149966.828,22.949,32.227,38.086,21.484,73.242,0
149966.832,25.879,31.250,34.180,18.066,67.871,0
149966.836,20.508,31.738,26.855,9.766,8.301,0
149966.838,28.320,40.527,31.738,25.391,-22.949,0
149966.841,51.270,46.387,42.480,40.527,39.062,0
149966.845,47.852,41.992,42.480,39.062,71.289,0
149966.849,24.414,38.574,34.180,26.855,34.180,0
149966.853,20.020,31.738,39.551,21.484,10.742,0
149966.857,39.551,37.109,47.852,25.879,13.184,0
149966.861,40.039,46.875,37.598,29.297,73.730,0
149966.865,26.855,45.898,34.668,25.879,41.016,0
149966.869,24.414,39.062,39.551,22.949,-51.758,0
149966.873,30.273,31.738,38.086,27.832,-38.574,0
149966.877,42.969,35.156,40.039,32.715,46.387,0
149966.881,45.410,45.898,44.434,34.668,46.387,0
149966.884,37.109,41.016,41.504,39.551,2.930,0
149966.888,38.086,38.574,34.668,41.504,1.953,0
149966.892,47.852,44.922,32.227,30.273,39.551,0
149966.896,45.898,49.805,31.738,20.020,50.781,0
149966.900,20.508,52.734,33.691,15.137,-28.809,0
149966.903,12.695,44.434,39.551,20.020,-51.270,0
149966.907,27.344,38.086,41.504,39.062,40.039,0
149966.911,34.668,44.922,39.551,43.457,70.801,0
149966.915,30.762,41.992,35.156,27.832,1.465,0
149966.919,33.203,32.227,30.762,23.926,0.488,0
149966.923,40.527,31.250,27.344,29.785,52.246,0
149966.927,57.129,42.480,32.715,32.227,92.773,0
149966.928,63.477,49.805,44.922,34.668,80.566,0
149966.932,35.645,49.316,50.781,42.969,31.738,0
149966.935,20.508,41.016,45.410,34.668,39.551,0
149966.939,26.367,27.344,35.645,20.508,48.828,0
149966.943,29.785,34.180,35.156,20.508,47.363,0
149966.947,23.438,38.574,39.551,23.438,18.066,0
149966.951,23.926,37.598,40.527,30.762,17.090,0
149966.955,41.992,39.551,35.645,38.574,51.270,0
149966.959,39.551,35.645,28.320,30.762,35.156,0
149966.963,20.996,28.320,27.832,20.020,2.441,0
149966.967,28.809,30.762,35.156,27.344,-6.348,0
149966.971,46.875,37.598,33.691,25.879,39.062,0
149966.973,34.668,37.598,33.203,16.602,65.918,0
149966.977,16.113,39.062,35.645,10.742,56.152,0
149966.980,14.648,42.480,29.785,10.742,14.160,0
149966.984,27.344,43.457,26.855,24.902,23.926,0
149966.988,41.992,39.062,33.691,37.109,99.121,2
149966.992,41.504,38.574,39.551,36.133,66.406,0
149966.996,31.250,41.504,41.016,25.391,-6.836,0
149967.000,33.691,39.062,42.969,33.691,-25.391,0
149967.004,40.527,41.016,37.109,35.156,-4.395,0
149967.008,36.133,39.062,32.227,28.809,38.086,0
149967.012,36.621,39.551,37.109,34.668,-5.371,0
149967.016,40.527,41.504,38.574,34.180,-15.625,0
149967.018,48.828,37.109,39.062,35.645,65.430,0
149967.021,59.570,37.598,47.363,42.969,98.633,0
149967.025,39.062,39.551,42.480,30.762,41.016,0
149967.029,10.254,40.039,33.203,20.020,-11.230,0
149967.033,13.672,36.621,36.133,21.484,65.430,0
149967.037,22.461,32.227,41.016,25.879,127.441,0
149967.041,23.926,31.250,37.598,22.949,47.363,0
149967.045,27.832,36.133,33.691,14.160,-51.758,0
149967.049,24.902,37.109,36.621,19.043,11.230,0
149967.053,21.484,32.715,37.598,27.344,125.977,0
149967.057,21.973,37.109,37.109,23.926,72.754,0
149967.061,25.879,37.109,40.039,25.391,-20.020,0
149967.063,29.785,29.785,42.480,33.691,29.297,0
149967.066,36.621,36.621,39.551,40.039,83.496,0
149967.070,37.109,42.480,35.156,37.598,63.477,0
149967.074,38.574,32.227,40.527,27.832,-3.906,0
149967.078,33.203,24.414,43.945,23.438,-12.695,0
149967.082,25.879,28.320,39.062,21.973,39.551,0
149967.086,22.949,37.109,32.227,11.719,22.461,0
149967.090,13.672,41.504,32.227,8.301,-15.137,0
149967.094,10.742,37.598,37.109,19.043,-1.465,0
149967.098,18.066,41.016,35.156,29.297,62.500,0
149967.102,25.879,41.504,29.297,35.156,78.613,0
149967.106,21.484,32.715,35.156,30.762,39.062,0
149967.109,16.113,27.832,38.574,27.344,26.367,0
149967.113,18.066,31.250,38.574,34.668,11.719,0
149967.117,25.879,31.738,41.992,34.180,7.324,0
149967.121,32.715,31.738,42.480,32.715,-4.395,0
149967.125,23.438,34.180,43.457,27.344,-14.160,0
149967.129,15.625,32.715,48.340,29.297,15.625,0
149967.132,32.715,38.086,43.457,34.668,52.734,0
149967.136,35.645,40.039,35.156,29.785,60.059,0
149967.140,30.273,40.039,35.156,28.809,-15.137,0
149967.144,29.785,37.598,32.715,36.133,-53.711,0
149967.148,31.738,34.668,30.762,42.480,26.855,0
149967.152,44.922,36.133,32.715,36.621,51.758,0
149967.168,43.945,35.156,41.016,28.320,25.391,0
149967.172,20.508,30.762,41.016,29.297,41.016,0
149967.176,19.531,25.879,36.621,33.203,39.062,0
149967.180,36.133,28.809,40.527,27.344,64.941,0
149967.183,31.250,27.832,44.922,22.949,71.777,0
149967.187,15.137,35.645,40.527,26.367,-30.762,0
149967.191,13.184,43.945,32.715,33.203,-59.082,0
149967.195,33.203,41.992,31.250,33.691,69.824,0
149967.199,35.645,36.133,34.668,26.367,75.684,0
149967.203,33.203,35.156,39.551,27.344,0.000,0
149967.207,39.062,43.457,44.922,34.668,-9.277,0
149967.211,45.410,41.992,41.992,40.039,24.414,0
149967.214,50.293,27.832,34.668,41.016,38.086,0
149967.218,40.039,22.461,33.691,30.273,-5.371,0
149967.221,30.762,27.832,35.645,25.391,-21.973,0
149967.225,42.969,41.016,42.969,35.156,25.879,0
149967.229,37.598,46.387,41.016,34.180,94.727,0
149967.233,13.184,39.551,35.156,23.926,67.871,0
149967.237,13.184,32.715,40.039,25.879,8.301,0
149967.241,25.391,31.738,36.621,32.715,4.883,0
149967.245,29.785,24.414,31.250,29.297,49.316,0
149967.249,29.785,18.066,34.668,16.113,20.996,0
149967.253,18.066,27.344,42.969,20.996,-15.137,0
149967.257,27.344,30.762,45.410,27.832,23.926,0
149967.258,41.992,32.715,44.922,19.043,66.895,0
149967.262,32.715,41.016,48.340,27.832,51.270,0
149967.266,24.414,41.504,44.434,30.762,-7.812,0
149967.270,16.602,39.062,32.715,27.344,1.953,0
149967.274,33.203,43.457,27.832,38.086,67.871,0
149967.278,35.156,38.086,25.879,38.574,67.871,0
149967.282,0.977,25.391,35.645,7.812,10.254,0
149967.286,3.906,24.902,45.898,12.207,-14.648,0
149967.290,29.297,34.180,47.363,37.598,26.855,0
149967.294,38.086,35.156,50.781,30.762,74.707,0
149967.297,30.762,32.715,44.434,19.043,59.082,0
149967.301,22.461,31.738,41.504,9.766,9.766,0
149967.303,36.621,39.551,40.527,19.043,35.645,0
149967.307,35.156,45.410,32.715,29.297,110.840,0
149967.311,25.391,39.062,35.156,27.832,110.840,0
149967.315,28.809,33.203,42.480,26.855,34.180,0
149967.319,30.762,33.691,32.715,30.273,23.438,0
149967.323,34.180,33.203,25.391,42.480,63.477,0
149967.327,37.598,31.250,27.344,44.922,55.176,0
149967.330,38.574,31.738,29.785,24.414,17.090,0
149967.334,38.086,38.574,33.691,17.090,-34.180,0
149967.338,39.062,43.945,36.621,24.902,36.621,0
149967.342,34.668,43.457,39.062,24.902,108.398,0
149967.346,26.855,44.434,44.434,25.391,46.387,0
149967.350,29.297,39.062,44.434,26.367,-32.227,0
149967.354,42.480,35.645,42.480,36.133,36.621,0
149967.358,46.387,40.039,41.504,38.086,116.699,0
149967.362,36.621,35.645,33.203,23.926,39.062,0
149967.366,30.762,40.527,27.832,20.508,-43.457,0
149967.370,30.762,34.180,28.320,30.273,11.719,0
149967.374,38.086,18.555,34.180,37.109,132.324,0
149967.378,36.133,31.250,35.645,35.156,91.797,0
149967.382,21.973,41.016,39.062,26.855,-33.691,0
149967.386,23.438,33.691,45.410,21.484,7.324,0
149967.390,46.387,37.598,47.363,37.598,106.445,0
149967.393,59.570,47.363,47.852,47.363,69.824,0
149967.393,39.062,44.922,41.992,35.645,0.488,0
149967.397,25.879,44.434,33.691,40.039,-26.367,0
149967.401,29.785,46.875,34.180,54.199,41.504,0
149967.404,27.344,45.898,38.574,46.875,83.496,0
149967.408,23.438,42.480,44.922,29.785,14.648,0
149967.412,13.672,36.621,49.316,27.832,-27.832,0
149967.416,17.578,33.203,46.875,38.574,36.133,0
149967.420,25.879,32.715,43.945,34.180,62.988,0
149967.424,24.414,35.156,34.180,20.996,30.273,0
149967.428,19.043,40.039,31.738,26.367,17.578,0
149967.432,16.113,39.551,37.598,30.273,-6.836,0
149967.436,33.691,30.762,41.992,30.762,8.789,0
149967.438,30.762,28.320,39.062,21.484,20.996,0
149967.441,8.301,34.180,38.086,17.090,7.324,0
149967.445,18.066,36.133,40.527,31.250,20.508,0
149967.449,36.621,40.039,39.062,38.574,45.410,0
149967.453,32.715,46.875,46.387,36.621,70.801,0
149967.457,19.043,40.527,46.387,30.273,56.152,0
149967.461,14.648,41.504,39.062,31.250,-8.789,0
149967.465,24.902,47.852,31.738,35.645,15.625,0
149967.469,32.227,38.086,30.762,35.645,83.984,0
149967.473,29.297,37.598,36.133,34.668,59.570,0
149967.477,26.367,41.992,37.109,25.879,29.297,0
149967.481,33.203,43.457,38.574,23.926,62.988,0
149967.498,34.180,45.410,34.180,30.762,103.027,0
149967.502,31.738,40.039,38.574,24.902,41.504,0
149967.506,17.578,35.645,42.969,15.625,-29.785,0
149967.509,11.719,34.180,33.203,18.555,-21.973,0
149967.513,28.809,31.250,36.133,31.250,56.641,0
149967.517,31.250,41.016,47.363,44.434,64.453,0
149967.521,17.090,44.434,46.387,29.785,2.930,0
149967.525,17.090,36.133,35.645,17.578,22.949,0
149967.529,39.551,31.250,35.645,32.227,59.082,0
149967.533,39.551,28.320,41.992,29.785,46.387,0
149967.537,24.902,35.156,39.062,20.996,37.598,0
149967.541,31.250,44.434,40.527,31.250,23.438,0
149967.543,44.922,49.805,44.434,39.551,36.621,0
149967.547,42.969,49.316,37.109,35.156,77.148,0
149967.550,31.250,44.922,35.156,29.297,42.969,0
149967.554,23.438,42.969,40.527,28.320,-10.742,0
149967.558,28.809,37.109,41.504,32.715,18.066,0
149967.562,43.457,34.668,42.480,41.992,57.129,0
149967.566,38.574,36.621,46.875,41.992,64.453,0
149967.570,19.531,36.133,49.316,31.738,-21.484,0
149967.574,25.879,36.133,48.828,37.598,-31.738,0
149967.578,45.410,30.273,41.992,46.875,55.176,0
149967.582,41.992,29.785,36.133,37.109,74.707,0
149967.586,29.785,38.086,40.527,28.320,42.969,0
149967.588,27.344,44.922,48.828,35.645,1.953,0
149967.591,30.762,42.480,49.316,39.062,22.461,0
149967.595,35.645,36.621,47.363,26.855,95.215,1
149967.599,25.391,36.133,48.340,25.391,78.613,0
149967.603,10.742,41.992,50.293,35.645,8.301,0
149967.607,23.438,41.016,45.410,46.875,76.660,0
149967.611,37.598,40.527,42.969,44.922,131.348,0
149967.615,33.691,42.480,43.457,34.668,74.219,0
149967.619,28.809,40.527,43.945,31.738,-15.137,0
149967.623,38.086,44.922,39.551,37.598,-22.461,0
149967.627,48.340,42.969,31.738,36.133,56.641,0
149967.631,38.086,42.969,38.574,29.785,31.738,0
149967.633,26.367,48.340,50.781,28.320,-28.320,0
149967.637,32.715,43.457,48.828,25.879,10.254,0
149967.640,40.039,40.039,44.434,29.297,54.199,0
149967.644,41.016,40.527,45.410,31.738,84.961,0
149967.648,31.738,38.086,41.504,24.902,22.949,0
149967.652,32.227,40.527,42.969,28.320,-18.555,0
149967.656,43.945,46.387,50.293,48.828,87.402,0
149967.660,41.992,42.969,50.781,41.016,108.398,0
149967.664,31.250,37.598,45.898,25.879,24.902,0
149967.668,32.715,34.668,37.109,33.203,9.277,0
149967.672,38.086,34.668,31.738,41.016,75.195,0
149967.676,33.691,37.598,38.574,37.598,100.586,0
149967.678,28.809,34.668,43.945,25.391,73.730,0
149967.682,20.996,32.715,41.992,17.090,33.203,0
149967.685,26.855,41.504,44.434,26.855,34.180,0
149967.689,43.457,53.223,47.363,37.598,74.219,0
149967.693,50.293,46.875,44.434,32.715,79.590,0
149967.697,38.574,39.062,42.969,25.879,20.996,0
149967.701,32.227,39.551,41.016,26.855,-7.812,0
149967.705,42.969,37.109,36.133,43.457,22.949,0
149967.709,39.551,40.527,40.039,49.316,-1.465,0
149967.713,29.297,42.969,44.922,35.156,-2.441,0
149967.717,24.902,36.621,44.922,33.203,45.898,0
149967.721,26.367,30.762,45.898,37.109,76.660,0
149967.723,28.320,34.180,48.340,35.156,65.918,0
149967.727,20.020,37.109,48.340,26.367,36.621,0
149967.730,17.090,36.133,44.434,23.438,-19.531,0
149967.734,30.762,46.875,37.109,32.715,36.133,0
149967.738,36.621,48.828,29.785,29.785,143.555,0
149967.742,32.715,37.109,29.785,24.414,73.242,0
149967.746,35.645,42.480,40.039,35.156,0.977,0
149967.750,45.410,49.316,53.223,38.574,-4.395,0
149967.754,40.039,46.387,49.805,34.668,9.277,0
149967.758,28.320,42.480,43.457,37.598,39.062,0
149967.762,22.949,41.016,42.480,28.809,-3.906,0
149967.766,15.625,40.039,35.156,19.043,-27.344,0
149967.768,20.020,36.133,35.645,33.203,52.734,0
149967.772,33.691,35.645,42.480,38.086,83.984,0
149967.776,32.227,40.527,39.062,28.320,28.320,0
149967.780,30.762,38.574,35.645,28.320,-3.906,0
149967.784,28.809,38.086,34.180,30.762,24.902,0
149967.787,34.180,43.457,37.109,30.762,35.156,0
149967.791,38.574,36.621,44.434,24.414,-7.324,0
149967.795,22.949,29.297,44.434,19.531,-36.133,0
149967.799,26.855,34.180,35.645,24.902,15.625,0
149967.803,38.086,45.410,33.691,31.738,91.797,0
149967.807,22.461,46.387,36.133,24.902,73.242,0
149967.811,8.789,38.574,36.621,12.207,-3.418,0
149967.814,18.066,42.480,40.527,22.949,20.020,0
149967.818,39.551,34.668,36.133,35.156,93.750,0
149967.822,45.898,28.809,36.621,28.809,62.012,0
149967.826,36.621,36.621,33.203,24.414,2.441,0
149967.830,25.391,29.297,25.391,34.668,-15.625,0
149967.834,29.785,29.785,34.668,50.781,33.691,0
149967.838,34.668,41.992,41.016,40.527,38.574,0
149967.841,24.414,41.504,43.457,26.855,-16.113,0
149967.845,22.461,36.133,43.457,29.297,-3.906,0
